Data from Uncirc_2001_H10_HRD10591_00088.txt Node
Date: Wed Jan 03 10:44:14 EST 2024
User: Yrep
Spectrometer: HR+D1059
Trigger mode: 1
Integration Time (sec): 1.000000E-1
Scans to average: 1
Electric dark correction enabled: true
Nonlinearity correction enabled: false
Boxcar width: 0
XAxis mode: Wavelengths
Number of Pixels in Spectrum: 2048
>>>>>Begin Spectral Data<<<<<
223.165	-9.56
223.4	-9.56
223.635	-9.56
223.869	-26.56
224.104	-22.56
224.338	-16.56
224.573	-4.56
224.808	-10.56
225.042	-6.56
225.277	-12.56
225.511	-5.56
225.746	-8.56
225.98	5.44
226.215	15.44
226.449	17.44
226.683	25.44
226.918	28.44
227.152	31.44
227.387	33.44
227.621	25.44
227.856	35.44
228.09	38.44
228.324	46.44
228.559	52.44
228.793	46.44
229.027	52.44
229.262	76.44
229.496	76.44
229.73	84.44
229.964	75.44
230.199	81.44
230.433	71.44
230.667	73.44
230.901	67.44
231.136	83.44
231.37	73.44
231.604	79.44
231.838	60.44
232.072	86.44
232.306	81.44
232.541	76.44
232.775	88.44
233.009	73.44
233.243	77.44
233.477	79.44
233.711	72.44
233.945	74.44
234.179	81.44
234.413	70.44
234.647	79.44
234.881	83.44
235.115	78.44
235.349	69.44
235.583	75.44
235.817	79.44
236.051	77.44
236.285	78.44
236.519	81.44
236.753	68.44
236.987	66.44
237.221	89.44
237.455	88.44
237.689	90.44
237.922	80.44
238.156	57.44
238.39	74.44
238.624	75.44
238.858	59.44
239.091	72.44
239.325	83.44
239.559	81.44
239.793	88.44
240.027	84.44
240.26	71.44
240.494	65.44
240.728	76.44
240.961	87.44
241.195	71.44
241.429	72.44
241.662	60.44
241.896	81.44
242.13	73.44
242.363	64.44
242.597	67.44
242.83	77.44
243.064	61.44
243.298	80.44
243.531	73.44
243.765	73.44
243.998	55.44
244.232	71.44
244.465	77.44
244.699	96.44
244.932	73.44
245.166	72.44
245.399	80.44
245.633	72.44
245.866	63.44
246.099	67.44
246.333	84.44
246.566	76.44
246.8	73.44
247.033	69.44
247.266	79.44
247.5	61.44
247.733	86.44
247.966	68.44
248.2	67.44
248.433	90.44
248.666	64.44
248.899	71.44
249.133	88.44
249.366	99.44
249.599	91.44
249.832	71.44
250.066	76.44
250.299	86.44
250.532	68.44
250.765	83.44
250.998	76.44
251.231	71.44
251.465	72.44
251.698	74.44
251.931	79.44
252.164	82.44
252.397	75.44
252.63	70.44
252.863	87.44
253.096	78.44
253.329	75.44
253.562	83.44
253.795	70.44
254.028	80.44
254.261	76.44
254.494	75.44
254.727	82.44
254.96	80.44
255.193	75.44
255.426	90.44
255.659	71.44
255.892	89.44
256.124	75.44
256.357	75.44
256.59	61.44
256.823	87.44
257.056	89.44
257.289	76.44
257.521	87.44
257.754	80.44
257.987	65.44
258.22	98.44
258.452	80.44
258.685	73.44
258.918	81.44
259.151	79.44
259.383	83.44
259.616	75.44
259.849	83.44
260.081	96.44
260.314	83.44
260.547	88.44
260.779	88.44
261.012	69.44
261.244	83.44
261.477	77.44
261.71	83.44
261.942	101.44
262.175	99.44
262.407	87.44
262.64	63.44
262.872	72.44
263.105	76.44
263.337	85.44
263.57	82.44
263.802	79.44
264.035	87.44
264.267	83.44
264.499	82.44
264.732	74.44
264.964	88.44
265.197	83.44
265.429	77.44
265.661	84.44
265.894	81.44
266.126	87.44
266.358	87.44
266.591	88.44
266.823	78.44
267.055	84.44
267.287	83.44
267.52	77.44
267.752	91.44
267.984	93.44
268.216	82.44
268.448	92.44
268.681	72.44
268.913	71.44
269.145	90.44
269.377	74.44
269.609	70.44
269.841	88.44
270.073	87.44
270.306	72.44
270.538	81.44
270.77	81.44
271.002	78.44
271.234	81.44
271.466	87.44
271.698	75.44
271.93	77.44
272.162	76.44
272.394	80.44
272.626	92.44
272.858	88.44
273.09	77.44
273.322	86.44
273.553	86.44
273.785	89.44
274.017	86.44
274.249	89.44
274.481	71.44
274.713	75.44
274.945	92.44
275.176	79.44
275.408	80.44
275.64	86.44
275.872	65.44
276.104	102.44
276.335	84.44
276.567	94.44
276.799	103.44
277.031	87.44
277.262	91.44
277.494	84.44
277.726	92.44
277.957	81.44
278.189	69.44
278.421	77.44
278.652	77.44
278.884	75.44
279.115	80.44
279.347	91.44
279.579	85.44
279.81	90.44
280.042	81.44
280.273	84.44
280.505	84.44
280.736	95.44
280.968	82.44
281.199	76.44
281.431	80.44
281.662	80.44
281.894	83.44
282.125	85.44
282.356	107.44
282.588	139.44
282.819	95.44
283.051	93.44
283.282	86.44
283.513	90.44
283.745	82.44
283.976	94.44
284.207	84.44
284.439	90.44
284.67	94.44
284.901	89.44
285.132	78.44
285.364	84.44
285.595	93.44
285.826	82.44
286.057	93.44
286.288	84.44
286.52	89.44
286.751	81.44
286.982	85.44
287.213	86.44
287.444	109.44
287.675	73.44
287.906	91.44
288.138	81.44
288.369	84.44
288.6	82.44
288.831	96.44
289.062	96.44
289.293	80.44
289.524	81.44
289.755	83.44
289.986	74.44
290.217	90.44
290.448	64.44
290.679	77.44
290.91	82.44
291.141	86.44
291.371	86.44
291.602	93.44
291.833	83.44
292.064	99.44
292.295	81.44
292.526	86.44
292.757	88.44
292.987	97.44
293.218	83.44
293.449	92.44
293.68	81.44
293.91	77.44
294.141	84.44
294.372	93.44
294.603	93.44
294.833	88.44
295.064	81.44
295.295	86.44
295.525	89.44
295.756	95.44
295.987	109.44
296.217	136.44
296.448	113.44
296.679	96.44
296.909	82.44
297.14	84.44
297.37	89.44
297.601	89.44
297.831	74.44
298.062	104.44
298.292	80.44
298.523	108.44
298.753	87.44
298.984	97.44
299.214	79.44
299.445	98.44
299.675	85.44
299.905	100.44
300.136	93.44
300.366	92.44
300.597	83.44
300.827	95.44
301.057	95.44
301.288	89.44
301.518	88.44
301.748	91.44
301.979	97.44
302.209	85.44
302.439	88.44
302.669	85.44
302.9	85.44
303.13	70.44
303.36	86.44
303.59	109.44
303.82	102.44
304.051	85.44
304.281	87.44
304.511	75.44
304.741	95.44
304.971	70.44
305.201	89.44
305.431	96.44
305.661	92.44
305.891	89.44
306.121	84.44
306.352	92.44
306.582	99.44
306.812	97.44
307.042	89.44
307.272	102.44
307.502	87.44
307.731	95.44
307.961	96.44
308.191	90.44
308.421	85.44
308.651	80.44
308.881	98.44
309.111	97.44
309.341	101.44
309.571	98.44
309.8	86.44
310.03	96.44
310.26	82.44
310.49	89.44
310.72	110.44
310.949	101.44
311.179	99.44
311.409	95.44
311.639	85.44
311.868	71.44
312.098	86.44
312.328	95.44
312.557	93.44
312.787	100.44
313.017	100.44
313.246	100.44
313.476	83.44
313.706	97.44
313.935	93.44
314.165	84.44
314.394	80.44
314.624	80.44
314.853	97.44
315.083	94.44
315.312	71.44
315.542	96.44
315.771	84.44
316.001	84.44
316.23	86.44
316.46	78.44
316.689	86.44
316.919	87.44
317.148	96.44
317.377	87.44
317.607	87.44
317.836	85.44
318.065	82.44
318.295	85.44
318.524	89.44
318.753	86.44
318.983	84.44
319.212	96.44
319.441	109.44
319.67	117.44
319.9	99.44
320.129	88.44
320.358	93.44
320.587	96.44
320.816	97.44
321.046	101.44
321.275	99.44
321.504	83.44
321.733	83.44
321.962	94.44
322.191	89.44
322.42	95.44
322.649	112.44
322.878	104.44
323.108	97.44
323.337	123.44
323.566	136.44
323.795	126.44
324.024	193.44
324.253	371.44
324.482	749.44
324.71	1550.44
324.939	1950.44
325.168	724.44
325.397	233.44
325.626	132.44
325.855	123.44
326.084	120.44
326.313	127.44
326.542	130.44
326.77	215.44
326.999	429.44
327.228	857.44
327.457	1503.44
327.686	1181.44
327.914	304.44
328.143	191.44
328.372	152.44
328.6	125.44
328.829	104.44
329.058	128.44
329.287	115.44
329.515	100.44
329.744	98.44
329.972	94.44
330.201	104.44
330.43	108.44
330.658	99.44
330.887	125.44
331.115	120.44
331.344	89.44
331.572	94.44
331.801	107.44
332.03	107.44
332.258	98.44
332.486	97.44
332.715	83.44
332.943	93.44
333.172	92.44
333.4	96.44
333.629	115.44
333.857	102.44
334.085	104.44
334.314	94.44
334.542	82.44
334.771	88.44
334.999	89.44
335.227	91.44
335.455	93.44
335.684	93.44
335.912	99.44
336.14	94.44
336.369	89.44
336.597	115.44
336.825	90.44
337.053	98.44
337.281	96.44
337.51	81.44
337.738	92.44
337.966	80.44
338.194	93.44
338.422	83.44
338.65	90.44
338.878	79.44
339.106	80.44
339.334	83.44
339.562	93.44
339.79	88.44
340.018	92.44
340.246	96.44
340.474	92.44
340.702	92.44
340.93	76.44
341.158	91.44
341.386	85.44
341.614	98.44
341.842	74.44
342.07	86.44
342.298	93.44
342.526	86.44
342.754	81.44
342.981	90.44
343.209	85.44
343.437	85.44
343.665	88.44
343.893	83.44
344.12	106.44
344.348	76.44
344.576	91.44
344.804	92.44
345.031	107.44
345.259	95.44
345.487	91.44
345.714	87.44
345.942	94.44
346.17	89.44
346.397	87.44
346.625	109.44
346.853	89.44
347.08	90.44
347.308	81.44
347.535	87.44
347.763	85.44
347.99	97.44
348.218	101.44
348.445	107.44
348.673	111.44
348.9	81.44
349.128	98.44
349.355	90.44
349.583	94.44
349.81	85.44
350.037	96.44
350.265	91.44
350.492	93.44
350.72	97.44
350.947	109.44
351.174	106.44
351.402	102.44
351.629	100.44
351.856	97.44
352.083	101.44
352.311	101.44
352.538	104.44
352.765	104.44
352.992	99.44
353.22	99.44
353.447	96.44
353.674	93.44
353.901	86.44
354.128	88.44
354.355	91.44
354.583	89.44
354.81	98.44
355.037	87.44
355.264	83.44
355.491	94.44
355.718	71.44
355.945	91.44
356.172	84.44
356.399	80.44
356.626	91.44
356.853	94.44
357.08	87.44
357.307	97.44
357.534	83.44
357.761	100.44
357.988	91.44
358.215	103.44
358.441	78.44
358.668	85.44
358.895	87.44
359.122	87.44
359.349	76.44
359.576	78.44
359.802	96.44
360.029	99.44
360.256	102.44
360.483	86.44
360.709	89.44
360.936	97.44
361.163	92.44
361.39	94.44
361.616	89.44
361.843	94.44
362.07	88.44
362.296	96.44
362.523	92.44
362.749	76.44
362.976	94.44
363.203	93.44
363.429	79.44
363.656	74.44
363.882	77.44
364.109	92.44
364.335	88.44
364.562	83.44
364.788	84.44
365.015	99.44
365.241	89.44
365.468	98.44
365.694	102.44
365.92	87.44
366.147	78.44
366.373	96.44
366.599	97.44
366.826	91.44
367.052	92.44
367.278	82.44
367.505	79.44
367.731	76.44
367.957	77.44
368.184	100.44
368.41	92.44
368.636	121.44
368.862	113.44
369.089	107.44
369.315	64.44
369.541	83.44
369.767	86.44
369.993	79.44
370.219	77.44
370.445	89.44
370.672	81.44
370.898	75.44
371.124	81.44
371.35	81.44
371.576	83.44
371.802	85.44
372.028	89.44
372.254	57.44
372.48	94.44
372.706	75.44
372.932	86.44
373.158	101.44
373.384	85.44
373.61	98.44
373.835	69.44
374.061	76.44
374.287	94.44
374.513	86.44
374.739	83.44
374.965	78.44
375.191	88.44
375.416	78.44
375.642	85.44
375.868	68.44
376.094	91.44
376.319	77.44
376.545	77.44
376.771	98.44
376.997	88.44
377.222	89.44
377.448	77.44
377.674	80.44
377.899	76.44
378.125	85.44
378.35	73.44
378.576	87.44
378.802	96.44
379.027	70.44
379.253	91.44
379.478	85.44
379.704	77.44
379.929	85.44
380.155	104.44
380.38	96.44
380.606	74.44
380.831	88.44
381.057	91.44
381.282	83.44
381.507	91.44
381.733	95.44
381.958	92.44
382.184	82.44
382.409	91.44
382.634	90.44
382.86	98.44
383.085	96.44
383.31	85.44
383.535	103.44
383.761	82.44
383.986	93.44
384.211	77.44
384.436	103.44
384.662	88.44
384.887	75.44
385.112	96.44
385.337	102.44
385.562	96.44
385.787	98.44
386.013	110.44
386.238	90.44
386.463	99.44
386.688	99.44
386.913	86.44
387.138	86.44
387.363	98.44
387.588	93.44
387.813	94.44
388.038	101.44
388.263	98.44
388.488	108.44
388.713	98.44
388.938	85.44
389.163	83.44
389.387	72.44
389.612	88.44
389.837	93.44
390.062	87.44
390.287	87.44
390.512	98.44
390.736	91.44
390.961	81.44
391.186	86.44
391.411	95.44
391.636	96.44
391.86	86.44
392.085	79.44
392.31	80.44
392.534	77.44
392.759	78.44
392.984	87.44
393.208	81.44
393.433	92.44
393.658	88.44
393.882	84.44
394.107	81.44
394.331	83.44
394.556	93.44
394.78	70.44
395.005	80.44
395.229	81.44
395.454	82.44
395.678	70.44
395.903	87.44
396.127	65.44
396.352	89.44
396.576	70.44
396.801	99.44
397.025	72.44
397.249	79.44
397.474	80.44
397.698	77.44
397.922	78.44
398.147	91.44
398.371	83.44
398.595	72.44
398.82	87.44
399.044	87.44
399.268	69.44
399.492	86.44
399.717	82.44
399.941	92.44
400.165	89.44
400.389	92.44
400.613	83.44
400.837	71.44
401.062	77.44
401.286	69.44
401.51	87.44
401.734	102.44
401.958	89.44
402.182	139.44
402.406	151.44
402.63	112.44
402.854	78.44
403.078	82.44
403.302	77.44
403.526	83.44
403.75	75.44
403.974	87.44
404.198	82.44
404.422	88.44
404.645	82.44
404.869	68.44
405.093	95.44
405.317	93.44
405.541	103.44
405.765	98.44
405.988	111.44
406.212	158.44
406.436	241.44
406.66	156.44
406.883	102.44
407.107	86.44
407.331	102.44
407.555	100.44
407.778	97.44
408.002	85.44
408.226	64.44
408.449	86.44
408.673	82.44
408.896	89.44
409.12	82.44
409.344	87.44
409.567	72.44
409.791	89.44
410.014	89.44
410.238	88.44
410.461	94.44
410.685	76.44
410.908	92.44
411.132	90.44
411.355	90.44
411.578	84.44
411.802	89.44
412.025	63.44
412.249	95.44
412.472	75.44
412.695	86.44
412.919	69.44
413.142	80.44
413.365	84.44
413.589	88.44
413.812	87.44
414.035	82.44
414.258	75.44
414.482	83.44
414.705	88.44
414.928	85.44
415.151	75.44
415.374	90.44
415.597	81.44
415.821	86.44
416.044	83.44
416.267	71.44
416.49	82.44
416.713	88.44
416.936	77.44
417.159	83.44
417.382	104.44
417.605	84.44
417.828	89.44
418.051	82.44
418.274	65.44
418.497	95.44
418.72	75.44
418.943	78.44
419.166	79.44
419.389	79.44
419.611	80.44
419.834	79.44
420.057	78.44
420.28	74.44
420.503	73.44
420.726	73.44
420.948	101.44
421.171	83.44
421.394	94.44
421.617	103.44
421.839	91.44
422.062	85.44
422.285	85.44
422.507	90.44
422.73	97.44
422.953	87.44
423.175	95.44
423.398	83.44
423.621	93.44
423.843	72.44
424.066	90.44
424.288	93.44
424.511	81.44
424.733	98.44
424.956	103.44
425.178	109.44
425.401	105.44
425.623	98.44
425.846	92.44
426.068	93.44
426.291	81.44
426.513	85.44
426.735	89.44
426.958	88.44
427.18	99.44
427.402	130.44
427.625	172.44
427.847	119.44
428.069	99.44
428.292	81.44
428.514	80.44
428.736	76.44
428.958	86.44
429.181	74.44
429.403	78.44
429.625	81.44
429.847	84.44
430.069	92.44
430.292	72.44
430.514	86.44
430.736	72.44
430.958	88.44
431.18	82.44
431.402	102.44
431.624	82.44
431.846	70.44
432.068	86.44
432.29	80.44
432.512	80.44
432.734	93.44
432.956	92.44
433.178	88.44
433.4	78.44
433.622	75.44
433.844	89.44
434.066	85.44
434.287	81.44
434.509	79.44
434.731	78.44
434.953	84.44
435.175	84.44
435.397	72.44
435.618	82.44
435.84	93.44
436.062	112.44
436.284	112.44
436.505	87.44
436.727	98.44
436.949	90.44
437.17	84.44
437.392	88.44
437.614	89.44
437.835	89.44
438.057	119.44
438.278	103.44
438.5	103.44
438.721	113.44
438.943	99.44
439.165	96.44
439.386	77.44
439.608	79.44
439.829	94.44
440.05	120.44
440.272	119.44
440.493	89.44
440.715	87.44
440.936	81.44
441.158	70.44
441.379	84.44
441.6	91.44
441.822	80.44
442.043	83.44
442.264	106.44
442.486	111.44
442.707	86.44
442.928	95.44
443.149	120.44
443.371	110.44
443.592	104.44
443.813	119.44
444.034	99.44
444.255	93.44
444.476	82.44
444.698	91.44
444.919	99.44
445.14	120.44
445.361	103.44
445.582	96.44
445.803	137.44
446.024	141.44
446.245	115.44
446.466	114.44
446.687	87.44
446.908	83.44
447.129	86.44
447.35	73.44
447.571	74.44
447.792	92.44
448.013	88.44
448.234	104.44
448.455	88.44
448.675	101.44
448.896	113.44
449.117	103.44
449.338	108.44
449.559	110.44
449.779	123.44
450	85.44
450.221	88.44
450.442	88.44
450.662	97.44
450.883	94.44
451.104	100.44
451.324	101.44
451.545	84.44
451.766	80.44
451.986	92.44
452.207	87.44
452.428	90.44
452.648	92.44
452.869	112.44
453.089	115.44
453.31	113.44
453.53	94.44
453.751	95.44
453.971	106.44
454.192	113.44
454.412	98.44
454.633	79.44
454.853	91.44
455.073	81.44
455.294	80.44
455.514	91.44
455.734	89.44
455.955	95.44
456.175	94.44
456.395	84.44
456.616	77.44
456.836	88.44
457.056	72.44
457.276	72.44
457.497	88.44
457.717	79.44
457.937	93.44
458.157	81.44
458.377	89.44
458.598	115.44
458.818	163.44
459.038	166.44
459.258	113.44
459.478	78.44
459.698	84.44
459.918	82.44
460.138	82.44
460.358	81.44
460.578	89.44
460.798	89.44
461.018	76.44
461.238	77.44
461.458	70.44
461.678	85.44
461.898	77.44
462.118	75.44
462.338	70.44
462.558	75.44
462.777	82.44
462.997	91.44
463.217	73.44
463.437	74.44
463.657	79.44
463.876	88.44
464.096	71.44
464.316	85.44
464.536	94.44
464.755	84.44
464.975	100.44
465.195	165.44
465.414	161.44
465.634	100.44
465.854	79.44
466.073	75.44
466.293	67.44
466.512	72.44
466.732	94.44
466.951	86.44
467.171	83.44
467.391	83.44
467.61	96.44
467.829	90.44
468.049	89.44
468.268	84.44
468.488	75.44
468.707	78.44
468.927	69.44
469.146	81.44
469.365	98.44
469.585	85.44
469.804	98.44
470.023	85.44
470.243	82.44
470.462	83.44
470.681	102.44
470.901	72.44
471.12	85.44
471.339	83.44
471.558	72.44
471.777	88.44
471.997	68.44
472.216	87.44
472.435	93.44
472.654	80.44
472.873	78.44
473.092	70.44
473.311	87.44
473.53	99.44
473.749	91.44
473.968	93.44
474.187	103.44
474.406	97.44
474.625	85.44
474.844	92.44
475.063	82.44
475.282	75.44
475.501	81.44
475.72	61.44
475.939	71.44
476.158	76.44
476.377	94.44
476.596	82.44
476.814	86.44
477.033	95.44
477.252	91.44
477.471	81.44
477.69	93.44
477.908	77.44
478.127	88.44
478.346	90.44
478.564	87.44
478.783	99.44
479.002	99.44
479.22	86.44
479.439	87.44
479.658	83.44
479.876	98.44
480.095	87.44
480.313	91.44
480.532	87.44
480.751	88.44
480.969	92.44
481.188	99.44
481.406	97.44
481.624	75.44
481.843	79.44
482.061	81.44
482.28	86.44
482.498	81.44
482.717	100.44
482.935	87.44
483.153	77.44
483.372	83.44
483.59	89.44
483.808	84.44
484.027	94.44
484.245	95.44
484.463	80.44
484.681	95.44
484.9	77.44
485.118	91.44
485.336	90.44
485.554	90.44
485.772	97.44
485.99	108.44
486.209	93.44
486.427	91.44
486.645	103.44
486.863	105.44
487.081	98.44
487.299	89.44
487.517	94.44
487.735	89.44
487.953	88.44
488.171	98.44
488.389	86.44
488.607	83.44
488.825	86.44
489.043	85.44
489.261	95.44
489.479	86.44
489.696	86.44
489.914	78.44
490.132	78.44
490.35	98.44
490.568	96.44
490.786	94.44
491.003	100.44
491.221	90.44
491.439	89.44
491.657	76.44
491.874	96.44
492.092	98.44
492.31	91.44
492.527	78.44
492.745	88.44
492.963	89.44
493.18	75.44
493.398	87.44
493.615	77.44
493.833	87.44
494.05	97.44
494.268	87.44
494.485	82.44
494.703	87.44
494.92	77.44
495.138	94.44
495.355	78.44
495.573	88.44
495.79	80.44
496.008	93.44
496.225	87.44
496.442	81.44
496.66	94.44
496.877	91.44
497.094	69.44
497.312	96.44
497.529	73.44
497.746	90.44
497.963	102.44
498.181	79.44
498.398	90.44
498.615	106.44
498.832	80.44
499.049	82.44
499.267	87.44
499.484	84.44
499.701	91.44
499.918	74.44
500.135	91.44
500.352	88.44
500.569	101.44
500.786	86.44
501.003	81.44
501.22	93.44
501.437	88.44
501.654	88.44
501.871	95.44
502.088	101.44
502.305	97.44
502.522	87.44
502.739	89.44
502.956	97.44
503.172	89.44
503.389	86.44
503.606	111.44
503.823	101.44
504.04	81.44
504.256	96.44
504.473	93.44
504.69	101.44
504.907	87.44
505.123	89.44
505.34	83.44
505.557	85.44
505.773	88.44
505.99	93.44
506.207	82.44
506.423	91.44
506.64	82.44
506.856	76.44
507.073	72.44
507.289	88.44
507.506	96.44
507.722	105.44
507.939	110.44
508.155	92.44
508.372	92.44
508.588	100.44
508.805	83.44
509.021	88.44
509.238	89.44
509.454	107.44
509.67	91.44
509.887	98.44
510.103	121.44
510.319	230.44
510.536	796.44
510.752	2543.44
510.968	693.44
511.184	153.44
511.401	109.44
511.617	94.44
511.833	78.44
512.049	88.44
512.265	89.44
512.481	90.44
512.698	93.44
512.914	93.44
513.13	84.44
513.346	89.44
513.562	95.44
513.778	85.44
513.994	90.44
514.21	94.44
514.426	125.44
514.642	137.44
514.858	126.44
515.074	163.44
515.29	502.44
515.506	1616.44
515.721	583.44
515.937	155.44
516.153	98.44
516.369	94.44
516.585	88.44
516.801	88.44
517.016	79.44
517.232	87.44
517.448	91.44
