Data from Uncirc_2001_H10_HRD10591_00060.txt Node
Date: Wed Jan 03 10:44:08 EST 2024
User: Yrep
Spectrometer: HR+D1059
Trigger mode: 1
Integration Time (sec): 1.000000E-1
Scans to average: 1
Electric dark correction enabled: true
Nonlinearity correction enabled: false
Boxcar width: 0
XAxis mode: Wavelengths
Number of Pixels in Spectrum: 2048
>>>>>Begin Spectral Data<<<<<
223.165	-18.88
223.4	-18.88
223.635	-18.88
223.869	-19.88
224.104	-29.88
224.338	-19.88
224.573	0.12
224.808	-12.88
225.042	9.12
225.277	-13.88
225.511	-2.88
225.746	-1.88
225.98	-8.88
226.215	16.12
226.449	17.12
226.683	26.12
226.918	30.12
227.152	30.12
227.387	28.12
227.621	47.12
227.856	58.12
228.09	39.12
228.324	48.12
228.559	58.12
228.793	60.12
229.027	69.12
229.262	81.12
229.496	64.12
229.73	81.12
229.964	79.12
230.199	80.12
230.433	68.12
230.667	71.12
230.901	69.12
231.136	76.12
231.37	92.12
231.604	68.12
231.838	70.12
232.072	85.12
232.306	81.12
232.541	83.12
232.775	87.12
233.009	73.12
233.243	79.12
233.477	84.12
233.711	71.12
233.945	91.12
234.179	75.12
234.413	80.12
234.647	95.12
234.881	69.12
235.115	86.12
235.349	71.12
235.583	64.12
235.817	93.12
236.051	87.12
236.285	82.12
236.519	83.12
236.753	72.12
236.987	65.12
237.221	88.12
237.455	95.12
237.689	67.12
237.922	75.12
238.156	71.12
238.39	90.12
238.624	79.12
238.858	80.12
239.091	72.12
239.325	58.12
239.559	79.12
239.793	63.12
240.027	72.12
240.26	83.12
240.494	78.12
240.728	77.12
240.961	79.12
241.195	88.12
241.429	67.12
241.662	80.12
241.896	76.12
242.13	58.12
242.363	75.12
242.597	77.12
242.83	79.12
243.064	77.12
243.298	76.12
243.531	87.12
243.765	86.12
243.998	71.12
244.232	85.12
244.465	92.12
244.699	82.12
244.932	74.12
245.166	66.12
245.399	83.12
245.633	79.12
245.866	87.12
246.099	81.12
246.333	81.12
246.566	83.12
246.8	81.12
247.033	75.12
247.266	83.12
247.5	79.12
247.733	76.12
247.966	80.12
248.2	71.12
248.433	83.12
248.666	76.12
248.899	89.12
249.133	83.12
249.366	98.12
249.599	93.12
249.832	79.12
250.066	85.12
250.299	69.12
250.532	73.12
250.765	84.12
250.998	79.12
251.231	74.12
251.465	79.12
251.698	83.12
251.931	68.12
252.164	77.12
252.397	80.12
252.63	100.12
252.863	95.12
253.096	85.12
253.329	68.12
253.562	89.12
253.795	66.12
254.028	72.12
254.261	87.12
254.494	83.12
254.727	91.12
254.96	74.12
255.193	70.12
255.426	87.12
255.659	89.12
255.892	91.12
256.124	87.12
256.357	90.12
256.59	79.12
256.823	76.12
257.056	68.12
257.289	68.12
257.521	96.12
257.754	92.12
257.987	73.12
258.22	83.12
258.452	82.12
258.685	81.12
258.918	80.12
259.151	83.12
259.383	85.12
259.616	67.12
259.849	73.12
260.081	75.12
260.314	77.12
260.547	88.12
260.779	88.12
261.012	98.12
261.244	93.12
261.477	99.12
261.71	99.12
261.942	108.12
262.175	119.12
262.407	83.12
262.64	102.12
262.872	82.12
263.105	79.12
263.337	77.12
263.57	91.12
263.802	79.12
264.035	80.12
264.267	83.12
264.499	88.12
264.732	86.12
264.964	74.12
265.197	83.12
265.429	83.12
265.661	80.12
265.894	76.12
266.126	71.12
266.358	86.12
266.591	85.12
266.823	78.12
267.055	85.12
267.287	87.12
267.52	79.12
267.752	83.12
267.984	83.12
268.216	79.12
268.448	84.12
268.681	72.12
268.913	74.12
269.145	86.12
269.377	93.12
269.609	84.12
269.841	60.12
270.073	77.12
270.306	85.12
270.538	93.12
270.77	87.12
271.002	80.12
271.234	87.12
271.466	79.12
271.698	93.12
271.93	86.12
272.162	80.12
272.394	83.12
272.626	100.12
272.858	93.12
273.09	85.12
273.322	84.12
273.553	85.12
273.785	73.12
274.017	91.12
274.249	88.12
274.481	75.12
274.713	75.12
274.945	96.12
275.176	74.12
275.408	91.12
275.64	82.12
275.872	86.12
276.104	89.12
276.335	100.12
276.567	109.12
276.799	87.12
277.031	100.12
277.262	78.12
277.494	81.12
277.726	87.12
277.957	82.12
278.189	90.12
278.421	77.12
278.652	64.12
278.884	99.12
279.115	81.12
279.347	82.12
279.579	91.12
279.81	83.12
280.042	83.12
280.273	73.12
280.505	85.12
280.736	83.12
280.968	88.12
281.199	92.12
281.431	71.12
281.662	97.12
281.894	94.12
282.125	106.12
282.356	109.12
282.588	131.12
282.819	121.12
283.051	94.12
283.282	89.12
283.513	87.12
283.745	94.12
283.976	91.12
284.207	79.12
284.439	87.12
284.67	94.12
284.901	79.12
285.132	82.12
285.364	76.12
285.595	86.12
285.826	89.12
286.057	99.12
286.288	87.12
286.52	87.12
286.751	77.12
286.982	101.12
287.213	94.12
287.444	84.12
287.675	99.12
287.906	100.12
288.138	94.12
288.369	105.12
288.6	84.12
288.831	84.12
289.062	89.12
289.293	96.12
289.524	77.12
289.755	90.12
289.986	85.12
290.217	72.12
290.448	96.12
290.679	88.12
290.91	81.12
291.141	97.12
291.371	87.12
291.602	80.12
291.833	76.12
292.064	91.12
292.295	80.12
292.526	96.12
292.757	91.12
292.987	90.12
293.218	85.12
293.449	82.12
293.68	86.12
293.91	92.12
294.141	93.12
294.372	72.12
294.603	84.12
294.833	92.12
295.064	88.12
295.295	87.12
295.525	89.12
295.756	89.12
295.987	112.12
296.217	145.12
296.448	134.12
296.679	89.12
296.909	87.12
297.14	80.12
297.37	74.12
297.601	86.12
297.831	92.12
298.062	87.12
298.292	76.12
298.523	93.12
298.753	81.12
298.984	93.12
299.214	99.12
299.445	89.12
299.675	111.12
299.905	85.12
300.136	92.12
300.366	99.12
300.597	89.12
300.827	80.12
301.057	92.12
301.288	105.12
301.518	94.12
301.748	93.12
301.979	86.12
302.209	85.12
302.439	76.12
302.669	79.12
302.9	95.12
303.13	111.12
303.36	100.12
303.59	98.12
303.82	100.12
304.051	92.12
304.281	98.12
304.511	83.12
304.741	88.12
304.971	84.12
305.201	90.12
305.431	92.12
305.661	90.12
305.891	99.12
306.121	97.12
306.352	114.12
306.582	117.12
306.812	91.12
307.042	86.12
307.272	83.12
307.502	95.12
307.731	96.12
307.961	87.12
308.191	96.12
308.421	83.12
308.651	87.12
308.881	96.12
309.111	91.12
309.341	89.12
309.571	82.12
309.8	83.12
310.03	81.12
310.26	95.12
310.49	94.12
310.72	103.12
310.949	112.12
311.179	102.12
311.409	104.12
311.639	106.12
311.868	103.12
312.098	96.12
312.328	98.12
312.557	88.12
312.787	88.12
313.017	112.12
313.246	98.12
313.476	105.12
313.706	97.12
313.935	90.12
314.165	104.12
314.394	97.12
314.624	89.12
314.853	92.12
315.083	100.12
315.312	81.12
315.542	96.12
315.771	104.12
316.001	92.12
316.23	85.12
316.46	90.12
316.689	82.12
316.919	83.12
317.148	101.12
317.377	99.12
317.607	106.12
317.836	97.12
318.065	82.12
318.295	67.12
318.524	86.12
318.753	87.12
318.983	87.12
319.212	92.12
319.441	105.12
319.67	110.12
319.9	109.12
320.129	101.12
320.358	94.12
320.587	102.12
320.816	97.12
321.046	100.12
321.275	88.12
321.504	110.12
321.733	110.12
321.962	89.12
322.191	97.12
322.42	104.12
322.649	110.12
322.878	114.12
323.108	122.12
323.337	123.12
323.566	131.12
323.795	149.12
324.024	218.12
324.253	367.12
324.482	745.12
324.71	1567.12
324.939	1972.12
325.168	749.12
325.397	242.12
325.626	165.12
325.855	132.12
326.084	136.12
326.313	120.12
326.542	135.12
326.77	207.12
326.999	433.12
327.228	869.12
327.457	1502.12
327.686	1152.12
327.914	354.12
328.143	180.12
328.372	161.12
328.6	118.12
328.829	122.12
329.058	123.12
329.287	112.12
329.515	109.12
329.744	107.12
329.972	114.12
330.201	96.12
330.43	114.12
330.658	116.12
330.887	142.12
331.115	115.12
331.344	101.12
331.572	113.12
331.801	111.12
332.03	105.12
332.258	94.12
332.486	100.12
332.715	107.12
332.943	90.12
333.172	91.12
333.4	106.12
333.629	103.12
333.857	119.12
334.085	104.12
334.314	104.12
334.542	86.12
334.771	107.12
334.999	101.12
335.227	96.12
335.455	92.12
335.684	96.12
335.912	90.12
336.14	97.12
336.369	104.12
336.597	103.12
336.825	101.12
337.053	76.12
337.281	105.12
337.51	77.12
337.738	116.12
337.966	78.12
338.194	103.12
338.422	87.12
338.65	93.12
338.878	93.12
339.106	85.12
339.334	78.12
339.562	92.12
339.79	80.12
340.018	80.12
340.246	95.12
340.474	94.12
340.702	85.12
340.93	99.12
341.158	85.12
341.386	90.12
341.614	96.12
341.842	87.12
342.07	80.12
342.298	87.12
342.526	92.12
342.754	91.12
342.981	99.12
343.209	85.12
343.437	99.12
343.665	87.12
343.893	80.12
344.12	86.12
344.348	92.12
344.576	75.12
344.804	95.12
345.031	86.12
345.259	111.12
345.487	97.12
345.714	91.12
345.942	100.12
346.17	90.12
346.397	97.12
346.625	103.12
346.853	96.12
347.08	95.12
347.308	75.12
347.535	89.12
347.763	96.12
347.99	87.12
348.218	92.12
348.445	103.12
348.673	92.12
348.9	104.12
349.128	100.12
349.355	90.12
349.583	101.12
349.81	98.12
350.037	91.12
350.265	90.12
350.492	87.12
350.72	92.12
350.947	101.12
351.174	120.12
351.402	110.12
351.629	103.12
351.856	91.12
352.083	111.12
352.311	116.12
352.538	109.12
352.765	103.12
352.992	118.12
353.22	108.12
353.447	105.12
353.674	99.12
353.901	100.12
354.128	97.12
354.355	90.12
354.583	96.12
354.81	92.12
355.037	99.12
355.264	81.12
355.491	78.12
355.718	111.12
355.945	83.12
356.172	92.12
356.399	103.12
356.626	84.12
356.853	99.12
357.08	97.12
357.307	91.12
357.534	92.12
357.761	76.12
357.988	97.12
358.215	91.12
358.441	98.12
358.668	88.12
358.895	91.12
359.122	96.12
359.349	87.12
359.576	79.12
359.802	101.12
360.029	116.12
360.256	108.12
360.483	100.12
360.709	81.12
360.936	83.12
361.163	78.12
361.39	101.12
361.616	96.12
361.843	106.12
362.07	84.12
362.296	84.12
362.523	84.12
362.749	89.12
362.976	82.12
363.203	83.12
363.429	103.12
363.656	85.12
363.882	96.12
364.109	91.12
364.335	101.12
364.562	105.12
364.788	88.12
365.015	99.12
365.241	98.12
365.468	94.12
365.694	107.12
365.92	101.12
366.147	94.12
366.373	89.12
366.599	96.12
366.826	83.12
367.052	81.12
367.278	102.12
367.505	95.12
367.731	87.12
367.957	83.12
368.184	98.12
368.41	96.12
368.636	123.12
368.862	128.12
369.089	111.12
369.315	99.12
369.541	82.12
369.767	87.12
369.993	93.12
370.219	95.12
370.445	77.12
370.672	87.12
370.898	81.12
371.124	79.12
371.35	88.12
371.576	100.12
371.802	81.12
372.028	94.12
372.254	91.12
372.48	84.12
372.706	83.12
372.932	94.12
373.158	89.12
373.384	77.12
373.61	92.12
373.835	97.12
374.061	92.12
374.287	102.12
374.513	94.12
374.739	98.12
374.965	91.12
375.191	82.12
375.416	99.12
375.642	94.12
375.868	95.12
376.094	85.12
376.319	83.12
376.545	89.12
376.771	89.12
376.997	72.12
377.222	77.12
377.448	94.12
377.674	88.12
377.899	89.12
378.125	84.12
378.35	99.12
378.576	83.12
378.802	87.12
379.027	89.12
379.253	84.12
379.478	86.12
379.704	98.12
379.929	90.12
380.155	103.12
380.38	103.12
380.606	95.12
380.831	92.12
381.057	89.12
381.282	98.12
381.507	93.12
381.733	93.12
381.958	105.12
382.184	88.12
382.409	92.12
382.634	105.12
382.86	98.12
383.085	92.12
383.31	111.12
383.535	87.12
383.761	90.12
383.986	95.12
384.211	84.12
384.436	83.12
384.662	101.12
384.887	98.12
385.112	106.12
385.337	96.12
385.562	92.12
385.787	113.12
386.013	97.12
386.238	110.12
386.463	107.12
386.688	120.12
386.913	99.12
387.138	93.12
387.363	98.12
387.588	80.12
387.813	106.12
388.038	112.12
388.263	108.12
388.488	96.12
388.713	103.12
388.938	95.12
389.163	93.12
389.387	95.12
389.612	99.12
389.837	93.12
390.062	95.12
390.287	84.12
390.512	95.12
390.736	95.12
390.961	100.12
391.186	90.12
391.411	101.12
391.636	103.12
391.86	80.12
392.085	93.12
392.31	92.12
392.534	95.12
392.759	85.12
392.984	83.12
393.208	84.12
393.433	97.12
393.658	83.12
393.882	103.12
394.107	89.12
394.331	96.12
394.556	70.12
394.78	85.12
395.005	89.12
395.229	97.12
395.454	91.12
395.678	80.12
395.903	90.12
396.127	89.12
396.352	96.12
396.576	65.12
396.801	84.12
397.025	93.12
397.249	81.12
397.474	87.12
397.698	92.12
397.922	75.12
398.147	86.12
398.371	85.12
398.595	83.12
398.82	88.12
399.044	90.12
399.268	95.12
399.492	80.12
399.717	84.12
399.941	87.12
400.165	90.12
400.389	85.12
400.613	88.12
400.837	82.12
401.062	98.12
401.286	83.12
401.51	99.12
401.734	81.12
401.958	103.12
402.182	142.12
402.406	169.12
402.63	128.12
402.854	96.12
403.078	90.12
403.302	80.12
403.526	86.12
403.75	83.12
403.974	80.12
404.198	83.12
404.422	95.12
404.645	103.12
404.869	86.12
405.093	107.12
405.317	96.12
405.541	102.12
405.765	122.12
405.988	112.12
406.212	177.12
406.436	239.12
406.66	145.12
406.883	89.12
407.107	99.12
407.331	82.12
407.555	95.12
407.778	101.12
408.002	97.12
408.226	83.12
408.449	73.12
408.673	87.12
408.896	83.12
409.12	101.12
409.344	96.12
409.567	80.12
409.791	95.12
410.014	93.12
410.238	98.12
410.461	91.12
410.685	83.12
410.908	96.12
411.132	100.12
411.355	91.12
411.578	88.12
411.802	84.12
412.025	88.12
412.249	69.12
412.472	69.12
412.695	93.12
412.919	87.12
413.142	75.12
413.365	81.12
413.589	109.12
413.812	89.12
414.035	83.12
414.258	90.12
414.482	91.12
414.705	82.12
414.928	96.12
415.151	93.12
415.374	89.12
415.597	104.12
415.821	82.12
416.044	85.12
416.267	84.12
416.49	88.12
416.713	88.12
416.936	90.12
417.159	87.12
417.382	80.12
417.605	95.12
417.828	93.12
418.051	88.12
418.274	89.12
418.497	76.12
418.72	88.12
418.943	93.12
419.166	77.12
419.389	89.12
419.611	91.12
419.834	83.12
420.057	72.12
420.28	92.12
420.503	66.12
420.726	86.12
420.948	83.12
421.171	85.12
421.394	71.12
421.617	93.12
421.839	89.12
422.062	91.12
422.285	96.12
422.507	94.12
422.73	124.12
422.953	84.12
423.175	86.12
423.398	79.12
423.621	96.12
423.843	81.12
424.066	85.12
424.288	88.12
424.511	88.12
424.733	89.12
424.956	100.12
425.178	109.12
425.401	92.12
425.623	94.12
425.846	95.12
426.068	97.12
426.291	87.12
426.513	81.12
426.735	91.12
426.958	85.12
427.18	104.12
427.402	145.12
427.625	176.12
427.847	141.12
428.069	98.12
428.292	75.12
428.514	82.12
428.736	76.12
428.958	92.12
429.181	84.12
429.403	77.12
429.625	93.12
429.847	88.12
430.069	98.12
430.292	91.12
430.514	78.12
430.736	77.12
430.958	88.12
431.18	92.12
431.402	83.12
431.624	86.12
431.846	87.12
432.068	96.12
432.29	89.12
432.512	96.12
432.734	90.12
432.956	88.12
433.178	85.12
433.4	104.12
433.622	92.12
433.844	91.12
434.066	74.12
434.287	100.12
434.509	79.12
434.731	97.12
434.953	86.12
435.175	92.12
435.397	88.12
435.618	78.12
435.84	90.12
436.062	107.12
436.284	109.12
436.505	109.12
436.727	95.12
436.949	104.12
437.17	98.12
437.392	78.12
437.614	84.12
437.835	114.12
438.057	129.12
438.278	107.12
438.5	112.12
438.721	109.12
438.943	96.12
439.165	87.12
439.386	88.12
439.608	92.12
439.829	100.12
440.05	115.12
440.272	137.12
440.493	113.12
440.715	94.12
440.936	85.12
441.158	75.12
441.379	86.12
441.6	85.12
441.822	103.12
442.043	105.12
442.264	105.12
442.486	111.12
442.707	83.12
442.928	113.12
443.149	126.12
443.371	128.12
443.592	97.12
443.813	108.12
444.034	108.12
444.255	84.12
444.476	96.12
444.698	84.12
444.919	85.12
445.14	130.12
445.361	120.12
445.582	99.12
445.803	129.12
446.024	132.12
446.245	136.12
446.466	100.12
446.687	96.12
446.908	84.12
447.129	94.12
447.35	98.12
447.571	69.12
447.792	92.12
448.013	103.12
448.234	112.12
448.455	114.12
448.675	117.12
448.896	112.12
449.117	103.12
449.338	95.12
449.559	131.12
449.779	123.12
450	82.12
450.221	84.12
450.442	76.12
450.662	103.12
450.883	116.12
451.104	125.12
451.324	102.12
451.545	99.12
451.766	89.12
451.986	94.12
452.207	81.12
452.428	93.12
452.648	102.12
452.869	109.12
453.089	102.12
453.31	111.12
453.53	92.12
453.751	91.12
453.971	104.12
454.192	129.12
454.412	94.12
454.633	85.12
454.853	87.12
455.073	79.12
455.294	83.12
455.514	105.12
455.734	91.12
455.955	103.12
456.175	83.12
456.395	82.12
456.616	81.12
456.836	83.12
457.056	90.12
457.276	85.12
457.497	83.12
457.717	91.12
457.937	93.12
458.157	78.12
458.377	82.12
458.598	92.12
458.818	154.12
459.038	160.12
459.258	128.12
459.478	88.12
459.698	93.12
459.918	90.12
460.138	86.12
460.358	90.12
460.578	87.12
460.798	85.12
461.018	94.12
461.238	71.12
461.458	81.12
461.678	87.12
461.898	85.12
462.118	90.12
462.338	81.12
462.558	84.12
462.777	74.12
462.997	82.12
463.217	91.12
463.437	77.12
463.657	77.12
463.876	75.12
464.096	103.12
464.316	94.12
464.536	93.12
464.755	91.12
464.975	117.12
465.195	170.12
465.414	175.12
465.634	86.12
465.854	92.12
466.073	73.12
466.293	75.12
466.512	83.12
466.732	82.12
466.951	89.12
467.171	103.12
467.391	96.12
467.61	98.12
467.829	100.12
468.049	90.12
468.268	88.12
468.488	83.12
468.707	82.12
468.927	83.12
469.146	82.12
469.365	96.12
469.585	80.12
469.804	89.12
470.023	99.12
470.243	91.12
470.462	89.12
470.681	120.12
470.901	93.12
471.12	83.12
471.339	88.12
471.558	99.12
471.777	96.12
471.997	87.12
472.216	96.12
472.435	104.12
472.654	95.12
472.873	95.12
473.092	72.12
473.311	87.12
473.53	97.12
473.749	87.12
473.968	98.12
474.187	95.12
474.406	87.12
474.625	83.12
474.844	98.12
475.063	83.12
475.282	97.12
475.501	97.12
475.72	82.12
475.939	84.12
476.158	85.12
476.377	80.12
476.596	99.12
476.814	89.12
477.033	90.12
477.252	92.12
477.471	83.12
477.69	77.12
477.908	90.12
478.127	87.12
478.346	92.12
478.564	96.12
478.783	92.12
479.002	94.12
479.22	80.12
479.439	95.12
479.658	103.12
479.876	97.12
480.095	98.12
480.313	92.12
480.532	81.12
480.751	95.12
480.969	88.12
481.188	94.12
481.406	93.12
481.624	94.12
481.843	85.12
482.061	83.12
482.28	89.12
482.498	94.12
482.717	81.12
482.935	103.12
483.153	75.12
483.372	82.12
483.59	81.12
483.808	96.12
484.027	90.12
484.245	93.12
484.463	75.12
484.681	95.12
484.9	95.12
485.118	91.12
485.336	96.12
485.554	98.12
485.772	100.12
485.99	95.12
486.209	113.12
486.427	111.12
486.645	100.12
486.863	103.12
487.081	105.12
487.299	92.12
487.517	90.12
487.735	80.12
487.953	89.12
488.171	99.12
488.389	96.12
488.607	102.12
488.825	92.12
489.043	76.12
489.261	96.12
489.479	92.12
489.696	78.12
489.914	87.12
490.132	92.12
490.35	95.12
490.568	82.12
490.786	89.12
491.003	91.12
491.221	94.12
491.439	93.12
491.657	86.12
491.874	98.12
492.092	82.12
492.31	99.12
492.527	84.12
492.745	72.12
492.963	78.12
493.18	88.12
493.398	92.12
493.615	105.12
493.833	99.12
494.05	84.12
494.268	88.12
494.485	93.12
494.703	95.12
494.92	88.12
495.138	88.12
495.355	84.12
495.573	89.12
495.79	89.12
496.008	101.12
496.225	91.12
496.442	82.12
496.66	93.12
496.877	92.12
497.094	82.12
497.312	100.12
497.529	91.12
497.746	87.12
497.963	96.12
498.181	103.12
498.398	109.12
498.615	107.12
498.832	87.12
499.049	94.12
499.267	79.12
499.484	96.12
499.701	82.12
499.918	92.12
500.135	90.12
500.352	101.12
500.569	89.12
500.786	98.12
501.003	91.12
501.22	83.12
501.437	76.12
501.654	88.12
501.871	93.12
502.088	98.12
502.305	89.12
502.522	79.12
502.739	103.12
502.956	98.12
503.172	76.12
503.389	88.12
503.606	100.12
503.823	110.12
504.04	87.12
504.256	90.12
504.473	90.12
504.69	88.12
504.907	85.12
505.123	101.12
505.34	91.12
505.557	81.12
505.773	97.12
505.99	97.12
506.207	102.12
506.423	91.12
506.64	98.12
506.856	93.12
507.073	91.12
507.289	92.12
507.506	100.12
507.722	109.12
507.939	109.12
508.155	91.12
508.372	89.12
508.588	93.12
508.805	96.12
509.021	94.12
509.238	83.12
509.454	104.12
509.67	91.12
509.887	121.12
510.103	138.12
510.319	244.12
510.536	843.12
510.752	2651.12
510.968	715.12
511.184	161.12
511.401	100.12
511.617	98.12
511.833	90.12
512.049	94.12
512.265	85.12
512.481	91.12
512.698	104.12
512.914	86.12
513.13	101.12
513.346	98.12
513.562	90.12
513.778	89.12
513.994	98.12
514.21	95.12
514.426	114.12
514.642	127.12
514.858	140.12
515.074	176.12
515.29	520.12
515.506	1658.12
515.721	584.12
515.937	163.12
