Data from Uncirc_2001_H10_HRD10591_00042.txt Node
Date: Wed Jan 03 10:44:05 EST 2024
User: Yrep
Spectrometer: HR+D1059
Trigger mode: 1
Integration Time (sec): 1.000000E-1
Scans to average: 1
Electric dark correction enabled: true
Nonlinearity correction enabled: false
Boxcar width: 0
XAxis mode: Wavelengths
Number of Pixels in Spectrum: 2048
>>>>>Begin Spectral Data<<<<<
223.165	-8.12
223.4	-8.12
223.635	-8.12
223.869	-29.12
224.104	-22.12
224.338	-15.12
224.573	-10.12
224.808	-13.12
225.042	-19.12
225.277	0.88
225.511	5.88
225.746	7.88
225.98	-5.12
226.215	10.88
226.449	11.88
226.683	28.88
226.918	30.88
227.152	24.88
227.387	32.88
227.621	31.88
227.856	28.88
228.09	45.88
228.324	45.88
228.559	61.88
228.793	51.88
229.027	68.88
229.262	70.88
229.496	72.88
229.73	83.88
229.964	70.88
230.199	80.88
230.433	77.88
230.667	80.88
230.901	71.88
231.136	83.88
231.37	72.88
231.604	68.88
231.838	63.88
232.072	69.88
232.306	84.88
232.541	71.88
232.775	61.88
233.009	72.88
233.243	70.88
233.477	87.88
233.711	86.88
233.945	85.88
234.179	72.88
234.413	76.88
234.647	72.88
234.881	63.88
235.115	76.88
235.349	78.88
235.583	75.88
235.817	61.88
236.051	75.88
236.285	88.88
236.519	69.88
236.753	76.88
236.987	76.88
237.221	81.88
237.455	87.88
237.689	71.88
237.922	75.88
238.156	80.88
238.39	88.88
238.624	67.88
238.858	75.88
239.091	72.88
239.325	74.88
239.559	80.88
239.793	75.88
240.027	81.88
240.26	78.88
240.494	70.88
240.728	69.88
240.961	67.88
241.195	88.88
241.429	73.88
241.662	69.88
241.896	80.88
242.13	79.88
242.363	91.88
242.597	68.88
242.83	79.88
243.064	60.88
243.298	73.88
243.531	64.88
243.765	78.88
243.998	98.88
244.232	80.88
244.465	72.88
244.699	76.88
244.932	97.88
245.166	72.88
245.399	80.88
245.633	79.88
245.866	73.88
246.099	88.88
246.333	83.88
246.566	74.88
246.8	83.88
247.033	89.88
247.266	73.88
247.5	82.88
247.733	86.88
247.966	89.88
248.2	62.88
248.433	69.88
248.666	82.88
248.899	85.88
249.133	80.88
249.366	90.88
249.599	79.88
249.832	82.88
250.066	85.88
250.299	72.88
250.532	83.88
250.765	57.88
250.998	66.88
251.231	75.88
251.465	69.88
251.698	80.88
251.931	81.88
252.164	64.88
252.397	62.88
252.63	85.88
252.863	74.88
253.096	72.88
253.329	91.88
253.562	78.88
253.795	83.88
254.028	84.88
254.261	76.88
254.494	74.88
254.727	71.88
254.96	81.88
255.193	70.88
255.426	96.88
255.659	87.88
255.892	88.88
256.124	76.88
256.357	88.88
256.59	84.88
256.823	81.88
257.056	89.88
257.289	75.88
257.521	79.88
257.754	88.88
257.987	87.88
258.22	74.88
258.452	79.88
258.685	80.88
258.918	78.88
259.151	79.88
259.383	64.88
259.616	80.88
259.849	76.88
260.081	79.88
260.314	96.88
260.547	95.88
260.779	78.88
261.012	80.88
261.244	73.88
261.477	103.88
261.71	85.88
261.942	100.88
262.175	96.88
262.407	79.88
262.64	80.88
262.872	87.88
263.105	88.88
263.337	81.88
263.57	84.88
263.802	85.88
264.035	78.88
264.267	79.88
264.499	67.88
264.732	84.88
264.964	74.88
265.197	77.88
265.429	74.88
265.661	79.88
265.894	78.88
266.126	86.88
266.358	84.88
266.591	77.88
266.823	84.88
267.055	81.88
267.287	78.88
267.52	76.88
267.752	71.88
267.984	86.88
268.216	77.88
268.448	87.88
268.681	68.88
268.913	68.88
269.145	76.88
269.377	68.88
269.609	75.88
269.841	92.88
270.073	79.88
270.306	93.88
270.538	79.88
270.77	82.88
271.002	85.88
271.234	75.88
271.466	89.88
271.698	75.88
271.93	84.88
272.162	89.88
272.394	79.88
272.626	84.88
272.858	80.88
273.09	87.88
273.322	87.88
273.553	69.88
273.785	78.88
274.017	85.88
274.249	92.88
274.481	79.88
274.713	76.88
274.945	80.88
275.176	81.88
275.408	76.88
275.64	73.88
275.872	86.88
276.104	92.88
276.335	100.88
276.567	86.88
276.799	115.88
277.031	104.88
277.262	75.88
277.494	77.88
277.726	77.88
277.957	84.88
278.189	79.88
278.421	81.88
278.652	79.88
278.884	84.88
279.115	79.88
279.347	83.88
279.579	84.88
279.81	81.88
280.042	81.88
280.273	82.88
280.505	87.88
280.736	78.88
280.968	82.88
281.199	79.88
281.431	85.88
281.662	87.88
281.894	85.88
282.125	91.88
282.356	127.88
282.588	120.88
282.819	111.88
283.051	88.88
283.282	73.88
283.513	69.88
283.745	78.88
283.976	72.88
284.207	77.88
284.439	80.88
284.67	86.88
284.901	87.88
285.132	69.88
285.364	77.88
285.595	76.88
285.826	89.88
286.057	88.88
286.288	69.88
286.52	84.88
286.751	77.88
286.982	85.88
287.213	99.88
287.444	88.88
287.675	85.88
287.906	80.88
288.138	78.88
288.369	87.88
288.6	69.88
288.831	88.88
289.062	87.88
289.293	77.88
289.524	88.88
289.755	76.88
289.986	81.88
290.217	88.88
290.448	87.88
290.679	69.88
290.91	83.88
291.141	76.88
291.371	63.88
291.602	82.88
291.833	89.88
292.064	87.88
292.295	81.88
292.526	88.88
292.757	86.88
292.987	85.88
293.218	83.88
293.449	79.88
293.68	81.88
293.91	89.88
294.141	84.88
294.372	84.88
294.603	89.88
294.833	75.88
295.064	77.88
295.295	79.88
295.525	89.88
295.756	100.88
295.987	99.88
296.217	131.88
296.448	116.88
296.679	82.88
296.909	81.88
297.14	85.88
297.37	82.88
297.601	80.88
297.831	116.88
298.062	79.88
298.292	85.88
298.523	89.88
298.753	85.88
298.984	83.88
299.214	88.88
299.445	90.88
299.675	85.88
299.905	94.88
300.136	77.88
300.366	93.88
300.597	94.88
300.827	87.88
301.057	102.88
301.288	104.88
301.518	76.88
301.748	83.88
301.979	99.88
302.209	95.88
302.439	94.88
302.669	84.88
302.9	88.88
303.13	96.88
303.36	104.88
303.59	95.88
303.82	99.88
304.051	84.88
304.281	107.88
304.511	95.88
304.741	84.88
304.971	87.88
305.201	92.88
305.431	88.88
305.661	80.88
305.891	99.88
306.121	90.88
306.352	97.88
306.582	89.88
306.812	86.88
307.042	114.88
307.272	92.88
307.502	78.88
307.731	91.88
307.961	80.88
308.191	97.88
308.421	95.88
308.651	82.88
308.881	86.88
309.111	96.88
309.341	101.88
309.571	98.88
309.8	90.88
310.03	84.88
310.26	83.88
310.49	88.88
310.72	96.88
310.949	99.88
311.179	93.88
311.409	93.88
311.639	89.88
311.868	99.88
312.098	101.88
312.328	102.88
312.557	88.88
312.787	100.88
313.017	83.88
313.246	103.88
313.476	83.88
313.706	85.88
313.935	80.88
314.165	92.88
314.394	115.88
314.624	89.88
314.853	78.88
315.083	84.88
315.312	71.88
315.542	95.88
315.771	80.88
316.001	93.88
316.23	89.88
316.46	85.88
316.689	76.88
316.919	99.88
317.148	87.88
317.377	87.88
317.607	90.88
317.836	85.88
318.065	79.88
318.295	89.88
318.524	97.88
318.753	90.88
318.983	92.88
319.212	93.88
319.441	94.88
319.67	105.88
319.9	82.88
320.129	93.88
320.358	88.88
320.587	95.88
320.816	91.88
321.046	100.88
321.275	110.88
321.504	75.88
321.733	94.88
321.962	89.88
322.191	97.88
322.42	100.88
322.649	86.88
322.878	111.88
323.108	108.88
323.337	110.88
323.566	114.88
323.795	146.88
324.024	210.88
324.253	354.88
324.482	727.88
324.71	1476.88
324.939	1837.88
325.168	677.88
325.397	209.88
325.626	147.88
325.855	125.88
326.084	118.88
326.313	115.88
326.542	153.88
326.77	220.88
326.999	436.88
327.228	817.88
327.457	1437.88
327.686	1120.88
327.914	318.88
328.143	181.88
328.372	115.88
328.6	109.88
328.829	116.88
329.058	119.88
329.287	104.88
329.515	110.88
329.744	89.88
329.972	94.88
330.201	94.88
330.43	102.88
330.658	115.88
330.887	120.88
331.115	119.88
331.344	91.88
331.572	81.88
331.801	95.88
332.03	99.88
332.258	89.88
332.486	97.88
332.715	83.88
332.943	85.88
333.172	96.88
333.4	86.88
333.629	102.88
333.857	105.88
334.085	89.88
334.314	100.88
334.542	88.88
334.771	91.88
334.999	91.88
335.227	87.88
335.455	80.88
335.684	90.88
335.912	92.88
336.14	92.88
336.369	84.88
336.597	99.88
336.825	101.88
337.053	95.88
337.281	88.88
337.51	83.88
337.738	77.88
337.966	85.88
338.194	95.88
338.422	89.88
338.65	88.88
338.878	79.88
339.106	84.88
339.334	85.88
339.562	89.88
339.79	94.88
340.018	84.88
340.246	86.88
340.474	86.88
340.702	95.88
340.93	79.88
341.158	91.88
341.386	87.88
341.614	85.88
341.842	88.88
342.07	100.88
342.298	91.88
342.526	84.88
342.754	85.88
342.981	75.88
343.209	86.88
343.437	98.88
343.665	83.88
343.893	86.88
344.12	92.88
344.348	84.88
344.576	86.88
344.804	91.88
345.031	83.88
345.259	89.88
345.487	95.88
345.714	84.88
345.942	85.88
346.17	87.88
346.397	72.88
346.625	79.88
346.853	95.88
347.08	90.88
347.308	102.88
347.535	112.88
347.763	90.88
347.99	94.88
348.218	91.88
348.445	101.88
348.673	109.88
348.9	85.88
349.128	76.88
349.355	94.88
349.583	81.88
349.81	87.88
350.037	89.88
350.265	113.88
350.492	95.88
350.72	98.88
350.947	89.88
351.174	125.88
351.402	103.88
351.629	89.88
351.856	89.88
352.083	97.88
352.311	88.88
352.538	111.88
352.765	95.88
352.992	108.88
353.22	109.88
353.447	88.88
353.674	84.88
353.901	100.88
354.128	108.88
354.355	96.88
354.583	93.88
354.81	103.88
355.037	99.88
355.264	107.88
355.491	77.88
355.718	93.88
355.945	99.88
356.172	103.88
356.399	93.88
356.626	91.88
356.853	76.88
357.08	84.88
357.307	89.88
357.534	97.88
357.761	88.88
357.988	89.88
358.215	90.88
358.441	80.88
358.668	87.88
358.895	90.88
359.122	64.88
359.349	91.88
359.576	77.88
359.802	109.88
360.029	107.88
360.256	105.88
360.483	98.88
360.709	74.88
360.936	78.88
361.163	87.88
361.39	85.88
361.616	88.88
361.843	85.88
362.07	84.88
362.296	87.88
362.523	88.88
362.749	84.88
362.976	78.88
363.203	88.88
363.429	72.88
363.656	82.88
363.882	88.88
364.109	86.88
364.335	99.88
364.562	89.88
364.788	75.88
365.015	86.88
365.241	87.88
365.468	106.88
365.694	113.88
365.92	91.88
366.147	97.88
366.373	93.88
366.599	89.88
366.826	91.88
367.052	88.88
367.278	71.88
367.505	82.88
367.731	98.88
367.957	80.88
368.184	94.88
368.41	96.88
368.636	104.88
368.862	99.88
369.089	83.88
369.315	87.88
369.541	96.88
369.767	94.88
369.993	75.88
370.219	87.88
370.445	84.88
370.672	86.88
370.898	83.88
371.124	99.88
371.35	80.88
371.576	76.88
371.802	83.88
372.028	92.88
372.254	85.88
372.48	80.88
372.706	77.88
372.932	72.88
373.158	83.88
373.384	86.88
373.61	87.88
373.835	93.88
374.061	77.88
374.287	70.88
374.513	86.88
374.739	73.88
374.965	81.88
375.191	86.88
375.416	86.88
375.642	84.88
375.868	88.88
376.094	91.88
376.319	83.88
376.545	66.88
376.771	83.88
376.997	94.88
377.222	75.88
377.448	85.88
377.674	78.88
377.899	86.88
378.125	84.88
378.35	75.88
378.576	88.88
378.802	83.88
379.027	84.88
379.253	80.88
379.478	84.88
379.704	85.88
379.929	92.88
380.155	103.88
380.38	91.88
380.606	101.88
380.831	106.88
381.057	99.88
381.282	82.88
381.507	96.88
381.733	97.88
381.958	89.88
382.184	92.88
382.409	88.88
382.634	86.88
382.86	87.88
383.085	87.88
383.31	99.88
383.535	94.88
383.761	88.88
383.986	96.88
384.211	95.88
384.436	87.88
384.662	97.88
384.887	92.88
385.112	82.88
385.337	98.88
385.562	100.88
385.787	109.88
386.013	97.88
386.238	104.88
386.463	111.88
386.688	96.88
386.913	99.88
387.138	111.88
387.363	110.88
387.588	111.88
387.813	102.88
388.038	98.88
388.263	108.88
388.488	116.88
388.713	79.88
388.938	94.88
389.163	101.88
389.387	83.88
389.612	78.88
389.837	89.88
390.062	89.88
390.287	89.88
390.512	77.88
390.736	91.88
390.961	70.88
391.186	75.88
391.411	98.88
391.636	97.88
391.86	96.88
392.085	72.88
392.31	84.88
392.534	75.88
392.759	88.88
392.984	89.88
393.208	119.88
393.433	152.88
393.658	133.88
393.882	81.88
394.107	77.88
394.331	88.88
394.556	81.88
394.78	97.88
395.005	82.88
395.229	69.88
395.454	82.88
395.678	92.88
395.903	83.88
396.127	88.88
396.352	79.88
396.576	89.88
396.801	98.88
397.025	117.88
397.249	95.88
397.474	101.88
397.698	87.88
397.922	88.88
398.147	100.88
398.371	87.88
398.595	80.88
398.82	89.88
399.044	73.88
399.268	79.88
399.492	80.88
399.717	69.88
399.941	85.88
400.165	90.88
400.389	80.88
400.613	89.88
400.837	90.88
401.062	89.88
401.286	85.88
401.51	86.88
401.734	95.88
401.958	85.88
402.182	142.88
402.406	170.88
402.63	109.88
402.854	73.88
403.078	80.88
403.302	92.88
403.526	94.88
403.75	76.88
403.974	68.88
404.198	90.88
404.422	84.88
404.645	84.88
404.869	88.88
405.093	84.88
405.317	84.88
405.541	90.88
405.765	92.88
405.988	102.88
406.212	164.88
406.436	217.88
406.66	131.88
406.883	98.88
407.107	90.88
407.331	82.88
407.555	100.88
407.778	91.88
408.002	78.88
408.226	86.88
408.449	86.88
408.673	90.88
408.896	97.88
409.12	86.88
409.344	78.88
409.567	84.88
409.791	88.88
410.014	79.88
410.238	98.88
410.461	74.88
410.685	89.88
410.908	109.88
411.132	97.88
411.355	88.88
411.578	96.88
411.802	72.88
412.025	74.88
412.249	101.88
412.472	84.88
412.695	78.88
412.919	81.88
413.142	86.88
413.365	78.88
413.589	73.88
413.812	76.88
414.035	84.88
414.258	81.88
414.482	96.88
414.705	103.88
414.928	76.88
415.151	88.88
415.374	78.88
415.597	91.88
415.821	70.88
416.044	75.88
416.267	104.88
416.49	93.88
416.713	85.88
416.936	90.88
417.159	83.88
417.382	79.88
417.605	85.88
417.828	90.88
418.051	81.88
418.274	91.88
418.497	87.88
418.72	79.88
418.943	67.88
419.166	89.88
419.389	85.88
419.611	73.88
419.834	82.88
420.057	80.88
420.28	77.88
420.503	74.88
420.726	87.88
420.948	89.88
421.171	90.88
421.394	84.88
421.617	81.88
421.839	85.88
422.062	85.88
422.285	93.88
422.507	86.88
422.73	119.88
422.953	97.88
423.175	80.88
423.398	76.88
423.621	64.88
423.843	75.88
424.066	75.88
424.288	85.88
424.511	85.88
424.733	96.88
424.956	110.88
425.178	90.88
425.401	86.88
425.623	100.88
425.846	87.88
426.068	72.88
426.291	79.88
426.513	91.88
426.735	93.88
426.958	84.88
427.18	100.88
427.402	124.88
427.625	149.88
427.847	105.88
428.069	92.88
428.292	85.88
428.514	81.88
428.736	85.88
428.958	86.88
429.181	76.88
429.403	89.88
429.625	83.88
429.847	77.88
430.069	94.88
430.292	96.88
430.514	95.88
430.736	79.88
430.958	82.88
431.18	82.88
431.402	81.88
431.624	77.88
431.846	72.88
432.068	95.88
432.29	88.88
432.512	87.88
432.734	80.88
432.956	92.88
433.178	90.88
433.4	99.88
433.622	90.88
433.844	88.88
434.066	107.88
434.287	88.88
434.509	71.88
434.731	79.88
434.953	95.88
435.175	81.88
435.397	78.88
435.618	79.88
435.84	95.88
436.062	100.88
436.284	108.88
436.505	92.88
436.727	83.88
436.949	87.88
437.17	87.88
437.392	84.88
437.614	88.88
437.835	104.88
438.057	125.88
438.278	109.88
438.5	97.88
438.721	117.88
438.943	98.88
439.165	86.88
439.386	73.88
439.608	78.88
439.829	98.88
440.05	111.88
440.272	109.88
440.493	96.88
440.715	84.88
440.936	92.88
441.158	67.88
441.379	78.88
441.6	92.88
441.822	84.88
442.043	93.88
442.264	91.88
442.486	91.88
442.707	99.88
442.928	93.88
443.149	127.88
443.371	120.88
443.592	111.88
443.813	110.88
444.034	92.88
444.255	75.88
444.476	80.88
444.698	80.88
444.919	84.88
445.14	120.88
445.361	108.88
445.582	107.88
445.803	117.88
446.024	116.88
446.245	115.88
446.466	94.88
446.687	69.88
446.908	73.88
447.129	83.88
447.35	65.88
447.571	81.88
447.792	106.88
448.013	93.88
448.234	94.88
448.455	85.88
448.675	93.88
448.896	115.88
449.117	86.88
449.338	84.88
449.559	102.88
449.779	115.88
450	96.88
450.221	94.88
450.442	92.88
450.662	84.88
450.883	92.88
451.104	97.88
451.324	78.88
451.545	82.88
451.766	92.88
451.986	83.88
452.207	92.88
452.428	80.88
452.648	83.88
452.869	92.88
453.089	127.88
453.31	114.88
453.53	81.88
453.751	96.88
453.971	82.88
454.192	109.88
454.412	90.88
454.633	72.88
454.853	86.88
455.073	83.88
455.294	71.88
455.514	94.88
455.734	76.88
455.955	94.88
456.175	86.88
456.395	79.88
456.616	88.88
456.836	74.88
457.056	75.88
457.276	88.88
457.497	85.88
457.717	86.88
457.937	93.88
458.157	90.88
458.377	75.88
458.598	105.88
458.818	138.88
459.038	153.88
459.258	111.88
459.478	84.88
459.698	94.88
459.918	83.88
460.138	83.88
460.358	78.88
460.578	85.88
460.798	76.88
461.018	87.88
461.238	83.88
461.458	78.88
461.678	73.88
461.898	83.88
462.118	85.88
462.338	89.88
462.558	61.88
462.777	76.88
462.997	85.88
463.217	96.88
463.437	73.88
463.657	82.88
463.876	89.88
464.096	90.88
464.316	86.88
464.536	93.88
464.755	96.88
464.975	111.88
465.195	161.88
465.414	145.88
465.634	80.88
465.854	73.88
466.073	89.88
466.293	91.88
466.512	85.88
466.732	82.88
466.951	84.88
467.171	83.88
467.391	94.88
467.61	100.88
467.829	98.88
468.049	84.88
468.268	79.88
468.488	89.88
468.707	86.88
468.927	64.88
469.146	87.88
469.365	82.88
469.585	105.88
469.804	91.88
470.023	82.88
470.243	86.88
470.462	109.88
470.681	100.88
470.901	85.88
471.12	80.88
471.339	76.88
471.558	78.88
471.777	83.88
471.997	83.88
472.216	89.88
472.435	102.88
472.654	74.88
472.873	74.88
473.092	81.88
473.311	79.88
473.53	97.88
473.749	69.88
473.968	86.88
474.187	81.88
474.406	93.88
474.625	79.88
474.844	87.88
475.063	94.88
475.282	92.88
475.501	81.88
475.72	90.88
475.939	98.88
476.158	89.88
476.377	81.88
476.596	84.88
476.814	85.88
477.033	95.88
477.252	95.88
477.471	75.88
477.69	84.88
477.908	91.88
478.127	75.88
478.346	82.88
478.564	83.88
478.783	93.88
479.002	96.88
479.22	95.88
479.439	100.88
479.658	102.88
479.876	93.88
480.095	86.88
480.313	80.88
480.532	89.88
480.751	90.88
480.969	82.88
481.188	100.88
481.406	84.88
481.624	81.88
481.843	86.88
482.061	79.88
482.28	87.88
482.498	80.88
482.717	87.88
482.935	88.88
483.153	80.88
483.372	86.88
483.59	76.88
483.808	88.88
484.027	95.88
484.245	90.88
484.463	81.88
484.681	78.88
484.9	83.88
485.118	87.88
485.336	78.88
485.554	83.88
485.772	96.88
485.99	100.88
486.209	101.88
486.427	92.88
486.645	97.88
486.863	99.88
487.081	96.88
487.299	94.88
487.517	82.88
487.735	87.88
487.953	95.88
488.171	95.88
488.389	90.88
488.607	77.88
488.825	78.88
489.043	79.88
489.261	85.88
489.479	93.88
489.696	87.88
489.914	77.88
490.132	80.88
490.35	86.88
490.568	87.88
490.786	94.88
491.003	91.88
491.221	76.88
491.439	81.88
491.657	75.88
491.874	90.88
492.092	96.88
492.31	77.88
492.527	95.88
492.745	85.88
492.963	88.88
493.18	89.88
493.398	92.88
493.615	98.88
493.833	84.88
494.05	91.88
494.268	89.88
494.485	83.88
494.703	73.88
494.92	81.88
495.138	78.88
495.355	86.88
495.573	87.88
495.79	93.88
496.008	93.88
496.225	92.88
496.442	98.88
496.66	87.88
496.877	94.88
497.094	91.88
497.312	93.88
497.529	79.88
497.746	92.88
497.963	87.88
498.181	89.88
498.398	83.88
498.615	87.88
498.832	110.88
499.049	78.88
499.267	84.88
499.484	89.88
499.701	83.88
499.918	84.88
500.135	99.88
500.352	95.88
500.569	93.88
500.786	78.88
501.003	91.88
501.22	96.88
501.437	75.88
501.654	86.88
501.871	104.88
502.088	90.88
502.305	97.88
502.522	92.88
502.739	77.88
502.956	85.88
503.172	87.88
503.389	88.88
503.606	104.88
503.823	94.88
504.04	95.88
504.256	82.88
504.473	87.88
504.69	83.88
504.907	85.88
505.123	82.88
505.34	84.88
505.557	70.88
505.773	89.88
505.99	77.88
506.207	75.88
506.423	91.88
506.64	83.88
506.856	67.88
507.073	87.88
507.289	95.88
507.506	84.88
507.722	102.88
507.939	86.88
508.155	86.88
508.372	82.88
508.588	94.88
508.805	95.88
509.021	97.88
509.238	94.88
509.454	94.88
509.67	93.88
509.887	86.88
510.103	139.88
510.319	225.88
510.536	763.88
510.752	2329.88
510.968	669.88
511.184	148.88
511.401	93.88
511.617	97.88
511.833	95.88
512.049	82.88
512.265	99.88
512.481	82.88
512.698	81.88
512.914	93.88
513.13	82.88
513.346	82.88
513.562	82.88
513.778	101.88
513.994	97.88
514.21	93.88
514.426	112.88
514.642	133.88
514.858	125.88
515.074	159.88
515.29	472.88
515.506	1488.88
515.721	521.88
515.937	149.88
516.153	99.88
516.369	107.88
516.585	92.88
516.801	96.88
517.016	92.88
517.232	97.88
517.448	91.88
