Data from Uncirc_2001_H10_HRD10591_00029.txt Node
Date: Wed Jan 03 10:44:02 EST 2024
User: Yrep
Spectrometer: HR+D1059
Trigger mode: 1
Integration Time (sec): 1.000000E-1
Scans to average: 1
Electric dark correction enabled: true
Nonlinearity correction enabled: false
Boxcar width: 0
XAxis mode: Wavelengths
Number of Pixels in Spectrum: 2048
>>>>>Begin Spectral Data<<<<<
223.165	-15.88
223.4	-15.88
223.635	-15.88
223.869	-23.88
224.104	-17.88
224.338	-22.88
224.573	-6.88
224.808	-2.88
225.042	-15.88
225.277	-10.88
225.511	2.12
225.746	27.12
225.98	2.12
226.215	10.12
226.449	16.12
226.683	5.12
226.918	30.12
227.152	24.12
227.387	32.12
227.621	32.12
227.856	34.12
228.09	44.12
228.324	38.12
228.559	55.12
228.793	46.12
229.027	50.12
229.262	65.12
229.496	61.12
229.73	78.12
229.964	72.12
230.199	71.12
230.433	68.12
230.667	77.12
230.901	66.12
231.136	69.12
231.37	96.12
231.604	87.12
231.838	85.12
232.072	80.12
232.306	70.12
232.541	66.12
232.775	82.12
233.009	64.12
233.243	79.12
233.477	87.12
233.711	78.12
233.945	71.12
234.179	78.12
234.413	70.12
234.647	72.12
234.881	66.12
235.115	76.12
235.349	75.12
235.583	66.12
235.817	78.12
236.051	81.12
236.285	79.12
236.519	79.12
236.753	70.12
236.987	84.12
237.221	68.12
237.455	81.12
237.689	71.12
237.922	76.12
238.156	68.12
238.39	82.12
238.624	64.12
238.858	66.12
239.091	72.12
239.325	72.12
239.559	81.12
239.793	84.12
240.027	73.12
240.26	71.12
240.494	80.12
240.728	76.12
240.961	73.12
241.195	74.12
241.429	75.12
241.662	80.12
241.896	61.12
242.13	71.12
242.363	72.12
242.597	90.12
242.83	68.12
243.064	76.12
243.298	68.12
243.531	74.12
243.765	81.12
243.998	66.12
244.232	82.12
244.465	82.12
244.699	69.12
244.932	72.12
245.166	81.12
245.399	76.12
245.633	76.12
245.866	93.12
246.099	74.12
246.333	58.12
246.566	68.12
246.8	79.12
247.033	80.12
247.266	72.12
247.5	78.12
247.733	81.12
247.966	73.12
248.2	75.12
248.433	69.12
248.666	82.12
248.899	76.12
249.133	71.12
249.366	94.12
249.599	78.12
249.832	88.12
250.066	88.12
250.299	79.12
250.532	84.12
250.765	75.12
250.998	78.12
251.231	83.12
251.465	70.12
251.698	81.12
251.931	65.12
252.164	64.12
252.397	92.12
252.63	96.12
252.863	64.12
253.096	70.12
253.329	74.12
253.562	61.12
253.795	71.12
254.028	82.12
254.261	81.12
254.494	68.12
254.727	69.12
254.96	80.12
255.193	82.12
255.426	81.12
255.659	81.12
255.892	78.12
256.124	83.12
256.357	68.12
256.59	85.12
256.823	92.12
257.056	88.12
257.289	76.12
257.521	73.12
257.754	80.12
257.987	72.12
258.22	90.12
258.452	87.12
258.685	80.12
258.918	89.12
259.151	85.12
259.383	77.12
259.616	74.12
259.849	73.12
260.081	86.12
260.314	68.12
260.547	81.12
260.779	81.12
261.012	84.12
261.244	82.12
261.477	88.12
261.71	88.12
261.942	99.12
262.175	115.12
262.407	97.12
262.64	69.12
262.872	95.12
263.105	75.12
263.337	84.12
263.57	83.12
263.802	75.12
264.035	92.12
264.267	100.12
264.499	78.12
264.732	78.12
264.964	88.12
265.197	75.12
265.429	81.12
265.661	72.12
265.894	73.12
266.126	75.12
266.358	83.12
266.591	82.12
266.823	89.12
267.055	84.12
267.287	72.12
267.52	71.12
267.752	72.12
267.984	77.12
268.216	74.12
268.448	79.12
268.681	74.12
268.913	84.12
269.145	88.12
269.377	83.12
269.609	84.12
269.841	85.12
270.073	76.12
270.306	71.12
270.538	73.12
270.77	80.12
271.002	97.12
271.234	81.12
271.466	72.12
271.698	77.12
271.93	86.12
272.162	84.12
272.394	72.12
272.626	71.12
272.858	73.12
273.09	74.12
273.322	85.12
273.553	80.12
273.785	92.12
274.017	76.12
274.249	93.12
274.481	85.12
274.713	80.12
274.945	88.12
275.176	81.12
275.408	82.12
275.64	77.12
275.872	86.12
276.104	77.12
276.335	84.12
276.567	81.12
276.799	102.12
277.031	92.12
277.262	74.12
277.494	71.12
277.726	78.12
277.957	86.12
278.189	87.12
278.421	88.12
278.652	83.12
278.884	69.12
279.115	73.12
279.347	84.12
279.579	97.12
279.81	83.12
280.042	83.12
280.273	81.12
280.505	91.12
280.736	85.12
280.968	95.12
281.199	80.12
281.431	74.12
281.662	79.12
281.894	78.12
282.125	92.12
282.356	107.12
282.588	131.12
282.819	105.12
283.051	92.12
283.282	81.12
283.513	85.12
283.745	86.12
283.976	81.12
284.207	87.12
284.439	73.12
284.67	97.12
284.901	80.12
285.132	82.12
285.364	86.12
285.595	82.12
285.826	76.12
286.057	94.12
286.288	80.12
286.52	88.12
286.751	92.12
286.982	76.12
287.213	81.12
287.444	98.12
287.675	87.12
287.906	80.12
288.138	78.12
288.369	84.12
288.6	87.12
288.831	87.12
289.062	83.12
289.293	81.12
289.524	80.12
289.755	94.12
289.986	84.12
290.217	93.12
290.448	90.12
290.679	94.12
290.91	84.12
291.141	96.12
291.371	74.12
291.602	72.12
291.833	84.12
292.064	93.12
292.295	79.12
292.526	87.12
292.757	90.12
292.987	79.12
293.218	91.12
293.449	84.12
293.68	87.12
293.91	86.12
294.141	85.12
294.372	95.12
294.603	88.12
294.833	91.12
295.064	89.12
295.295	82.12
295.525	74.12
295.756	97.12
295.987	94.12
296.217	109.12
296.448	104.12
296.679	88.12
296.909	82.12
297.14	76.12
297.37	91.12
297.601	103.12
297.831	95.12
298.062	80.12
298.292	80.12
298.523	97.12
298.753	74.12
298.984	92.12
299.214	79.12
299.445	87.12
299.675	98.12
299.905	107.12
300.136	92.12
300.366	88.12
300.597	81.12
300.827	92.12
301.057	93.12
301.288	100.12
301.518	87.12
301.748	83.12
301.979	101.12
302.209	86.12
302.439	87.12
302.669	83.12
302.9	77.12
303.13	78.12
303.36	76.12
303.59	100.12
303.82	101.12
304.051	81.12
304.281	83.12
304.511	81.12
304.741	90.12
304.971	105.12
305.201	88.12
305.431	88.12
305.661	83.12
305.891	82.12
306.121	92.12
306.352	87.12
306.582	97.12
306.812	89.12
307.042	82.12
307.272	89.12
307.502	77.12
307.731	107.12
307.961	84.12
308.191	81.12
308.421	97.12
308.651	99.12
308.881	82.12
309.111	96.12
309.341	78.12
309.571	80.12
309.8	93.12
310.03	98.12
310.26	97.12
310.49	99.12
310.72	98.12
310.949	97.12
311.179	93.12
311.409	88.12
311.639	95.12
311.868	83.12
312.098	102.12
312.328	81.12
312.557	97.12
312.787	95.12
313.017	85.12
313.246	97.12
313.476	90.12
313.706	79.12
313.935	90.12
314.165	106.12
314.394	96.12
314.624	104.12
314.853	90.12
315.083	75.12
315.312	80.12
315.542	79.12
315.771	98.12
316.001	100.12
316.23	87.12
316.46	89.12
316.689	96.12
316.919	78.12
317.148	90.12
317.377	83.12
317.607	98.12
317.836	93.12
318.065	84.12
318.295	92.12
318.524	70.12
318.753	82.12
318.983	89.12
319.212	96.12
319.441	97.12
319.67	99.12
319.9	83.12
320.129	92.12
320.358	90.12
320.587	93.12
320.816	94.12
321.046	101.12
321.275	89.12
321.504	87.12
321.733	102.12
321.962	108.12
322.191	91.12
322.42	102.12
322.649	110.12
322.878	100.12
323.108	103.12
323.337	118.12
323.566	138.12
323.795	144.12
324.024	184.12
324.253	328.12
324.482	701.12
324.71	1388.12
324.939	1751.12
325.168	664.12
325.397	202.12
325.626	125.12
325.855	101.12
326.084	112.12
326.313	109.12
326.542	136.12
326.77	186.12
326.999	391.12
327.228	777.12
327.457	1352.12
327.686	1065.12
327.914	300.12
328.143	173.12
328.372	140.12
328.6	121.12
328.829	131.12
329.058	114.12
329.287	119.12
329.515	108.12
329.744	88.12
329.972	92.12
330.201	94.12
330.43	107.12
330.658	121.12
330.887	129.12
331.115	117.12
331.344	103.12
331.572	101.12
331.801	104.12
332.03	91.12
332.258	94.12
332.486	96.12
332.715	89.12
332.943	79.12
333.172	102.12
333.4	82.12
333.629	111.12
333.857	106.12
334.085	112.12
334.314	95.12
334.542	85.12
334.771	89.12
334.999	97.12
335.227	98.12
335.455	95.12
335.684	93.12
335.912	83.12
336.14	82.12
336.369	93.12
336.597	88.12
336.825	107.12
337.053	92.12
337.281	83.12
337.51	96.12
337.738	84.12
337.966	87.12
338.194	98.12
338.422	94.12
338.65	98.12
338.878	84.12
339.106	83.12
339.334	95.12
339.562	84.12
339.79	92.12
340.018	86.12
340.246	82.12
340.474	93.12
340.702	96.12
340.93	86.12
341.158	85.12
341.386	91.12
341.614	96.12
341.842	73.12
342.07	82.12
342.298	83.12
342.526	91.12
342.754	94.12
342.981	75.12
343.209	77.12
343.437	96.12
343.665	63.12
343.893	95.12
344.12	91.12
344.348	84.12
344.576	92.12
344.804	92.12
345.031	91.12
345.259	88.12
345.487	89.12
345.714	86.12
345.942	83.12
346.17	97.12
346.397	92.12
346.625	94.12
346.853	91.12
347.08	85.12
347.308	82.12
347.535	102.12
347.763	93.12
347.99	91.12
348.218	83.12
348.445	95.12
348.673	91.12
348.9	99.12
349.128	97.12
349.355	80.12
349.583	79.12
349.81	89.12
350.037	109.12
350.265	92.12
350.492	91.12
350.72	102.12
350.947	93.12
351.174	98.12
351.402	109.12
351.629	94.12
351.856	102.12
352.083	97.12
352.311	100.12
352.538	100.12
352.765	99.12
352.992	97.12
353.22	110.12
353.447	104.12
353.674	103.12
353.901	92.12
354.128	98.12
354.355	93.12
354.583	90.12
354.81	101.12
355.037	90.12
355.264	99.12
355.491	100.12
355.718	82.12
355.945	101.12
356.172	95.12
356.399	85.12
356.626	89.12
356.853	82.12
357.08	79.12
357.307	82.12
357.534	95.12
357.761	85.12
357.988	86.12
358.215	98.12
358.441	96.12
358.668	83.12
358.895	86.12
359.122	76.12
359.349	89.12
359.576	84.12
359.802	89.12
360.029	112.12
360.256	110.12
360.483	104.12
360.709	101.12
360.936	97.12
361.163	95.12
361.39	100.12
361.616	96.12
361.843	91.12
362.07	101.12
362.296	92.12
362.523	85.12
362.749	61.12
362.976	77.12
363.203	90.12
363.429	86.12
363.656	89.12
363.882	87.12
364.109	97.12
364.335	94.12
364.562	79.12
364.788	98.12
365.015	93.12
365.241	100.12
365.468	106.12
365.694	94.12
365.92	92.12
366.147	87.12
366.373	91.12
366.599	88.12
366.826	106.12
367.052	83.12
367.278	76.12
367.505	79.12
367.731	80.12
367.957	94.12
368.184	69.12
368.41	86.12
368.636	110.12
368.862	116.12
369.089	101.12
369.315	88.12
369.541	95.12
369.767	100.12
369.993	90.12
370.219	92.12
370.445	90.12
370.672	85.12
370.898	73.12
371.124	92.12
371.35	81.12
371.576	93.12
371.802	88.12
372.028	76.12
372.254	80.12
372.48	81.12
372.706	81.12
372.932	75.12
373.158	94.12
373.384	71.12
373.61	96.12
373.835	98.12
374.061	85.12
374.287	103.12
374.513	90.12
374.739	91.12
374.965	96.12
375.191	82.12
375.416	88.12
375.642	84.12
375.868	86.12
376.094	93.12
376.319	89.12
376.545	73.12
376.771	77.12
376.997	83.12
377.222	86.12
377.448	94.12
377.674	78.12
377.899	93.12
378.125	89.12
378.35	84.12
378.576	68.12
378.802	79.12
379.027	68.12
379.253	88.12
379.478	89.12
379.704	101.12
379.929	83.12
380.155	76.12
380.38	95.12
380.606	92.12
380.831	87.12
381.057	101.12
381.282	100.12
381.507	91.12
381.733	82.12
381.958	94.12
382.184	88.12
382.409	96.12
382.634	111.12
382.86	111.12
383.085	94.12
383.31	93.12
383.535	101.12
383.761	95.12
383.986	104.12
384.211	100.12
384.436	110.12
384.662	88.12
384.887	92.12
385.112	96.12
385.337	113.12
385.562	96.12
385.787	86.12
386.013	105.12
386.238	111.12
386.463	95.12
386.688	101.12
386.913	102.12
387.138	93.12
387.363	108.12
387.588	92.12
387.813	96.12
388.038	105.12
388.263	101.12
388.488	102.12
388.713	115.12
388.938	94.12
389.163	91.12
389.387	102.12
389.612	99.12
389.837	111.12
390.062	82.12
390.287	105.12
390.512	94.12
390.736	83.12
390.961	91.12
391.186	84.12
391.411	92.12
391.636	87.12
391.86	80.12
392.085	83.12
392.31	100.12
392.534	90.12
392.759	78.12
392.984	82.12
393.208	93.12
393.433	97.12
393.658	102.12
393.882	77.12
394.107	83.12
394.331	93.12
394.556	66.12
394.78	101.12
395.005	89.12
395.229	78.12
395.454	84.12
395.678	73.12
395.903	80.12
396.127	74.12
396.352	96.12
396.576	71.12
396.801	81.12
397.025	74.12
397.249	95.12
397.474	100.12
397.698	92.12
397.922	89.12
398.147	82.12
398.371	85.12
398.595	89.12
398.82	84.12
399.044	79.12
399.268	73.12
399.492	89.12
399.717	78.12
399.941	78.12
400.165	70.12
400.389	99.12
400.613	84.12
400.837	82.12
401.062	79.12
401.286	79.12
401.51	79.12
401.734	95.12
401.958	101.12
402.182	124.12
402.406	153.12
402.63	117.12
402.854	101.12
403.078	81.12
403.302	97.12
403.526	101.12
403.75	94.12
403.974	81.12
404.198	102.12
404.422	76.12
404.645	94.12
404.869	87.12
405.093	77.12
405.317	99.12
405.541	98.12
405.765	89.12
405.988	124.12
406.212	166.12
406.436	199.12
406.66	133.12
406.883	96.12
407.107	88.12
407.331	87.12
407.555	84.12
407.778	85.12
408.002	84.12
408.226	92.12
408.449	85.12
408.673	92.12
408.896	92.12
409.12	90.12
409.344	86.12
409.567	96.12
409.791	95.12
410.014	84.12
410.238	85.12
410.461	78.12
410.685	85.12
410.908	90.12
411.132	95.12
411.355	101.12
411.578	86.12
411.802	83.12
412.025	62.12
412.249	80.12
412.472	84.12
412.695	89.12
412.919	78.12
413.142	89.12
413.365	76.12
413.589	73.12
413.812	79.12
414.035	88.12
414.258	85.12
414.482	82.12
414.705	93.12
414.928	87.12
415.151	89.12
415.374	90.12
415.597	83.12
415.821	84.12
416.044	78.12
416.267	67.12
416.49	86.12
416.713	82.12
416.936	98.12
417.159	96.12
417.382	74.12
417.605	92.12
417.828	100.12
418.051	85.12
418.274	89.12
418.497	89.12
418.72	97.12
418.943	95.12
419.166	83.12
419.389	74.12
419.611	79.12
419.834	89.12
420.057	100.12
420.28	80.12
420.503	82.12
420.726	80.12
420.948	77.12
421.171	90.12
421.394	82.12
421.617	85.12
421.839	81.12
422.062	92.12
422.285	72.12
422.507	92.12
422.73	88.12
422.953	82.12
423.175	79.12
423.398	94.12
423.621	111.12
423.843	91.12
424.066	74.12
424.288	95.12
424.511	88.12
424.733	97.12
424.956	98.12
425.178	99.12
425.401	92.12
425.623	94.12
425.846	89.12
426.068	74.12
426.291	84.12
426.513	86.12
426.735	94.12
426.958	99.12
427.18	82.12
427.402	111.12
427.625	159.12
427.847	121.12
428.069	111.12
428.292	90.12
428.514	87.12
428.736	74.12
428.958	70.12
429.181	73.12
429.403	75.12
429.625	89.12
429.847	89.12
430.069	99.12
430.292	82.12
430.514	84.12
430.736	98.12
430.958	87.12
431.18	61.12
431.402	70.12
431.624	76.12
431.846	82.12
432.068	90.12
432.29	83.12
432.512	83.12
432.734	90.12
432.956	86.12
433.178	88.12
433.4	83.12
433.622	76.12
433.844	89.12
434.066	99.12
434.287	84.12
434.509	80.12
434.731	89.12
434.953	79.12
435.175	100.12
435.397	89.12
435.618	82.12
435.84	91.12
436.062	118.12
436.284	106.12
436.505	92.12
436.727	97.12
436.949	85.12
437.17	89.12
437.392	81.12
437.614	87.12
437.835	100.12
438.057	98.12
438.278	103.12
438.5	90.12
438.721	102.12
438.943	88.12
439.165	75.12
439.386	90.12
439.608	74.12
439.829	101.12
440.05	108.12
440.272	113.12
440.493	98.12
440.715	74.12
440.936	96.12
441.158	74.12
441.379	93.12
441.6	102.12
441.822	110.12
442.043	83.12
442.264	95.12
442.486	96.12
442.707	83.12
442.928	87.12
443.149	119.12
443.371	117.12
443.592	95.12
443.813	106.12
444.034	92.12
444.255	87.12
444.476	86.12
444.698	71.12
444.919	94.12
445.14	137.12
445.361	113.12
445.582	94.12
445.803	140.12
446.024	115.12
446.245	119.12
446.466	101.12
446.687	74.12
446.908	87.12
447.129	95.12
447.35	91.12
447.571	95.12
447.792	92.12
448.013	112.12
448.234	93.12
448.455	94.12
448.675	100.12
448.896	104.12
449.117	87.12
449.338	93.12
449.559	118.12
449.779	102.12
450	81.12
450.221	78.12
450.442	81.12
450.662	94.12
450.883	114.12
451.104	103.12
451.324	74.12
451.545	88.12
451.766	89.12
451.986	80.12
452.207	77.12
452.428	84.12
452.648	97.12
452.869	98.12
453.089	113.12
453.31	110.12
453.53	91.12
453.751	98.12
453.971	96.12
454.192	106.12
454.412	82.12
454.633	80.12
454.853	85.12
455.073	90.12
455.294	89.12
455.514	96.12
455.734	80.12
455.955	80.12
456.175	92.12
456.395	80.12
456.616	85.12
456.836	76.12
457.056	82.12
457.276	85.12
457.497	74.12
457.717	98.12
457.937	88.12
458.157	86.12
458.377	92.12
458.598	91.12
458.818	131.12
459.038	150.12
459.258	114.12
459.478	80.12
459.698	72.12
459.918	88.12
460.138	87.12
460.358	75.12
460.578	93.12
460.798	85.12
461.018	83.12
461.238	89.12
461.458	90.12
461.678	90.12
461.898	74.12
462.118	86.12
462.338	70.12
462.558	73.12
462.777	74.12
462.997	89.12
463.217	82.12
463.437	71.12
463.657	74.12
463.876	76.12
464.096	78.12
464.316	94.12
464.536	87.12
464.755	92.12
464.975	98.12
465.195	160.12
465.414	148.12
465.634	95.12
465.854	82.12
466.073	72.12
466.293	74.12
466.512	94.12
466.732	75.12
466.951	95.12
467.171	94.12
467.391	82.12
467.61	93.12
467.829	80.12
468.049	80.12
468.268	88.12
468.488	94.12
468.707	73.12
468.927	73.12
469.146	88.12
469.365	77.12
469.585	90.12
469.804	93.12
470.023	98.12
470.243	106.12
470.462	89.12
470.681	101.12
470.901	95.12
471.12	89.12
471.339	84.12
471.558	70.12
471.777	90.12
471.997	88.12
472.216	83.12
472.435	84.12
472.654	88.12
472.873	91.12
473.092	65.12
473.311	85.12
473.53	87.12
473.749	95.12
473.968	97.12
474.187	92.12
474.406	84.12
474.625	97.12
474.844	74.12
475.063	84.12
475.282	85.12
475.501	77.12
475.72	88.12
475.939	81.12
476.158	88.12
476.377	78.12
476.596	77.12
476.814	86.12
477.033	93.12
477.252	89.12
477.471	77.12
477.69	93.12
477.908	87.12
478.127	99.12
478.346	93.12
478.564	81.12
478.783	84.12
479.002	79.12
479.22	90.12
479.439	102.12
479.658	97.12
479.876	98.12
480.095	91.12
480.313	98.12
480.532	90.12
480.751	79.12
480.969	74.12
481.188	98.12
481.406	92.12
481.624	93.12
481.843	83.12
482.061	99.12
482.28	87.12
482.498	88.12
482.717	82.12
482.935	85.12
483.153	85.12
483.372	90.12
483.59	99.12
483.808	80.12
484.027	92.12
484.245	95.12
484.463	87.12
484.681	112.12
484.9	95.12
485.118	83.12
485.336	89.12
485.554	73.12
485.772	93.12
485.99	92.12
486.209	88.12
486.427	106.12
486.645	85.12
486.863	95.12
487.081	100.12
487.299	83.12
487.517	97.12
487.735	83.12
487.953	84.12
488.171	87.12
488.389	89.12
488.607	89.12
488.825	82.12
489.043	86.12
489.261	72.12
489.479	93.12
489.696	79.12
489.914	82.12
490.132	96.12
490.35	86.12
490.568	94.12
490.786	86.12
491.003	104.12
491.221	90.12
491.439	94.12
491.657	72.12
491.874	101.12
492.092	93.12
492.31	94.12
492.527	95.12
492.745	90.12
492.963	87.12
493.18	100.12
493.398	101.12
493.615	93.12
493.833	98.12
494.05	89.12
494.268	58.12
494.485	91.12
494.703	76.12
494.92	68.12
495.138	93.12
495.355	113.12
495.573	89.12
495.79	94.12
496.008	89.12
496.225	94.12
496.442	76.12
496.66	81.12
496.877	83.12
497.094	87.12
497.312	70.12
497.529	91.12
497.746	77.12
497.963	80.12
498.181	80.12
498.398	77.12
498.615	84.12
498.832	97.12
499.049	88.12
499.267	81.12
499.484	85.12
499.701	85.12
499.918	102.12
500.135	84.12
500.352	95.12
500.569	86.12
500.786	90.12
501.003	78.12
501.22	85.12
501.437	88.12
501.654	105.12
501.871	101.12
502.088	94.12
502.305	82.12
502.522	87.12
502.739	88.12
502.956	85.12
503.172	95.12
503.389	101.12
503.606	86.12
503.823	95.12
504.04	94.12
504.256	85.12
504.473	94.12
504.69	78.12
504.907	81.12
505.123	102.12
505.34	80.12
505.557	90.12
505.773	91.12
505.99	81.12
506.207	82.12
506.423	73.12
506.64	79.12
506.856	81.12
507.073	97.12
507.289	85.12
507.506	86.12
507.722	108.12
507.939	107.12
508.155	86.12
508.372	94.12
508.588	89.12
508.805	86.12
509.021	94.12
509.238	80.12
509.454	93.12
509.67	102.12
509.887	103.12
510.103	120.12
510.319	223.12
510.536	719.12
510.752	2276.12
510.968	620.12
511.184	141.12
511.401	105.12
511.617	98.12
511.833	88.12
512.049	87.12
512.265	87.12
512.481	85.12
512.698	92.12
512.914	90.12
513.13	92.12
513.346	81.12
513.562	88.12
513.778	88.12
513.994	92.12
514.21	91.12
514.426	115.12
514.642	138.12
514.858	124.12
515.074	175.12
515.29	415.12
515.506	1402.12
515.721	512.12
515.937	154.12
516.153	121.12
516.369	101.12
516.585	91.12
516.801	98.12
517.016	93.12
