Data from Uncirc_2001_H10_HRD10591_00066.txt Node
Date: Wed Jan 03 10:44:10 EST 2024
User: Yrep
Spectrometer: HR+D1059
Trigger mode: 1
Integration Time (sec): 1.000000E-1
Scans to average: 1
Electric dark correction enabled: true
Nonlinearity correction enabled: false
Boxcar width: 0
XAxis mode: Wavelengths
Number of Pixels in Spectrum: 2048
>>>>>Begin Spectral Data<<<<<
223.165	-14.75
223.4	-14.75
223.635	-14.75
223.869	-11.75
224.104	-34.75
224.338	-16.75
224.573	-14.75
224.808	-8.75
225.042	-1.75
225.277	-10.75
225.511	-0.75
225.746	11.25
225.98	-2.75
226.215	11.25
226.449	21.25
226.683	17.25
226.918	25.25
227.152	31.25
227.387	42.25
227.621	27.25
227.856	58.25
228.09	47.25
228.324	52.25
228.559	62.25
228.793	53.25
229.027	75.25
229.262	62.25
229.496	81.25
229.73	78.25
229.964	86.25
230.199	78.25
230.433	62.25
230.667	71.25
230.901	79.25
231.136	74.25
231.37	79.25
231.604	64.25
231.838	75.25
232.072	85.25
232.306	75.25
232.541	87.25
232.775	86.25
233.009	86.25
233.243	80.25
233.477	73.25
233.711	83.25
233.945	78.25
234.179	82.25
234.413	81.25
234.647	73.25
234.881	80.25
235.115	81.25
235.349	65.25
235.583	73.25
235.817	82.25
236.051	67.25
236.285	82.25
236.519	84.25
236.753	74.25
236.987	77.25
237.221	81.25
237.455	85.25
237.689	81.25
237.922	65.25
238.156	71.25
238.39	59.25
238.624	84.25
238.858	86.25
239.091	69.25
239.325	77.25
239.559	82.25
239.793	86.25
240.027	69.25
240.26	85.25
240.494	83.25
240.728	79.25
240.961	67.25
241.195	92.25
241.429	79.25
241.662	80.25
241.896	73.25
242.13	69.25
242.363	72.25
242.597	69.25
242.83	73.25
243.064	71.25
243.298	66.25
243.531	71.25
243.765	73.25
243.998	82.25
244.232	69.25
244.465	63.25
244.699	61.25
244.932	83.25
245.166	74.25
245.399	70.25
245.633	57.25
245.866	70.25
246.099	81.25
246.333	70.25
246.566	73.25
246.8	82.25
247.033	68.25
247.266	94.25
247.5	74.25
247.733	75.25
247.966	82.25
248.2	82.25
248.433	75.25
248.666	73.25
248.899	84.25
249.133	74.25
249.366	85.25
249.599	101.25
249.832	99.25
250.066	72.25
250.299	85.25
250.532	85.25
250.765	80.25
250.998	62.25
251.231	71.25
251.465	72.25
251.698	74.25
251.931	88.25
252.164	64.25
252.397	75.25
252.63	79.25
252.863	83.25
253.096	73.25
253.329	79.25
253.562	80.25
253.795	89.25
254.028	91.25
254.261	81.25
254.494	77.25
254.727	89.25
254.96	84.25
255.193	91.25
255.426	79.25
255.659	70.25
255.892	80.25
256.124	65.25
256.357	71.25
256.59	79.25
256.823	74.25
257.056	90.25
257.289	76.25
257.521	84.25
257.754	65.25
257.987	70.25
258.22	86.25
258.452	69.25
258.685	69.25
258.918	87.25
259.151	84.25
259.383	88.25
259.616	73.25
259.849	66.25
260.081	80.25
260.314	80.25
260.547	89.25
260.779	83.25
261.012	94.25
261.244	76.25
261.477	89.25
261.71	83.25
261.942	102.25
262.175	112.25
262.407	79.25
262.64	77.25
262.872	74.25
263.105	80.25
263.337	82.25
263.57	87.25
263.802	95.25
264.035	82.25
264.267	78.25
264.499	79.25
264.732	71.25
264.964	80.25
265.197	73.25
265.429	89.25
265.661	92.25
265.894	72.25
266.126	87.25
266.358	82.25
266.591	74.25
266.823	66.25
267.055	87.25
267.287	82.25
267.52	87.25
267.752	95.25
267.984	94.25
268.216	85.25
268.448	65.25
268.681	81.25
268.913	80.25
269.145	74.25
269.377	104.25
269.609	86.25
269.841	75.25
270.073	61.25
270.306	86.25
270.538	93.25
270.77	77.25
271.002	87.25
271.234	90.25
271.466	89.25
271.698	90.25
271.93	75.25
272.162	94.25
272.394	87.25
272.626	77.25
272.858	76.25
273.09	85.25
273.322	83.25
273.553	66.25
273.785	90.25
274.017	88.25
274.249	73.25
274.481	75.25
274.713	84.25
274.945	88.25
275.176	90.25
275.408	91.25
275.64	71.25
275.872	81.25
276.104	89.25
276.335	92.25
276.567	90.25
276.799	102.25
277.031	98.25
277.262	97.25
277.494	102.25
277.726	90.25
277.957	86.25
278.189	93.25
278.421	89.25
278.652	75.25
278.884	89.25
279.115	82.25
279.347	78.25
279.579	85.25
279.81	83.25
280.042	83.25
280.273	81.25
280.505	93.25
280.736	77.25
280.968	80.25
281.199	91.25
281.431	79.25
281.662	97.25
281.894	105.25
282.125	104.25
282.356	109.25
282.588	131.25
282.819	107.25
283.051	81.25
283.282	78.25
283.513	81.25
283.745	85.25
283.976	70.25
284.207	79.25
284.439	97.25
284.67	91.25
284.901	76.25
285.132	76.25
285.364	84.25
285.595	85.25
285.826	74.25
286.057	89.25
286.288	89.25
286.52	83.25
286.751	87.25
286.982	78.25
287.213	78.25
287.444	80.25
287.675	82.25
287.906	85.25
288.138	90.25
288.369	85.25
288.6	89.25
288.831	87.25
289.062	85.25
289.293	92.25
289.524	95.25
289.755	86.25
289.986	97.25
290.217	77.25
290.448	87.25
290.679	86.25
290.91	87.25
291.141	81.25
291.371	90.25
291.602	91.25
291.833	82.25
292.064	92.25
292.295	84.25
292.526	87.25
292.757	86.25
292.987	81.25
293.218	85.25
293.449	69.25
293.68	82.25
293.91	73.25
294.141	99.25
294.372	87.25
294.603	69.25
294.833	83.25
295.064	89.25
295.295	95.25
295.525	79.25
295.756	106.25
295.987	105.25
296.217	121.25
296.448	102.25
296.679	91.25
296.909	79.25
297.14	94.25
297.37	83.25
297.601	96.25
297.831	94.25
298.062	65.25
298.292	81.25
298.523	91.25
298.753	81.25
298.984	88.25
299.214	82.25
299.445	102.25
299.675	83.25
299.905	85.25
300.136	90.25
300.366	87.25
300.597	96.25
300.827	85.25
301.057	92.25
301.288	84.25
301.518	98.25
301.748	90.25
301.979	110.25
302.209	93.25
302.439	87.25
302.669	76.25
302.9	85.25
303.13	88.25
303.36	89.25
303.59	91.25
303.82	102.25
304.051	83.25
304.281	96.25
304.511	89.25
304.741	86.25
304.971	88.25
305.201	84.25
305.431	74.25
305.661	83.25
305.891	94.25
306.121	88.25
306.352	101.25
306.582	102.25
306.812	85.25
307.042	91.25
307.272	89.25
307.502	105.25
307.731	86.25
307.961	85.25
308.191	65.25
308.421	90.25
308.651	76.25
308.881	86.25
309.111	103.25
309.341	98.25
309.571	98.25
309.8	107.25
310.03	96.25
310.26	91.25
310.49	103.25
310.72	94.25
310.949	108.25
311.179	96.25
311.409	99.25
311.639	96.25
311.868	94.25
312.098	86.25
312.328	97.25
312.557	102.25
312.787	112.25
313.017	86.25
313.246	91.25
313.476	87.25
313.706	82.25
313.935	98.25
314.165	104.25
314.394	109.25
314.624	93.25
314.853	97.25
315.083	89.25
315.312	104.25
315.542	88.25
315.771	88.25
316.001	105.25
316.23	95.25
316.46	73.25
316.689	79.25
316.919	87.25
317.148	87.25
317.377	90.25
317.607	98.25
317.836	86.25
318.065	87.25
318.295	78.25
318.524	87.25
318.753	80.25
318.983	94.25
319.212	100.25
319.441	110.25
319.67	94.25
319.9	91.25
320.129	92.25
320.358	102.25
320.587	92.25
320.816	95.25
321.046	99.25
321.275	87.25
321.504	86.25
321.733	78.25
321.962	109.25
322.191	67.25
322.42	107.25
322.649	103.25
322.878	116.25
323.108	108.25
323.337	125.25
323.566	119.25
323.795	149.25
324.024	194.25
324.253	372.25
324.482	785.25
324.71	1506.25
324.939	1887.25
325.168	739.25
325.397	223.25
325.626	137.25
325.855	137.25
326.084	121.25
326.313	129.25
326.542	141.25
326.77	202.25
326.999	405.25
327.228	825.25
327.457	1458.25
327.686	1185.25
327.914	315.25
328.143	174.25
328.372	137.25
328.6	119.25
328.829	104.25
329.058	130.25
329.287	114.25
329.515	114.25
329.744	101.25
329.972	102.25
330.201	96.25
330.43	94.25
330.658	107.25
330.887	147.25
331.115	118.25
331.344	106.25
331.572	104.25
331.801	104.25
332.03	107.25
332.258	91.25
332.486	93.25
332.715	96.25
332.943	81.25
333.172	79.25
333.4	103.25
333.629	109.25
333.857	106.25
334.085	111.25
334.314	94.25
334.542	95.25
334.771	103.25
334.999	100.25
335.227	89.25
335.455	92.25
335.684	107.25
335.912	91.25
336.14	79.25
336.369	90.25
336.597	97.25
336.825	101.25
337.053	91.25
337.281	87.25
337.51	96.25
337.738	109.25
337.966	83.25
338.194	92.25
338.422	96.25
338.65	94.25
338.878	75.25
339.106	86.25
339.334	90.25
339.562	89.25
339.79	90.25
340.018	90.25
340.246	91.25
340.474	107.25
340.702	97.25
340.93	84.25
341.158	82.25
341.386	95.25
341.614	97.25
341.842	91.25
342.07	102.25
342.298	94.25
342.526	89.25
342.754	87.25
342.981	90.25
343.209	73.25
343.437	87.25
343.665	78.25
343.893	90.25
344.12	101.25
344.348	97.25
344.576	89.25
344.804	85.25
345.031	91.25
345.259	83.25
345.487	94.25
345.714	90.25
345.942	91.25
346.17	80.25
346.397	90.25
346.625	100.25
346.853	101.25
347.08	81.25
347.308	88.25
347.535	81.25
347.763	101.25
347.99	99.25
348.218	96.25
348.445	104.25
348.673	82.25
348.9	94.25
349.128	106.25
349.355	94.25
349.583	95.25
349.81	85.25
350.037	89.25
350.265	96.25
350.492	102.25
350.72	99.25
350.947	107.25
351.174	112.25
351.402	115.25
351.629	94.25
351.856	106.25
352.083	110.25
352.311	110.25
352.538	110.25
352.765	100.25
352.992	108.25
353.22	102.25
353.447	102.25
353.674	92.25
353.901	96.25
354.128	91.25
354.355	83.25
354.583	97.25
354.81	97.25
355.037	85.25
355.264	78.25
355.491	89.25
355.718	80.25
355.945	103.25
356.172	82.25
356.399	96.25
356.626	83.25
356.853	107.25
357.08	91.25
357.307	75.25
357.534	82.25
357.761	88.25
357.988	80.25
358.215	91.25
358.441	90.25
358.668	78.25
358.895	86.25
359.122	74.25
359.349	97.25
359.576	79.25
359.802	88.25
360.029	111.25
360.256	110.25
360.483	91.25
360.709	100.25
360.936	107.25
361.163	80.25
361.39	98.25
361.616	103.25
361.843	81.25
362.07	97.25
362.296	93.25
362.523	73.25
362.749	82.25
362.976	88.25
363.203	87.25
363.429	83.25
363.656	90.25
363.882	84.25
364.109	77.25
364.335	85.25
364.562	95.25
364.788	86.25
365.015	97.25
365.241	100.25
365.468	103.25
365.694	97.25
365.92	85.25
366.147	83.25
366.373	81.25
366.599	88.25
366.826	86.25
367.052	100.25
367.278	102.25
367.505	90.25
367.731	99.25
367.957	98.25
368.184	89.25
368.41	87.25
368.636	118.25
368.862	119.25
369.089	100.25
369.315	86.25
369.541	98.25
369.767	88.25
369.993	89.25
370.219	95.25
370.445	83.25
370.672	85.25
370.898	76.25
371.124	85.25
371.35	95.25
371.576	86.25
371.802	81.25
372.028	84.25
372.254	81.25
372.48	98.25
372.706	77.25
372.932	101.25
373.158	78.25
373.384	79.25
373.61	76.25
373.835	98.25
374.061	78.25
374.287	84.25
374.513	85.25
374.739	73.25
374.965	78.25
375.191	101.25
375.416	88.25
375.642	84.25
375.868	89.25
376.094	92.25
376.319	90.25
376.545	75.25
376.771	76.25
376.997	89.25
377.222	78.25
377.448	83.25
377.674	82.25
377.899	98.25
378.125	67.25
378.35	92.25
378.576	94.25
378.802	96.25
379.027	83.25
379.253	91.25
379.478	81.25
379.704	85.25
379.929	96.25
380.155	85.25
380.38	98.25
380.606	90.25
380.831	96.25
381.057	91.25
381.282	92.25
381.507	87.25
381.733	97.25
381.958	82.25
382.184	96.25
382.409	77.25
382.634	89.25
382.86	96.25
383.085	86.25
383.31	95.25
383.535	89.25
383.761	97.25
383.986	102.25
384.211	82.25
384.436	92.25
384.662	101.25
384.887	89.25
385.112	97.25
385.337	94.25
385.562	117.25
385.787	99.25
386.013	115.25
386.238	96.25
386.463	88.25
386.688	102.25
386.913	105.25
387.138	98.25
387.363	96.25
387.588	111.25
387.813	87.25
388.038	96.25
388.263	88.25
388.488	94.25
388.713	93.25
388.938	84.25
389.163	91.25
389.387	92.25
389.612	82.25
389.837	94.25
390.062	89.25
390.287	91.25
390.512	88.25
390.736	88.25
390.961	82.25
391.186	83.25
391.411	94.25
391.636	97.25
391.86	75.25
392.085	81.25
392.31	88.25
392.534	83.25
392.759	91.25
392.984	83.25
393.208	96.25
393.433	71.25
393.658	69.25
393.882	72.25
394.107	86.25
394.331	81.25
394.556	83.25
394.78	79.25
395.005	73.25
395.229	79.25
395.454	82.25
395.678	74.25
395.903	94.25
396.127	84.25
396.352	78.25
396.576	87.25
396.801	72.25
397.025	82.25
397.249	83.25
397.474	77.25
397.698	71.25
397.922	93.25
398.147	78.25
398.371	78.25
398.595	76.25
398.82	75.25
399.044	83.25
399.268	75.25
399.492	82.25
399.717	86.25
399.941	84.25
400.165	96.25
400.389	95.25
400.613	80.25
400.837	83.25
401.062	74.25
401.286	86.25
401.51	93.25
401.734	85.25
401.958	97.25
402.182	123.25
402.406	157.25
402.63	105.25
402.854	83.25
403.078	88.25
403.302	85.25
403.526	86.25
403.75	86.25
403.974	79.25
404.198	77.25
404.422	81.25
404.645	89.25
404.869	88.25
405.093	100.25
405.317	90.25
405.541	90.25
405.765	97.25
405.988	112.25
406.212	178.25
406.436	221.25
406.66	145.25
406.883	104.25
407.107	88.25
407.331	95.25
407.555	100.25
407.778	84.25
408.002	82.25
408.226	94.25
408.449	97.25
408.673	90.25
408.896	97.25
409.12	91.25
409.344	77.25
409.567	89.25
409.791	82.25
410.014	103.25
410.238	84.25
410.461	95.25
410.685	89.25
410.908	90.25
411.132	100.25
411.355	91.25
411.578	90.25
411.802	86.25
412.025	81.25
412.249	88.25
412.472	86.25
412.695	87.25
412.919	83.25
413.142	89.25
413.365	70.25
413.589	86.25
413.812	98.25
414.035	92.25
414.258	85.25
414.482	95.25
414.705	93.25
414.928	89.25
415.151	86.25
415.374	83.25
415.597	90.25
415.821	89.25
416.044	87.25
416.267	86.25
416.49	90.25
416.713	86.25
416.936	69.25
417.159	88.25
417.382	82.25
417.605	92.25
417.828	90.25
418.051	103.25
418.274	92.25
418.497	88.25
418.72	93.25
418.943	73.25
419.166	96.25
419.389	85.25
419.611	91.25
419.834	89.25
420.057	83.25
420.28	74.25
420.503	98.25
420.726	81.25
420.948	79.25
421.171	86.25
421.394	82.25
421.617	80.25
421.839	84.25
422.062	89.25
422.285	89.25
422.507	107.25
422.73	106.25
422.953	86.25
423.175	93.25
423.398	82.25
423.621	86.25
423.843	77.25
424.066	90.25
424.288	103.25
424.511	89.25
424.733	98.25
424.956	105.25
425.178	102.25
425.401	112.25
425.623	93.25
425.846	77.25
426.068	84.25
426.291	91.25
426.513	101.25
426.735	110.25
426.958	87.25
427.18	95.25
427.402	127.25
427.625	168.25
427.847	126.25
428.069	91.25
428.292	70.25
428.514	84.25
428.736	70.25
428.958	80.25
429.181	85.25
429.403	85.25
429.625	70.25
429.847	82.25
430.069	104.25
430.292	87.25
430.514	65.25
430.736	89.25
430.958	85.25
431.18	86.25
431.402	69.25
431.624	84.25
431.846	94.25
432.068	78.25
432.29	82.25
432.512	91.25
432.734	92.25
432.956	72.25
433.178	96.25
433.4	89.25
433.622	66.25
433.844	73.25
434.066	95.25
434.287	103.25
434.509	83.25
434.731	96.25
434.953	76.25
435.175	87.25
435.397	94.25
435.618	92.25
435.84	111.25
436.062	122.25
436.284	105.25
436.505	84.25
436.727	91.25
436.949	100.25
437.17	86.25
437.392	87.25
437.614	104.25
437.835	99.25
438.057	112.25
438.278	111.25
438.5	95.25
438.721	112.25
438.943	110.25
439.165	101.25
439.386	80.25
439.608	83.25
439.829	91.25
440.05	109.25
440.272	150.25
440.493	95.25
440.715	85.25
440.936	99.25
441.158	96.25
441.379	91.25
441.6	106.25
441.822	101.25
442.043	92.25
442.264	110.25
442.486	87.25
442.707	87.25
442.928	110.25
443.149	131.25
443.371	126.25
443.592	102.25
443.813	112.25
444.034	114.25
444.255	98.25
444.476	108.25
444.698	85.25
444.919	76.25
445.14	114.25
445.361	112.25
445.582	102.25
445.803	131.25
446.024	149.25
446.245	133.25
446.466	95.25
446.687	91.25
446.908	86.25
447.129	79.25
447.35	84.25
447.571	84.25
447.792	74.25
448.013	91.25
448.234	109.25
448.455	99.25
448.675	107.25
448.896	127.25
449.117	103.25
449.338	112.25
449.559	114.25
449.779	108.25
450	86.25
450.221	90.25
450.442	86.25
450.662	81.25
450.883	108.25
451.104	99.25
451.324	84.25
451.545	101.25
451.766	91.25
451.986	81.25
452.207	86.25
452.428	96.25
452.648	89.25
452.869	120.25
453.089	121.25
453.31	125.25
453.53	100.25
453.751	89.25
453.971	104.25
454.192	102.25
454.412	88.25
454.633	93.25
454.853	79.25
455.073	77.25
455.294	105.25
455.514	106.25
455.734	95.25
455.955	91.25
456.175	79.25
456.395	73.25
456.616	83.25
456.836	94.25
457.056	90.25
457.276	88.25
457.497	86.25
457.717	86.25
457.937	90.25
458.157	73.25
458.377	95.25
458.598	119.25
458.818	153.25
459.038	147.25
459.258	102.25
459.478	81.25
459.698	77.25
459.918	84.25
460.138	78.25
460.358	97.25
460.578	90.25
460.798	84.25
461.018	80.25
461.238	86.25
461.458	88.25
461.678	90.25
461.898	78.25
462.118	94.25
462.338	94.25
462.558	71.25
462.777	80.25
462.997	105.25
463.217	87.25
463.437	78.25
463.657	82.25
463.876	84.25
464.096	82.25
464.316	90.25
464.536	94.25
464.755	91.25
464.975	91.25
465.195	169.25
465.414	154.25
465.634	88.25
465.854	94.25
466.073	88.25
466.293	84.25
466.512	77.25
466.732	91.25
466.951	90.25
467.171	81.25
467.391	81.25
467.61	102.25
467.829	99.25
468.049	84.25
468.268	93.25
468.488	90.25
468.707	77.25
468.927	87.25
469.146	81.25
469.365	90.25
469.585	81.25
469.804	96.25
470.023	82.25
470.243	91.25
470.462	92.25
470.681	99.25
470.901	90.25
471.12	74.25
471.339	80.25
471.558	89.25
471.777	67.25
471.997	89.25
472.216	97.25
472.435	83.25
472.654	75.25
472.873	85.25
473.092	86.25
473.311	84.25
473.53	70.25
473.749	73.25
473.968	94.25
474.187	97.25
474.406	96.25
474.625	83.25
474.844	83.25
475.063	81.25
475.282	88.25
475.501	69.25
475.72	105.25
475.939	69.25
476.158	84.25
476.377	87.25
476.596	84.25
476.814	70.25
477.033	85.25
477.252	97.25
477.471	85.25
477.69	72.25
477.908	91.25
478.127	74.25
478.346	75.25
478.564	98.25
478.783	90.25
479.002	95.25
479.22	91.25
479.439	104.25
479.658	114.25
479.876	92.25
480.095	97.25
480.313	88.25
480.532	88.25
480.751	80.25
480.969	95.25
481.188	88.25
481.406	78.25
481.624	91.25
481.843	78.25
482.061	83.25
482.28	82.25
482.498	98.25
482.717	95.25
482.935	90.25
483.153	89.25
483.372	91.25
483.59	85.25
483.808	77.25
484.027	88.25
484.245	90.25
484.463	97.25
484.681	86.25
484.9	89.25
485.118	99.25
485.336	89.25
485.554	102.25
485.772	101.25
485.99	86.25
486.209	89.25
486.427	82.25
486.645	97.25
486.863	107.25
487.081	84.25
487.299	99.25
487.517	87.25
487.735	88.25
487.953	76.25
488.171	89.25
488.389	103.25
488.607	91.25
488.825	86.25
489.043	83.25
489.261	80.25
489.479	99.25
489.696	82.25
489.914	81.25
490.132	79.25
490.35	87.25
490.568	81.25
490.786	103.25
491.003	91.25
491.221	93.25
491.439	78.25
491.657	85.25
491.874	103.25
492.092	87.25
492.31	98.25
492.527	90.25
492.745	84.25
492.963	82.25
493.18	77.25
493.398	88.25
493.615	82.25
493.833	98.25
494.05	80.25
494.268	92.25
494.485	67.25
494.703	88.25
494.92	89.25
495.138	80.25
495.355	90.25
495.573	85.25
495.79	81.25
496.008	104.25
496.225	69.25
496.442	79.25
496.66	105.25
496.877	78.25
497.094	95.25
497.312	96.25
497.529	101.25
497.746	82.25
497.963	85.25
498.181	96.25
498.398	104.25
498.615	104.25
498.832	97.25
499.049	97.25
499.267	104.25
499.484	79.25
499.701	77.25
499.918	88.25
500.135	80.25
500.352	80.25
500.569	98.25
500.786	86.25
501.003	76.25
501.22	82.25
501.437	90.25
501.654	93.25
501.871	93.25
502.088	87.25
502.305	87.25
502.522	95.25
502.739	105.25
502.956	81.25
503.172	85.25
503.389	106.25
503.606	100.25
503.823	111.25
504.04	86.25
504.256	79.25
504.473	89.25
504.69	77.25
504.907	98.25
505.123	92.25
505.34	93.25
505.557	85.25
505.773	75.25
505.99	85.25
506.207	97.25
506.423	99.25
506.64	78.25
506.856	87.25
507.073	77.25
507.289	88.25
507.506	86.25
507.722	96.25
507.939	116.25
508.155	99.25
508.372	108.25
508.588	86.25
508.805	82.25
509.021	83.25
509.238	117.25
509.454	110.25
509.67	87.25
509.887	109.25
510.103	137.25
510.319	223.25
510.536	779.25
510.752	2445.25
510.968	656.25
511.184	167.25
511.401	106.25
511.617	92.25
511.833	103.25
512.049	82.25
512.265	90.25
512.481	106.25
512.698	87.25
512.914	95.25
513.13	88.25
513.346	94.25
513.562	114.25
513.778	97.25
513.994	90.25
514.21	99.25
514.426	110.25
514.642	126.25
514.858	118.25
515.074	155.25
515.29	474.25
515.506	1559.25
515.721	575.25
515.937	160.25
516.153	113.25
516.369	89.25
