Data from Uncirc_2001_H10_HRD10591_00018.txt Node
Date: Wed Jan 03 10:44:00 EST 2024
User: Yrep
Spectrometer: HR+D1059
Trigger mode: 1
Integration Time (sec): 1.000000E-1
Scans to average: 1
Electric dark correction enabled: true
Nonlinearity correction enabled: false
Boxcar width: 0
XAxis mode: Wavelengths
Number of Pixels in Spectrum: 2048
>>>>>Begin Spectral Data<<<<<
223.165	-21.06
223.4	-21.06
223.635	-21.06
223.869	-26.06
224.104	-35.06
224.338	-16.06
224.573	-22.06
224.808	-6.06
225.042	-8.06
225.277	-11.06
225.511	2.94
225.746	8.94
225.98	3.94
226.215	14.94
226.449	15.94
226.683	21.94
226.918	30.94
227.152	45.94
227.387	34.94
227.621	45.94
227.856	49.94
228.09	33.94
228.324	58.94
228.559	43.94
228.793	53.94
229.027	65.94
229.262	69.94
229.496	73.94
229.73	80.94
229.964	87.94
230.199	76.94
230.433	80.94
230.667	94.94
230.901	73.94
231.136	77.94
231.37	73.94
231.604	82.94
231.838	81.94
232.072	78.94
232.306	57.94
232.541	104.94
232.775	66.94
233.009	74.94
233.243	77.94
233.477	71.94
233.711	85.94
233.945	75.94
234.179	82.94
234.413	64.94
234.647	77.94
234.881	79.94
235.115	68.94
235.349	78.94
235.583	85.94
235.817	68.94
236.051	91.94
236.285	84.94
236.519	79.94
236.753	82.94
236.987	73.94
237.221	78.94
237.455	86.94
237.689	74.94
237.922	60.94
238.156	62.94
238.39	63.94
238.624	75.94
238.858	72.94
239.091	91.94
239.325	90.94
239.559	72.94
239.793	70.94
240.027	74.94
240.26	68.94
240.494	82.94
240.728	66.94
240.961	77.94
241.195	72.94
241.429	86.94
241.662	69.94
241.896	72.94
242.13	66.94
242.363	82.94
242.597	54.94
242.83	64.94
243.064	63.94
243.298	74.94
243.531	65.94
243.765	63.94
243.998	78.94
244.232	84.94
244.465	76.94
244.699	79.94
244.932	79.94
245.166	68.94
245.399	79.94
245.633	78.94
245.866	66.94
246.099	76.94
246.333	79.94
246.566	72.94
246.8	81.94
247.033	95.94
247.266	82.94
247.5	75.94
247.733	63.94
247.966	74.94
248.2	73.94
248.433	78.94
248.666	72.94
248.899	69.94
249.133	79.94
249.366	91.94
249.599	88.94
249.832	91.94
250.066	79.94
250.299	79.94
250.532	85.94
250.765	83.94
250.998	78.94
251.231	81.94
251.465	80.94
251.698	67.94
251.931	82.94
252.164	79.94
252.397	83.94
252.63	71.94
252.863	77.94
253.096	77.94
253.329	77.94
253.562	89.94
253.795	83.94
254.028	82.94
254.261	78.94
254.494	80.94
254.727	81.94
254.96	76.94
255.193	74.94
255.426	87.94
255.659	77.94
255.892	86.94
256.124	88.94
256.357	71.94
256.59	79.94
256.823	84.94
257.056	84.94
257.289	61.94
257.521	84.94
257.754	73.94
257.987	77.94
258.22	73.94
258.452	70.94
258.685	77.94
258.918	76.94
259.151	66.94
259.383	86.94
259.616	79.94
259.849	86.94
260.081	83.94
260.314	89.94
260.547	94.94
260.779	83.94
261.012	85.94
261.244	74.94
261.477	86.94
261.71	100.94
261.942	95.94
262.175	99.94
262.407	79.94
262.64	101.94
262.872	78.94
263.105	84.94
263.337	72.94
263.57	77.94
263.802	82.94
264.035	87.94
264.267	90.94
264.499	88.94
264.732	88.94
264.964	86.94
265.197	82.94
265.429	95.94
265.661	84.94
265.894	89.94
266.126	74.94
266.358	78.94
266.591	78.94
266.823	88.94
267.055	78.94
267.287	73.94
267.52	94.94
267.752	85.94
267.984	77.94
268.216	96.94
268.448	74.94
268.681	80.94
268.913	90.94
269.145	90.94
269.377	85.94
269.609	70.94
269.841	93.94
270.073	87.94
270.306	90.94
270.538	85.94
270.77	81.94
271.002	81.94
271.234	86.94
271.466	86.94
271.698	88.94
271.93	95.94
272.162	82.94
272.394	86.94
272.626	80.94
272.858	85.94
273.09	77.94
273.322	90.94
273.553	87.94
273.785	85.94
274.017	83.94
274.249	84.94
274.481	82.94
274.713	88.94
274.945	79.94
275.176	94.94
275.408	87.94
275.64	86.94
275.872	80.94
276.104	80.94
276.335	84.94
276.567	90.94
276.799	81.94
277.031	77.94
277.262	88.94
277.494	81.94
277.726	82.94
277.957	90.94
278.189	71.94
278.421	82.94
278.652	88.94
278.884	77.94
279.115	81.94
279.347	82.94
279.579	81.94
279.81	91.94
280.042	87.94
280.273	69.94
280.505	73.94
280.736	63.94
280.968	81.94
281.199	94.94
281.431	95.94
281.662	81.94
281.894	80.94
282.125	87.94
282.356	107.94
282.588	119.94
282.819	104.94
283.051	86.94
283.282	91.94
283.513	90.94
283.745	70.94
283.976	97.94
284.207	79.94
284.439	93.94
284.67	84.94
284.901	83.94
285.132	75.94
285.364	91.94
285.595	83.94
285.826	95.94
286.057	83.94
286.288	85.94
286.52	90.94
286.751	83.94
286.982	84.94
287.213	70.94
287.444	79.94
287.675	88.94
287.906	94.94
288.138	79.94
288.369	89.94
288.6	93.94
288.831	70.94
289.062	100.94
289.293	90.94
289.524	72.94
289.755	78.94
289.986	95.94
290.217	86.94
290.448	75.94
290.679	92.94
290.91	76.94
291.141	80.94
291.371	83.94
291.602	68.94
291.833	90.94
292.064	103.94
292.295	82.94
292.526	81.94
292.757	88.94
292.987	83.94
293.218	83.94
293.449	80.94
293.68	90.94
293.91	88.94
294.141	87.94
294.372	87.94
294.603	80.94
294.833	70.94
295.064	85.94
295.295	91.94
295.525	98.94
295.756	90.94
295.987	104.94
296.217	130.94
296.448	103.94
296.679	90.94
296.909	90.94
297.14	79.94
297.37	87.94
297.601	91.94
297.831	83.94
298.062	82.94
298.292	90.94
298.523	94.94
298.753	91.94
298.984	85.94
299.214	79.94
299.445	72.94
299.675	86.94
299.905	98.94
300.136	79.94
300.366	85.94
300.597	89.94
300.827	98.94
301.057	106.94
301.288	99.94
301.518	88.94
301.748	87.94
301.979	98.94
302.209	101.94
302.439	84.94
302.669	99.94
302.9	76.94
303.13	83.94
303.36	105.94
303.59	88.94
303.82	99.94
304.051	87.94
304.281	87.94
304.511	85.94
304.741	91.94
304.971	80.94
305.201	94.94
305.431	97.94
305.661	81.94
305.891	100.94
306.121	80.94
306.352	91.94
306.582	94.94
306.812	85.94
307.042	93.94
307.272	103.94
307.502	92.94
307.731	92.94
307.961	90.94
308.191	88.94
308.421	97.94
308.651	94.94
308.881	88.94
309.111	88.94
309.341	82.94
309.571	85.94
309.8	78.94
310.03	105.94
310.26	104.94
310.49	93.94
310.72	91.94
310.949	85.94
311.179	90.94
311.409	79.94
311.639	95.94
311.868	88.94
312.098	88.94
312.328	79.94
312.557	95.94
312.787	100.94
313.017	91.94
313.246	89.94
313.476	91.94
313.706	108.94
313.935	80.94
314.165	96.94
314.394	99.94
314.624	79.94
314.853	92.94
315.083	78.94
315.312	82.94
315.542	90.94
315.771	93.94
316.001	90.94
316.23	90.94
316.46	82.94
316.689	87.94
316.919	95.94
317.148	74.94
317.377	86.94
317.607	85.94
317.836	94.94
318.065	82.94
318.295	94.94
318.524	91.94
318.753	67.94
318.983	93.94
319.212	106.94
319.441	91.94
319.67	97.94
319.9	94.94
320.129	87.94
320.358	85.94
320.587	108.94
320.816	88.94
321.046	88.94
321.275	107.94
321.504	88.94
321.733	96.94
321.962	88.94
322.191	104.94
322.42	106.94
322.649	101.94
322.878	101.94
323.108	106.94
323.337	121.94
323.566	115.94
323.795	123.94
324.024	184.94
324.253	321.94
324.482	609.94
324.71	1221.94
324.939	1581.94
325.168	599.94
325.397	195.94
325.626	131.94
325.855	105.94
326.084	99.94
326.313	123.94
326.542	144.94
326.77	199.94
326.999	356.94
327.228	708.94
327.457	1223.94
327.686	962.94
327.914	293.94
328.143	167.94
328.372	121.94
328.6	114.94
328.829	98.94
329.058	109.94
329.287	128.94
329.515	111.94
329.744	98.94
329.972	99.94
330.201	95.94
330.43	110.94
330.658	100.94
330.887	117.94
331.115	112.94
331.344	97.94
331.572	99.94
331.801	105.94
332.03	100.94
332.258	81.94
332.486	83.94
332.715	67.94
332.943	93.94
333.172	74.94
333.4	85.94
333.629	116.94
333.857	98.94
334.085	107.94
334.314	99.94
334.542	82.94
334.771	86.94
334.999	87.94
335.227	96.94
335.455	87.94
335.684	90.94
335.912	87.94
336.14	102.94
336.369	97.94
336.597	92.94
336.825	101.94
337.053	86.94
337.281	86.94
337.51	97.94
337.738	105.94
337.966	92.94
338.194	93.94
338.422	80.94
338.65	97.94
338.878	79.94
339.106	95.94
339.334	89.94
339.562	74.94
339.79	96.94
340.018	90.94
340.246	95.94
340.474	88.94
340.702	93.94
340.93	100.94
341.158	89.94
341.386	95.94
341.614	85.94
341.842	99.94
342.07	102.94
342.298	82.94
342.526	87.94
342.754	88.94
342.981	81.94
343.209	89.94
343.437	106.94
343.665	91.94
343.893	90.94
344.12	85.94
344.348	82.94
344.576	84.94
344.804	82.94
345.031	93.94
345.259	88.94
345.487	91.94
345.714	97.94
345.942	92.94
346.17	88.94
346.397	82.94
346.625	83.94
346.853	106.94
347.08	82.94
347.308	77.94
347.535	97.94
347.763	86.94
347.99	98.94
348.218	110.94
348.445	90.94
348.673	94.94
348.9	95.94
349.128	100.94
349.355	92.94
349.583	103.94
349.81	91.94
350.037	102.94
350.265	86.94
350.492	86.94
350.72	96.94
350.947	104.94
351.174	99.94
351.402	96.94
351.629	106.94
351.856	101.94
352.083	101.94
352.311	103.94
352.538	103.94
352.765	112.94
352.992	88.94
353.22	107.94
353.447	108.94
353.674	95.94
353.901	96.94
354.128	104.94
354.355	107.94
354.583	96.94
354.81	90.94
355.037	101.94
355.264	90.94
355.491	95.94
355.718	101.94
355.945	99.94
356.172	93.94
356.399	86.94
356.626	86.94
356.853	95.94
357.08	79.94
357.307	87.94
357.534	86.94
357.761	88.94
357.988	93.94
358.215	95.94
358.441	86.94
358.668	89.94
358.895	91.94
359.122	100.94
359.349	91.94
359.576	88.94
359.802	104.94
360.029	106.94
360.256	89.94
360.483	93.94
360.709	78.94
360.936	79.94
361.163	95.94
361.39	81.94
361.616	92.94
361.843	88.94
362.07	88.94
362.296	94.94
362.523	83.94
362.749	95.94
362.976	83.94
363.203	92.94
363.429	88.94
363.656	89.94
363.882	88.94
364.109	95.94
364.335	107.94
364.562	87.94
364.788	74.94
365.015	89.94
365.241	90.94
365.468	105.94
365.694	93.94
365.92	83.94
366.147	89.94
366.373	81.94
366.599	95.94
366.826	83.94
367.052	81.94
367.278	89.94
367.505	95.94
367.731	90.94
367.957	88.94
368.184	83.94
368.41	95.94
368.636	114.94
368.862	126.94
369.089	110.94
369.315	88.94
369.541	77.94
369.767	77.94
369.993	87.94
370.219	86.94
370.445	95.94
370.672	95.94
370.898	73.94
371.124	84.94
371.35	89.94
371.576	79.94
371.802	77.94
372.028	93.94
372.254	81.94
372.48	91.94
372.706	82.94
372.932	85.94
373.158	96.94
373.384	90.94
373.61	87.94
373.835	102.94
374.061	82.94
374.287	90.94
374.513	94.94
374.739	90.94
374.965	78.94
375.191	93.94
375.416	90.94
375.642	83.94
375.868	80.94
376.094	87.94
376.319	85.94
376.545	86.94
376.771	93.94
376.997	87.94
377.222	99.94
377.448	78.94
377.674	79.94
377.899	94.94
378.125	74.94
378.35	78.94
378.576	72.94
378.802	87.94
379.027	88.94
379.253	105.94
379.478	80.94
379.704	86.94
379.929	98.94
380.155	96.94
380.38	99.94
380.606	91.94
380.831	104.94
381.057	96.94
381.282	88.94
381.507	90.94
381.733	85.94
381.958	98.94
382.184	97.94
382.409	104.94
382.634	109.94
382.86	97.94
383.085	100.94
383.31	94.94
383.535	95.94
383.761	98.94
383.986	99.94
384.211	97.94
384.436	108.94
384.662	90.94
384.887	98.94
385.112	116.94
385.337	103.94
385.562	102.94
385.787	97.94
386.013	103.94
386.238	113.94
386.463	104.94
386.688	108.94
386.913	106.94
387.138	99.94
387.363	101.94
387.588	109.94
387.813	99.94
388.038	112.94
388.263	119.94
388.488	101.94
388.713	92.94
388.938	81.94
389.163	96.94
389.387	86.94
389.612	88.94
389.837	85.94
390.062	80.94
390.287	87.94
390.512	87.94
390.736	92.94
390.961	92.94
391.186	94.94
391.411	99.94
391.636	82.94
391.86	88.94
392.085	92.94
392.31	79.94
392.534	87.94
392.759	83.94
392.984	89.94
393.208	86.94
393.433	91.94
393.658	93.94
393.882	86.94
394.107	76.94
394.331	97.94
394.556	86.94
394.78	88.94
395.005	74.94
395.229	83.94
395.454	82.94
395.678	81.94
395.903	81.94
396.127	72.94
396.352	77.94
396.576	78.94
396.801	91.94
397.025	97.94
397.249	97.94
397.474	86.94
397.698	99.94
397.922	94.94
398.147	84.94
398.371	77.94
398.595	90.94
398.82	90.94
399.044	85.94
399.268	80.94
399.492	90.94
399.717	81.94
399.941	89.94
400.165	96.94
400.389	82.94
400.613	83.94
400.837	97.94
401.062	77.94
401.286	85.94
401.51	106.94
401.734	79.94
401.958	111.94
402.182	118.94
402.406	134.94
402.63	99.94
402.854	100.94
403.078	87.94
403.302	92.94
403.526	86.94
403.75	85.94
403.974	85.94
404.198	82.94
404.422	74.94
404.645	80.94
404.869	99.94
405.093	84.94
405.317	85.94
405.541	82.94
405.765	88.94
405.988	118.94
406.212	173.94
406.436	196.94
406.66	131.94
406.883	98.94
407.107	89.94
407.331	86.94
407.555	93.94
407.778	82.94
408.002	85.94
408.226	86.94
408.449	80.94
408.673	84.94
408.896	96.94
409.12	93.94
409.344	87.94
409.567	81.94
409.791	78.94
410.014	89.94
410.238	101.94
410.461	97.94
410.685	104.94
410.908	85.94
411.132	94.94
411.355	88.94
411.578	90.94
411.802	92.94
412.025	98.94
412.249	88.94
412.472	93.94
412.695	83.94
412.919	87.94
413.142	83.94
413.365	75.94
413.589	79.94
413.812	87.94
414.035	90.94
414.258	82.94
414.482	81.94
414.705	77.94
414.928	88.94
415.151	97.94
415.374	95.94
415.597	86.94
415.821	104.94
416.044	93.94
416.267	88.94
416.49	92.94
416.713	80.94
416.936	89.94
417.159	78.94
417.382	77.94
417.605	97.94
417.828	101.94
418.051	74.94
418.274	80.94
418.497	88.94
418.72	78.94
418.943	89.94
419.166	81.94
419.389	75.94
419.611	92.94
419.834	88.94
420.057	72.94
420.28	88.94
420.503	67.94
420.726	86.94
420.948	77.94
421.171	107.94
421.394	92.94
421.617	87.94
421.839	89.94
422.062	78.94
422.285	100.94
422.507	103.94
422.73	89.94
422.953	95.94
423.175	83.94
423.398	74.94
423.621	96.94
423.843	77.94
424.066	90.94
424.288	88.94
424.511	85.94
424.733	95.94
424.956	102.94
425.178	94.94
425.401	101.94
425.623	102.94
425.846	78.94
426.068	81.94
426.291	77.94
426.513	88.94
426.735	85.94
426.958	89.94
427.18	102.94
427.402	122.94
427.625	152.94
427.847	106.94
428.069	90.94
428.292	88.94
428.514	98.94
428.736	70.94
428.958	88.94
429.181	81.94
429.403	79.94
429.625	85.94
429.847	90.94
430.069	85.94
430.292	111.94
430.514	73.94
430.736	87.94
430.958	86.94
431.18	80.94
431.402	73.94
431.624	79.94
431.846	81.94
432.068	82.94
432.29	77.94
432.512	95.94
432.734	92.94
432.956	91.94
433.178	101.94
433.4	88.94
433.622	77.94
433.844	90.94
434.066	99.94
434.287	88.94
434.509	80.94
434.731	83.94
434.953	84.94
435.175	89.94
435.397	84.94
435.618	83.94
435.84	98.94
436.062	112.94
436.284	97.94
436.505	80.94
436.727	108.94
436.949	93.94
437.17	77.94
437.392	79.94
437.614	83.94
437.835	104.94
438.057	113.94
438.278	90.94
438.5	105.94
438.721	106.94
438.943	93.94
439.165	89.94
439.386	92.94
439.608	87.94
439.829	96.94
440.05	114.94
440.272	127.94
440.493	90.94
440.715	81.94
440.936	80.94
441.158	79.94
441.379	81.94
441.6	98.94
441.822	97.94
442.043	83.94
442.264	101.94
442.486	101.94
442.707	97.94
442.928	104.94
443.149	118.94
443.371	111.94
443.592	93.94
443.813	107.94
444.034	97.94
444.255	86.94
444.476	84.94
444.698	94.94
444.919	80.94
445.14	117.94
445.361	109.94
445.582	118.94
445.803	112.94
446.024	115.94
446.245	119.94
446.466	101.94
446.687	96.94
446.908	82.94
447.129	79.94
447.35	73.94
447.571	95.94
447.792	99.94
448.013	92.94
448.234	106.94
448.455	92.94
448.675	87.94
448.896	105.94
449.117	90.94
449.338	92.94
449.559	112.94
449.779	126.94
450	91.94
450.221	94.94
450.442	83.94
450.662	85.94
450.883	79.94
451.104	91.94
451.324	89.94
451.545	102.94
451.766	88.94
451.986	89.94
452.207	86.94
452.428	89.94
452.648	97.94
452.869	104.94
453.089	107.94
453.31	105.94
453.53	83.94
453.751	111.94
453.971	111.94
454.192	120.94
454.412	80.94
454.633	82.94
454.853	78.94
455.073	90.94
455.294	85.94
455.514	73.94
455.734	81.94
455.955	99.94
456.175	85.94
456.395	103.94
456.616	85.94
456.836	90.94
457.056	77.94
457.276	77.94
457.497	70.94
457.717	77.94
457.937	67.94
458.157	84.94
458.377	97.94
458.598	98.94
458.818	134.94
459.038	125.94
459.258	110.94
459.478	82.94
459.698	79.94
459.918	87.94
460.138	85.94
460.358	96.94
460.578	83.94
460.798	92.94
461.018	84.94
461.238	91.94
461.458	86.94
461.678	81.94
461.898	95.94
462.118	81.94
462.338	80.94
462.558	76.94
462.777	79.94
462.997	88.94
463.217	75.94
463.437	75.94
463.657	71.94
463.876	94.94
464.096	77.94
464.316	80.94
464.536	95.94
464.755	85.94
464.975	85.94
465.195	146.94
465.414	128.94
465.634	88.94
465.854	83.94
466.073	99.94
466.293	88.94
466.512	87.94
466.732	72.94
466.951	101.94
467.171	96.94
467.391	96.94
467.61	92.94
467.829	88.94
468.049	94.94
468.268	93.94
468.488	93.94
468.707	91.94
468.927	83.94
469.146	86.94
469.365	83.94
469.585	77.94
469.804	97.94
470.023	89.94
470.243	74.94
470.462	83.94
470.681	112.94
470.901	92.94
471.12	77.94
471.339	89.94
471.558	94.94
471.777	94.94
471.997	87.94
472.216	82.94
472.435	77.94
472.654	80.94
472.873	90.94
473.092	83.94
473.311	78.94
473.53	86.94
473.749	109.94
473.968	102.94
474.187	100.94
474.406	102.94
474.625	82.94
474.844	75.94
475.063	98.94
475.282	95.94
475.501	85.94
475.72	86.94
475.939	87.94
476.158	71.94
476.377	84.94
476.596	97.94
476.814	76.94
477.033	90.94
477.252	79.94
477.471	73.94
477.69	83.94
477.908	92.94
478.127	82.94
478.346	84.94
478.564	82.94
478.783	95.94
479.002	85.94
479.22	94.94
479.439	88.94
479.658	89.94
479.876	95.94
480.095	91.94
480.313	88.94
480.532	82.94
480.751	75.94
480.969	86.94
481.188	96.94
481.406	87.94
481.624	85.94
481.843	93.94
482.061	86.94
482.28	80.94
482.498	76.94
482.717	94.94
482.935	78.94
483.153	78.94
483.372	96.94
483.59	80.94
483.808	93.94
484.027	92.94
484.245	80.94
484.463	86.94
484.681	94.94
484.9	93.94
485.118	102.94
485.336	91.94
485.554	93.94
485.772	72.94
485.99	97.94
486.209	100.94
486.427	96.94
486.645	98.94
486.863	106.94
487.081	100.94
487.299	90.94
487.517	89.94
487.735	89.94
487.953	94.94
488.171	103.94
488.389	77.94
488.607	101.94
488.825	85.94
489.043	80.94
489.261	87.94
489.479	97.94
489.696	94.94
489.914	105.94
490.132	85.94
490.35	80.94
490.568	62.94
490.786	83.94
491.003	85.94
491.221	84.94
491.439	82.94
491.657	89.94
491.874	85.94
492.092	90.94
492.31	89.94
492.527	79.94
492.745	87.94
492.963	84.94
493.18	90.94
493.398	90.94
493.615	86.94
493.833	87.94
494.05	88.94
494.268	86.94
494.485	89.94
494.703	89.94
494.92	80.94
495.138	88.94
495.355	83.94
495.573	85.94
495.79	83.94
496.008	105.94
496.225	96.94
496.442	91.94
496.66	91.94
496.877	90.94
497.094	75.94
497.312	97.94
497.529	86.94
497.746	87.94
497.963	89.94
498.181	89.94
498.398	86.94
498.615	115.94
498.832	95.94
499.049	86.94
499.267	105.94
499.484	82.94
499.701	81.94
499.918	77.94
500.135	82.94
500.352	77.94
500.569	89.94
500.786	86.94
501.003	91.94
501.22	93.94
501.437	90.94
501.654	88.94
501.871	110.94
502.088	98.94
502.305	85.94
502.522	90.94
502.739	74.94
502.956	77.94
503.172	79.94
503.389	88.94
503.606	106.94
503.823	102.94
504.04	91.94
504.256	91.94
504.473	86.94
504.69	88.94
504.907	89.94
505.123	95.94
505.34	92.94
505.557	87.94
505.773	98.94
505.99	107.94
506.207	95.94
506.423	82.94
506.64	78.94
506.856	96.94
507.073	87.94
507.289	79.94
507.506	83.94
507.722	114.94
507.939	103.94
508.155	88.94
508.372	101.94
508.588	97.94
508.805	85.94
509.021	84.94
509.238	91.94
509.454	97.94
509.67	106.94
509.887	102.94
510.103	122.94
510.319	192.94
510.536	608.94
510.752	1838.94
510.968	525.94
511.184	143.94
511.401	99.94
511.617	108.94
511.833	91.94
512.049	85.94
512.265	74.94
512.481	100.94
512.698	86.94
512.914	98.94
513.13	98.94
513.346	88.94
513.562	97.94
513.778	94.94
513.994	85.94
514.21	88.94
514.426	106.94
514.642	115.94
514.858	101.94
515.074	149.94
515.29	359.94
515.506	1169.94
515.721	421.94
515.937	139.94
516.153	100.94
516.369	91.94
516.585	99.94
516.801	97.94
517.016	95.94
