Data from Uncirc_2001_H10_HRD10591_00034.txt Node
Date: Wed Jan 03 10:44:03 EST 2024
User: Yrep
Spectrometer: HR+D1059
Trigger mode: 1
Integration Time (sec): 1.000000E-1
Scans to average: 1
Electric dark correction enabled: true
Nonlinearity correction enabled: false
Boxcar width: 0
XAxis mode: Wavelengths
Number of Pixels in Spectrum: 2048
>>>>>Begin Spectral Data<<<<<
223.165	-7.75
223.4	-7.75
223.635	-7.75
223.869	-27.75
224.104	-21.75
224.338	-19.75
224.573	0.25
224.808	-7.75
225.042	-1.75
225.277	-4.75
225.511	2.25
225.746	11.25
225.98	1.25
226.215	-2.75
226.449	13.25
226.683	18.25
226.918	19.25
227.152	28.25
227.387	28.25
227.621	48.25
227.856	40.25
228.09	48.25
228.324	43.25
228.559	57.25
228.793	65.25
229.027	62.25
229.262	76.25
229.496	66.25
229.73	84.25
229.964	82.25
230.199	74.25
230.433	83.25
230.667	68.25
230.901	86.25
231.136	77.25
231.37	68.25
231.604	74.25
231.838	70.25
232.072	72.25
232.306	72.25
232.541	88.25
232.775	87.25
233.009	72.25
233.243	83.25
233.477	80.25
233.711	85.25
233.945	87.25
234.179	75.25
234.413	78.25
234.647	91.25
234.881	79.25
235.115	93.25
235.349	86.25
235.583	84.25
235.817	77.25
236.051	85.25
236.285	74.25
236.519	71.25
236.753	82.25
236.987	74.25
237.221	84.25
237.455	95.25
237.689	75.25
237.922	70.25
238.156	81.25
238.39	77.25
238.624	76.25
238.858	76.25
239.091	72.25
239.325	74.25
239.559	80.25
239.793	75.25
240.027	77.25
240.26	86.25
240.494	82.25
240.728	77.25
240.961	66.25
241.195	71.25
241.429	88.25
241.662	81.25
241.896	73.25
242.13	73.25
242.363	76.25
242.597	71.25
242.83	84.25
243.064	77.25
243.298	65.25
243.531	69.25
243.765	82.25
243.998	76.25
244.232	75.25
244.465	87.25
244.699	72.25
244.932	76.25
245.166	73.25
245.399	82.25
245.633	84.25
245.866	90.25
246.099	76.25
246.333	73.25
246.566	68.25
246.8	96.25
247.033	69.25
247.266	82.25
247.5	90.25
247.733	91.25
247.966	79.25
248.2	82.25
248.433	88.25
248.666	70.25
248.899	87.25
249.133	78.25
249.366	106.25
249.599	84.25
249.832	80.25
250.066	80.25
250.299	78.25
250.532	75.25
250.765	84.25
250.998	72.25
251.231	87.25
251.465	89.25
251.698	82.25
251.931	66.25
252.164	88.25
252.397	76.25
252.63	73.25
252.863	74.25
253.096	84.25
253.329	84.25
253.562	77.25
253.795	86.25
254.028	93.25
254.261	72.25
254.494	86.25
254.727	85.25
254.96	92.25
255.193	89.25
255.426	71.25
255.659	88.25
255.892	93.25
256.124	76.25
256.357	73.25
256.59	78.25
256.823	75.25
257.056	84.25
257.289	80.25
257.521	96.25
257.754	92.25
257.987	70.25
258.22	85.25
258.452	82.25
258.685	75.25
258.918	88.25
259.151	81.25
259.383	96.25
259.616	79.25
259.849	71.25
260.081	96.25
260.314	84.25
260.547	81.25
260.779	88.25
261.012	83.25
261.244	86.25
261.477	109.25
261.71	92.25
261.942	97.25
262.175	98.25
262.407	93.25
262.64	72.25
262.872	71.25
263.105	87.25
263.337	86.25
263.57	92.25
263.802	94.25
264.035	75.25
264.267	70.25
264.499	81.25
264.732	63.25
264.964	90.25
265.197	101.25
265.429	80.25
265.661	81.25
265.894	75.25
266.126	80.25
266.358	94.25
266.591	86.25
266.823	80.25
267.055	77.25
267.287	80.25
267.52	77.25
267.752	68.25
267.984	84.25
268.216	74.25
268.448	83.25
268.681	76.25
268.913	86.25
269.145	104.25
269.377	81.25
269.609	78.25
269.841	103.25
270.073	81.25
270.306	78.25
270.538	83.25
270.77	80.25
271.002	76.25
271.234	88.25
271.466	88.25
271.698	85.25
271.93	81.25
272.162	78.25
272.394	80.25
272.626	80.25
272.858	76.25
273.09	78.25
273.322	60.25
273.553	85.25
273.785	85.25
274.017	81.25
274.249	91.25
274.481	76.25
274.713	67.25
274.945	82.25
275.176	97.25
275.408	93.25
275.64	85.25
275.872	83.25
276.104	77.25
276.335	92.25
276.567	99.25
276.799	105.25
277.031	99.25
277.262	101.25
277.494	98.25
277.726	92.25
277.957	89.25
278.189	76.25
278.421	88.25
278.652	85.25
278.884	88.25
279.115	80.25
279.347	97.25
279.579	85.25
279.81	81.25
280.042	92.25
280.273	91.25
280.505	87.25
280.736	83.25
280.968	83.25
281.199	92.25
281.431	96.25
281.662	85.25
281.894	76.25
282.125	92.25
282.356	105.25
282.588	121.25
282.819	118.25
283.051	84.25
283.282	96.25
283.513	102.25
283.745	78.25
283.976	86.25
284.207	103.25
284.439	76.25
284.67	80.25
284.901	90.25
285.132	81.25
285.364	82.25
285.595	91.25
285.826	81.25
286.057	99.25
286.288	86.25
286.52	91.25
286.751	91.25
286.982	76.25
287.213	88.25
287.444	79.25
287.675	76.25
287.906	90.25
288.138	94.25
288.369	95.25
288.6	94.25
288.831	78.25
289.062	93.25
289.293	79.25
289.524	89.25
289.755	80.25
289.986	73.25
290.217	84.25
290.448	83.25
290.679	83.25
290.91	91.25
291.141	88.25
291.371	96.25
291.602	83.25
291.833	91.25
292.064	93.25
292.295	100.25
292.526	98.25
292.757	86.25
292.987	90.25
293.218	90.25
293.449	90.25
293.68	91.25
293.91	90.25
294.141	96.25
294.372	88.25
294.603	82.25
294.833	86.25
295.064	102.25
295.295	89.25
295.525	92.25
295.756	95.25
295.987	122.25
296.217	133.25
296.448	112.25
296.679	102.25
296.909	92.25
297.14	89.25
297.37	76.25
297.601	89.25
297.831	95.25
298.062	93.25
298.292	85.25
298.523	102.25
298.753	82.25
298.984	76.25
299.214	84.25
299.445	103.25
299.675	107.25
299.905	93.25
300.136	82.25
300.366	87.25
300.597	102.25
300.827	94.25
301.057	100.25
301.288	106.25
301.518	93.25
301.748	104.25
301.979	96.25
302.209	88.25
302.439	84.25
302.669	83.25
302.9	85.25
303.13	90.25
303.36	89.25
303.59	98.25
303.82	118.25
304.051	79.25
304.281	88.25
304.511	80.25
304.741	85.25
304.971	85.25
305.201	80.25
305.431	90.25
305.661	93.25
305.891	81.25
306.121	93.25
306.352	96.25
306.582	107.25
306.812	84.25
307.042	84.25
307.272	101.25
307.502	92.25
307.731	89.25
307.961	90.25
308.191	91.25
308.421	95.25
308.651	92.25
308.881	93.25
309.111	98.25
309.341	98.25
309.571	94.25
309.8	92.25
310.03	82.25
310.26	103.25
310.49	103.25
310.72	78.25
310.949	112.25
311.179	100.25
311.409	88.25
311.639	101.25
311.868	95.25
312.098	99.25
312.328	96.25
312.557	95.25
312.787	102.25
313.017	101.25
313.246	92.25
313.476	90.25
313.706	99.25
313.935	92.25
314.165	96.25
314.394	110.25
314.624	104.25
314.853	96.25
315.083	102.25
315.312	104.25
315.542	103.25
315.771	89.25
316.001	89.25
316.23	83.25
316.46	98.25
316.689	89.25
316.919	94.25
317.148	95.25
317.377	96.25
317.607	103.25
317.836	87.25
318.065	98.25
318.295	84.25
318.524	86.25
318.753	92.25
318.983	103.25
319.212	88.25
319.441	101.25
319.67	88.25
319.9	104.25
320.129	95.25
320.358	96.25
320.587	91.25
320.816	92.25
321.046	109.25
321.275	107.25
321.504	101.25
321.733	88.25
321.962	102.25
322.191	103.25
322.42	105.25
322.649	89.25
322.878	106.25
323.108	108.25
323.337	117.25
323.566	135.25
323.795	153.25
324.024	196.25
324.253	348.25
324.482	713.25
324.71	1393.25
324.939	1776.25
325.168	672.25
325.397	224.25
325.626	150.25
325.855	137.25
326.084	118.25
326.313	121.25
326.542	140.25
326.77	204.25
326.999	378.25
327.228	780.25
327.457	1403.25
327.686	1106.25
327.914	322.25
328.143	172.25
328.372	144.25
328.6	125.25
328.829	99.25
329.058	118.25
329.287	125.25
329.515	105.25
329.744	89.25
329.972	91.25
330.201	84.25
330.43	95.25
330.658	119.25
330.887	113.25
331.115	118.25
331.344	87.25
331.572	104.25
331.801	100.25
332.03	98.25
332.258	104.25
332.486	91.25
332.715	85.25
332.943	85.25
333.172	106.25
333.4	93.25
333.629	116.25
333.857	88.25
334.085	109.25
334.314	108.25
334.542	98.25
334.771	98.25
334.999	90.25
335.227	90.25
335.455	99.25
335.684	94.25
335.912	105.25
336.14	94.25
336.369	100.25
336.597	93.25
336.825	85.25
337.053	95.25
337.281	94.25
337.51	85.25
337.738	95.25
337.966	74.25
338.194	93.25
338.422	92.25
338.65	93.25
338.878	95.25
339.106	88.25
339.334	85.25
339.562	97.25
339.79	94.25
340.018	82.25
340.246	104.25
340.474	99.25
340.702	97.25
340.93	93.25
341.158	114.25
341.386	103.25
341.614	86.25
341.842	84.25
342.07	98.25
342.298	85.25
342.526	97.25
342.754	96.25
342.981	90.25
343.209	96.25
343.437	93.25
343.665	97.25
343.893	97.25
344.12	91.25
344.348	82.25
344.576	90.25
344.804	88.25
345.031	112.25
345.259	92.25
345.487	92.25
345.714	89.25
345.942	85.25
346.17	97.25
346.397	94.25
346.625	119.25
346.853	92.25
347.08	91.25
347.308	93.25
347.535	94.25
347.763	100.25
347.99	87.25
348.218	100.25
348.445	94.25
348.673	99.25
348.9	92.25
349.128	86.25
349.355	85.25
349.583	89.25
349.81	95.25
350.037	104.25
350.265	98.25
350.492	81.25
350.72	93.25
350.947	96.25
351.174	103.25
351.402	106.25
351.629	94.25
351.856	117.25
352.083	103.25
352.311	105.25
352.538	98.25
352.765	101.25
352.992	109.25
353.22	109.25
353.447	103.25
353.674	109.25
353.901	103.25
354.128	102.25
354.355	100.25
354.583	97.25
354.81	94.25
355.037	92.25
355.264	97.25
355.491	90.25
355.718	93.25
355.945	93.25
356.172	91.25
356.399	97.25
356.626	111.25
356.853	109.25
357.08	97.25
357.307	90.25
357.534	90.25
357.761	93.25
357.988	94.25
358.215	92.25
358.441	109.25
358.668	98.25
358.895	91.25
359.122	92.25
359.349	84.25
359.576	106.25
359.802	108.25
360.029	101.25
360.256	93.25
360.483	90.25
360.709	95.25
360.936	95.25
361.163	102.25
361.39	90.25
361.616	89.25
361.843	99.25
362.07	91.25
362.296	100.25
362.523	88.25
362.749	106.25
362.976	84.25
363.203	94.25
363.429	99.25
363.656	94.25
363.882	77.25
364.109	81.25
364.335	88.25
364.562	82.25
364.788	85.25
365.015	87.25
365.241	91.25
365.468	99.25
365.694	108.25
365.92	113.25
366.147	82.25
366.373	86.25
366.599	78.25
366.826	69.25
367.052	85.25
367.278	92.25
367.505	98.25
367.731	93.25
367.957	80.25
368.184	84.25
368.41	83.25
368.636	102.25
368.862	111.25
369.089	116.25
369.315	105.25
369.541	96.25
369.767	91.25
369.993	89.25
370.219	78.25
370.445	86.25
370.672	77.25
370.898	94.25
371.124	88.25
371.35	86.25
371.576	94.25
371.802	99.25
372.028	83.25
372.254	97.25
372.48	89.25
372.706	89.25
372.932	83.25
373.158	84.25
373.384	92.25
373.61	89.25
373.835	91.25
374.061	94.25
374.287	99.25
374.513	83.25
374.739	88.25
374.965	87.25
375.191	89.25
375.416	89.25
375.642	85.25
375.868	79.25
376.094	106.25
376.319	101.25
376.545	96.25
376.771	90.25
376.997	77.25
377.222	78.25
377.448	87.25
377.674	88.25
377.899	89.25
378.125	78.25
378.35	98.25
378.576	86.25
378.802	87.25
379.027	98.25
379.253	96.25
379.478	105.25
379.704	94.25
379.929	115.25
380.155	96.25
380.38	96.25
380.606	115.25
380.831	92.25
381.057	103.25
381.282	83.25
381.507	108.25
381.733	98.25
381.958	85.25
382.184	76.25
382.409	104.25
382.634	98.25
382.86	109.25
383.085	102.25
383.31	98.25
383.535	99.25
383.761	95.25
383.986	93.25
384.211	113.25
384.436	102.25
384.662	104.25
384.887	101.25
385.112	106.25
385.337	110.25
385.562	99.25
385.787	86.25
386.013	106.25
386.238	102.25
386.463	101.25
386.688	101.25
386.913	109.25
387.138	116.25
387.363	110.25
387.588	76.25
387.813	107.25
388.038	97.25
388.263	115.25
388.488	99.25
388.713	120.25
388.938	89.25
389.163	100.25
389.387	105.25
389.612	91.25
389.837	89.25
390.062	89.25
390.287	84.25
390.512	94.25
390.736	100.25
390.961	83.25
391.186	112.25
391.411	83.25
391.636	90.25
391.86	78.25
392.085	93.25
392.31	82.25
392.534	93.25
392.759	91.25
392.984	87.25
393.208	95.25
393.433	101.25
393.658	107.25
393.882	97.25
394.107	80.25
394.331	77.25
394.556	84.25
394.78	76.25
395.005	88.25
395.229	70.25
395.454	101.25
395.678	75.25
395.903	80.25
396.127	93.25
396.352	92.25
396.576	84.25
396.801	82.25
397.025	104.25
397.249	89.25
397.474	82.25
397.698	92.25
397.922	92.25
398.147	102.25
398.371	106.25
398.595	82.25
398.82	82.25
399.044	100.25
399.268	93.25
399.492	90.25
399.717	93.25
399.941	74.25
400.165	91.25
400.389	91.25
400.613	101.25
400.837	91.25
401.062	99.25
401.286	86.25
401.51	76.25
401.734	84.25
401.958	103.25
402.182	121.25
402.406	164.25
402.63	125.25
402.854	92.25
403.078	90.25
403.302	89.25
403.526	98.25
403.75	97.25
403.974	78.25
404.198	88.25
404.422	81.25
404.645	85.25
404.869	91.25
405.093	100.25
405.317	94.25
405.541	100.25
405.765	93.25
405.988	107.25
406.212	150.25
406.436	210.25
406.66	135.25
406.883	111.25
407.107	87.25
407.331	108.25
407.555	89.25
407.778	91.25
408.002	88.25
408.226	83.25
408.449	76.25
408.673	89.25
408.896	92.25
409.12	94.25
409.344	91.25
409.567	92.25
409.791	88.25
410.014	101.25
410.238	106.25
410.461	86.25
410.685	99.25
410.908	97.25
411.132	114.25
411.355	105.25
411.578	102.25
411.802	96.25
412.025	92.25
412.249	92.25
412.472	77.25
412.695	84.25
412.919	105.25
413.142	87.25
413.365	84.25
413.589	84.25
413.812	89.25
414.035	108.25
414.258	100.25
414.482	97.25
414.705	84.25
414.928	88.25
415.151	93.25
415.374	87.25
415.597	97.25
415.821	89.25
416.044	93.25
416.267	96.25
416.49	73.25
416.713	102.25
416.936	86.25
417.159	94.25
417.382	85.25
417.605	79.25
417.828	102.25
418.051	100.25
418.274	90.25
418.497	94.25
418.72	81.25
418.943	77.25
419.166	74.25
419.389	89.25
419.611	86.25
419.834	87.25
420.057	93.25
420.28	80.25
420.503	88.25
420.726	95.25
420.948	85.25
421.171	96.25
421.394	90.25
421.617	76.25
421.839	89.25
422.062	81.25
422.285	107.25
422.507	98.25
422.73	89.25
422.953	102.25
423.175	92.25
423.398	86.25
423.621	77.25
423.843	87.25
424.066	98.25
424.288	92.25
424.511	98.25
424.733	83.25
424.956	104.25
425.178	83.25
425.401	92.25
425.623	98.25
425.846	102.25
426.068	92.25
426.291	87.25
426.513	83.25
426.735	87.25
426.958	89.25
427.18	88.25
427.402	146.25
427.625	138.25
427.847	126.25
428.069	107.25
428.292	74.25
428.514	82.25
428.736	82.25
428.958	81.25
429.181	83.25
429.403	87.25
429.625	94.25
429.847	97.25
430.069	91.25
430.292	98.25
430.514	87.25
430.736	90.25
430.958	86.25
431.18	94.25
431.402	98.25
431.624	87.25
431.846	85.25
432.068	82.25
432.29	94.25
432.512	92.25
432.734	76.25
432.956	97.25
433.178	88.25
433.4	99.25
433.622	83.25
433.844	93.25
434.066	93.25
434.287	86.25
434.509	78.25
434.731	91.25
434.953	94.25
435.175	99.25
435.397	100.25
435.618	85.25
435.84	105.25
436.062	125.25
436.284	113.25
436.505	90.25
436.727	100.25
436.949	85.25
437.17	79.25
437.392	97.25
437.614	94.25
437.835	113.25
438.057	100.25
438.278	107.25
438.5	94.25
438.721	109.25
438.943	99.25
439.165	92.25
439.386	87.25
439.608	83.25
439.829	114.25
440.05	121.25
440.272	141.25
440.493	93.25
440.715	90.25
440.936	84.25
441.158	92.25
441.379	85.25
441.6	89.25
441.822	94.25
442.043	93.25
442.264	114.25
442.486	102.25
442.707	106.25
442.928	122.25
443.149	125.25
443.371	121.25
443.592	94.25
443.813	118.25
444.034	115.25
444.255	78.25
444.476	85.25
444.698	79.25
444.919	79.25
445.14	131.25
445.361	119.25
445.582	102.25
445.803	124.25
446.024	133.25
446.245	135.25
446.466	119.25
446.687	93.25
446.908	94.25
447.129	100.25
447.35	81.25
447.571	84.25
447.792	87.25
448.013	93.25
448.234	104.25
448.455	116.25
448.675	118.25
448.896	122.25
449.117	99.25
449.338	102.25
449.559	122.25
449.779	136.25
450	91.25
450.221	92.25
450.442	77.25
450.662	100.25
450.883	104.25
451.104	112.25
451.324	100.25
451.545	89.25
451.766	89.25
451.986	83.25
452.207	86.25
452.428	81.25
452.648	93.25
452.869	108.25
453.089	92.25
453.31	102.25
453.53	81.25
453.751	96.25
453.971	101.25
454.192	100.25
454.412	91.25
454.633	88.25
454.853	87.25
455.073	80.25
455.294	92.25
455.514	74.25
455.734	77.25
455.955	91.25
456.175	90.25
456.395	90.25
456.616	83.25
456.836	98.25
457.056	88.25
457.276	92.25
457.497	93.25
457.717	96.25
457.937	84.25
458.157	79.25
458.377	96.25
458.598	117.25
458.818	144.25
459.038	152.25
459.258	109.25
459.478	88.25
459.698	70.25
459.918	93.25
460.138	88.25
460.358	94.25
460.578	88.25
460.798	98.25
461.018	92.25
461.238	84.25
461.458	85.25
461.678	85.25
461.898	92.25
462.118	82.25
462.338	76.25
462.558	75.25
462.777	81.25
462.997	88.25
463.217	94.25
463.437	90.25
463.657	82.25
463.876	91.25
464.096	89.25
464.316	93.25
464.536	94.25
464.755	108.25
464.975	115.25
465.195	149.25
465.414	158.25
465.634	86.25
465.854	91.25
466.073	90.25
466.293	82.25
466.512	102.25
466.732	99.25
466.951	88.25
467.171	94.25
467.391	86.25
467.61	117.25
467.829	104.25
468.049	84.25
468.268	98.25
468.488	77.25
468.707	88.25
468.927	96.25
469.146	77.25
469.365	83.25
469.585	80.25
469.804	79.25
470.023	96.25
470.243	101.25
470.462	98.25
470.681	100.25
470.901	86.25
471.12	77.25
471.339	69.25
471.558	100.25
471.777	98.25
471.997	91.25
472.216	90.25
472.435	97.25
472.654	100.25
472.873	101.25
473.092	93.25
473.311	86.25
473.53	91.25
473.749	87.25
473.968	95.25
474.187	113.25
474.406	98.25
474.625	93.25
474.844	88.25
475.063	72.25
475.282	85.25
475.501	74.25
475.72	108.25
475.939	83.25
476.158	93.25
476.377	100.25
476.596	88.25
476.814	108.25
477.033	88.25
477.252	97.25
477.471	110.25
477.69	96.25
477.908	90.25
478.127	90.25
478.346	87.25
478.564	76.25
478.783	93.25
479.002	83.25
479.22	95.25
479.439	107.25
479.658	101.25
479.876	98.25
480.095	111.25
480.313	99.25
480.532	81.25
480.751	94.25
480.969	103.25
481.188	100.25
481.406	91.25
481.624	88.25
481.843	89.25
482.061	95.25
482.28	103.25
482.498	88.25
482.717	89.25
482.935	92.25
483.153	92.25
483.372	95.25
483.59	94.25
483.808	93.25
484.027	74.25
484.245	90.25
484.463	91.25
484.681	99.25
484.9	91.25
485.118	92.25
485.336	100.25
485.554	104.25
485.772	102.25
485.99	93.25
486.209	91.25
486.427	110.25
486.645	109.25
486.863	114.25
487.081	114.25
487.299	101.25
487.517	100.25
487.735	82.25
487.953	82.25
488.171	102.25
488.389	94.25
488.607	101.25
488.825	87.25
489.043	97.25
489.261	92.25
489.479	87.25
489.696	78.25
489.914	81.25
490.132	94.25
490.35	93.25
490.568	97.25
490.786	90.25
491.003	102.25
491.221	91.25
491.439	95.25
491.657	79.25
491.874	87.25
492.092	71.25
492.31	82.25
492.527	82.25
492.745	92.25
492.963	96.25
493.18	101.25
493.398	90.25
493.615	102.25
493.833	89.25
494.05	78.25
494.268	89.25
494.485	91.25
494.703	87.25
494.92	90.25
495.138	87.25
495.355	92.25
495.573	99.25
495.79	91.25
496.008	84.25
496.225	93.25
496.442	88.25
496.66	98.25
496.877	99.25
497.094	97.25
497.312	99.25
497.529	89.25
497.746	84.25
497.963	86.25
498.181	113.25
498.398	99.25
498.615	105.25
498.832	105.25
499.049	87.25
499.267	88.25
499.484	81.25
499.701	83.25
499.918	104.25
500.135	95.25
500.352	88.25
500.569	78.25
500.786	86.25
501.003	88.25
501.22	89.25
501.437	102.25
501.654	90.25
501.871	114.25
502.088	99.25
502.305	87.25
502.522	92.25
502.739	97.25
502.956	80.25
503.172	103.25
503.389	91.25
503.606	109.25
503.823	98.25
504.04	88.25
504.256	91.25
504.473	97.25
504.69	72.25
504.907	95.25
505.123	82.25
505.34	87.25
505.557	93.25
505.773	82.25
505.99	90.25
506.207	96.25
506.423	92.25
506.64	81.25
506.856	86.25
507.073	96.25
507.289	85.25
507.506	94.25
507.722	105.25
507.939	104.25
508.155	98.25
508.372	89.25
508.588	88.25
508.805	93.25
509.021	106.25
509.238	106.25
509.454	111.25
509.67	103.25
509.887	107.25
510.103	135.25
510.319	212.25
510.536	742.25
510.752	2265.25
510.968	627.25
511.184	149.25
511.401	102.25
511.617	113.25
511.833	83.25
512.049	105.25
512.265	99.25
512.481	88.25
512.698	96.25
512.914	101.25
513.13	90.25
513.346	97.25
513.562	101.25
513.778	98.25
513.994	123.25
514.21	82.25
514.426	117.25
514.642	124.25
514.858	115.25
515.074	164.25
515.29	433.25
515.506	1387.25
515.721	517.25
