Data from Uncirc_2001_H10_HRD10591_00076.txt Node
Date: Wed Jan 03 10:44:12 EST 2024
User: Yrep
Spectrometer: HR+D1059
Trigger mode: 1
Integration Time (sec): 1.000000E-1
Scans to average: 1
Electric dark correction enabled: true
Nonlinearity correction enabled: false
Boxcar width: 0
XAxis mode: Wavelengths
Number of Pixels in Spectrum: 2048
>>>>>Begin Spectral Data<<<<<
223.165	-8.06
223.4	-8.06
223.635	-8.06
223.869	-13.06
224.104	-28.06
224.338	-7.06
224.573	-23.06
224.808	-24.06
225.042	-16.06
225.277	0.94
225.511	13.94
225.746	0.94
225.98	7.94
226.215	20.94
226.449	11.94
226.683	23.94
226.918	24.94
227.152	13.94
227.387	15.94
227.621	25.94
227.856	37.94
228.09	41.94
228.324	58.94
228.559	58.94
228.793	69.94
229.027	67.94
229.262	58.94
229.496	61.94
229.73	83.94
229.964	94.94
230.199	76.94
230.433	70.94
230.667	78.94
230.901	76.94
231.136	83.94
231.37	67.94
231.604	75.94
231.838	83.94
232.072	92.94
232.306	88.94
232.541	82.94
232.775	78.94
233.009	68.94
233.243	82.94
233.477	72.94
233.711	76.94
233.945	90.94
234.179	80.94
234.413	97.94
234.647	65.94
234.881	81.94
235.115	90.94
235.349	89.94
235.583	61.94
235.817	96.94
236.051	87.94
236.285	81.94
236.519	61.94
236.753	67.94
236.987	75.94
237.221	87.94
237.455	83.94
237.689	72.94
237.922	71.94
238.156	70.94
238.39	78.94
238.624	80.94
238.858	88.94
239.091	77.94
239.325	63.94
239.559	90.94
239.793	74.94
240.027	77.94
240.26	84.94
240.494	77.94
240.728	78.94
240.961	75.94
241.195	79.94
241.429	74.94
241.662	75.94
241.896	67.94
242.13	71.94
242.363	67.94
242.597	70.94
242.83	72.94
243.064	70.94
243.298	68.94
243.531	57.94
243.765	89.94
243.998	84.94
244.232	89.94
244.465	91.94
244.699	83.94
244.932	80.94
245.166	73.94
245.399	79.94
245.633	85.94
245.866	78.94
246.099	77.94
246.333	76.94
246.566	68.94
246.8	84.94
247.033	96.94
247.266	84.94
247.5	70.94
247.733	77.94
247.966	68.94
248.2	76.94
248.433	68.94
248.666	87.94
248.899	85.94
249.133	84.94
249.366	90.94
249.599	92.94
249.832	67.94
250.066	76.94
250.299	68.94
250.532	92.94
250.765	78.94
250.998	81.94
251.231	80.94
251.465	79.94
251.698	94.94
251.931	91.94
252.164	73.94
252.397	77.94
252.63	79.94
252.863	98.94
253.096	88.94
253.329	85.94
253.562	82.94
253.795	73.94
254.028	90.94
254.261	84.94
254.494	76.94
254.727	90.94
254.96	77.94
255.193	71.94
255.426	68.94
255.659	69.94
255.892	79.94
256.124	76.94
256.357	82.94
256.59	87.94
256.823	77.94
257.056	83.94
257.289	80.94
257.521	76.94
257.754	91.94
257.987	90.94
258.22	80.94
258.452	90.94
258.685	80.94
258.918	71.94
259.151	100.94
259.383	81.94
259.616	76.94
259.849	73.94
260.081	88.94
260.314	72.94
260.547	90.94
260.779	61.94
261.012	76.94
261.244	91.94
261.477	90.94
261.71	91.94
261.942	116.94
262.175	137.94
262.407	86.94
262.64	90.94
262.872	93.94
263.105	84.94
263.337	79.94
263.57	79.94
263.802	92.94
264.035	81.94
264.267	94.94
264.499	92.94
264.732	91.94
264.964	86.94
265.197	91.94
265.429	84.94
265.661	86.94
265.894	81.94
266.126	88.94
266.358	82.94
266.591	85.94
266.823	75.94
267.055	86.94
267.287	79.94
267.52	66.94
267.752	98.94
267.984	90.94
268.216	84.94
268.448	88.94
268.681	71.94
268.913	69.94
269.145	80.94
269.377	79.94
269.609	87.94
269.841	74.94
270.073	86.94
270.306	72.94
270.538	88.94
270.77	92.94
271.002	78.94
271.234	74.94
271.466	93.94
271.698	78.94
271.93	84.94
272.162	99.94
272.394	87.94
272.626	68.94
272.858	76.94
273.09	70.94
273.322	78.94
273.553	83.94
273.785	84.94
274.017	67.94
274.249	88.94
274.481	82.94
274.713	85.94
274.945	91.94
275.176	86.94
275.408	91.94
275.64	88.94
275.872	95.94
276.104	85.94
276.335	93.94
276.567	89.94
276.799	96.94
277.031	114.94
277.262	90.94
277.494	85.94
277.726	83.94
277.957	85.94
278.189	84.94
278.421	82.94
278.652	79.94
278.884	89.94
279.115	82.94
279.347	91.94
279.579	81.94
279.81	70.94
280.042	90.94
280.273	78.94
280.505	92.94
280.736	92.94
280.968	88.94
281.199	89.94
281.431	99.94
281.662	90.94
281.894	100.94
282.125	104.94
282.356	108.94
282.588	138.94
282.819	115.94
283.051	101.94
283.282	86.94
283.513	93.94
283.745	79.94
283.976	87.94
284.207	87.94
284.439	98.94
284.67	85.94
284.901	91.94
285.132	89.94
285.364	82.94
285.595	88.94
285.826	94.94
286.057	97.94
286.288	92.94
286.52	99.94
286.751	88.94
286.982	91.94
287.213	86.94
287.444	93.94
287.675	72.94
287.906	86.94
288.138	74.94
288.369	95.94
288.6	97.94
288.831	85.94
289.062	96.94
289.293	101.94
289.524	70.94
289.755	93.94
289.986	87.94
290.217	96.94
290.448	83.94
290.679	93.94
290.91	85.94
291.141	96.94
291.371	91.94
291.602	98.94
291.833	81.94
292.064	97.94
292.295	100.94
292.526	95.94
292.757	85.94
292.987	94.94
293.218	83.94
293.449	81.94
293.68	96.94
293.91	85.94
294.141	84.94
294.372	87.94
294.603	91.94
294.833	97.94
295.064	99.94
295.295	91.94
295.525	99.94
295.756	98.94
295.987	99.94
296.217	153.94
296.448	120.94
296.679	87.94
296.909	105.94
297.14	92.94
297.37	88.94
297.601	88.94
297.831	81.94
298.062	93.94
298.292	91.94
298.523	83.94
298.753	81.94
298.984	84.94
299.214	72.94
299.445	86.94
299.675	84.94
299.905	91.94
300.136	75.94
300.366	80.94
300.597	86.94
300.827	88.94
301.057	89.94
301.288	107.94
301.518	88.94
301.748	79.94
301.979	92.94
302.209	91.94
302.439	77.94
302.669	91.94
302.9	95.94
303.13	96.94
303.36	93.94
303.59	98.94
303.82	99.94
304.051	97.94
304.281	88.94
304.511	97.94
304.741	86.94
304.971	93.94
305.201	87.94
305.431	97.94
305.661	79.94
305.891	91.94
306.121	106.94
306.352	113.94
306.582	101.94
306.812	81.94
307.042	81.94
307.272	92.94
307.502	91.94
307.731	76.94
307.961	96.94
308.191	92.94
308.421	96.94
308.651	89.94
308.881	103.94
309.111	99.94
309.341	77.94
309.571	108.94
309.8	92.94
310.03	82.94
310.26	86.94
310.49	87.94
310.72	94.94
310.949	97.94
311.179	99.94
311.409	83.94
311.639	96.94
311.868	94.94
312.098	81.94
312.328	91.94
312.557	108.94
312.787	111.94
313.017	99.94
313.246	96.94
313.476	92.94
313.706	93.94
313.935	106.94
314.165	92.94
314.394	106.94
314.624	113.94
314.853	93.94
315.083	97.94
315.312	101.94
315.542	110.94
315.771	101.94
316.001	91.94
316.23	91.94
316.46	95.94
316.689	91.94
316.919	87.94
317.148	97.94
317.377	98.94
317.607	94.94
317.836	95.94
318.065	99.94
318.295	94.94
318.524	80.94
318.753	88.94
318.983	98.94
319.212	119.94
319.441	106.94
319.67	113.94
319.9	91.94
320.129	89.94
320.358	102.94
320.587	83.94
320.816	97.94
321.046	106.94
321.275	92.94
321.504	93.94
321.733	78.94
321.962	83.94
322.191	88.94
322.42	95.94
322.649	93.94
322.878	108.94
323.108	125.94
323.337	117.94
323.566	149.94
323.795	138.94
324.024	197.94
324.253	373.94
324.482	768.94
324.71	1501.94
324.939	1943.94
325.168	728.94
325.397	216.94
325.626	162.94
325.855	141.94
326.084	113.94
326.313	130.94
326.542	144.94
326.77	216.94
326.999	428.94
327.228	840.94
327.457	1483.94
327.686	1187.94
327.914	338.94
328.143	165.94
328.372	155.94
328.6	146.94
328.829	135.94
329.058	115.94
329.287	122.94
329.515	115.94
329.744	103.94
329.972	97.94
330.201	96.94
330.43	116.94
330.658	123.94
330.887	150.94
331.115	122.94
331.344	103.94
331.572	95.94
331.801	103.94
332.03	100.94
332.258	107.94
332.486	90.94
332.715	89.94
332.943	84.94
333.172	102.94
333.4	92.94
333.629	102.94
333.857	98.94
334.085	99.94
334.314	100.94
334.542	83.94
334.771	111.94
334.999	114.94
335.227	109.94
335.455	111.94
335.684	94.94
335.912	99.94
336.14	81.94
336.369	89.94
336.597	108.94
336.825	101.94
337.053	105.94
337.281	96.94
337.51	91.94
337.738	106.94
337.966	84.94
338.194	102.94
338.422	102.94
338.65	91.94
338.878	97.94
339.106	98.94
339.334	96.94
339.562	98.94
339.79	81.94
340.018	83.94
340.246	78.94
340.474	84.94
340.702	91.94
340.93	90.94
341.158	93.94
341.386	84.94
341.614	102.94
341.842	95.94
342.07	81.94
342.298	91.94
342.526	89.94
342.754	90.94
342.981	89.94
343.209	89.94
343.437	93.94
343.665	79.94
343.893	97.94
344.12	91.94
344.348	95.94
344.576	78.94
344.804	102.94
345.031	104.94
345.259	103.94
345.487	88.94
345.714	97.94
345.942	81.94
346.17	98.94
346.397	88.94
346.625	103.94
346.853	98.94
347.08	83.94
347.308	91.94
347.535	112.94
347.763	89.94
347.99	114.94
348.218	110.94
348.445	111.94
348.673	99.94
348.9	105.94
349.128	87.94
349.355	94.94
349.583	97.94
349.81	95.94
350.037	99.94
350.265	88.94
350.492	96.94
350.72	90.94
350.947	96.94
351.174	95.94
351.402	111.94
351.629	108.94
351.856	106.94
352.083	87.94
352.311	108.94
352.538	111.94
352.765	98.94
352.992	120.94
353.22	99.94
353.447	97.94
353.674	106.94
353.901	89.94
354.128	93.94
354.355	90.94
354.583	94.94
354.81	96.94
355.037	97.94
355.264	93.94
355.491	96.94
355.718	87.94
355.945	101.94
356.172	97.94
356.399	101.94
356.626	85.94
356.853	74.94
357.08	89.94
357.307	112.94
357.534	93.94
357.761	104.94
357.988	91.94
358.215	93.94
358.441	99.94
358.668	100.94
358.895	86.94
359.122	100.94
359.349	93.94
359.576	93.94
359.802	101.94
360.029	100.94
360.256	114.94
360.483	95.94
360.709	99.94
360.936	87.94
361.163	90.94
361.39	96.94
361.616	102.94
361.843	91.94
362.07	100.94
362.296	105.94
362.523	100.94
362.749	88.94
362.976	102.94
363.203	107.94
363.429	84.94
363.656	80.94
363.882	94.94
364.109	77.94
364.335	88.94
364.562	95.94
364.788	87.94
365.015	90.94
365.241	104.94
365.468	100.94
365.694	100.94
365.92	112.94
366.147	85.94
366.373	89.94
366.599	81.94
366.826	90.94
367.052	98.94
367.278	77.94
367.505	91.94
367.731	103.94
367.957	89.94
368.184	97.94
368.41	95.94
368.636	111.94
368.862	121.94
369.089	92.94
369.315	93.94
369.541	98.94
369.767	87.94
369.993	103.94
370.219	93.94
370.445	91.94
370.672	85.94
370.898	80.94
371.124	88.94
371.35	79.94
371.576	85.94
371.802	89.94
372.028	86.94
372.254	98.94
372.48	96.94
372.706	97.94
372.932	96.94
373.158	97.94
373.384	81.94
373.61	92.94
373.835	89.94
374.061	84.94
374.287	92.94
374.513	93.94
374.739	84.94
374.965	80.94
375.191	97.94
375.416	85.94
375.642	75.94
375.868	107.94
376.094	81.94
376.319	90.94
376.545	90.94
376.771	92.94
376.997	92.94
377.222	87.94
377.448	82.94
377.674	91.94
377.899	101.94
378.125	101.94
378.35	90.94
378.576	88.94
378.802	84.94
379.027	88.94
379.253	89.94
379.478	91.94
379.704	83.94
379.929	69.94
380.155	82.94
380.38	87.94
380.606	86.94
380.831	100.94
381.057	100.94
381.282	89.94
381.507	99.94
381.733	97.94
381.958	102.94
382.184	95.94
382.409	98.94
382.634	93.94
382.86	88.94
383.085	99.94
383.31	98.94
383.535	102.94
383.761	105.94
383.986	107.94
384.211	96.94
384.436	99.94
384.662	99.94
384.887	98.94
385.112	93.94
385.337	111.94
385.562	111.94
385.787	89.94
386.013	101.94
386.238	116.94
386.463	112.94
386.688	125.94
386.913	89.94
387.138	86.94
387.363	96.94
387.588	101.94
387.813	98.94
388.038	96.94
388.263	111.94
388.488	99.94
388.713	87.94
388.938	86.94
389.163	97.94
389.387	106.94
389.612	87.94
389.837	79.94
390.062	83.94
390.287	101.94
390.512	83.94
390.736	90.94
390.961	83.94
391.186	80.94
391.411	86.94
391.636	87.94
391.86	86.94
392.085	90.94
392.31	88.94
392.534	92.94
392.759	99.94
392.984	85.94
393.208	107.94
393.433	90.94
393.658	98.94
393.882	97.94
394.107	76.94
394.331	66.94
394.556	93.94
394.78	75.94
395.005	99.94
395.229	87.94
395.454	90.94
395.678	78.94
395.903	81.94
396.127	99.94
396.352	87.94
396.576	84.94
396.801	88.94
397.025	83.94
397.249	87.94
397.474	96.94
397.698	93.94
397.922	89.94
398.147	78.94
398.371	83.94
398.595	96.94
398.82	86.94
399.044	87.94
399.268	78.94
399.492	86.94
399.717	92.94
399.941	84.94
400.165	87.94
400.389	80.94
400.613	78.94
400.837	86.94
401.062	75.94
401.286	72.94
401.51	75.94
401.734	92.94
401.958	108.94
402.182	126.94
402.406	156.94
402.63	132.94
402.854	102.94
403.078	89.94
403.302	84.94
403.526	88.94
403.75	88.94
403.974	79.94
404.198	89.94
404.422	99.94
404.645	104.94
404.869	90.94
405.093	98.94
405.317	97.94
405.541	109.94
405.765	93.94
405.988	109.94
406.212	175.94
406.436	231.94
406.66	143.94
406.883	89.94
407.107	86.94
407.331	111.94
407.555	92.94
407.778	92.94
408.002	89.94
408.226	93.94
408.449	80.94
408.673	75.94
408.896	86.94
409.12	93.94
409.344	107.94
409.567	85.94
409.791	79.94
410.014	77.94
410.238	97.94
410.461	75.94
410.685	104.94
410.908	99.94
411.132	108.94
411.355	107.94
411.578	92.94
411.802	80.94
412.025	85.94
412.249	93.94
412.472	93.94
412.695	102.94
412.919	84.94
413.142	98.94
413.365	91.94
413.589	99.94
413.812	87.94
414.035	82.94
414.258	85.94
414.482	92.94
414.705	85.94
414.928	91.94
415.151	86.94
415.374	89.94
415.597	98.94
415.821	91.94
416.044	74.94
416.267	91.94
416.49	82.94
416.713	83.94
416.936	91.94
417.159	70.94
417.382	81.94
417.605	98.94
417.828	84.94
418.051	73.94
418.274	93.94
418.497	81.94
418.72	81.94
418.943	92.94
419.166	81.94
419.389	95.94
419.611	90.94
419.834	87.94
420.057	69.94
420.28	84.94
420.503	81.94
420.726	93.94
420.948	83.94
421.171	104.94
421.394	86.94
421.617	96.94
421.839	86.94
422.062	91.94
422.285	81.94
422.507	91.94
422.73	90.94
422.953	96.94
423.175	86.94
423.398	85.94
423.621	115.94
423.843	93.94
424.066	100.94
424.288	89.94
424.511	83.94
424.733	108.94
424.956	105.94
425.178	95.94
425.401	96.94
425.623	93.94
425.846	84.94
426.068	97.94
426.291	93.94
426.513	84.94
426.735	84.94
426.958	77.94
427.18	109.94
427.402	128.94
427.625	160.94
427.847	114.94
428.069	111.94
428.292	93.94
428.514	65.94
428.736	87.94
428.958	77.94
429.181	89.94
429.403	80.94
429.625	80.94
429.847	84.94
430.069	79.94
430.292	89.94
430.514	87.94
430.736	74.94
430.958	85.94
431.18	82.94
431.402	83.94
431.624	78.94
431.846	84.94
432.068	90.94
432.29	89.94
432.512	84.94
432.734	85.94
432.956	86.94
433.178	97.94
433.4	94.94
433.622	88.94
433.844	88.94
434.066	86.94
434.287	81.94
434.509	80.94
434.731	87.94
434.953	94.94
435.175	97.94
435.397	99.94
435.618	98.94
435.84	90.94
436.062	93.94
436.284	105.94
436.505	98.94
436.727	105.94
436.949	84.94
437.17	83.94
437.392	88.94
437.614	89.94
437.835	98.94
438.057	119.94
438.278	114.94
438.5	103.94
438.721	120.94
438.943	98.94
439.165	83.94
439.386	84.94
439.608	88.94
439.829	100.94
440.05	132.94
440.272	147.94
440.493	89.94
440.715	96.94
440.936	84.94
441.158	91.94
441.379	77.94
441.6	89.94
441.822	73.94
442.043	99.94
442.264	112.94
442.486	102.94
442.707	91.94
442.928	90.94
443.149	121.94
443.371	144.94
443.592	109.94
443.813	112.94
444.034	111.94
444.255	91.94
444.476	97.94
444.698	90.94
444.919	86.94
445.14	116.94
445.361	146.94
445.582	115.94
445.803	143.94
446.024	134.94
446.245	122.94
446.466	102.94
446.687	81.94
446.908	90.94
447.129	84.94
447.35	78.94
447.571	82.94
447.792	81.94
448.013	110.94
448.234	112.94
448.455	119.94
448.675	129.94
448.896	119.94
449.117	105.94
449.338	110.94
449.559	136.94
449.779	137.94
450	96.94
450.221	101.94
450.442	76.94
450.662	105.94
450.883	89.94
451.104	106.94
451.324	94.94
451.545	92.94
451.766	103.94
451.986	92.94
452.207	81.94
452.428	89.94
452.648	90.94
452.869	113.94
453.089	120.94
453.31	121.94
453.53	99.94
453.751	89.94
453.971	94.94
454.192	111.94
454.412	100.94
454.633	82.94
454.853	83.94
455.073	96.94
455.294	87.94
455.514	107.94
455.734	86.94
455.955	91.94
456.175	83.94
456.395	74.94
456.616	68.94
456.836	88.94
457.056	80.94
457.276	88.94
457.497	85.94
457.717	74.94
457.937	82.94
458.157	83.94
458.377	86.94
458.598	119.94
458.818	156.94
459.038	155.94
459.258	100.94
459.478	94.94
459.698	97.94
459.918	93.94
460.138	86.94
460.358	88.94
460.578	82.94
460.798	84.94
461.018	95.94
461.238	102.94
461.458	78.94
461.678	71.94
461.898	93.94
462.118	102.94
462.338	89.94
462.558	83.94
462.777	81.94
462.997	91.94
463.217	84.94
463.437	80.94
463.657	92.94
463.876	96.94
464.096	84.94
464.316	99.94
464.536	70.94
464.755	88.94
464.975	107.94
465.195	151.94
465.414	154.94
465.634	100.94
465.854	87.94
466.073	87.94
466.293	91.94
466.512	84.94
466.732	101.94
466.951	83.94
467.171	92.94
467.391	97.94
467.61	104.94
467.829	92.94
468.049	69.94
468.268	99.94
468.488	74.94
468.707	82.94
468.927	95.94
469.146	95.94
469.365	85.94
469.585	79.94
469.804	90.94
470.023	95.94
470.243	102.94
470.462	97.94
470.681	115.94
470.901	90.94
471.12	83.94
471.339	89.94
471.558	74.94
471.777	98.94
471.997	87.94
472.216	91.94
472.435	91.94
472.654	76.94
472.873	96.94
473.092	83.94
473.311	90.94
473.53	85.94
473.749	103.94
473.968	103.94
474.187	114.94
474.406	96.94
474.625	98.94
474.844	93.94
475.063	77.94
475.282	76.94
475.501	91.94
475.72	79.94
475.939	79.94
476.158	79.94
476.377	96.94
476.596	88.94
476.814	105.94
477.033	84.94
477.252	92.94
477.471	89.94
477.69	81.94
477.908	88.94
478.127	106.94
478.346	87.94
478.564	79.94
478.783	85.94
479.002	93.94
479.22	84.94
479.439	103.94
479.658	107.94
479.876	94.94
480.095	91.94
480.313	91.94
480.532	105.94
480.751	87.94
480.969	89.94
481.188	100.94
481.406	88.94
481.624	99.94
481.843	90.94
482.061	89.94
482.28	94.94
482.498	85.94
482.717	104.94
482.935	72.94
483.153	83.94
483.372	77.94
483.59	89.94
483.808	94.94
484.027	90.94
484.245	93.94
484.463	94.94
484.681	108.94
484.9	108.94
485.118	82.94
485.336	95.94
485.554	94.94
485.772	98.94
485.99	102.94
486.209	96.94
486.427	105.94
486.645	108.94
486.863	109.94
487.081	100.94
487.299	93.94
487.517	92.94
487.735	87.94
487.953	96.94
488.171	91.94
488.389	101.94
488.607	82.94
488.825	98.94
489.043	90.94
489.261	95.94
489.479	80.94
489.696	88.94
489.914	89.94
490.132	86.94
490.35	75.94
490.568	88.94
490.786	97.94
491.003	95.94
491.221	90.94
491.439	82.94
491.657	81.94
491.874	87.94
492.092	96.94
492.31	103.94
492.527	68.94
492.745	93.94
492.963	92.94
493.18	90.94
493.398	98.94
493.615	95.94
493.833	85.94
494.05	85.94
494.268	98.94
494.485	93.94
494.703	99.94
494.92	97.94
495.138	97.94
495.355	78.94
495.573	82.94
495.79	89.94
496.008	83.94
496.225	100.94
496.442	83.94
496.66	89.94
496.877	68.94
497.094	97.94
497.312	99.94
497.529	90.94
497.746	84.94
497.963	100.94
498.181	93.94
498.398	85.94
498.615	92.94
498.832	96.94
499.049	78.94
499.267	83.94
499.484	104.94
499.701	91.94
499.918	92.94
500.135	96.94
500.352	88.94
500.569	95.94
500.786	81.94
501.003	93.94
501.22	83.94
501.437	95.94
501.654	100.94
501.871	105.94
502.088	92.94
502.305	99.94
502.522	88.94
502.739	89.94
502.956	83.94
503.172	81.94
503.389	85.94
503.606	100.94
503.823	108.94
504.04	91.94
504.256	96.94
504.473	89.94
504.69	73.94
504.907	97.94
505.123	101.94
505.34	88.94
505.557	102.94
505.773	86.94
505.99	72.94
506.207	93.94
506.423	73.94
506.64	81.94
506.856	88.94
507.073	80.94
507.289	80.94
507.506	93.94
507.722	95.94
507.939	101.94
508.155	97.94
508.372	88.94
508.588	93.94
508.805	97.94
509.021	83.94
509.238	90.94
509.454	102.94
509.67	100.94
509.887	116.94
510.103	131.94
510.319	220.94
510.536	797.94
510.752	2465.94
510.968	669.94
511.184	171.94
511.401	117.94
511.617	78.94
511.833	99.94
512.049	101.94
512.265	92.94
512.481	83.94
512.698	86.94
512.914	94.94
513.13	85.94
513.346	87.94
513.562	76.94
513.778	81.94
513.994	97.94
514.21	92.94
514.426	120.94
514.642	131.94
514.858	122.94
515.074	179.94
515.29	486.94
515.506	1607.94
515.721	571.94
515.937	146.94
516.153	112.94
