Data from Uncirc_2001_H10_HRD10591_00017.txt Node
Date: Wed Jan 03 10:44:00 EST 2024
User: Yrep
Spectrometer: HR+D1059
Trigger mode: 1
Integration Time (sec): 1.000000E-1
Scans to average: 1
Electric dark correction enabled: true
Nonlinearity correction enabled: false
Boxcar width: 0
XAxis mode: Wavelengths
Number of Pixels in Spectrum: 2048
>>>>>Begin Spectral Data<<<<<
223.165	-8.56
223.4	-8.56
223.635	-8.56
223.869	-16.56
224.104	-28.56
224.338	-24.56
224.573	-8.56
224.808	-23.56
225.042	-0.56
225.277	0.44
225.511	-4.56
225.746	1.44
225.98	5.44
226.215	12.44
226.449	17.44
226.683	13.44
226.918	33.44
227.152	31.44
227.387	34.44
227.621	40.44
227.856	38.44
228.09	55.44
228.324	61.44
228.559	67.44
228.793	63.44
229.027	64.44
229.262	65.44
229.496	81.44
229.73	79.44
229.964	71.44
230.199	67.44
230.433	84.44
230.667	75.44
230.901	60.44
231.136	73.44
231.37	101.44
231.604	86.44
231.838	76.44
232.072	79.44
232.306	75.44
232.541	84.44
232.775	77.44
233.009	83.44
233.243	82.44
233.477	92.44
233.711	75.44
233.945	76.44
234.179	66.44
234.413	73.44
234.647	73.44
234.881	73.44
235.115	84.44
235.349	95.44
235.583	73.44
235.817	69.44
236.051	75.44
236.285	75.44
236.519	69.44
236.753	77.44
236.987	79.44
237.221	95.44
237.455	85.44
237.689	73.44
237.922	74.44
238.156	77.44
238.39	74.44
238.624	81.44
238.858	73.44
239.091	85.44
239.325	80.44
239.559	74.44
239.793	84.44
240.027	86.44
240.26	80.44
240.494	71.44
240.728	89.44
240.961	82.44
241.195	69.44
241.429	72.44
241.662	79.44
241.896	75.44
242.13	81.44
242.363	66.44
242.597	80.44
242.83	85.44
243.064	70.44
243.298	77.44
243.531	79.44
243.765	66.44
243.998	72.44
244.232	71.44
244.465	73.44
244.699	89.44
244.932	81.44
245.166	73.44
245.399	70.44
245.633	71.44
245.866	58.44
246.099	78.44
246.333	68.44
246.566	69.44
246.8	95.44
247.033	83.44
247.266	73.44
247.5	79.44
247.733	71.44
247.966	87.44
248.2	74.44
248.433	83.44
248.666	98.44
248.899	85.44
249.133	89.44
249.366	97.44
249.599	93.44
249.832	80.44
250.066	75.44
250.299	89.44
250.532	91.44
250.765	82.44
250.998	99.44
251.231	76.44
251.465	84.44
251.698	77.44
251.931	82.44
252.164	75.44
252.397	74.44
252.63	89.44
252.863	68.44
253.096	67.44
253.329	98.44
253.562	91.44
253.795	81.44
254.028	100.44
254.261	82.44
254.494	67.44
254.727	79.44
254.96	88.44
255.193	77.44
255.426	74.44
255.659	76.44
255.892	79.44
256.124	78.44
256.357	69.44
256.59	74.44
256.823	85.44
257.056	77.44
257.289	82.44
257.521	83.44
257.754	81.44
257.987	85.44
258.22	85.44
258.452	80.44
258.685	100.44
258.918	75.44
259.151	75.44
259.383	100.44
259.616	91.44
259.849	83.44
260.081	72.44
260.314	90.44
260.547	79.44
260.779	67.44
261.012	77.44
261.244	98.44
261.477	88.44
261.71	83.44
261.942	103.44
262.175	102.44
262.407	85.44
262.64	79.44
262.872	84.44
263.105	88.44
263.337	66.44
263.57	80.44
263.802	84.44
264.035	96.44
264.267	74.44
264.499	90.44
264.732	95.44
264.964	72.44
265.197	85.44
265.429	89.44
265.661	82.44
265.894	88.44
266.126	72.44
266.358	83.44
266.591	83.44
266.823	68.44
267.055	84.44
267.287	86.44
267.52	75.44
267.752	102.44
267.984	82.44
268.216	84.44
268.448	89.44
268.681	72.44
268.913	72.44
269.145	70.44
269.377	72.44
269.609	83.44
269.841	90.44
270.073	80.44
270.306	80.44
270.538	96.44
270.77	75.44
271.002	75.44
271.234	89.44
271.466	92.44
271.698	83.44
271.93	80.44
272.162	91.44
272.394	80.44
272.626	86.44
272.858	77.44
273.09	84.44
273.322	102.44
273.553	86.44
273.785	83.44
274.017	87.44
274.249	91.44
274.481	82.44
274.713	87.44
274.945	91.44
275.176	91.44
275.408	87.44
275.64	89.44
275.872	81.44
276.104	79.44
276.335	89.44
276.567	86.44
276.799	103.44
277.031	112.44
277.262	85.44
277.494	100.44
277.726	99.44
277.957	79.44
278.189	88.44
278.421	87.44
278.652	92.44
278.884	71.44
279.115	75.44
279.347	82.44
279.579	93.44
279.81	83.44
280.042	87.44
280.273	92.44
280.505	74.44
280.736	80.44
280.968	95.44
281.199	85.44
281.431	96.44
281.662	90.44
281.894	85.44
282.125	80.44
282.356	101.44
282.588	121.44
282.819	103.44
283.051	80.44
283.282	77.44
283.513	82.44
283.745	93.44
283.976	102.44
284.207	83.44
284.439	82.44
284.67	80.44
284.901	87.44
285.132	98.44
285.364	84.44
285.595	82.44
285.826	96.44
286.057	80.44
286.288	72.44
286.52	78.44
286.751	86.44
286.982	75.44
287.213	80.44
287.444	88.44
287.675	74.44
287.906	84.44
288.138	104.44
288.369	96.44
288.6	70.44
288.831	80.44
289.062	76.44
289.293	83.44
289.524	87.44
289.755	73.44
289.986	92.44
290.217	88.44
290.448	81.44
290.679	83.44
290.91	99.44
291.141	87.44
291.371	82.44
291.602	95.44
291.833	73.44
292.064	81.44
292.295	85.44
292.526	84.44
292.757	74.44
292.987	96.44
293.218	84.44
293.449	85.44
293.68	89.44
293.91	91.44
294.141	102.44
294.372	92.44
294.603	91.44
294.833	73.44
295.064	74.44
295.295	104.44
295.525	91.44
295.756	99.44
295.987	118.44
296.217	121.44
296.448	117.44
296.679	95.44
296.909	84.44
297.14	81.44
297.37	92.44
297.601	111.44
297.831	90.44
298.062	92.44
298.292	87.44
298.523	104.44
298.753	93.44
298.984	81.44
299.214	87.44
299.445	92.44
299.675	91.44
299.905	97.44
300.136	85.44
300.366	81.44
300.597	84.44
300.827	93.44
301.057	102.44
301.288	99.44
301.518	97.44
301.748	83.44
301.979	93.44
302.209	95.44
302.439	96.44
302.669	83.44
302.9	89.44
303.13	85.44
303.36	92.44
303.59	102.44
303.82	98.44
304.051	97.44
304.281	98.44
304.511	107.44
304.741	80.44
304.971	92.44
305.201	84.44
305.431	83.44
305.661	84.44
305.891	96.44
306.121	99.44
306.352	101.44
306.582	91.44
306.812	77.44
307.042	93.44
307.272	95.44
307.502	89.44
307.731	92.44
307.961	104.44
308.191	93.44
308.421	99.44
308.651	91.44
308.881	88.44
309.111	99.44
309.341	98.44
309.571	86.44
309.8	93.44
310.03	91.44
310.26	92.44
310.49	84.44
310.72	88.44
310.949	105.44
311.179	117.44
311.409	85.44
311.639	92.44
311.868	94.44
312.098	93.44
312.328	89.44
312.557	99.44
312.787	100.44
313.017	98.44
313.246	101.44
313.476	92.44
313.706	91.44
313.935	80.44
314.165	88.44
314.394	98.44
314.624	93.44
314.853	79.44
315.083	87.44
315.312	91.44
315.542	107.44
315.771	88.44
316.001	110.44
316.23	102.44
316.46	84.44
316.689	85.44
316.919	90.44
317.148	85.44
317.377	90.44
317.607	95.44
317.836	99.44
318.065	91.44
318.295	83.44
318.524	96.44
318.753	98.44
318.983	96.44
319.212	98.44
319.441	96.44
319.67	87.44
319.9	95.44
320.129	93.44
320.358	101.44
320.587	83.44
320.816	82.44
321.046	100.44
321.275	96.44
321.504	83.44
321.733	77.44
321.962	98.44
322.191	77.44
322.42	100.44
322.649	106.44
322.878	111.44
323.108	99.44
323.337	99.44
323.566	117.44
323.795	134.44
324.024	182.44
324.253	332.44
324.482	631.44
324.71	1260.44
324.939	1560.44
325.168	604.44
325.397	200.44
325.626	151.44
325.855	108.44
326.084	108.44
326.313	133.44
326.542	134.44
326.77	205.44
326.999	361.44
327.228	713.44
327.457	1226.44
327.686	970.44
327.914	293.44
328.143	175.44
328.372	132.44
328.6	92.44
328.829	100.44
329.058	111.44
329.287	119.44
329.515	109.44
329.744	94.44
329.972	108.44
330.201	91.44
330.43	95.44
330.658	103.44
330.887	123.44
331.115	92.44
331.344	96.44
331.572	101.44
331.801	107.44
332.03	111.44
332.258	92.44
332.486	95.44
332.715	98.44
332.943	87.44
333.172	89.44
333.4	89.44
333.629	96.44
333.857	112.44
334.085	104.44
334.314	92.44
334.542	95.44
334.771	96.44
334.999	97.44
335.227	91.44
335.455	91.44
335.684	105.44
335.912	96.44
336.14	92.44
336.369	101.44
336.597	93.44
336.825	95.44
337.053	97.44
337.281	76.44
337.51	93.44
337.738	80.44
337.966	98.44
338.194	91.44
338.422	93.44
338.65	109.44
338.878	91.44
339.106	86.44
339.334	84.44
339.562	89.44
339.79	97.44
340.018	99.44
340.246	93.44
340.474	73.44
340.702	100.44
340.93	86.44
341.158	84.44
341.386	97.44
341.614	97.44
341.842	80.44
342.07	104.44
342.298	92.44
342.526	88.44
342.754	91.44
342.981	83.44
343.209	90.44
343.437	105.44
343.665	108.44
343.893	93.44
344.12	103.44
344.348	81.44
344.576	72.44
344.804	102.44
345.031	105.44
345.259	106.44
345.487	83.44
345.714	88.44
345.942	88.44
346.17	103.44
346.397	90.44
346.625	73.44
346.853	90.44
347.08	94.44
347.308	101.44
347.535	97.44
347.763	88.44
347.99	92.44
348.218	82.44
348.445	108.44
348.673	85.44
348.9	83.44
349.128	90.44
349.355	93.44
349.583	89.44
349.81	92.44
350.037	84.44
350.265	89.44
350.492	101.44
350.72	85.44
350.947	96.44
351.174	89.44
351.402	111.44
351.629	87.44
351.856	108.44
352.083	106.44
352.311	93.44
352.538	101.44
352.765	107.44
352.992	104.44
353.22	125.44
353.447	111.44
353.674	98.44
353.901	91.44
354.128	108.44
354.355	99.44
354.583	88.44
354.81	83.44
355.037	98.44
355.264	104.44
355.491	90.44
355.718	90.44
355.945	98.44
356.172	84.44
356.399	95.44
356.626	91.44
356.853	93.44
357.08	95.44
357.307	91.44
357.534	85.44
357.761	85.44
357.988	96.44
358.215	88.44
358.441	96.44
358.668	81.44
358.895	74.44
359.122	99.44
359.349	92.44
359.576	90.44
359.802	84.44
360.029	104.44
360.256	98.44
360.483	103.44
360.709	86.44
360.936	84.44
361.163	91.44
361.39	87.44
361.616	88.44
361.843	86.44
362.07	86.44
362.296	97.44
362.523	85.44
362.749	89.44
362.976	94.44
363.203	99.44
363.429	91.44
363.656	83.44
363.882	82.44
364.109	93.44
364.335	88.44
364.562	96.44
364.788	83.44
365.015	83.44
365.241	93.44
365.468	99.44
365.694	92.44
365.92	95.44
366.147	84.44
366.373	99.44
366.599	79.44
366.826	102.44
367.052	89.44
367.278	101.44
367.505	83.44
367.731	91.44
367.957	88.44
368.184	82.44
368.41	86.44
368.636	93.44
368.862	111.44
369.089	101.44
369.315	97.44
369.541	88.44
369.767	85.44
369.993	73.44
370.219	87.44
370.445	97.44
370.672	78.44
370.898	92.44
371.124	86.44
371.35	76.44
371.576	92.44
371.802	88.44
372.028	74.44
372.254	93.44
372.48	97.44
372.706	88.44
372.932	85.44
373.158	86.44
373.384	82.44
373.61	81.44
373.835	95.44
374.061	82.44
374.287	91.44
374.513	85.44
374.739	107.44
374.965	90.44
375.191	101.44
375.416	88.44
375.642	88.44
375.868	89.44
376.094	97.44
376.319	84.44
376.545	74.44
376.771	90.44
376.997	80.44
377.222	98.44
377.448	87.44
377.674	91.44
377.899	86.44
378.125	96.44
378.35	92.44
378.576	92.44
378.802	93.44
379.027	84.44
379.253	91.44
379.478	92.44
379.704	99.44
379.929	103.44
380.155	89.44
380.38	93.44
380.606	102.44
380.831	82.44
381.057	105.44
381.282	93.44
381.507	105.44
381.733	96.44
381.958	92.44
382.184	104.44
382.409	113.44
382.634	96.44
382.86	101.44
383.085	93.44
383.31	109.44
383.535	100.44
383.761	93.44
383.986	97.44
384.211	93.44
384.436	109.44
384.662	103.44
384.887	107.44
385.112	106.44
385.337	106.44
385.562	116.44
385.787	101.44
386.013	116.44
386.238	116.44
386.463	117.44
386.688	109.44
386.913	108.44
387.138	120.44
387.363	117.44
387.588	106.44
387.813	96.44
388.038	107.44
388.263	121.44
388.488	113.44
388.713	112.44
388.938	109.44
389.163	93.44
389.387	103.44
389.612	107.44
389.837	95.44
390.062	92.44
390.287	91.44
390.512	100.44
390.736	97.44
390.961	95.44
391.186	101.44
391.411	99.44
391.636	81.44
391.86	85.44
392.085	84.44
392.31	92.44
392.534	76.44
392.759	81.44
392.984	88.44
393.208	90.44
393.433	79.44
393.658	99.44
393.882	88.44
394.107	86.44
394.331	73.44
394.556	72.44
394.78	78.44
395.005	88.44
395.229	87.44
395.454	98.44
395.678	77.44
395.903	73.44
396.127	76.44
396.352	98.44
396.576	97.44
396.801	98.44
397.025	81.44
397.249	81.44
397.474	74.44
397.698	74.44
397.922	83.44
398.147	84.44
398.371	85.44
398.595	87.44
398.82	83.44
399.044	84.44
399.268	84.44
399.492	88.44
399.717	89.44
399.941	85.44
400.165	104.44
400.389	83.44
400.613	96.44
400.837	95.44
401.062	83.44
401.286	92.44
401.51	90.44
401.734	93.44
401.958	101.44
402.182	124.44
402.406	139.44
402.63	107.44
402.854	98.44
403.078	105.44
403.302	82.44
403.526	92.44
403.75	93.44
403.974	84.44
404.198	72.44
404.422	87.44
404.645	89.44
404.869	88.44
405.093	83.44
405.317	87.44
405.541	107.44
405.765	85.44
405.988	115.44
406.212	153.44
406.436	201.44
406.66	133.44
406.883	85.44
407.107	88.44
407.331	98.44
407.555	103.44
407.778	99.44
408.002	84.44
408.226	96.44
408.449	91.44
408.673	84.44
408.896	106.44
409.12	97.44
409.344	72.44
409.567	89.44
409.791	96.44
410.014	90.44
410.238	92.44
410.461	93.44
410.685	91.44
410.908	89.44
411.132	89.44
411.355	95.44
411.578	82.44
411.802	84.44
412.025	79.44
412.249	76.44
412.472	96.44
412.695	104.44
412.919	75.44
413.142	78.44
413.365	97.44
413.589	81.44
413.812	71.44
414.035	79.44
414.258	88.44
414.482	95.44
414.705	93.44
414.928	107.44
415.151	105.44
415.374	91.44
415.597	91.44
415.821	84.44
416.044	98.44
416.267	80.44
416.49	91.44
416.713	87.44
416.936	79.44
417.159	78.44
417.382	87.44
417.605	99.44
417.828	91.44
418.051	76.44
418.274	101.44
418.497	81.44
418.72	77.44
418.943	79.44
419.166	86.44
419.389	93.44
419.611	87.44
419.834	97.44
420.057	83.44
420.28	82.44
420.503	92.44
420.726	101.44
420.948	77.44
421.171	89.44
421.394	85.44
421.617	88.44
421.839	78.44
422.062	86.44
422.285	91.44
422.507	91.44
422.73	88.44
422.953	101.44
423.175	97.44
423.398	90.44
423.621	73.44
423.843	81.44
424.066	82.44
424.288	87.44
424.511	100.44
424.733	94.44
424.956	90.44
425.178	99.44
425.401	97.44
425.623	93.44
425.846	88.44
426.068	96.44
426.291	84.44
426.513	84.44
426.735	75.44
426.958	97.44
427.18	100.44
427.402	123.44
427.625	130.44
427.847	109.44
428.069	103.44
428.292	91.44
428.514	79.44
428.736	82.44
428.958	70.44
429.181	92.44
429.403	88.44
429.625	77.44
429.847	79.44
430.069	90.44
430.292	87.44
430.514	86.44
430.736	81.44
430.958	79.44
431.18	86.44
431.402	81.44
431.624	80.44
431.846	90.44
432.068	88.44
432.29	82.44
432.512	70.44
432.734	93.44
432.956	83.44
433.178	99.44
433.4	82.44
433.622	84.44
433.844	93.44
434.066	69.44
434.287	83.44
434.509	87.44
434.731	89.44
434.953	79.44
435.175	87.44
435.397	66.44
435.618	82.44
435.84	81.44
436.062	120.44
436.284	104.44
436.505	107.44
436.727	93.44
436.949	96.44
437.17	77.44
437.392	94.44
437.614	88.44
437.835	97.44
438.057	107.44
438.278	102.44
438.5	91.44
438.721	112.44
438.943	100.44
439.165	84.44
439.386	94.44
439.608	81.44
439.829	103.44
440.05	108.44
440.272	132.44
440.493	86.44
440.715	91.44
440.936	82.44
441.158	84.44
441.379	98.44
441.6	88.44
441.822	100.44
442.043	73.44
442.264	92.44
442.486	103.44
442.707	93.44
442.928	99.44
443.149	107.44
443.371	118.44
443.592	100.44
443.813	104.44
444.034	102.44
444.255	103.44
444.476	94.44
444.698	71.44
444.919	70.44
445.14	142.44
445.361	116.44
445.582	101.44
445.803	121.44
446.024	118.44
446.245	112.44
446.466	110.44
446.687	88.44
446.908	95.44
447.129	88.44
447.35	104.44
447.571	70.44
447.792	90.44
448.013	93.44
448.234	91.44
448.455	91.44
448.675	108.44
448.896	120.44
449.117	105.44
449.338	100.44
449.559	115.44
449.779	134.44
450	111.44
450.221	88.44
450.442	84.44
450.662	99.44
450.883	114.44
451.104	104.44
451.324	78.44
451.545	79.44
451.766	83.44
451.986	90.44
452.207	86.44
452.428	111.44
452.648	104.44
452.869	106.44
453.089	97.44
453.31	97.44
453.53	97.44
453.751	92.44
453.971	95.44
454.192	95.44
454.412	89.44
454.633	90.44
454.853	91.44
455.073	90.44
455.294	85.44
455.514	83.44
455.734	73.44
455.955	81.44
456.175	90.44
456.395	90.44
456.616	90.44
456.836	76.44
457.056	86.44
457.276	82.44
457.497	75.44
457.717	74.44
457.937	98.44
458.157	91.44
458.377	89.44
458.598	91.44
458.818	128.44
459.038	128.44
459.258	102.44
459.478	90.44
459.698	74.44
459.918	95.44
460.138	85.44
460.358	77.44
460.578	77.44
460.798	91.44
461.018	84.44
461.238	99.44
461.458	84.44
461.678	80.44
461.898	92.44
462.118	89.44
462.338	80.44
462.558	83.44
462.777	84.44
462.997	93.44
463.217	88.44
463.437	87.44
463.657	101.44
463.876	88.44
464.096	89.44
464.316	101.44
464.536	90.44
464.755	102.44
464.975	90.44
465.195	132.44
465.414	137.44
465.634	88.44
465.854	87.44
466.073	87.44
466.293	86.44
466.512	81.44
466.732	78.44
466.951	88.44
467.171	90.44
467.391	106.44
467.61	103.44
467.829	100.44
468.049	107.44
468.268	86.44
468.488	71.44
468.707	84.44
468.927	78.44
469.146	92.44
469.365	92.44
469.585	90.44
469.804	101.44
470.023	99.44
470.243	91.44
470.462	86.44
470.681	98.44
470.901	98.44
471.12	101.44
471.339	81.44
471.558	90.44
471.777	82.44
471.997	95.44
472.216	94.44
472.435	101.44
472.654	81.44
472.873	93.44
473.092	92.44
473.311	83.44
473.53	87.44
473.749	98.44
473.968	82.44
474.187	114.44
474.406	99.44
474.625	83.44
474.844	83.44
475.063	82.44
475.282	89.44
475.501	79.44
475.72	79.44
475.939	94.44
476.158	94.44
476.377	87.44
476.596	75.44
476.814	84.44
477.033	69.44
477.252	90.44
477.471	74.44
477.69	94.44
477.908	91.44
478.127	81.44
478.346	78.44
478.564	106.44
478.783	87.44
479.002	95.44
479.22	99.44
479.439	86.44
479.658	105.44
479.876	99.44
480.095	79.44
480.313	80.44
480.532	93.44
480.751	96.44
480.969	100.44
481.188	89.44
481.406	91.44
481.624	96.44
481.843	85.44
482.061	85.44
482.28	93.44
482.498	90.44
482.717	95.44
482.935	81.44
483.153	90.44
483.372	106.44
483.59	92.44
483.808	65.44
484.027	90.44
484.245	87.44
484.463	96.44
484.681	87.44
484.9	87.44
485.118	99.44
485.336	98.44
485.554	99.44
485.772	106.44
485.99	97.44
486.209	115.44
486.427	105.44
486.645	112.44
486.863	108.44
487.081	104.44
487.299	97.44
487.517	92.44
487.735	86.44
487.953	92.44
488.171	92.44
488.389	84.44
488.607	100.44
488.825	97.44
489.043	86.44
489.261	92.44
489.479	84.44
489.696	89.44
489.914	89.44
490.132	86.44
490.35	84.44
490.568	80.44
490.786	88.44
491.003	87.44
491.221	91.44
491.439	87.44
491.657	82.44
491.874	91.44
492.092	82.44
492.31	93.44
492.527	93.44
492.745	83.44
492.963	101.44
493.18	87.44
493.398	88.44
493.615	95.44
493.833	95.44
494.05	101.44
494.268	95.44
494.485	75.44
494.703	94.44
494.92	87.44
495.138	90.44
495.355	104.44
495.573	93.44
495.79	75.44
496.008	109.44
496.225	73.44
496.442	88.44
496.66	84.44
496.877	97.44
497.094	86.44
497.312	99.44
497.529	93.44
497.746	87.44
497.963	102.44
498.181	92.44
498.398	112.44
498.615	99.44
498.832	97.44
499.049	84.44
499.267	99.44
499.484	93.44
499.701	89.44
499.918	87.44
500.135	91.44
500.352	88.44
500.569	83.44
500.786	85.44
501.003	85.44
501.22	81.44
501.437	81.44
501.654	91.44
501.871	92.44
502.088	81.44
502.305	95.44
502.522	74.44
502.739	99.44
502.956	95.44
503.172	76.44
503.389	91.44
503.606	98.44
503.823	82.44
504.04	97.44
504.256	98.44
504.473	84.44
504.69	104.44
504.907	95.44
505.123	89.44
505.34	97.44
505.557	79.44
505.773	92.44
505.99	84.44
506.207	97.44
506.423	94.44
506.64	91.44
506.856	89.44
507.073	95.44
507.289	84.44
507.506	85.44
507.722	104.44
507.939	103.44
508.155	103.44
508.372	95.44
508.588	90.44
508.805	87.44
509.021	101.44
509.238	93.44
509.454	104.44
509.67	95.44
509.887	114.44
510.103	133.44
510.319	195.44
510.536	625.44
510.752	1885.44
510.968	547.44
511.184	169.44
511.401	95.44
511.617	96.44
511.833	96.44
512.049	98.44
512.265	76.44
512.481	80.44
512.698	89.44
512.914	91.44
513.13	94.44
513.346	89.44
513.562	102.44
513.778	92.44
513.994	99.44
514.21	90.44
514.426	113.44
514.642	137.44
514.858	123.44
515.074	161.44
515.29	388.44
515.506	1167.44
515.721	446.44
515.937	136.44
516.153	98.44
516.369	93.44
