Data from Uncirc_2001_H10_HRD10591_00087.txt Node
Date: Wed Jan 03 10:44:14 EST 2024
User: Yrep
Spectrometer: HR+D1059
Trigger mode: 1
Integration Time (sec): 1.000000E-1
Scans to average: 1
Electric dark correction enabled: true
Nonlinearity correction enabled: false
Boxcar width: 0
XAxis mode: Wavelengths
Number of Pixels in Spectrum: 2048
>>>>>Begin Spectral Data<<<<<
223.165	-22.25
223.4	-22.25
223.635	-22.25
223.869	-3.25
224.104	-19.25
224.338	-20.25
224.573	-12.25
224.808	-6.25
225.042	-13.25
225.277	-15.25
225.511	-13.25
225.746	13.75
225.98	-0.25
226.215	5.75
226.449	15.75
226.683	18.75
226.918	26.75
227.152	44.75
227.387	38.75
227.621	44.75
227.856	40.75
228.09	38.75
228.324	57.75
228.559	51.75
228.793	57.75
229.027	68.75
229.262	74.75
229.496	87.75
229.73	80.75
229.964	86.75
230.199	72.75
230.433	83.75
230.667	87.75
230.901	68.75
231.136	81.75
231.37	80.75
231.604	83.75
231.838	79.75
232.072	93.75
232.306	82.75
232.541	82.75
232.775	90.75
233.009	76.75
233.243	72.75
233.477	89.75
233.711	87.75
233.945	64.75
234.179	77.75
234.413	80.75
234.647	73.75
234.881	69.75
235.115	71.75
235.349	77.75
235.583	87.75
235.817	83.75
236.051	77.75
236.285	73.75
236.519	86.75
236.753	80.75
236.987	82.75
237.221	92.75
237.455	94.75
237.689	84.75
237.922	74.75
238.156	68.75
238.39	83.75
238.624	62.75
238.858	72.75
239.091	81.75
239.325	80.75
239.559	74.75
239.793	77.75
240.027	78.75
240.26	86.75
240.494	66.75
240.728	73.75
240.961	87.75
241.195	86.75
241.429	90.75
241.662	81.75
241.896	65.75
242.13	69.75
242.363	83.75
242.597	86.75
242.83	68.75
243.064	76.75
243.298	80.75
243.531	88.75
243.765	85.75
243.998	90.75
244.232	81.75
244.465	71.75
244.699	75.75
244.932	93.75
245.166	90.75
245.399	73.75
245.633	75.75
245.866	90.75
246.099	85.75
246.333	73.75
246.566	76.75
246.8	78.75
247.033	65.75
247.266	81.75
247.5	81.75
247.733	78.75
247.966	70.75
248.2	75.75
248.433	78.75
248.666	76.75
248.899	93.75
249.133	91.75
249.366	104.75
249.599	85.75
249.832	85.75
250.066	83.75
250.299	81.75
250.532	85.75
250.765	70.75
250.998	78.75
251.231	68.75
251.465	73.75
251.698	86.75
251.931	85.75
252.164	80.75
252.397	68.75
252.63	87.75
252.863	77.75
253.096	72.75
253.329	82.75
253.562	90.75
253.795	90.75
254.028	85.75
254.261	80.75
254.494	81.75
254.727	94.75
254.96	87.75
255.193	69.75
255.426	82.75
255.659	80.75
255.892	92.75
256.124	67.75
256.357	95.75
256.59	80.75
256.823	91.75
257.056	83.75
257.289	76.75
257.521	82.75
257.754	88.75
257.987	88.75
258.22	92.75
258.452	89.75
258.685	76.75
258.918	77.75
259.151	77.75
259.383	67.75
259.616	91.75
259.849	76.75
260.081	86.75
260.314	98.75
260.547	81.75
260.779	78.75
261.012	85.75
261.244	86.75
261.477	91.75
261.71	104.75
261.942	111.75
262.175	113.75
262.407	89.75
262.64	90.75
262.872	87.75
263.105	84.75
263.337	79.75
263.57	77.75
263.802	78.75
264.035	74.75
264.267	92.75
264.499	95.75
264.732	94.75
264.964	92.75
265.197	85.75
265.429	84.75
265.661	86.75
265.894	92.75
266.126	88.75
266.358	76.75
266.591	85.75
266.823	98.75
267.055	81.75
267.287	87.75
267.52	94.75
267.752	86.75
267.984	84.75
268.216	88.75
268.448	82.75
268.681	78.75
268.913	98.75
269.145	78.75
269.377	84.75
269.609	85.75
269.841	88.75
270.073	95.75
270.306	88.75
270.538	93.75
270.77	91.75
271.002	71.75
271.234	89.75
271.466	90.75
271.698	76.75
271.93	97.75
272.162	86.75
272.394	78.75
272.626	96.75
272.858	98.75
273.09	92.75
273.322	81.75
273.553	91.75
273.785	89.75
274.017	84.75
274.249	81.75
274.481	81.75
274.713	94.75
274.945	94.75
275.176	87.75
275.408	91.75
275.64	82.75
275.872	87.75
276.104	94.75
276.335	100.75
276.567	94.75
276.799	95.75
277.031	91.75
277.262	96.75
277.494	89.75
277.726	88.75
277.957	80.75
278.189	82.75
278.421	81.75
278.652	66.75
278.884	81.75
279.115	90.75
279.347	84.75
279.579	75.75
279.81	99.75
280.042	97.75
280.273	86.75
280.505	88.75
280.736	85.75
280.968	100.75
281.199	81.75
281.431	94.75
281.662	88.75
281.894	88.75
282.125	97.75
282.356	100.75
282.588	120.75
282.819	107.75
283.051	82.75
283.282	93.75
283.513	86.75
283.745	73.75
283.976	66.75
284.207	86.75
284.439	86.75
284.67	85.75
284.901	75.75
285.132	82.75
285.364	85.75
285.595	101.75
285.826	84.75
286.057	85.75
286.288	96.75
286.52	96.75
286.751	84.75
286.982	78.75
287.213	91.75
287.444	91.75
287.675	88.75
287.906	92.75
288.138	91.75
288.369	95.75
288.6	84.75
288.831	90.75
289.062	103.75
289.293	96.75
289.524	84.75
289.755	83.75
289.986	86.75
290.217	84.75
290.448	98.75
290.679	81.75
290.91	84.75
291.141	88.75
291.371	85.75
291.602	80.75
291.833	89.75
292.064	87.75
292.295	80.75
292.526	101.75
292.757	86.75
292.987	87.75
293.218	93.75
293.449	105.75
293.68	78.75
293.91	89.75
294.141	81.75
294.372	85.75
294.603	77.75
294.833	96.75
295.064	89.75
295.295	95.75
295.525	93.75
295.756	107.75
295.987	110.75
296.217	123.75
296.448	132.75
296.679	90.75
296.909	106.75
297.14	80.75
297.37	92.75
297.601	101.75
297.831	88.75
298.062	93.75
298.292	105.75
298.523	88.75
298.753	78.75
298.984	80.75
299.214	84.75
299.445	89.75
299.675	83.75
299.905	90.75
300.136	90.75
300.366	102.75
300.597	87.75
300.827	89.75
301.057	94.75
301.288	105.75
301.518	92.75
301.748	89.75
301.979	96.75
302.209	109.75
302.439	88.75
302.669	98.75
302.9	95.75
303.13	111.75
303.36	104.75
303.59	93.75
303.82	107.75
304.051	106.75
304.281	90.75
304.511	90.75
304.741	84.75
304.971	83.75
305.201	80.75
305.431	91.75
305.661	92.75
305.891	98.75
306.121	95.75
306.352	97.75
306.582	103.75
306.812	85.75
307.042	86.75
307.272	81.75
307.502	92.75
307.731	80.75
307.961	72.75
308.191	101.75
308.421	95.75
308.651	89.75
308.881	94.75
309.111	96.75
309.341	102.75
309.571	89.75
309.8	88.75
310.03	90.75
310.26	100.75
310.49	94.75
310.72	94.75
310.949	93.75
311.179	105.75
311.409	100.75
311.639	94.75
311.868	96.75
312.098	84.75
312.328	104.75
312.557	103.75
312.787	110.75
313.017	112.75
313.246	101.75
313.476	83.75
313.706	98.75
313.935	100.75
314.165	98.75
314.394	97.75
314.624	87.75
314.853	93.75
315.083	79.75
315.312	84.75
315.542	83.75
315.771	94.75
316.001	88.75
316.23	89.75
316.46	88.75
316.689	85.75
316.919	85.75
317.148	107.75
317.377	99.75
317.607	84.75
317.836	94.75
318.065	101.75
318.295	98.75
318.524	69.75
318.753	96.75
318.983	92.75
319.212	91.75
319.441	91.75
319.67	98.75
319.9	90.75
320.129	88.75
320.358	100.75
320.587	100.75
320.816	95.75
321.046	96.75
321.275	102.75
321.504	91.75
321.733	79.75
321.962	105.75
322.191	106.75
322.42	91.75
322.649	112.75
322.878	108.75
323.108	112.75
323.337	129.75
323.566	113.75
323.795	148.75
324.024	188.75
324.253	372.75
324.482	704.75
324.71	1404.75
324.939	1810.75
325.168	677.75
325.397	225.75
325.626	149.75
325.855	117.75
326.084	132.75
326.313	129.75
326.542	136.75
326.77	209.75
326.999	406.75
327.228	808.75
327.457	1417.75
327.686	1106.75
327.914	314.75
328.143	167.75
328.372	133.75
328.6	114.75
328.829	94.75
329.058	109.75
329.287	112.75
329.515	108.75
329.744	88.75
329.972	81.75
330.201	102.75
330.43	94.75
330.658	115.75
330.887	135.75
331.115	106.75
331.344	80.75
331.572	84.75
331.801	99.75
332.03	104.75
332.258	83.75
332.486	85.75
332.715	91.75
332.943	84.75
333.172	87.75
333.4	90.75
333.629	97.75
333.857	104.75
334.085	103.75
334.314	90.75
334.542	85.75
334.771	90.75
334.999	85.75
335.227	92.75
335.455	103.75
335.684	92.75
335.912	80.75
336.14	94.75
336.369	103.75
336.597	108.75
336.825	99.75
337.053	105.75
337.281	108.75
337.51	109.75
337.738	98.75
337.966	88.75
338.194	89.75
338.422	102.75
338.65	92.75
338.878	88.75
339.106	100.75
339.334	107.75
339.562	86.75
339.79	92.75
340.018	88.75
340.246	99.75
340.474	91.75
340.702	94.75
340.93	107.75
341.158	92.75
341.386	103.75
341.614	105.75
341.842	91.75
342.07	94.75
342.298	93.75
342.526	105.75
342.754	92.75
342.981	111.75
343.209	96.75
343.437	100.75
343.665	83.75
343.893	92.75
344.12	80.75
344.348	69.75
344.576	97.75
344.804	95.75
345.031	79.75
345.259	98.75
345.487	104.75
345.714	105.75
345.942	94.75
346.17	89.75
346.397	93.75
346.625	94.75
346.853	101.75
347.08	91.75
347.308	98.75
347.535	105.75
347.763	92.75
347.99	98.75
348.218	96.75
348.445	96.75
348.673	110.75
348.9	95.75
349.128	90.75
349.355	89.75
349.583	93.75
349.81	84.75
350.037	94.75
350.265	104.75
350.492	108.75
350.72	97.75
350.947	98.75
351.174	95.75
351.402	120.75
351.629	113.75
351.856	99.75
352.083	85.75
352.311	96.75
352.538	115.75
352.765	94.75
352.992	105.75
353.22	102.75
353.447	106.75
353.674	87.75
353.901	93.75
354.128	94.75
354.355	85.75
354.583	97.75
354.81	101.75
355.037	104.75
355.264	90.75
355.491	97.75
355.718	98.75
355.945	100.75
356.172	84.75
356.399	97.75
356.626	101.75
356.853	99.75
357.08	94.75
357.307	101.75
357.534	92.75
357.761	91.75
357.988	94.75
358.215	92.75
358.441	83.75
358.668	77.75
358.895	85.75
359.122	83.75
359.349	82.75
359.576	94.75
359.802	109.75
360.029	110.75
360.256	102.75
360.483	102.75
360.709	84.75
360.936	99.75
361.163	90.75
361.39	87.75
361.616	97.75
361.843	80.75
362.07	92.75
362.296	99.75
362.523	96.75
362.749	90.75
362.976	88.75
363.203	88.75
363.429	76.75
363.656	100.75
363.882	85.75
364.109	90.75
364.335	100.75
364.562	98.75
364.788	89.75
365.015	85.75
365.241	92.75
365.468	105.75
365.694	104.75
365.92	102.75
366.147	96.75
366.373	89.75
366.599	88.75
366.826	83.75
367.052	83.75
367.278	83.75
367.505	85.75
367.731	96.75
367.957	85.75
368.184	102.75
368.41	103.75
368.636	117.75
368.862	115.75
369.089	108.75
369.315	106.75
369.541	92.75
369.767	106.75
369.993	93.75
370.219	84.75
370.445	94.75
370.672	80.75
370.898	96.75
371.124	86.75
371.35	73.75
371.576	81.75
371.802	93.75
372.028	85.75
372.254	85.75
372.48	86.75
372.706	83.75
372.932	82.75
373.158	98.75
373.384	93.75
373.61	90.75
373.835	86.75
374.061	109.75
374.287	87.75
374.513	94.75
374.739	91.75
374.965	87.75
375.191	97.75
375.416	77.75
375.642	85.75
375.868	64.75
376.094	94.75
376.319	88.75
376.545	84.75
376.771	83.75
376.997	96.75
377.222	77.75
377.448	96.75
377.674	91.75
377.899	93.75
378.125	83.75
378.35	92.75
378.576	97.75
378.802	96.75
379.027	87.75
379.253	97.75
379.478	91.75
379.704	99.75
379.929	93.75
380.155	73.75
380.38	87.75
380.606	91.75
380.831	102.75
381.057	97.75
381.282	86.75
381.507	100.75
381.733	103.75
381.958	96.75
382.184	101.75
382.409	81.75
382.634	90.75
382.86	84.75
383.085	105.75
383.31	84.75
383.535	102.75
383.761	106.75
383.986	85.75
384.211	91.75
384.436	104.75
384.662	90.75
384.887	93.75
385.112	98.75
385.337	110.75
385.562	99.75
385.787	93.75
386.013	97.75
386.238	105.75
386.463	104.75
386.688	109.75
386.913	98.75
387.138	108.75
387.363	93.75
387.588	101.75
387.813	93.75
388.038	91.75
388.263	94.75
388.488	105.75
388.713	98.75
388.938	101.75
389.163	101.75
389.387	92.75
389.612	95.75
389.837	80.75
390.062	91.75
390.287	94.75
390.512	98.75
390.736	96.75
390.961	92.75
391.186	91.75
391.411	99.75
391.636	77.75
391.86	80.75
392.085	91.75
392.31	86.75
392.534	94.75
392.759	81.75
392.984	90.75
393.208	79.75
393.433	91.75
393.658	80.75
393.882	91.75
394.107	86.75
394.331	82.75
394.556	84.75
394.78	83.75
395.005	73.75
395.229	92.75
395.454	77.75
395.678	81.75
395.903	83.75
396.127	92.75
396.352	94.75
396.576	78.75
396.801	84.75
397.025	89.75
397.249	80.75
397.474	92.75
397.698	87.75
397.922	70.75
398.147	78.75
398.371	87.75
398.595	89.75
398.82	86.75
399.044	84.75
399.268	85.75
399.492	80.75
399.717	96.75
399.941	94.75
400.165	92.75
400.389	87.75
400.613	83.75
400.837	86.75
401.062	95.75
401.286	106.75
401.51	98.75
401.734	86.75
401.958	99.75
402.182	128.75
402.406	154.75
402.63	118.75
402.854	96.75
403.078	68.75
403.302	94.75
403.526	97.75
403.75	82.75
403.974	99.75
404.198	89.75
404.422	89.75
404.645	87.75
404.869	90.75
405.093	91.75
405.317	95.75
405.541	97.75
405.765	99.75
405.988	126.75
406.212	160.75
406.436	232.75
406.66	150.75
406.883	100.75
407.107	80.75
407.331	89.75
407.555	81.75
407.778	103.75
408.002	94.75
408.226	100.75
408.449	86.75
408.673	92.75
408.896	90.75
409.12	87.75
409.344	89.75
409.567	86.75
409.791	84.75
410.014	99.75
410.238	82.75
410.461	77.75
410.685	86.75
410.908	103.75
411.132	96.75
411.355	96.75
411.578	95.75
411.802	92.75
412.025	97.75
412.249	92.75
412.472	97.75
412.695	74.75
412.919	84.75
413.142	80.75
413.365	83.75
413.589	75.75
413.812	86.75
414.035	78.75
414.258	98.75
414.482	89.75
414.705	97.75
414.928	84.75
415.151	91.75
415.374	103.75
415.597	85.75
415.821	105.75
416.044	92.75
416.267	94.75
416.49	87.75
416.713	88.75
416.936	73.75
417.159	87.75
417.382	75.75
417.605	84.75
417.828	97.75
418.051	100.75
418.274	87.75
418.497	91.75
418.72	84.75
418.943	79.75
419.166	81.75
419.389	95.75
419.611	89.75
419.834	89.75
420.057	102.75
420.28	103.75
420.503	91.75
420.726	92.75
420.948	86.75
421.171	98.75
421.394	91.75
421.617	91.75
421.839	99.75
422.062	84.75
422.285	88.75
422.507	78.75
422.73	104.75
422.953	90.75
423.175	93.75
423.398	74.75
423.621	96.75
423.843	100.75
424.066	92.75
424.288	85.75
424.511	81.75
424.733	117.75
424.956	112.75
425.178	103.75
425.401	89.75
425.623	100.75
425.846	88.75
426.068	89.75
426.291	88.75
426.513	88.75
426.735	93.75
426.958	87.75
427.18	101.75
427.402	138.75
427.625	158.75
427.847	110.75
428.069	103.75
428.292	92.75
428.514	81.75
428.736	86.75
428.958	76.75
429.181	91.75
429.403	78.75
429.625	93.75
429.847	85.75
430.069	99.75
430.292	88.75
430.514	72.75
430.736	91.75
430.958	85.75
431.18	80.75
431.402	84.75
431.624	76.75
431.846	83.75
432.068	74.75
432.29	86.75
432.512	100.75
432.734	89.75
432.956	101.75
433.178	89.75
433.4	74.75
433.622	87.75
433.844	93.75
434.066	73.75
434.287	88.75
434.509	89.75
434.731	89.75
434.953	91.75
435.175	81.75
435.397	90.75
435.618	93.75
435.84	88.75
436.062	114.75
436.284	109.75
436.505	106.75
436.727	104.75
436.949	98.75
437.17	96.75
437.392	96.75
437.614	91.75
437.835	88.75
438.057	128.75
438.278	101.75
438.5	96.75
438.721	120.75
438.943	79.75
439.165	90.75
439.386	72.75
439.608	79.75
439.829	93.75
440.05	122.75
440.272	125.75
440.493	102.75
440.715	85.75
440.936	81.75
441.158	88.75
441.379	97.75
441.6	93.75
441.822	92.75
442.043	91.75
442.264	109.75
442.486	99.75
442.707	98.75
442.928	96.75
443.149	129.75
443.371	128.75
443.592	106.75
443.813	116.75
444.034	102.75
444.255	87.75
444.476	88.75
444.698	73.75
444.919	81.75
445.14	132.75
445.361	117.75
445.582	103.75
445.803	118.75
446.024	124.75
446.245	116.75
446.466	109.75
446.687	93.75
446.908	89.75
447.129	86.75
447.35	94.75
447.571	76.75
447.792	81.75
448.013	93.75
448.234	105.75
448.455	98.75
448.675	124.75
448.896	112.75
449.117	103.75
449.338	93.75
449.559	118.75
449.779	126.75
450	86.75
450.221	84.75
450.442	88.75
450.662	92.75
450.883	113.75
451.104	122.75
451.324	100.75
451.545	98.75
451.766	92.75
451.986	96.75
452.207	88.75
452.428	100.75
452.648	104.75
452.869	93.75
453.089	102.75
453.31	103.75
453.53	83.75
453.751	88.75
453.971	100.75
454.192	109.75
454.412	105.75
454.633	91.75
454.853	88.75
455.073	97.75
455.294	86.75
455.514	89.75
455.734	92.75
455.955	93.75
456.175	70.75
456.395	89.75
456.616	86.75
456.836	98.75
457.056	69.75
457.276	84.75
457.497	92.75
457.717	89.75
457.937	91.75
458.157	85.75
458.377	84.75
458.598	113.75
458.818	154.75
459.038	156.75
459.258	122.75
459.478	99.75
459.698	91.75
459.918	84.75
460.138	72.75
460.358	82.75
460.578	86.75
460.798	87.75
461.018	92.75
461.238	82.75
461.458	77.75
461.678	81.75
461.898	90.75
462.118	88.75
462.338	81.75
462.558	85.75
462.777	87.75
462.997	72.75
463.217	89.75
463.437	82.75
463.657	84.75
463.876	99.75
464.096	80.75
464.316	86.75
464.536	93.75
464.755	94.75
464.975	122.75
465.195	157.75
465.414	157.75
465.634	82.75
465.854	89.75
466.073	90.75
466.293	79.75
466.512	84.75
466.732	85.75
466.951	83.75
467.171	80.75
467.391	99.75
467.61	90.75
467.829	96.75
468.049	98.75
468.268	70.75
468.488	88.75
468.707	85.75
468.927	89.75
469.146	69.75
469.365	94.75
469.585	82.75
469.804	98.75
470.023	110.75
470.243	90.75
470.462	82.75
470.681	96.75
470.901	84.75
471.12	90.75
471.339	97.75
471.558	91.75
471.777	80.75
471.997	84.75
472.216	90.75
472.435	76.75
472.654	88.75
472.873	83.75
473.092	90.75
473.311	85.75
473.53	85.75
473.749	86.75
473.968	112.75
474.187	94.75
474.406	94.75
474.625	90.75
474.844	90.75
475.063	82.75
475.282	83.75
475.501	91.75
475.72	88.75
475.939	84.75
476.158	81.75
476.377	76.75
476.596	87.75
476.814	95.75
477.033	92.75
477.252	81.75
477.471	96.75
477.69	84.75
477.908	96.75
478.127	92.75
478.346	82.75
478.564	99.75
478.783	97.75
479.002	90.75
479.22	89.75
479.439	110.75
479.658	94.75
479.876	86.75
480.095	94.75
480.313	85.75
480.532	87.75
480.751	104.75
480.969	87.75
481.188	96.75
481.406	97.75
481.624	85.75
481.843	71.75
482.061	99.75
482.28	93.75
482.498	84.75
482.717	100.75
482.935	92.75
483.153	75.75
483.372	94.75
483.59	91.75
483.808	87.75
484.027	94.75
484.245	85.75
484.463	97.75
484.681	99.75
484.9	103.75
485.118	90.75
485.336	73.75
485.554	77.75
485.772	94.75
485.99	99.75
486.209	96.75
486.427	98.75
486.645	105.75
486.863	106.75
487.081	92.75
487.299	101.75
487.517	100.75
487.735	93.75
487.953	91.75
488.171	95.75
488.389	94.75
488.607	102.75
488.825	93.75
489.043	86.75
489.261	89.75
489.479	84.75
489.696	84.75
489.914	78.75
490.132	85.75
490.35	84.75
490.568	96.75
490.786	92.75
491.003	82.75
491.221	89.75
491.439	93.75
491.657	85.75
491.874	88.75
492.092	97.75
492.31	81.75
492.527	88.75
492.745	103.75
492.963	99.75
493.18	93.75
493.398	82.75
493.615	92.75
493.833	93.75
494.05	87.75
494.268	93.75
494.485	84.75
494.703	97.75
494.92	80.75
495.138	85.75
495.355	84.75
495.573	84.75
495.79	67.75
496.008	77.75
496.225	92.75
496.442	87.75
496.66	83.75
496.877	94.75
497.094	91.75
497.312	86.75
497.529	92.75
497.746	89.75
497.963	98.75
498.181	95.75
498.398	86.75
498.615	94.75
498.832	105.75
499.049	85.75
499.267	94.75
499.484	83.75
499.701	90.75
499.918	84.75
500.135	90.75
500.352	84.75
500.569	94.75
500.786	96.75
501.003	85.75
501.22	93.75
501.437	93.75
501.654	89.75
501.871	88.75
502.088	85.75
502.305	88.75
502.522	88.75
502.739	81.75
502.956	101.75
503.172	112.75
503.389	80.75
503.606	96.75
503.823	88.75
504.04	87.75
504.256	98.75
504.473	92.75
504.69	90.75
504.907	93.75
505.123	89.75
505.34	85.75
505.557	98.75
505.773	78.75
505.99	77.75
506.207	91.75
506.423	92.75
506.64	92.75
506.856	91.75
507.073	87.75
507.289	86.75
507.506	96.75
507.722	109.75
507.939	102.75
508.155	98.75
508.372	82.75
508.588	91.75
508.805	83.75
509.021	91.75
509.238	87.75
509.454	106.75
509.67	89.75
509.887	101.75
510.103	124.75
510.319	190.75
510.536	750.75
510.752	2293.75
510.968	638.75
511.184	158.75
511.401	97.75
511.617	109.75
511.833	85.75
512.049	87.75
512.265	81.75
512.481	98.75
512.698	104.75
512.914	84.75
513.13	91.75
513.346	89.75
513.562	85.75
513.778	91.75
513.994	102.75
514.21	114.75
514.426	121.75
514.642	129.75
514.858	128.75
515.074	178.75
515.29	445.75
515.506	1478.75
515.721	505.75
515.937	148.75
516.153	112.75
516.369	94.75
