Data from Uncirc_2001_H10_HRD10591_00086.txt Node
Date: Wed Jan 03 10:44:13 EST 2024
User: Yrep
Spectrometer: HR+D1059
Trigger mode: 1
Integration Time (sec): 1.000000E-1
Scans to average: 1
Electric dark correction enabled: true
Nonlinearity correction enabled: false
Boxcar width: 0
XAxis mode: Wavelengths
Number of Pixels in Spectrum: 2048
>>>>>Begin Spectral Data<<<<<
223.165	-16
223.4	-16
223.635	-16
223.869	-19
224.104	-13
224.338	-19
224.573	-11
224.808	-16
225.042	4
225.277	-4
225.511	3
225.746	-15
225.98	15
226.215	2
226.449	5
226.683	20
226.918	24
227.152	40
227.387	49
227.621	48
227.856	51
228.09	48
228.324	41
228.559	52
228.793	171
229.027	460
229.262	527
229.496	614
229.73	803
229.964	858
230.199	553
230.433	488
230.667	464
230.901	443
231.136	424
231.37	439
231.604	460
231.838	443
232.072	438
232.306	440
232.541	463
232.775	474
233.009	472
233.243	458
233.477	477
233.711	489
233.945	496
234.179	516
234.413	527
234.647	512
234.881	508
235.115	514
235.349	570
235.583	556
235.817	588
236.051	614
236.285	624
236.519	603
236.753	717
236.987	934
237.221	1361
237.455	1548
237.689	902
237.922	751
238.156	730
238.39	660
238.624	633
238.858	639
239.091	677
239.325	660
239.559	684
239.793	707
240.027	755
240.26	923
240.494	1013
240.728	968
240.961	929
241.195	824
241.429	781
241.662	792
241.896	763
242.13	780
242.363	781
242.597	792
242.83	795
243.064	809
243.298	819
243.531	835
243.765	866
243.998	846
244.232	855
244.465	899
244.699	891
244.932	884
245.166	892
245.399	890
245.633	870
245.866	917
246.099	918
246.333	940
246.566	971
246.8	971
247.033	1031
247.266	1076
247.5	1089
247.733	1151
247.966	1143
248.2	1142
248.433	1159
248.666	1233
248.899	1335
249.133	1457
249.366	1449
249.599	1312
249.832	1224
250.066	1229
250.299	1240
250.532	1315
250.765	1547
250.998	1743
251.231	1684
251.465	1505
251.698	1423
251.931	1384
252.164	1386
252.397	1412
252.63	1491
252.863	1557
253.096	1720
253.329	1765
253.562	1669
253.795	1569
254.028	1588
254.261	1628
254.494	1841
254.727	2232
254.96	2271
255.193	1959
255.426	1768
255.659	1644
255.892	1610
256.124	1555
256.357	1540
256.59	1520
256.823	1463
257.056	1476
257.289	1514
257.521	1537
257.754	1557
257.987	1521
258.22	1564
258.452	1533
258.685	1530
258.918	1572
259.151	1613
259.383	1716
259.616	1725
259.849	1815
260.081	1974
260.314	2157
260.547	2050
260.779	1895
261.012	1764
261.244	1730
261.477	1708
261.71	1691
261.942	1743
262.175	1804
262.407	1709
262.64	1672
262.872	1622
263.105	1644
263.337	1659
263.57	1660
263.802	1687
264.035	1696
264.267	1683
264.499	1699
264.732	1697
264.964	1701
265.197	1685
265.429	1737
265.661	1746
265.894	1737
266.126	1744
266.358	1749
266.591	1832
266.823	1881
267.055	1895
267.287	1885
267.52	1888
267.752	1911
267.984	1879
268.216	1914
268.448	1920
268.681	2055
268.913	2157
269.145	2372
269.377	2436
269.609	2303
269.841	2335
270.073	2447
270.306	2700
270.538	2867
270.77	2755
271.002	2555
271.234	2533
271.466	2625
271.698	2850
271.93	2822
272.162	2847
272.394	2761
272.626	2566
272.858	2340
273.09	2332
273.322	2333
273.553	2248
273.785	2243
274.017	2266
274.249	2253
274.481	2316
274.713	2301
274.945	2317
275.176	2303
275.408	2317
275.64	2284
275.872	2293
276.104	2338
276.335	2345
276.567	2432
276.799	2588
277.031	2811
277.262	2914
277.494	2824
277.726	2677
277.957	2561
278.189	2487
278.421	2438
278.652	2412
278.884	2468
279.115	2389
279.347	2401
279.579	2333
279.81	2429
280.042	2398
280.273	2427
280.505	2469
280.736	2419
280.968	2456
281.199	2461
281.431	2447
281.662	2455
281.894	2509
282.125	2595
282.356	2698
282.588	2895
282.819	2776
283.051	2646
283.282	2549
283.513	2587
283.745	2629
283.976	2716
284.207	2723
284.439	2653
284.67	2659
284.901	2671
285.132	2689
285.364	2623
285.595	2648
285.826	2678
286.057	2752
286.288	2687
286.52	2748
286.751	2743
286.982	2735
287.213	2832
287.444	2767
287.675	2838
287.906	2913
288.138	2986
288.369	2949
288.6	2953
288.831	2924
289.062	2901
289.293	2852
289.524	2853
289.755	2820
289.986	2812
290.217	2857
290.448	2863
290.679	2849
290.91	2831
291.141	2856
291.371	2868
291.602	2885
291.833	2859
292.064	2891
292.295	2891
292.526	2923
292.757	2874
292.987	2856
293.218	2844
293.449	2876
293.68	2951
293.91	2922
294.141	2892
294.372	2874
294.603	2944
294.833	2985
295.064	2927
295.295	2963
295.525	2949
295.756	3013
295.987	3087
296.217	3268
296.448	3186
296.679	3042
296.909	3036
297.14	3033
297.37	3099
297.601	3107
297.831	3123
298.062	3067
298.292	3133
298.523	3164
298.753	3175
298.984	3174
299.214	3178
299.445	3134
299.675	3171
299.905	3247
300.136	3155
300.366	3211
300.597	3261
300.827	3340
301.057	3419
301.288	3517
301.518	3405
301.748	3399
301.979	3543
302.209	3489
302.439	3482
302.669	3437
302.9	3426
303.13	3402
303.36	3388
303.59	3424
303.82	3434
304.051	3450
304.281	3446
304.511	3344
304.741	3397
304.971	3321
305.201	3291
305.431	3361
305.661	3372
305.891	3342
306.121	3298
306.352	3425
306.582	3413
306.812	3339
307.042	3314
307.272	3321
307.502	3348
307.731	3375
307.961	3379
308.191	3361
308.421	3344
308.651	3372
308.881	3405
309.111	3426
309.341	3455
309.571	3572
309.8	3670
310.03	3668
310.26	3716
310.49	3639
310.72	3791
310.949	3876
311.179	3882
311.409	3765
311.639	3746
311.868	3777
312.098	3815
312.328	3883
312.557	3987
312.787	4114
313.017	3959
313.246	3899
313.476	3793
313.706	3938
313.935	3937
314.165	4065
314.394	4081
314.624	4030
314.853	3911
315.083	3832
315.312	3879
315.542	3837
315.771	3802
316.001	3805
316.23	3728
316.46	3748
316.689	3815
316.919	3855
317.148	3912
317.377	3897
317.607	3788
317.836	3893
318.065	3737
318.295	3771
318.524	3788
318.753	3755
318.983	3745
319.212	3755
319.441	3887
319.67	3926
319.9	3786
320.129	3784
320.358	3797
320.587	3924
320.816	3906
321.046	3971
321.275	3947
321.504	3941
321.733	3991
321.962	3991
322.191	4146
322.42	4200
322.649	4340
322.878	4366
323.108	4444
323.337	4696
323.566	4836
323.795	5127
324.024	5777
324.253	7598
324.482	11240
324.71	15378
324.939	15613
325.168	13276
325.397	6805
325.626	5363
325.855	4977
326.084	4889
326.313	4908
326.542	5049
326.77	5665
326.999	7256
327.228	10538
327.457	14554
327.686	13777
327.914	7432
328.143	5964
328.372	5621
328.6	5321
328.829	5347
329.058	5489
329.287	5475
329.515	5109
329.744	4883
329.972	4946
330.201	5016
330.43	5250
330.658	5592
330.887	5915
331.115	5485
331.344	5148
331.572	5027
331.801	5192
332.03	5166
332.258	5065
332.486	5093
332.715	5199
332.943	5324
333.172	5529
333.4	5561
333.629	5698
333.857	5738
334.085	5711
334.314	5577
334.542	5537
334.771	5564
334.999	5408
335.227	5445
335.455	5272
335.684	5135
335.912	5195
336.14	5099
336.369	5117
336.597	5147
336.825	5060
337.053	5031
337.281	4911
337.51	4887
337.738	4911
337.966	4879
338.194	4839
338.422	4779
338.65	4694
338.878	4663
339.106	4661
339.334	4639
339.562	4589
339.79	4583
340.018	4544
340.246	4567
340.474	4588
340.702	4547
340.93	4603
341.158	4509
341.386	4486
341.614	4541
341.842	4520
342.07	4513
342.298	4489
342.526	4408
342.754	4435
342.981	4501
343.209	4623
343.437	4803
343.665	5068
343.893	5339
344.12	5325
344.348	5140
344.576	4956
344.804	4870
345.031	4805
345.259	4729
345.487	4575
345.714	4447
345.942	4446
346.17	4388
346.397	4315
346.625	4363
346.853	4308
347.08	4279
347.308	4373
347.535	4403
347.763	4495
347.99	4389
348.218	4484
348.445	4551
348.673	4375
348.9	4300
349.128	4163
349.355	4193
349.583	4229
349.81	4199
350.037	4200
350.265	4128
350.492	4160
350.72	4129
350.947	4185
351.174	4346
351.402	4376
351.629	4300
351.856	4367
352.083	4379
352.311	4352
352.538	4419
352.765	4404
352.992	4287
353.22	4245
353.447	4224
353.674	4193
353.901	4101
354.128	4086
354.355	4047
354.583	4084
354.81	4079
355.037	4112
355.264	4123
355.491	4106
355.718	4061
355.945	4079
356.172	4133
356.399	4111
356.626	4052
356.853	4104
357.08	4057
357.307	4063
357.534	4080
357.761	4084
357.988	4118
358.215	4095
358.441	4130
358.668	4123
358.895	4177
359.122	4205
359.349	4204
359.576	4381
359.802	4663
360.029	4803
360.256	4741
360.483	4583
360.709	4360
360.936	4327
361.163	4323
361.39	4374
361.616	4395
361.843	4305
362.07	4345
362.296	4359
362.523	4363
362.749	4301
362.976	4275
363.203	4201
363.429	4176
363.656	4271
363.882	4218
364.109	4166
364.335	4137
364.562	4165
364.788	4169
365.015	4124
365.241	4152
365.468	4257
365.694	4199
365.92	4280
366.147	4193
366.373	4193
366.599	4163
366.826	4128
367.052	4137
367.278	4177
367.505	4215
367.731	4212
367.957	4232
368.184	4289
368.41	4339
368.636	4393
368.862	4425
369.089	4317
369.315	4269
369.541	4292
369.767	4282
369.993	4247
370.219	4298
370.445	4339
370.672	4388
370.898	4327
371.124	4369
371.35	4463
371.576	4455
371.802	4411
372.028	4404
372.254	4429
372.48	4511
372.706	4632
372.932	4627
373.158	4465
373.384	4498
373.61	4493
373.835	4547
374.061	4504
374.287	4604
374.513	4669
374.739	4785
374.965	4899
375.191	4880
375.416	4804
375.642	4676
375.868	4679
376.094	4563
376.319	4498
376.545	4531
376.771	4485
376.997	4497
377.222	4468
377.448	4463
377.674	4417
377.899	4405
378.125	4406
378.35	4411
378.576	4424
378.802	4361
379.027	4418
379.253	4444
379.478	4401
379.704	4386
379.929	4505
380.155	4385
380.38	4480
380.606	4487
380.831	4489
381.057	4496
381.282	4425
381.507	4440
381.733	4590
381.958	4545
382.184	4676
382.409	4707
382.634	4738
382.86	4694
383.085	4752
383.31	4836
383.535	4913
383.761	4951
383.986	5012
384.211	5095
384.436	5224
384.662	5248
384.887	5334
385.112	5343
385.337	5451
385.562	5415
385.787	5365
386.013	5466
386.238	5488
386.463	5430
386.688	5469
386.913	5323
387.138	5331
387.363	5295
387.588	5340
387.813	5347
388.038	5337
388.263	5312
388.488	5403
388.713	5383
388.938	5355
389.163	5311
389.387	5282
389.612	5196
389.837	5223
390.062	5160
390.287	5241
390.512	5293
390.736	5335
390.961	5464
391.186	5582
391.411	5692
391.636	5835
391.86	6047
392.085	6036
392.31	5904
392.534	5771
392.759	5670
392.984	5663
393.208	5509
393.433	5558
393.658	5508
393.882	5535
394.107	5619
394.331	5699
394.556	5643
394.78	5647
395.005	5750
395.229	5733
395.454	6000
395.678	6050
395.903	6032
396.127	6055
396.352	5865
396.576	5713
396.801	5691
397.025	5788
397.249	5849
397.474	6035
397.698	6043
397.922	6150
398.147	6327
398.371	6401
398.595	6593
398.82	6858
399.044	7380
399.268	8265
399.492	9356
399.717	9993
399.941	9729
400.165	9061
400.389	8425
400.613	7520
400.837	7084
401.062	6897
401.286	6758
401.51	6803
401.734	6771
401.958	6924
402.182	7023
402.406	7094
402.63	7186
402.854	7266
403.078	7374
403.302	7449
403.526	7673
403.75	7659
403.974	7686
404.198	7647
404.422	7793
404.645	7694
404.869	7521
405.093	7783
405.317	7865
405.541	7958
405.765	7535
405.988	7497
406.212	7697
406.436	7970
406.66	8063
406.883	8046
407.107	8655
407.331	9184
407.555	9778
407.778	9357
408.002	8597
408.226	8264
408.449	8112
408.673	7919
408.896	8055
409.12	8226
409.344	7744
409.567	7452
409.791	7363
410.014	7299
410.238	7247
410.461	7252
410.685	7256
410.908	7403
411.132	7565
411.355	7595
411.578	7274
411.802	6920
412.025	6982
412.249	7032
412.472	6957
412.695	6914
412.919	6779
413.142	6663
413.365	6646
413.589	6755
413.812	6562
414.035	6513
414.258	6566
414.482	6629
414.705	6660
414.928	6717
415.151	6554
415.374	6544
415.597	6584
415.821	6539
416.044	6446
416.267	6527
416.49	6380
416.713	6404
416.936	6563
417.159	6601
417.382	6591
417.605	6643
417.828	6747
418.051	6873
418.274	6858
418.497	6633
418.72	6768
418.943	6734
419.166	7267
419.389	7535
419.611	7388
419.834	7181
420.057	7116
420.28	6852
420.503	6656
420.726	6681
420.948	6937
421.171	7250
421.394	7270
421.617	6770
421.839	6779
422.062	6845
422.285	7001
422.507	7726
422.73	8357
422.953	7649
423.175	7208
423.398	7260
423.621	7351
423.843	7541
424.066	7578
424.288	7473
424.511	7693
424.733	8134
424.956	8615
425.178	8052
425.401	8239
425.623	8091
425.846	7093
426.068	6909
426.291	6849
426.513	6834
426.735	6867
426.958	7368
427.18	8157
427.402	9353
427.625	9435
427.847	7852
428.069	7030
428.292	6702
428.514	6343
428.736	6212
428.958	6191
429.181	5942
429.403	6126
429.625	6289
429.847	6604
430.069	7163
430.292	6674
430.514	6011
430.736	6113
430.958	5960
431.18	5815
431.402	5854
431.624	5795
431.846	5889
432.068	5945
432.29	6057
432.512	5903
432.734	6052
432.956	5982
433.178	6109
433.4	6041
433.622	6043
433.844	6025
434.066	6006
434.287	6147
434.509	6356
434.731	6617
434.953	6738
435.175	6837
435.397	7014
435.618	6915
435.84	7322
436.062	8156
436.284	8016
436.505	6797
436.727	6519
436.949	6184
437.17	6103
437.392	6034
437.614	6246
437.835	6667
438.057	7665
438.278	8264
438.5	8239
438.721	9127
438.943	7922
439.165	6675
439.386	6534
439.608	6524
439.829	6687
440.05	6932
440.272	7384
440.493	6738
440.715	6364
440.936	6365
441.158	6487
441.379	6521
441.6	6917
441.822	7095
442.043	7596
442.264	8369
442.486	8143
442.707	7231
442.928	7007
443.149	7268
443.371	7494
443.592	8044
443.813	9055
444.034	9037
444.255	7895
444.476	7707
444.698	7940
444.919	7942
445.14	7759
445.361	7645
445.582	7793
445.803	8376
446.024	9016
446.245	8687
446.466	7659
446.687	6717
446.908	6384
447.129	6089
447.35	5889
447.571	5862
447.792	5757
448.013	5864
448.234	6062
448.455	6705
448.675	8028
448.896	8446
449.117	7140
449.338	7278
449.559	8587
449.779	8815
450	6747
450.221	5979
450.442	5693
450.662	5641
450.883	5787
451.104	5930
451.324	5741
451.545	5571
451.766	5384
451.986	5283
452.207	5281
452.428	5229
452.648	5222
452.869	5353
453.089	5400
453.31	5478
453.53	5300
453.751	5230
453.971	5261
454.192	5397
454.412	5122
454.633	5137
454.853	5009
455.073	5103
455.294	5583
455.514	6169
455.734	5542
455.955	4952
456.175	4931
456.395	4864
456.616	4765
456.836	4796
457.056	4858
457.276	4772
457.497	4903
457.717	4924
457.937	4980
458.157	5096
458.377	5124
458.598	5571
458.818	6326
459.038	7032
459.258	6848
459.478	6178
459.698	6051
459.918	6092
460.138	6279
460.358	6553
460.578	6510
460.798	6545
461.018	6580
461.238	6503
461.458	6544
461.678	6438
461.898	6653
462.118	6702
462.338	7048
462.558	7127
462.777	7466
462.997	7986
463.217	8565
463.437	8290
463.657	7658
463.876	7333
464.096	7507
464.316	7459
464.536	7555
464.755	7260
464.975	7207
465.195	7313
465.414	7417
465.634	6460
465.854	6125
466.073	5846
466.293	5692
466.512	5497
466.732	5403
466.951	5491
467.171	5371
467.391	5540
467.61	5571
467.829	5503
468.049	5432
468.268	5289
468.488	5212
468.707	5155
468.927	5159
469.146	5143
469.365	5226
469.585	5211
469.804	5469
470.023	5612
470.243	5647
470.462	5763
470.681	5796
470.901	5698
471.12	5561
471.339	5440
471.558	5415
471.777	5396
471.997	5266
472.216	5183
472.435	5173
472.654	5159
472.873	5052
473.092	5191
473.311	5109
473.53	5122
473.749	5340
473.968	5892
474.187	6963
474.406	6490
474.625	5482
474.844	5270
475.063	5133
475.282	5123
475.501	5244
475.72	5322
475.939	5312
476.158	5360
476.377	5333
476.596	5360
476.814	5508
477.033	5613
477.252	5716
477.471	5811
477.69	5890
477.908	6011
478.127	6159
478.346	6199
478.564	6252
478.783	6438
479.002	6490
479.22	6564
479.439	6690
479.658	6761
479.876	6804
480.095	7139
480.313	7420
480.532	7332
480.751	7132
480.969	7094
481.188	6908
481.406	6696
481.624	6540
481.843	6357
482.061	6228
482.28	6143
482.498	6107
482.717	6069
482.935	6075
483.153	6091
483.372	6026
483.59	6031
483.808	6045
484.027	6041
484.245	6124
484.463	6200
484.681	6220
484.9	6222
485.118	6299
485.336	6394
485.554	6435
485.772	6502
485.99	6512
486.209	6507
486.427	6598
486.645	6539
486.863	6743
487.081	6627
487.299	6626
487.517	6505
487.735	6535
487.953	6450
488.171	6534
488.389	6527
488.607	6504
488.825	6527
489.043	6517
489.261	6556
489.479	6700
489.696	6728
489.914	6684
490.132	6760
490.35	6921
490.568	6857
490.786	6994
491.003	7092
491.221	7291
491.439	7247
491.657	7311
491.874	7392
492.092	7388
492.31	7423
492.527	7433
492.745	7494
492.963	7552
493.18	7571
493.398	7676
493.615	7885
493.833	7770
494.05	7730
494.268	7777
494.485	7839
494.703	7813
494.92	7819
495.138	7792
495.355	7718
495.573	7841
495.79	7825
496.008	7862
496.225	7735
496.442	7875
496.66	7887
496.877	7912
497.094	7992
497.312	8234
497.529	8362
497.746	8515
497.963	8796
498.181	9314
498.398	9550
498.615	9978
498.832	10468
499.049	10945
499.267	11611
499.484	12447
499.701	13153
499.918	13759
500.135	14667
500.352	15216
500.569	15307
500.786	15179
501.003	14773
501.22	14132
501.437	13463
501.654	12711
501.871	12094
502.088	11260
502.305	10613
502.522	10100
502.739	9825
502.956	9227
503.172	8926
503.389	8679
503.606	8482
503.823	8405
504.04	8378
504.256	8547
504.473	8657
504.69	8660
504.907	8399
505.123	8035
505.34	7756
505.557	7569
505.773	7468
505.99	7456
506.207	7324
506.423	7328
506.64	7154
506.856	7132
507.073	7076
507.289	6962
507.506	6912
507.722	7052
507.939	7061
508.155	6804
508.372	6739
508.588	6648
508.805	6609
509.021	6650
509.238	6897
509.454	6952
509.67	6775
509.887	6572
510.103	6516
510.319	6659
510.536	8011
510.752	11867
510.968	7855
511.184	6330
511.401	6236
511.617	6156
511.833	6073
512.049	6097
512.265	6132
512.481	6062
512.698	6038
512.914	6114
513.13	5989
513.346	6019
513.562	6156
513.778	6097
513.994	6223
514.21	6381
514.426	6551
514.642	6844
514.858	6911
515.074	7393
515.29	8914
515.506	12047
515.721	8636
515.937	7153
516.153	7041
516.369	6929
516.585	6935
516.801	7108
517.016	7303
517.232	7621
517.448	7793
517.664	7955
517.879	7892
518.095	7885
518.311	7718
518.527	7419
518.742	7128
518.958	6928
519.173	6705
519.389	6614
519.605	6488
519.82	6372
520.036	6451
520.251	6607
520.467	6711
520.682	6665
520.898	6596
521.113	6727
521.329	6989
521.544	7674
521.76	9801
521.975	14487
522.19	11596
522.406	7320
522.621	6272
522.836	5921
523.052	5709
523.267	5578
523.482	5548
523.698	5435
523.913	5405
524.128	5462
524.343	5293
524.559	5217
524.774	5139
524.989	5175
525.204	5179
525.419	5160
525.634	5148
525.849	5061
526.064	5020
526.28	4988
526.495	4948
526.71	5002
526.925	4991
527.14	4995
527.355	4980
527.57	4929
527.785	4879
527.999	4907
528.214	4876
528.429	4971
528.644	4949
528.859	4897
529.074	4924
529.289	5133
529.503	5725
529.718	5342
529.933	5066
530.148	5089
530.363	4989
530.577	4893
530.792	4863
531.007	4868
531.221	4852
531.436	4833
531.651	4891
531.865	4839
532.08	4849
532.295	4799
532.509	4784
532.724	4781
532.938	4827
533.153	4832
533.367	4761
533.582	4831
533.796	4812
534.011	4767
534.225	4779
534.44	4709
534.654	4695
534.868	4722
535.083	4754
535.297	4697
535.511	4742
535.726	4710
535.94	4705
536.154	4659
536.369	4609
536.583	4473
536.797	4570
537.011	4426
537.225	4415
537.44	4492
537.654	4515
537.868	4465
538.082	4447
538.296	4518
538.51	4493
538.724	4552
538.938	4430
539.153	4431
539.367	4449
539.581	4445
539.795	4380
540.009	4410
540.222	4329
540.436	4403
540.65	4447
540.864	4432
541.078	4471
541.292	4405
541.506	4359
541.72	4304
541.934	4239
542.147	4275
