Data from Uncirc_2001_H10_HRD10591_00085.txt Node
Date: Wed Jan 03 10:44:13 EST 2024
User: Yrep
Spectrometer: HR+D1059
Trigger mode: 1
Integration Time (sec): 1.000000E-1
Scans to average: 1
Electric dark correction enabled: true
Nonlinearity correction enabled: false
Boxcar width: 0
XAxis mode: Wavelengths
Number of Pixels in Spectrum: 2048
>>>>>Begin Spectral Data<<<<<
223.165	-13.81
223.4	-13.81
223.635	-13.81
223.869	-18.81
224.104	-14.81
224.338	-18.81
224.573	-9.81
224.808	-27.81
225.042	-6.81
225.277	-4.81
225.511	-6.81
225.746	1.19
225.98	8.19
226.215	20.19
226.449	23.19
226.683	22.19
226.918	18.19
227.152	29.19
227.387	35.19
227.621	35.19
227.856	45.19
228.09	40.19
228.324	44.19
228.559	54.19
228.793	58.19
229.027	62.19
229.262	61.19
229.496	69.19
229.73	91.19
229.964	73.19
230.199	86.19
230.433	56.19
230.667	74.19
230.901	89.19
231.136	89.19
231.37	75.19
231.604	80.19
231.838	72.19
232.072	81.19
232.306	80.19
232.541	81.19
232.775	86.19
233.009	100.19
233.243	66.19
233.477	84.19
233.711	80.19
233.945	74.19
234.179	78.19
234.413	98.19
234.647	81.19
234.881	86.19
235.115	81.19
235.349	84.19
235.583	72.19
235.817	77.19
236.051	96.19
236.285	83.19
236.519	80.19
236.753	86.19
236.987	71.19
237.221	84.19
237.455	82.19
237.689	71.19
237.922	82.19
238.156	88.19
238.39	78.19
238.624	80.19
238.858	76.19
239.091	73.19
239.325	77.19
239.559	103.19
239.793	87.19
240.027	76.19
240.26	73.19
240.494	68.19
240.728	77.19
240.961	93.19
241.195	85.19
241.429	62.19
241.662	84.19
241.896	80.19
242.13	84.19
242.363	88.19
242.597	73.19
242.83	66.19
243.064	81.19
243.298	82.19
243.531	88.19
243.765	75.19
243.998	94.19
244.232	92.19
244.465	79.19
244.699	72.19
244.932	91.19
245.166	79.19
245.399	78.19
245.633	73.19
245.866	80.19
246.099	80.19
246.333	81.19
246.566	66.19
246.8	90.19
247.033	72.19
247.266	82.19
247.5	86.19
247.733	76.19
247.966	89.19
248.2	82.19
248.433	77.19
248.666	86.19
248.899	69.19
249.133	91.19
249.366	98.19
249.599	81.19
249.832	81.19
250.066	82.19
250.299	69.19
250.532	89.19
250.765	99.19
250.998	87.19
251.231	89.19
251.465	68.19
251.698	69.19
251.931	83.19
252.164	69.19
252.397	82.19
252.63	81.19
252.863	88.19
253.096	72.19
253.329	72.19
253.562	85.19
253.795	88.19
254.028	78.19
254.261	85.19
254.494	77.19
254.727	102.19
254.96	76.19
255.193	88.19
255.426	90.19
255.659	75.19
255.892	79.19
256.124	79.19
256.357	75.19
256.59	83.19
256.823	72.19
257.056	80.19
257.289	82.19
257.521	88.19
257.754	72.19
257.987	81.19
258.22	93.19
258.452	71.19
258.685	87.19
258.918	84.19
259.151	83.19
259.383	74.19
259.616	61.19
259.849	95.19
260.081	78.19
260.314	72.19
260.547	80.19
260.779	81.19
261.012	102.19
261.244	67.19
261.477	96.19
261.71	100.19
261.942	97.19
262.175	100.19
262.407	90.19
262.64	84.19
262.872	94.19
263.105	85.19
263.337	87.19
263.57	72.19
263.802	85.19
264.035	87.19
264.267	81.19
264.499	69.19
264.732	80.19
264.964	101.19
265.197	84.19
265.429	91.19
265.661	91.19
265.894	88.19
266.126	75.19
266.358	74.19
266.591	83.19
266.823	73.19
267.055	70.19
267.287	89.19
267.52	85.19
267.752	77.19
267.984	85.19
268.216	96.19
268.448	80.19
268.681	92.19
268.913	85.19
269.145	86.19
269.377	94.19
269.609	82.19
269.841	81.19
270.073	84.19
270.306	88.19
270.538	96.19
270.77	98.19
271.002	86.19
271.234	85.19
271.466	74.19
271.698	90.19
271.93	87.19
272.162	94.19
272.394	87.19
272.626	80.19
272.858	81.19
273.09	98.19
273.322	86.19
273.553	80.19
273.785	71.19
274.017	75.19
274.249	73.19
274.481	93.19
274.713	87.19
274.945	101.19
275.176	99.19
275.408	70.19
275.64	79.19
275.872	96.19
276.104	83.19
276.335	91.19
276.567	92.19
276.799	93.19
277.031	98.19
277.262	84.19
277.494	78.19
277.726	76.19
277.957	88.19
278.189	82.19
278.421	91.19
278.652	82.19
278.884	86.19
279.115	84.19
279.347	89.19
279.579	94.19
279.81	91.19
280.042	68.19
280.273	75.19
280.505	80.19
280.736	91.19
280.968	91.19
281.199	75.19
281.431	90.19
281.662	90.19
281.894	80.19
282.125	116.19
282.356	118.19
282.588	139.19
282.819	107.19
283.051	98.19
283.282	90.19
283.513	80.19
283.745	99.19
283.976	84.19
284.207	94.19
284.439	85.19
284.67	88.19
284.901	90.19
285.132	80.19
285.364	80.19
285.595	86.19
285.826	97.19
286.057	106.19
286.288	88.19
286.52	76.19
286.751	90.19
286.982	83.19
287.213	92.19
287.444	88.19
287.675	84.19
287.906	82.19
288.138	79.19
288.369	90.19
288.6	86.19
288.831	90.19
289.062	86.19
289.293	89.19
289.524	83.19
289.755	92.19
289.986	109.19
290.217	87.19
290.448	85.19
290.679	100.19
290.91	94.19
291.141	86.19
291.371	92.19
291.602	94.19
291.833	88.19
292.064	80.19
292.295	88.19
292.526	83.19
292.757	101.19
292.987	85.19
293.218	83.19
293.449	89.19
293.68	92.19
293.91	81.19
294.141	94.19
294.372	97.19
294.603	90.19
294.833	93.19
295.064	85.19
295.295	97.19
295.525	101.19
295.756	96.19
295.987	121.19
296.217	136.19
296.448	125.19
296.679	98.19
296.909	98.19
297.14	85.19
297.37	83.19
297.601	83.19
297.831	104.19
298.062	76.19
298.292	85.19
298.523	96.19
298.753	105.19
298.984	83.19
299.214	115.19
299.445	84.19
299.675	101.19
299.905	94.19
300.136	86.19
300.366	89.19
300.597	82.19
300.827	103.19
301.057	92.19
301.288	109.19
301.518	90.19
301.748	85.19
301.979	93.19
302.209	88.19
302.439	88.19
302.669	105.19
302.9	104.19
303.13	89.19
303.36	92.19
303.59	105.19
303.82	102.19
304.051	91.19
304.281	82.19
304.511	93.19
304.741	81.19
304.971	82.19
305.201	94.19
305.431	83.19
305.661	90.19
305.891	96.19
306.121	91.19
306.352	99.19
306.582	110.19
306.812	104.19
307.042	89.19
307.272	80.19
307.502	93.19
307.731	100.19
307.961	90.19
308.191	93.19
308.421	92.19
308.651	104.19
308.881	99.19
309.111	107.19
309.341	89.19
309.571	94.19
309.8	100.19
310.03	96.19
310.26	103.19
310.49	97.19
310.72	110.19
310.949	100.19
311.179	98.19
311.409	106.19
311.639	107.19
311.868	84.19
312.098	79.19
312.328	104.19
312.557	93.19
312.787	104.19
313.017	106.19
313.246	118.19
313.476	78.19
313.706	92.19
313.935	92.19
314.165	100.19
314.394	105.19
314.624	101.19
314.853	98.19
315.083	96.19
315.312	105.19
315.542	85.19
315.771	89.19
316.001	91.19
316.23	94.19
316.46	88.19
316.689	98.19
316.919	100.19
317.148	84.19
317.377	108.19
317.607	98.19
317.836	71.19
318.065	98.19
318.295	83.19
318.524	91.19
318.753	85.19
318.983	98.19
319.212	104.19
319.441	112.19
319.67	117.19
319.9	108.19
320.129	91.19
320.358	88.19
320.587	102.19
320.816	106.19
321.046	94.19
321.275	89.19
321.504	93.19
321.733	99.19
321.962	90.19
322.191	100.19
322.42	89.19
322.649	98.19
322.878	105.19
323.108	113.19
323.337	129.19
323.566	128.19
323.795	163.19
324.024	204.19
324.253	376.19
324.482	803.19
324.71	1600.19
324.939	2032.19
325.168	764.19
325.397	226.19
325.626	142.19
325.855	134.19
326.084	117.19
326.313	124.19
326.542	152.19
326.77	231.19
326.999	443.19
327.228	912.19
327.457	1628.19
327.686	1241.19
327.914	355.19
328.143	179.19
328.372	158.19
328.6	131.19
328.829	120.19
329.058	136.19
329.287	145.19
329.515	104.19
329.744	110.19
329.972	107.19
330.201	115.19
330.43	117.19
330.658	108.19
330.887	140.19
331.115	133.19
331.344	93.19
331.572	116.19
331.801	102.19
332.03	95.19
332.258	96.19
332.486	98.19
332.715	94.19
332.943	101.19
333.172	98.19
333.4	112.19
333.629	98.19
333.857	104.19
334.085	112.19
334.314	94.19
334.542	95.19
334.771	120.19
334.999	102.19
335.227	87.19
335.455	102.19
335.684	107.19
335.912	87.19
336.14	95.19
336.369	108.19
336.597	104.19
336.825	95.19
337.053	106.19
337.281	86.19
337.51	82.19
337.738	105.19
337.966	88.19
338.194	86.19
338.422	97.19
338.65	81.19
338.878	97.19
339.106	84.19
339.334	95.19
339.562	100.19
339.79	92.19
340.018	87.19
340.246	94.19
340.474	86.19
340.702	93.19
340.93	94.19
341.158	89.19
341.386	104.19
341.614	93.19
341.842	94.19
342.07	89.19
342.298	87.19
342.526	99.19
342.754	90.19
342.981	96.19
343.209	85.19
343.437	88.19
343.665	78.19
343.893	92.19
344.12	86.19
344.348	98.19
344.576	87.19
344.804	108.19
345.031	96.19
345.259	100.19
345.487	89.19
345.714	93.19
345.942	100.19
346.17	89.19
346.397	78.19
346.625	92.19
346.853	98.19
347.08	84.19
347.308	84.19
347.535	90.19
347.763	113.19
347.99	103.19
348.218	92.19
348.445	101.19
348.673	98.19
348.9	92.19
349.128	110.19
349.355	80.19
349.583	94.19
349.81	85.19
350.037	84.19
350.265	98.19
350.492	88.19
350.72	106.19
350.947	101.19
351.174	128.19
351.402	108.19
351.629	95.19
351.856	108.19
352.083	116.19
352.311	107.19
352.538	112.19
352.765	112.19
352.992	131.19
353.22	115.19
353.447	100.19
353.674	86.19
353.901	113.19
354.128	102.19
354.355	94.19
354.583	104.19
354.81	105.19
355.037	100.19
355.264	103.19
355.491	97.19
355.718	110.19
355.945	92.19
356.172	103.19
356.399	90.19
356.626	88.19
356.853	97.19
357.08	92.19
357.307	96.19
357.534	94.19
357.761	96.19
357.988	89.19
358.215	91.19
358.441	82.19
358.668	95.19
358.895	95.19
359.122	99.19
359.349	95.19
359.576	81.19
359.802	113.19
360.029	100.19
360.256	113.19
360.483	91.19
360.709	94.19
360.936	80.19
361.163	86.19
361.39	95.19
361.616	82.19
361.843	92.19
362.07	95.19
362.296	101.19
362.523	83.19
362.749	93.19
362.976	96.19
363.203	76.19
363.429	92.19
363.656	86.19
363.882	94.19
364.109	78.19
364.335	105.19
364.562	98.19
364.788	98.19
365.015	85.19
365.241	103.19
365.468	120.19
365.694	120.19
365.92	97.19
366.147	101.19
366.373	87.19
366.599	90.19
366.826	83.19
367.052	91.19
367.278	92.19
367.505	92.19
367.731	94.19
367.957	88.19
368.184	101.19
368.41	108.19
368.636	111.19
368.862	120.19
369.089	105.19
369.315	92.19
369.541	85.19
369.767	88.19
369.993	89.19
370.219	107.19
370.445	96.19
370.672	81.19
370.898	86.19
371.124	93.19
371.35	91.19
371.576	97.19
371.802	88.19
372.028	81.19
372.254	86.19
372.48	77.19
372.706	98.19
372.932	90.19
373.158	92.19
373.384	90.19
373.61	92.19
373.835	82.19
374.061	108.19
374.287	89.19
374.513	99.19
374.739	90.19
374.965	118.19
375.191	97.19
375.416	87.19
375.642	104.19
375.868	92.19
376.094	94.19
376.319	93.19
376.545	77.19
376.771	81.19
376.997	82.19
377.222	97.19
377.448	80.19
377.674	89.19
377.899	89.19
378.125	89.19
378.35	95.19
378.576	95.19
378.802	81.19
379.027	85.19
379.253	71.19
379.478	87.19
379.704	84.19
379.929	83.19
380.155	98.19
380.38	101.19
380.606	97.19
380.831	82.19
381.057	99.19
381.282	103.19
381.507	89.19
381.733	94.19
381.958	83.19
382.184	99.19
382.409	99.19
382.634	104.19
382.86	104.19
383.085	97.19
383.31	101.19
383.535	104.19
383.761	102.19
383.986	112.19
384.211	92.19
384.436	93.19
384.662	93.19
384.887	94.19
385.112	101.19
385.337	93.19
385.562	103.19
385.787	96.19
386.013	107.19
386.238	118.19
386.463	111.19
386.688	99.19
386.913	85.19
387.138	81.19
387.363	94.19
387.588	100.19
387.813	86.19
388.038	114.19
388.263	111.19
388.488	102.19
388.713	113.19
388.938	105.19
389.163	95.19
389.387	102.19
389.612	97.19
389.837	86.19
390.062	101.19
390.287	88.19
390.512	79.19
390.736	84.19
390.961	88.19
391.186	93.19
391.411	97.19
391.636	86.19
391.86	88.19
392.085	83.19
392.31	88.19
392.534	101.19
392.759	82.19
392.984	100.19
393.208	83.19
393.433	88.19
393.658	94.19
393.882	74.19
394.107	100.19
394.331	80.19
394.556	82.19
394.78	100.19
395.005	79.19
395.229	78.19
395.454	86.19
395.678	83.19
395.903	94.19
396.127	83.19
396.352	90.19
396.576	86.19
396.801	99.19
397.025	80.19
397.249	77.19
397.474	95.19
397.698	79.19
397.922	93.19
398.147	93.19
398.371	84.19
398.595	96.19
398.82	96.19
399.044	91.19
399.268	101.19
399.492	92.19
399.717	94.19
399.941	90.19
400.165	86.19
400.389	92.19
400.613	94.19
400.837	88.19
401.062	89.19
401.286	94.19
401.51	87.19
401.734	87.19
401.958	126.19
402.182	149.19
402.406	166.19
402.63	103.19
402.854	80.19
403.078	101.19
403.302	79.19
403.526	87.19
403.75	80.19
403.974	84.19
404.198	80.19
404.422	84.19
404.645	95.19
404.869	93.19
405.093	102.19
405.317	105.19
405.541	89.19
405.765	101.19
405.988	119.19
406.212	200.19
406.436	244.19
406.66	162.19
406.883	102.19
407.107	110.19
407.331	101.19
407.555	114.19
407.778	88.19
408.002	89.19
408.226	90.19
408.449	95.19
408.673	91.19
408.896	99.19
409.12	104.19
409.344	93.19
409.567	97.19
409.791	88.19
410.014	92.19
410.238	104.19
410.461	92.19
410.685	89.19
410.908	94.19
411.132	110.19
411.355	105.19
411.578	101.19
411.802	86.19
412.025	82.19
412.249	99.19
412.472	93.19
412.695	100.19
412.919	81.19
413.142	94.19
413.365	90.19
413.589	98.19
413.812	85.19
414.035	93.19
414.258	84.19
414.482	85.19
414.705	82.19
414.928	88.19
415.151	89.19
415.374	103.19
415.597	90.19
415.821	92.19
416.044	91.19
416.267	88.19
416.49	97.19
416.713	91.19
416.936	80.19
417.159	83.19
417.382	91.19
417.605	95.19
417.828	98.19
418.051	93.19
418.274	85.19
418.497	74.19
418.72	81.19
418.943	91.19
419.166	84.19
419.389	85.19
419.611	98.19
419.834	90.19
420.057	89.19
420.28	85.19
420.503	87.19
420.726	100.19
420.948	93.19
421.171	97.19
421.394	101.19
421.617	99.19
421.839	100.19
422.062	91.19
422.285	86.19
422.507	109.19
422.73	110.19
422.953	114.19
423.175	90.19
423.398	90.19
423.621	94.19
423.843	98.19
424.066	92.19
424.288	77.19
424.511	94.19
424.733	107.19
424.956	114.19
425.178	107.19
425.401	85.19
425.623	82.19
425.846	90.19
426.068	86.19
426.291	96.19
426.513	100.19
426.735	86.19
426.958	104.19
427.18	112.19
427.402	146.19
427.625	176.19
427.847	131.19
428.069	105.19
428.292	89.19
428.514	95.19
428.736	85.19
428.958	86.19
429.181	93.19
429.403	88.19
429.625	93.19
429.847	94.19
430.069	98.19
430.292	101.19
430.514	89.19
430.736	80.19
430.958	90.19
431.18	87.19
431.402	100.19
431.624	81.19
431.846	87.19
432.068	97.19
432.29	97.19
432.512	78.19
432.734	84.19
432.956	97.19
433.178	93.19
433.4	99.19
433.622	84.19
433.844	84.19
434.066	90.19
434.287	97.19
434.509	92.19
434.731	80.19
434.953	91.19
435.175	85.19
435.397	101.19
435.618	94.19
435.84	109.19
436.062	123.19
436.284	105.19
436.505	104.19
436.727	112.19
436.949	86.19
437.17	91.19
437.392	94.19
437.614	81.19
437.835	104.19
438.057	107.19
438.278	112.19
438.5	117.19
438.721	120.19
438.943	108.19
439.165	96.19
439.386	92.19
439.608	89.19
439.829	118.19
440.05	115.19
440.272	137.19
440.493	97.19
440.715	90.19
440.936	77.19
441.158	98.19
441.379	87.19
441.6	93.19
441.822	94.19
442.043	99.19
442.264	103.19
442.486	110.19
442.707	102.19
442.928	116.19
443.149	123.19
443.371	133.19
443.592	107.19
443.813	115.19
444.034	104.19
444.255	98.19
444.476	81.19
444.698	93.19
444.919	93.19
445.14	128.19
445.361	109.19
445.582	120.19
445.803	150.19
446.024	162.19
446.245	143.19
446.466	97.19
446.687	94.19
446.908	103.19
447.129	79.19
447.35	92.19
447.571	102.19
447.792	98.19
448.013	108.19
448.234	104.19
448.455	104.19
448.675	123.19
448.896	115.19
449.117	99.19
449.338	105.19
449.559	136.19
449.779	141.19
450	108.19
450.221	97.19
450.442	84.19
450.662	87.19
450.883	101.19
451.104	107.19
451.324	97.19
451.545	84.19
451.766	90.19
451.986	93.19
452.207	92.19
452.428	92.19
452.648	115.19
452.869	108.19
453.089	120.19
453.31	124.19
453.53	107.19
453.751	98.19
453.971	114.19
454.192	113.19
454.412	99.19
454.633	93.19
454.853	97.19
455.073	101.19
455.294	100.19
455.514	112.19
455.734	78.19
455.955	99.19
456.175	82.19
456.395	82.19
456.616	77.19
456.836	89.19
457.056	95.19
457.276	97.19
457.497	82.19
457.717	100.19
457.937	96.19
458.157	86.19
458.377	90.19
458.598	111.19
458.818	162.19
459.038	168.19
459.258	113.19
459.478	101.19
459.698	92.19
459.918	85.19
460.138	72.19
460.358	80.19
460.578	84.19
460.798	75.19
461.018	88.19
461.238	90.19
461.458	94.19
461.678	98.19
461.898	92.19
462.118	86.19
462.338	112.19
462.558	95.19
462.777	65.19
462.997	88.19
463.217	79.19
463.437	84.19
463.657	86.19
463.876	99.19
464.096	87.19
464.316	104.19
464.536	92.19
464.755	86.19
464.975	104.19
465.195	187.19
465.414	154.19
465.634	93.19
465.854	78.19
466.073	88.19
466.293	91.19
466.512	85.19
466.732	92.19
466.951	109.19
467.171	94.19
467.391	84.19
467.61	115.19
467.829	95.19
468.049	85.19
468.268	85.19
468.488	90.19
468.707	91.19
468.927	94.19
469.146	76.19
469.365	96.19
469.585	78.19
469.804	103.19
470.023	93.19
470.243	90.19
470.462	98.19
470.681	111.19
470.901	89.19
471.12	98.19
471.339	81.19
471.558	93.19
471.777	91.19
471.997	85.19
472.216	104.19
472.435	103.19
472.654	89.19
472.873	91.19
473.092	72.19
473.311	94.19
473.53	92.19
473.749	87.19
473.968	103.19
474.187	117.19
474.406	112.19
474.625	82.19
474.844	73.19
475.063	85.19
475.282	80.19
475.501	93.19
475.72	82.19
475.939	85.19
476.158	76.19
476.377	90.19
476.596	91.19
476.814	100.19
477.033	81.19
477.252	95.19
477.471	98.19
477.69	90.19
477.908	96.19
478.127	91.19
478.346	85.19
478.564	88.19
478.783	91.19
479.002	97.19
479.22	87.19
479.439	98.19
479.658	113.19
479.876	100.19
480.095	97.19
480.313	99.19
480.532	94.19
480.751	89.19
480.969	79.19
481.188	109.19
481.406	101.19
481.624	99.19
481.843	93.19
482.061	91.19
482.28	80.19
482.498	100.19
482.717	97.19
482.935	105.19
483.153	106.19
483.372	88.19
483.59	97.19
483.808	91.19
484.027	95.19
484.245	97.19
484.463	93.19
484.681	81.19
484.9	104.19
485.118	101.19
485.336	97.19
485.554	110.19
485.772	83.19
485.99	95.19
486.209	100.19
486.427	109.19
486.645	104.19
486.863	107.19
487.081	99.19
487.299	89.19
487.517	101.19
487.735	84.19
487.953	78.19
488.171	101.19
488.389	80.19
488.607	102.19
488.825	100.19
489.043	87.19
489.261	82.19
489.479	68.19
489.696	87.19
489.914	90.19
490.132	97.19
490.35	93.19
490.568	100.19
490.786	82.19
491.003	90.19
491.221	84.19
491.439	90.19
491.657	92.19
491.874	89.19
492.092	89.19
492.31	83.19
492.527	93.19
492.745	94.19
492.963	101.19
493.18	74.19
493.398	94.19
493.615	106.19
493.833	88.19
494.05	81.19
494.268	98.19
494.485	83.19
494.703	92.19
494.92	89.19
495.138	86.19
495.355	86.19
495.573	100.19
495.79	100.19
496.008	78.19
496.225	88.19
496.442	72.19
496.66	99.19
496.877	98.19
497.094	101.19
497.312	83.19
497.529	97.19
497.746	81.19
497.963	91.19
498.181	104.19
498.398	94.19
498.615	105.19
498.832	94.19
499.049	78.19
499.267	101.19
499.484	84.19
499.701	102.19
499.918	78.19
500.135	93.19
500.352	113.19
500.569	76.19
500.786	100.19
501.003	97.19
501.22	85.19
501.437	81.19
501.654	94.19
501.871	107.19
502.088	90.19
502.305	92.19
502.522	84.19
502.739	95.19
502.956	107.19
503.172	90.19
503.389	85.19
503.606	110.19
503.823	107.19
504.04	96.19
504.256	108.19
504.473	98.19
504.69	83.19
504.907	96.19
505.123	89.19
505.34	82.19
505.557	90.19
505.773	76.19
505.99	87.19
506.207	91.19
506.423	87.19
506.64	86.19
506.856	100.19
507.073	84.19
507.289	101.19
507.506	100.19
507.722	128.19
507.939	111.19
508.155	93.19
508.372	86.19
508.588	87.19
508.805	88.19
509.021	110.19
509.238	105.19
509.454	106.19
509.67	123.19
509.887	105.19
510.103	132.19
510.319	229.19
510.536	848.19
510.752	2613.19
510.968	724.19
511.184	176.19
511.401	106.19
511.617	105.19
511.833	113.19
512.049	101.19
512.265	93.19
512.481	94.19
512.698	88.19
512.914	98.19
513.13	99.19
513.346	86.19
513.562	86.19
513.778	94.19
513.994	104.19
514.21	98.19
514.426	122.19
514.642	135.19
514.858	128.19
515.074	175.19
