Data from Uncirc_2001_H10_HRD10591_00055.txt Node
Date: Wed Jan 03 10:44:07 EST 2024
User: Yrep
Spectrometer: HR+D1059
Trigger mode: 1
Integration Time (sec): 1.000000E-1
Scans to average: 1
Electric dark correction enabled: true
Nonlinearity correction enabled: false
Boxcar width: 0
XAxis mode: Wavelengths
Number of Pixels in Spectrum: 2048
>>>>>Begin Spectral Data<<<<<
223.165	-12.5
223.4	-12.5
223.635	-12.5
223.869	-8.5
224.104	-16.5
224.338	-23.5
224.573	-14.5
224.808	-2.5
225.042	6.5
225.277	-11.5
225.511	-14.5
225.746	-1.5
225.98	9.5
226.215	1.5
226.449	7.5
226.683	19.5
226.918	21.5
227.152	39.5
227.387	33.5
227.621	34.5
227.856	45.5
228.09	60.5
228.324	38.5
228.559	48.5
228.793	70.5
229.027	64.5
229.262	65.5
229.496	56.5
229.73	86.5
229.964	72.5
230.199	76.5
230.433	85.5
230.667	87.5
230.901	89.5
231.136	96.5
231.37	79.5
231.604	77.5
231.838	68.5
232.072	76.5
232.306	75.5
232.541	87.5
232.775	77.5
233.009	77.5
233.243	65.5
233.477	70.5
233.711	84.5
233.945	84.5
234.179	79.5
234.413	81.5
234.647	72.5
234.881	73.5
235.115	77.5
235.349	81.5
235.583	82.5
235.817	85.5
236.051	76.5
236.285	57.5
236.519	56.5
236.753	80.5
236.987	70.5
237.221	81.5
237.455	85.5
237.689	80.5
237.922	77.5
238.156	67.5
238.39	67.5
238.624	74.5
238.858	83.5
239.091	65.5
239.325	83.5
239.559	93.5
239.793	69.5
240.027	69.5
240.26	72.5
240.494	77.5
240.728	77.5
240.961	87.5
241.195	75.5
241.429	79.5
241.662	82.5
241.896	65.5
242.13	79.5
242.363	74.5
242.597	76.5
242.83	88.5
243.064	83.5
243.298	72.5
243.531	69.5
243.765	62.5
243.998	83.5
244.232	82.5
244.465	76.5
244.699	86.5
244.932	68.5
245.166	82.5
245.399	68.5
245.633	64.5
245.866	65.5
246.099	70.5
246.333	75.5
246.566	70.5
246.8	75.5
247.033	66.5
247.266	72.5
247.5	73.5
247.733	81.5
247.966	80.5
248.2	72.5
248.433	81.5
248.666	70.5
248.899	89.5
249.133	98.5
249.366	79.5
249.599	98.5
249.832	75.5
250.066	80.5
250.299	78.5
250.532	87.5
250.765	66.5
250.998	76.5
251.231	65.5
251.465	69.5
251.698	78.5
251.931	85.5
252.164	74.5
252.397	67.5
252.63	67.5
252.863	72.5
253.096	100.5
253.329	74.5
253.562	82.5
253.795	94.5
254.028	83.5
254.261	74.5
254.494	91.5
254.727	97.5
254.96	76.5
255.193	76.5
255.426	79.5
255.659	66.5
255.892	78.5
256.124	74.5
256.357	76.5
256.59	81.5
256.823	87.5
257.056	83.5
257.289	90.5
257.521	71.5
257.754	78.5
257.987	86.5
258.22	78.5
258.452	77.5
258.685	81.5
258.918	73.5
259.151	81.5
259.383	76.5
259.616	82.5
259.849	62.5
260.081	84.5
260.314	85.5
260.547	75.5
260.779	81.5
261.012	90.5
261.244	82.5
261.477	90.5
261.71	91.5
261.942	102.5
262.175	111.5
262.407	92.5
262.64	90.5
262.872	81.5
263.105	83.5
263.337	83.5
263.57	83.5
263.802	63.5
264.035	92.5
264.267	91.5
264.499	84.5
264.732	90.5
264.964	86.5
265.197	81.5
265.429	88.5
265.661	91.5
265.894	70.5
266.126	67.5
266.358	94.5
266.591	76.5
266.823	87.5
267.055	70.5
267.287	86.5
267.52	73.5
267.752	87.5
267.984	90.5
268.216	79.5
268.448	83.5
268.681	69.5
268.913	85.5
269.145	83.5
269.377	85.5
269.609	82.5
269.841	64.5
270.073	81.5
270.306	87.5
270.538	80.5
270.77	96.5
271.002	83.5
271.234	80.5
271.466	81.5
271.698	78.5
271.93	66.5
272.162	87.5
272.394	93.5
272.626	73.5
272.858	72.5
273.09	91.5
273.322	86.5
273.553	89.5
273.785	79.5
274.017	71.5
274.249	80.5
274.481	75.5
274.713	91.5
274.945	89.5
275.176	76.5
275.408	98.5
275.64	98.5
275.872	95.5
276.104	83.5
276.335	83.5
276.567	98.5
276.799	88.5
277.031	79.5
277.262	88.5
277.494	95.5
277.726	80.5
277.957	77.5
278.189	87.5
278.421	83.5
278.652	88.5
278.884	74.5
279.115	79.5
279.347	89.5
279.579	79.5
279.81	74.5
280.042	85.5
280.273	90.5
280.505	82.5
280.736	74.5
280.968	76.5
281.199	69.5
281.431	98.5
281.662	87.5
281.894	75.5
282.125	84.5
282.356	105.5
282.588	129.5
282.819	122.5
283.051	99.5
283.282	73.5
283.513	85.5
283.745	89.5
283.976	85.5
284.207	79.5
284.439	74.5
284.67	77.5
284.901	72.5
285.132	78.5
285.364	90.5
285.595	91.5
285.826	86.5
286.057	81.5
286.288	91.5
286.52	94.5
286.751	74.5
286.982	92.5
287.213	81.5
287.444	88.5
287.675	71.5
287.906	97.5
288.138	76.5
288.369	76.5
288.6	91.5
288.831	90.5
289.062	82.5
289.293	90.5
289.524	95.5
289.755	95.5
289.986	77.5
290.217	83.5
290.448	82.5
290.679	77.5
290.91	93.5
291.141	92.5
291.371	99.5
291.602	75.5
291.833	80.5
292.064	84.5
292.295	88.5
292.526	96.5
292.757	77.5
292.987	108.5
293.218	89.5
293.449	91.5
293.68	93.5
293.91	77.5
294.141	79.5
294.372	86.5
294.603	99.5
294.833	84.5
295.064	89.5
295.295	83.5
295.525	81.5
295.756	106.5
295.987	122.5
296.217	121.5
296.448	128.5
296.679	80.5
296.909	90.5
297.14	86.5
297.37	85.5
297.601	105.5
297.831	83.5
298.062	91.5
298.292	91.5
298.523	85.5
298.753	82.5
298.984	75.5
299.214	89.5
299.445	97.5
299.675	101.5
299.905	91.5
300.136	90.5
300.366	93.5
300.597	97.5
300.827	88.5
301.057	95.5
301.288	93.5
301.518	97.5
301.748	82.5
301.979	90.5
302.209	86.5
302.439	96.5
302.669	80.5
302.9	98.5
303.13	88.5
303.36	95.5
303.59	90.5
303.82	99.5
304.051	87.5
304.281	74.5
304.511	87.5
304.741	78.5
304.971	78.5
305.201	82.5
305.431	82.5
305.661	77.5
305.891	96.5
306.121	85.5
306.352	100.5
306.582	87.5
306.812	84.5
307.042	85.5
307.272	70.5
307.502	94.5
307.731	90.5
307.961	90.5
308.191	96.5
308.421	86.5
308.651	91.5
308.881	98.5
309.111	92.5
309.341	99.5
309.571	109.5
309.8	91.5
310.03	91.5
310.26	104.5
310.49	92.5
310.72	89.5
310.949	87.5
311.179	107.5
311.409	90.5
311.639	86.5
311.868	90.5
312.098	83.5
312.328	98.5
312.557	99.5
312.787	84.5
313.017	85.5
313.246	87.5
313.476	95.5
313.706	81.5
313.935	98.5
314.165	102.5
314.394	104.5
314.624	104.5
314.853	79.5
315.083	86.5
315.312	89.5
315.542	85.5
315.771	83.5
316.001	84.5
316.23	94.5
316.46	84.5
316.689	91.5
316.919	88.5
317.148	79.5
317.377	85.5
317.607	86.5
317.836	80.5
318.065	88.5
318.295	83.5
318.524	91.5
318.753	83.5
318.983	96.5
319.212	97.5
319.441	103.5
319.67	94.5
319.9	89.5
320.129	95.5
320.358	81.5
320.587	82.5
320.816	98.5
321.046	101.5
321.275	84.5
321.504	97.5
321.733	99.5
321.962	88.5
322.191	93.5
322.42	90.5
322.649	103.5
322.878	95.5
323.108	97.5
323.337	117.5
323.566	126.5
323.795	122.5
324.024	182.5
324.253	339.5
324.482	668.5
324.71	1297.5
324.939	1637.5
325.168	612.5
325.397	205.5
325.626	138.5
325.855	110.5
326.084	95.5
326.313	125.5
326.542	141.5
326.77	182.5
326.999	366.5
327.228	746.5
327.457	1287.5
327.686	994.5
327.914	280.5
328.143	154.5
328.372	126.5
328.6	121.5
328.829	103.5
329.058	117.5
329.287	119.5
329.515	113.5
329.744	87.5
329.972	85.5
330.201	86.5
330.43	95.5
330.658	109.5
330.887	133.5
331.115	113.5
331.344	103.5
331.572	99.5
331.801	88.5
332.03	86.5
332.258	86.5
332.486	98.5
332.715	95.5
332.943	83.5
333.172	85.5
333.4	85.5
333.629	106.5
333.857	114.5
334.085	105.5
334.314	100.5
334.542	81.5
334.771	100.5
334.999	86.5
335.227	97.5
335.455	97.5
335.684	90.5
335.912	89.5
336.14	103.5
336.369	85.5
336.597	89.5
336.825	95.5
337.053	86.5
337.281	89.5
337.51	87.5
337.738	89.5
337.966	93.5
338.194	81.5
338.422	90.5
338.65	89.5
338.878	83.5
339.106	83.5
339.334	104.5
339.562	76.5
339.79	93.5
340.018	89.5
340.246	80.5
340.474	94.5
340.702	100.5
340.93	94.5
341.158	89.5
341.386	82.5
341.614	93.5
341.842	101.5
342.07	88.5
342.298	84.5
342.526	76.5
342.754	90.5
342.981	79.5
343.209	88.5
343.437	94.5
343.665	79.5
343.893	78.5
344.12	81.5
344.348	90.5
344.576	83.5
344.804	78.5
345.031	86.5
345.259	96.5
345.487	103.5
345.714	80.5
345.942	78.5
346.17	83.5
346.397	85.5
346.625	86.5
346.853	90.5
347.08	89.5
347.308	93.5
347.535	82.5
347.763	104.5
347.99	99.5
348.218	103.5
348.445	97.5
348.673	81.5
348.9	89.5
349.128	72.5
349.355	92.5
349.583	95.5
349.81	82.5
350.037	89.5
350.265	83.5
350.492	96.5
350.72	101.5
350.947	97.5
351.174	111.5
351.402	112.5
351.629	96.5
351.856	89.5
352.083	98.5
352.311	91.5
352.538	90.5
352.765	113.5
352.992	110.5
353.22	104.5
353.447	101.5
353.674	85.5
353.901	96.5
354.128	88.5
354.355	94.5
354.583	100.5
354.81	89.5
355.037	91.5
355.264	101.5
355.491	87.5
355.718	87.5
355.945	85.5
356.172	98.5
356.399	86.5
356.626	79.5
356.853	76.5
357.08	101.5
357.307	83.5
357.534	85.5
357.761	81.5
357.988	75.5
358.215	94.5
358.441	82.5
358.668	91.5
358.895	88.5
359.122	91.5
359.349	75.5
359.576	78.5
359.802	93.5
360.029	102.5
360.256	99.5
360.483	100.5
360.709	89.5
360.936	102.5
361.163	99.5
361.39	88.5
361.616	79.5
361.843	85.5
362.07	80.5
362.296	81.5
362.523	74.5
362.749	93.5
362.976	100.5
363.203	91.5
363.429	86.5
363.656	78.5
363.882	90.5
364.109	91.5
364.335	86.5
364.562	83.5
364.788	80.5
365.015	88.5
365.241	90.5
365.468	96.5
365.694	87.5
365.92	88.5
366.147	87.5
366.373	78.5
366.599	88.5
366.826	79.5
367.052	87.5
367.278	98.5
367.505	92.5
367.731	83.5
367.957	93.5
368.184	93.5
368.41	99.5
368.636	102.5
368.862	109.5
369.089	98.5
369.315	87.5
369.541	71.5
369.767	90.5
369.993	89.5
370.219	95.5
370.445	79.5
370.672	89.5
370.898	95.5
371.124	79.5
371.35	83.5
371.576	94.5
371.802	93.5
372.028	81.5
372.254	94.5
372.48	82.5
372.706	83.5
372.932	81.5
373.158	95.5
373.384	84.5
373.61	90.5
373.835	85.5
374.061	84.5
374.287	91.5
374.513	79.5
374.739	97.5
374.965	84.5
375.191	87.5
375.416	95.5
375.642	79.5
375.868	99.5
376.094	91.5
376.319	94.5
376.545	76.5
376.771	91.5
376.997	97.5
377.222	90.5
377.448	89.5
377.674	90.5
377.899	75.5
378.125	79.5
378.35	98.5
378.576	91.5
378.802	86.5
379.027	86.5
379.253	85.5
379.478	78.5
379.704	105.5
379.929	83.5
380.155	79.5
380.38	89.5
380.606	99.5
380.831	96.5
381.057	86.5
381.282	100.5
381.507	91.5
381.733	91.5
381.958	104.5
382.184	95.5
382.409	82.5
382.634	96.5
382.86	91.5
383.085	97.5
383.31	91.5
383.535	85.5
383.761	93.5
383.986	91.5
384.211	84.5
384.436	82.5
384.662	101.5
384.887	93.5
385.112	102.5
385.337	97.5
385.562	106.5
385.787	109.5
386.013	90.5
386.238	113.5
386.463	98.5
386.688	106.5
386.913	90.5
387.138	88.5
387.363	80.5
387.588	100.5
387.813	98.5
388.038	98.5
388.263	107.5
388.488	85.5
388.713	88.5
388.938	91.5
389.163	77.5
389.387	92.5
389.612	93.5
389.837	97.5
390.062	81.5
390.287	87.5
390.512	98.5
390.736	86.5
390.961	83.5
391.186	94.5
391.411	90.5
391.636	95.5
391.86	79.5
392.085	92.5
392.31	79.5
392.534	88.5
392.759	75.5
392.984	95.5
393.208	83.5
393.433	89.5
393.658	84.5
393.882	75.5
394.107	86.5
394.331	96.5
394.556	77.5
394.78	78.5
395.005	81.5
395.229	87.5
395.454	91.5
395.678	100.5
395.903	81.5
396.127	79.5
396.352	99.5
396.576	77.5
396.801	78.5
397.025	82.5
397.249	82.5
397.474	103.5
397.698	83.5
397.922	87.5
398.147	86.5
398.371	69.5
398.595	80.5
398.82	67.5
399.044	86.5
399.268	88.5
399.492	72.5
399.717	78.5
399.941	73.5
400.165	95.5
400.389	88.5
400.613	65.5
400.837	77.5
401.062	82.5
401.286	85.5
401.51	98.5
401.734	93.5
401.958	103.5
402.182	112.5
402.406	147.5
402.63	100.5
402.854	78.5
403.078	90.5
403.302	90.5
403.526	81.5
403.75	78.5
403.974	72.5
404.198	86.5
404.422	98.5
404.645	86.5
404.869	95.5
405.093	77.5
405.317	89.5
405.541	92.5
405.765	95.5
405.988	108.5
406.212	169.5
406.436	205.5
406.66	137.5
406.883	102.5
407.107	86.5
407.331	90.5
407.555	99.5
407.778	93.5
408.002	95.5
408.226	76.5
408.449	80.5
408.673	94.5
408.896	79.5
409.12	91.5
409.344	90.5
409.567	81.5
409.791	99.5
410.014	94.5
410.238	79.5
410.461	77.5
410.685	78.5
410.908	90.5
411.132	101.5
411.355	97.5
411.578	94.5
411.802	87.5
412.025	90.5
412.249	80.5
412.472	90.5
412.695	97.5
412.919	87.5
413.142	88.5
413.365	70.5
413.589	79.5
413.812	83.5
414.035	86.5
414.258	85.5
414.482	83.5
414.705	92.5
414.928	78.5
415.151	84.5
415.374	74.5
415.597	78.5
415.821	87.5
416.044	84.5
416.267	88.5
416.49	87.5
416.713	83.5
416.936	100.5
417.159	88.5
417.382	75.5
417.605	93.5
417.828	91.5
418.051	88.5
418.274	87.5
418.497	87.5
418.72	88.5
418.943	101.5
419.166	75.5
419.389	91.5
419.611	103.5
419.834	88.5
420.057	88.5
420.28	80.5
420.503	83.5
420.726	80.5
420.948	88.5
421.171	81.5
421.394	98.5
421.617	86.5
421.839	67.5
422.062	83.5
422.285	94.5
422.507	84.5
422.73	87.5
422.953	105.5
423.175	92.5
423.398	81.5
423.621	76.5
423.843	91.5
424.066	88.5
424.288	77.5
424.511	85.5
424.733	104.5
424.956	85.5
425.178	102.5
425.401	93.5
425.623	86.5
425.846	97.5
426.068	81.5
426.291	90.5
426.513	89.5
426.735	86.5
426.958	98.5
427.18	107.5
427.402	142.5
427.625	143.5
427.847	115.5
428.069	91.5
428.292	84.5
428.514	95.5
428.736	79.5
428.958	72.5
429.181	77.5
429.403	93.5
429.625	91.5
429.847	90.5
430.069	89.5
430.292	80.5
430.514	88.5
430.736	76.5
430.958	93.5
431.18	77.5
431.402	76.5
431.624	74.5
431.846	91.5
432.068	80.5
432.29	85.5
432.512	88.5
432.734	93.5
432.956	95.5
433.178	100.5
433.4	91.5
433.622	77.5
433.844	84.5
434.066	87.5
434.287	95.5
434.509	88.5
434.731	89.5
434.953	74.5
435.175	83.5
435.397	83.5
435.618	95.5
435.84	93.5
436.062	111.5
436.284	100.5
436.505	96.5
436.727	90.5
436.949	87.5
437.17	82.5
437.392	84.5
437.614	90.5
437.835	115.5
438.057	116.5
438.278	89.5
438.5	104.5
438.721	103.5
438.943	95.5
439.165	86.5
439.386	89.5
439.608	89.5
439.829	106.5
440.05	113.5
440.272	118.5
440.493	99.5
440.715	96.5
440.936	85.5
441.158	75.5
441.379	82.5
441.6	97.5
441.822	102.5
442.043	89.5
442.264	105.5
442.486	100.5
442.707	95.5
442.928	88.5
443.149	109.5
443.371	138.5
443.592	98.5
443.813	88.5
444.034	105.5
444.255	91.5
444.476	81.5
444.698	91.5
444.919	73.5
445.14	124.5
445.361	118.5
445.582	98.5
445.803	121.5
446.024	116.5
446.245	111.5
446.466	97.5
446.687	83.5
446.908	83.5
447.129	93.5
447.35	100.5
447.571	87.5
447.792	84.5
448.013	97.5
448.234	98.5
448.455	97.5
448.675	103.5
448.896	96.5
449.117	96.5
449.338	93.5
449.559	111.5
449.779	113.5
450	96.5
450.221	89.5
450.442	86.5
450.662	99.5
450.883	91.5
451.104	113.5
451.324	90.5
451.545	94.5
451.766	91.5
451.986	79.5
452.207	86.5
452.428	83.5
452.648	106.5
452.869	102.5
453.089	108.5
453.31	112.5
453.53	83.5
453.751	100.5
453.971	88.5
454.192	100.5
454.412	89.5
454.633	88.5
454.853	87.5
455.073	94.5
455.294	83.5
455.514	94.5
455.734	95.5
455.955	73.5
456.175	88.5
456.395	86.5
456.616	76.5
456.836	91.5
457.056	81.5
457.276	80.5
457.497	94.5
457.717	84.5
457.937	94.5
458.157	81.5
458.377	81.5
458.598	103.5
458.818	145.5
459.038	146.5
459.258	95.5
459.478	86.5
459.698	79.5
459.918	101.5
460.138	85.5
460.358	89.5
460.578	83.5
460.798	75.5
461.018	95.5
461.238	81.5
461.458	81.5
461.678	80.5
461.898	71.5
462.118	94.5
462.338	88.5
462.558	74.5
462.777	91.5
462.997	75.5
463.217	87.5
463.437	75.5
463.657	79.5
463.876	84.5
464.096	83.5
464.316	82.5
464.536	85.5
464.755	89.5
464.975	101.5
465.195	151.5
465.414	147.5
465.634	92.5
465.854	81.5
466.073	77.5
466.293	96.5
466.512	75.5
466.732	77.5
466.951	91.5
467.171	94.5
467.391	80.5
467.61	104.5
467.829	89.5
468.049	90.5
468.268	79.5
468.488	85.5
468.707	84.5
468.927	88.5
469.146	73.5
469.365	70.5
469.585	70.5
469.804	100.5
470.023	86.5
470.243	97.5
470.462	96.5
470.681	95.5
470.901	87.5
471.12	86.5
471.339	81.5
471.558	91.5
471.777	87.5
471.997	83.5
472.216	84.5
472.435	100.5
472.654	101.5
472.873	76.5
473.092	79.5
473.311	95.5
473.53	89.5
473.749	84.5
473.968	90.5
474.187	101.5
474.406	117.5
474.625	82.5
474.844	86.5
475.063	84.5
475.282	76.5
475.501	87.5
475.72	89.5
475.939	90.5
476.158	93.5
476.377	98.5
476.596	85.5
476.814	94.5
477.033	83.5
477.252	88.5
477.471	95.5
477.69	72.5
477.908	71.5
478.127	82.5
478.346	95.5
478.564	76.5
478.783	103.5
479.002	88.5
479.22	89.5
479.439	87.5
479.658	93.5
479.876	91.5
480.095	87.5
480.313	86.5
480.532	87.5
480.751	79.5
480.969	97.5
481.188	98.5
481.406	84.5
481.624	93.5
481.843	82.5
482.061	89.5
482.28	91.5
482.498	91.5
482.717	81.5
482.935	90.5
483.153	82.5
483.372	85.5
483.59	91.5
483.808	95.5
484.027	84.5
484.245	81.5
484.463	112.5
484.681	85.5
484.9	87.5
485.118	95.5
485.336	97.5
485.554	90.5
485.772	81.5
485.99	102.5
486.209	87.5
486.427	107.5
486.645	106.5
486.863	105.5
487.081	90.5
487.299	87.5
487.517	96.5
487.735	71.5
487.953	93.5
488.171	101.5
488.389	95.5
488.607	93.5
488.825	68.5
489.043	88.5
489.261	83.5
489.479	89.5
489.696	91.5
489.914	89.5
490.132	88.5
490.35	87.5
490.568	98.5
490.786	73.5
491.003	83.5
491.221	81.5
491.439	87.5
491.657	89.5
491.874	102.5
492.092	87.5
492.31	90.5
492.527	90.5
492.745	73.5
492.963	99.5
493.18	94.5
493.398	99.5
493.615	90.5
493.833	89.5
494.05	95.5
494.268	78.5
494.485	91.5
494.703	86.5
494.92	89.5
495.138	99.5
495.355	83.5
495.573	87.5
495.79	93.5
496.008	95.5
496.225	71.5
496.442	94.5
496.66	85.5
496.877	86.5
497.094	87.5
497.312	80.5
497.529	81.5
497.746	78.5
497.963	84.5
498.181	93.5
498.398	91.5
498.615	96.5
498.832	106.5
499.049	83.5
499.267	103.5
499.484	60.5
499.701	91.5
499.918	91.5
500.135	86.5
500.352	85.5
500.569	78.5
500.786	88.5
501.003	91.5
501.22	94.5
501.437	89.5
501.654	95.5
501.871	95.5
502.088	83.5
502.305	96.5
502.522	75.5
502.739	76.5
502.956	91.5
503.172	83.5
503.389	82.5
503.606	101.5
503.823	94.5
504.04	97.5
504.256	83.5
504.473	76.5
504.69	89.5
504.907	101.5
505.123	96.5
505.34	97.5
505.557	87.5
505.773	84.5
505.99	103.5
506.207	98.5
506.423	77.5
506.64	88.5
506.856	88.5
507.073	94.5
507.289	84.5
507.506	101.5
507.722	101.5
507.939	96.5
508.155	103.5
508.372	96.5
508.588	90.5
508.805	81.5
509.021	97.5
509.238	90.5
509.454	91.5
509.67	106.5
509.887	95.5
510.103	131.5
510.319	201.5
510.536	707.5
510.752	2121.5
510.968	585.5
511.184	144.5
511.401	106.5
511.617	100.5
511.833	104.5
512.049	83.5
512.265	99.5
512.481	106.5
512.698	96.5
512.914	102.5
513.13	76.5
513.346	94.5
513.562	84.5
513.778	96.5
513.994	92.5
514.21	106.5
514.426	116.5
514.642	140.5
514.858	113.5
515.074	163.5
515.29	409.5
515.506	1306.5
515.721	490.5
515.937	126.5
516.153	103.5
516.369	106.5
516.585	85.5
516.801	86.5
517.016	87.5
517.232	97.5
517.448	93.5
517.664	89.5
517.879	90.5
518.095	106.5
518.311	101.5
518.527	87.5
518.742	92.5
518.958	81.5
519.173	77.5
519.389	95.5
519.605	96.5
519.82	107.5
520.036	95.5
520.251	123.5
520.467	91.5
520.682	100.5
520.898	94.5
521.113	109.5
521.329	146.5
521.544	175.5
521.76	501.5
521.975	2142.5
522.19	1277.5
522.406	281.5
522.621	114.5
522.836	97.5
523.052	91.5
523.267	94.5
523.482	82.5
523.698	91.5
523.913	110.5
524.128	93.5
524.343	81.5
524.559	94.5
524.774	90.5
524.989	80.5
525.204	101.5
525.419	99.5
525.634	90.5
525.849	99.5
526.064	95.5
526.28	103.5
526.495	83.5
526.71	101.5
526.925	93.5
527.14	93.5
527.355	77.5
527.57	101.5
527.785	91.5
527.999	74.5
528.214	81.5
528.429	105.5
528.644	89.5
528.859	89.5
529.074	85.5
529.289	121.5
529.503	176.5
529.718	98.5
529.933	86.5
530.148	88.5
530.363	87.5
530.577	89.5
530.792	89.5
531.007	93.5
531.221	84.5
531.436	81.5
531.651	88.5
531.865	97.5
532.08	84.5
532.295	77.5
532.509	93.5
532.724	71.5
532.938	91.5
533.153	78.5
533.367	86.5
533.582	85.5
533.796	84.5
534.011	81.5
534.225	82.5
534.44	89.5
534.654	101.5
534.868	92.5
535.083	89.5
535.297	90.5
535.511	87.5
535.726	99.5
535.94	102.5
536.154	83.5
536.369	86.5
536.583	96.5
536.797	91.5
537.011	90.5
