Data from Uncirc_2001_H10_HRD10591_00065.txt Node
Date: Wed Jan 03 10:44:09 EST 2024
User: Yrep
Spectrometer: HR+D1059
Trigger mode: 1
Integration Time (sec): 1.000000E-1
Scans to average: 1
Electric dark correction enabled: true
Nonlinearity correction enabled: false
Boxcar width: 0
XAxis mode: Wavelengths
Number of Pixels in Spectrum: 2048
>>>>>Begin Spectral Data<<<<<
223.165	-20
223.4	-20
223.635	-20
223.869	-27
224.104	-9
224.338	-15
224.573	-5
224.808	-12
225.042	-7
225.277	-10
225.511	-8
225.746	16
225.98	7
226.215	0
226.449	18
226.683	10
226.918	27
227.152	35
227.387	41
227.621	38
227.856	52
228.09	50
228.324	68
228.559	47
228.793	63
229.027	69
229.262	71
229.496	74
229.73	94
229.964	85
230.199	72
230.433	101
230.667	87
230.901	81
231.136	87
231.37	87
231.604	76
231.838	88
232.072	95
232.306	80
232.541	78
232.775	96
233.009	83
233.243	79
233.477	87
233.711	96
233.945	83
234.179	86
234.413	88
234.647	85
234.881	65
235.115	84
235.349	78
235.583	79
235.817	82
236.051	86
236.285	72
236.519	85
236.753	73
236.987	85
237.221	88
237.455	85
237.689	85
237.922	92
238.156	75
238.39	75
238.624	76
238.858	79
239.091	77
239.325	95
239.559	80
239.793	88
240.027	85
240.26	99
240.494	89
240.728	83
240.961	81
241.195	90
241.429	85
241.662	86
241.896	71
242.13	79
242.363	72
242.597	76
242.83	89
243.064	86
243.298	83
243.531	90
243.765	77
243.998	86
244.232	88
244.465	67
244.699	99
244.932	92
245.166	93
245.399	88
245.633	85
245.866	70
246.099	75
246.333	83
246.566	91
246.8	81
247.033	80
247.266	90
247.5	94
247.733	82
247.966	89
248.2	81
248.433	84
248.666	82
248.899	81
249.133	102
249.366	104
249.599	89
249.832	88
250.066	90
250.299	74
250.532	90
250.765	92
250.998	90
251.231	93
251.465	85
251.698	93
251.931	87
252.164	90
252.397	78
252.63	90
252.863	74
253.096	76
253.329	86
253.562	84
253.795	84
254.028	74
254.261	91
254.494	80
254.727	88
254.96	85
255.193	86
255.426	94
255.659	70
255.892	85
256.124	72
256.357	86
256.59	76
256.823	93
257.056	101
257.289	89
257.521	92
257.754	95
257.987	97
258.22	93
258.452	82
258.685	87
258.918	92
259.151	75
259.383	95
259.616	69
259.849	93
260.081	86
260.314	100
260.547	91
260.779	80
261.012	88
261.244	86
261.477	86
261.71	91
261.942	116
262.175	125
262.407	87
262.64	80
262.872	91
263.105	77
263.337	83
263.57	84
263.802	92
264.035	82
264.267	77
264.499	85
264.732	85
264.964	84
265.197	70
265.429	94
265.661	88
265.894	87
266.126	89
266.358	86
266.591	86
266.823	80
267.055	80
267.287	90
267.52	92
267.752	81
267.984	93
268.216	86
268.448	74
268.681	92
268.913	97
269.145	97
269.377	104
269.609	88
269.841	90
270.073	101
270.306	83
270.538	88
270.77	98
271.002	81
271.234	100
271.466	101
271.698	87
271.93	89
272.162	103
272.394	83
272.626	96
272.858	83
273.09	95
273.322	94
273.553	87
273.785	86
274.017	86
274.249	96
274.481	84
274.713	85
274.945	78
275.176	88
275.408	91
275.64	93
275.872	99
276.104	88
276.335	95
276.567	91
276.799	103
277.031	91
277.262	90
277.494	89
277.726	89
277.957	92
278.189	83
278.421	82
278.652	93
278.884	80
279.115	89
279.347	91
279.579	92
279.81	95
280.042	79
280.273	90
280.505	88
280.736	93
280.968	88
281.199	75
281.431	97
281.662	98
281.894	101
282.125	88
282.356	109
282.588	141
282.819	124
283.051	103
283.282	89
283.513	109
283.745	92
283.976	90
284.207	92
284.439	100
284.67	100
284.901	92
285.132	99
285.364	84
285.595	95
285.826	87
286.057	84
286.288	87
286.52	77
286.751	99
286.982	84
287.213	96
287.444	100
287.675	104
287.906	100
288.138	100
288.369	94
288.6	96
288.831	99
289.062	85
289.293	100
289.524	101
289.755	86
289.986	99
290.217	91
290.448	82
290.679	87
290.91	84
291.141	96
291.371	85
291.602	104
291.833	94
292.064	91
292.295	88
292.526	89
292.757	94
292.987	88
293.218	88
293.449	102
293.68	99
293.91	96
294.141	97
294.372	89
294.603	103
294.833	90
295.064	76
295.295	104
295.525	95
295.756	93
295.987	110
296.217	151
296.448	134
296.679	93
296.909	95
297.14	112
297.37	104
297.601	83
297.831	81
298.062	95
298.292	88
298.523	101
298.753	104
298.984	96
299.214	98
299.445	108
299.675	87
299.905	109
300.136	97
300.366	96
300.597	88
300.827	101
301.057	103
301.288	106
301.518	90
301.748	83
301.979	100
302.209	83
302.439	101
302.669	88
302.9	95
303.13	83
303.36	94
303.59	90
303.82	110
304.051	102
304.281	86
304.511	90
304.741	81
304.971	84
305.201	94
305.431	97
305.661	95
305.891	83
306.121	87
306.352	97
306.582	102
306.812	93
307.042	93
307.272	104
307.502	96
307.731	110
307.961	101
308.191	97
308.421	95
308.651	94
308.881	91
309.111	97
309.341	97
309.571	100
309.8	105
310.03	108
310.26	96
310.49	72
310.72	108
310.949	92
311.179	105
311.409	104
311.639	107
311.868	91
312.098	105
312.328	96
312.557	95
312.787	107
313.017	106
313.246	98
313.476	95
313.706	89
313.935	95
314.165	113
314.394	98
314.624	86
314.853	88
315.083	96
315.312	113
315.542	103
315.771	96
316.001	95
316.23	81
316.46	98
316.689	77
316.919	91
317.148	108
317.377	90
317.607	95
317.836	90
318.065	86
318.295	93
318.524	98
318.753	94
318.983	87
319.212	99
319.441	112
319.67	113
319.9	92
320.129	96
320.358	85
320.587	113
320.816	98
321.046	81
321.275	91
321.504	112
321.733	92
321.962	112
322.191	104
322.42	127
322.649	100
322.878	121
323.108	115
323.337	121
323.566	142
323.795	164
324.024	214
324.253	408
324.482	793
324.71	1555
324.939	2039
325.168	753
325.397	240
325.626	144
325.855	124
326.084	126
326.313	126
326.542	164
326.77	241
326.999	435
327.228	887
327.457	1538
327.686	1196
327.914	354
328.143	184
328.372	151
328.6	112
328.829	115
329.058	155
329.287	132
329.515	110
329.744	106
329.972	103
330.201	100
330.43	106
330.658	122
330.887	150
331.115	128
331.344	97
331.572	90
331.801	113
332.03	88
332.258	89
332.486	104
332.715	92
332.943	91
333.172	96
333.4	93
333.629	108
333.857	109
334.085	109
334.314	102
334.542	99
334.771	107
334.999	102
335.227	96
335.455	99
335.684	101
335.912	101
336.14	105
336.369	101
336.597	102
336.825	102
337.053	107
337.281	94
337.51	90
337.738	96
337.966	111
338.194	101
338.422	102
338.65	106
338.878	98
339.106	85
339.334	80
339.562	91
339.79	88
340.018	104
340.246	91
340.474	94
340.702	91
340.93	98
341.158	91
341.386	104
341.614	112
341.842	103
342.07	103
342.298	100
342.526	93
342.754	94
342.981	91
343.209	90
343.437	110
343.665	83
343.893	97
344.12	111
344.348	96
344.576	92
344.804	98
345.031	100
345.259	88
345.487	98
345.714	89
345.942	92
346.17	95
346.397	104
346.625	97
346.853	92
347.08	102
347.308	103
347.535	106
347.763	103
347.99	91
348.218	95
348.445	115
348.673	91
348.9	86
349.128	99
349.355	109
349.583	92
349.81	100
350.037	123
350.265	105
350.492	88
350.72	92
350.947	89
351.174	100
351.402	113
351.629	94
351.856	99
352.083	107
352.311	85
352.538	110
352.765	111
352.992	120
353.22	118
353.447	112
353.674	91
353.901	116
354.128	89
354.355	104
354.583	103
354.81	103
355.037	113
355.264	98
355.491	108
355.718	103
355.945	116
356.172	96
356.399	101
356.626	84
356.853	90
357.08	83
357.307	95
357.534	91
357.761	114
357.988	113
358.215	95
358.441	85
358.668	95
358.895	90
359.122	92
359.349	75
359.576	101
359.802	99
360.029	107
360.256	123
360.483	104
360.709	99
360.936	97
361.163	112
361.39	110
361.616	99
361.843	103
362.07	93
362.296	95
362.523	100
362.749	106
362.976	87
363.203	100
363.429	69
363.656	86
363.882	107
364.109	97
364.335	103
364.562	92
364.788	90
365.015	91
365.241	101
365.468	119
365.694	96
365.92	103
366.147	87
366.373	97
366.599	99
366.826	94
367.052	99
367.278	96
367.505	88
367.731	83
367.957	91
368.184	84
368.41	97
368.636	113
368.862	117
369.089	127
369.315	95
369.541	105
369.767	88
369.993	114
370.219	88
370.445	90
370.672	86
370.898	99
371.124	96
371.35	86
371.576	85
371.802	95
372.028	99
372.254	79
372.48	88
372.706	95
372.932	94
373.158	85
373.384	96
373.61	103
373.835	98
374.061	93
374.287	101
374.513	107
374.739	84
374.965	88
375.191	100
375.416	91
375.642	78
375.868	79
376.094	95
376.319	94
376.545	98
376.771	97
376.997	91
377.222	83
377.448	91
377.674	95
377.899	96
378.125	81
378.35	87
378.576	90
378.802	93
379.027	100
379.253	100
379.478	90
379.704	96
379.929	104
380.155	80
380.38	92
380.606	88
380.831	96
381.057	103
381.282	93
381.507	100
381.733	92
381.958	87
382.184	86
382.409	103
382.634	103
382.86	97
383.085	101
383.31	95
383.535	103
383.761	91
383.986	90
384.211	89
384.436	102
384.662	93
384.887	94
385.112	119
385.337	88
385.562	103
385.787	106
386.013	110
386.238	116
386.463	101
386.688	94
386.913	101
387.138	90
387.363	91
387.588	108
387.813	96
388.038	107
388.263	111
388.488	108
388.713	100
388.938	88
389.163	86
389.387	83
389.612	83
389.837	100
390.062	92
390.287	83
390.512	103
390.736	87
390.961	95
391.186	88
391.411	103
391.636	78
391.86	93
392.085	101
392.31	96
392.534	95
392.759	97
392.984	102
393.208	87
393.433	94
393.658	75
393.882	84
394.107	72
394.331	92
394.556	99
394.78	97
395.005	85
395.229	83
395.454	93
395.678	99
395.903	86
396.127	96
396.352	93
396.576	80
396.801	96
397.025	96
397.249	111
397.474	88
397.698	87
397.922	79
398.147	88
398.371	87
398.595	87
398.82	99
399.044	93
399.268	97
399.492	86
399.717	89
399.941	95
400.165	97
400.389	96
400.613	98
400.837	100
401.062	95
401.286	91
401.51	82
401.734	82
401.958	104
402.182	134
402.406	185
402.63	134
402.854	97
403.078	94
403.302	88
403.526	93
403.75	102
403.974	92
404.198	96
404.422	92
404.645	84
404.869	89
405.093	98
405.317	95
405.541	87
405.765	101
405.988	125
406.212	187
406.436	243
406.66	151
406.883	110
407.107	97
407.331	96
407.555	90
407.778	90
408.002	108
408.226	101
408.449	83
408.673	90
408.896	92
409.12	107
409.344	86
409.567	90
409.791	96
410.014	97
410.238	94
410.461	89
410.685	93
410.908	86
411.132	95
411.355	95
411.578	96
411.802	92
412.025	84
412.249	85
412.472	99
412.695	106
412.919	87
413.142	83
413.365	89
413.589	97
413.812	92
414.035	91
414.258	97
414.482	101
414.705	102
414.928	81
415.151	92
415.374	96
415.597	98
415.821	96
416.044	97
416.267	84
416.49	104
416.713	91
416.936	93
417.159	80
417.382	92
417.605	99
417.828	89
418.051	97
418.274	95
418.497	91
418.72	97
418.943	97
419.166	97
419.389	91
419.611	90
419.834	81
420.057	90
420.28	89
420.503	99
420.726	89
420.948	93
421.171	100
421.394	91
421.617	79
421.839	93
422.062	90
422.285	89
422.507	105
422.73	106
422.953	95
423.175	109
423.398	92
423.621	90
423.843	82
424.066	103
424.288	107
424.511	77
424.733	98
424.956	116
425.178	104
425.401	105
425.623	100
425.846	89
426.068	106
426.291	85
426.513	97
426.735	84
426.958	101
427.18	110
427.402	145
427.625	174
427.847	118
428.069	117
428.292	83
428.514	97
428.736	95
428.958	96
429.181	91
429.403	97
429.625	92
429.847	106
430.069	97
430.292	87
430.514	93
430.736	91
430.958	84
431.18	91
431.402	92
431.624	95
431.846	89
432.068	88
432.29	92
432.512	74
432.734	92
432.956	96
433.178	106
433.4	85
433.622	99
433.844	97
434.066	90
434.287	94
434.509	92
434.731	96
434.953	83
435.175	80
435.397	98
435.618	98
435.84	99
436.062	125
436.284	90
436.505	103
436.727	104
436.949	95
437.17	95
437.392	93
437.614	96
437.835	112
438.057	124
438.278	126
438.5	111
438.721	110
438.943	97
439.165	97
439.386	92
439.608	82
439.829	103
440.05	104
440.272	140
440.493	102
440.715	88
440.936	93
441.158	95
441.379	80
441.6	82
441.822	97
442.043	104
442.264	111
442.486	117
442.707	104
442.928	109
443.149	143
443.371	132
443.592	103
443.813	123
444.034	112
444.255	92
444.476	81
444.698	96
444.919	104
445.14	142
445.361	125
445.582	123
445.803	143
446.024	133
446.245	145
446.466	108
446.687	105
446.908	87
447.129	91
447.35	90
447.571	92
447.792	100
448.013	107
448.234	112
448.455	104
448.675	115
448.896	120
449.117	115
449.338	95
449.559	126
449.779	125
450	106
450.221	85
450.442	110
450.662	95
450.883	105
451.104	115
451.324	97
451.545	89
451.766	92
451.986	97
452.207	106
452.428	87
452.648	88
452.869	115
453.089	125
453.31	135
453.53	103
453.751	83
453.971	97
454.192	109
454.412	105
454.633	87
454.853	83
455.073	95
455.294	100
455.514	86
455.734	96
455.955	85
456.175	79
456.395	76
456.616	101
456.836	89
457.056	94
457.276	98
457.497	88
457.717	83
457.937	97
458.157	89
458.377	92
458.598	115
458.818	172
459.038	157
459.258	115
459.478	87
459.698	96
459.918	89
460.138	75
460.358	77
460.578	88
460.798	96
461.018	90
461.238	86
461.458	104
461.678	82
461.898	86
462.118	81
462.338	97
462.558	90
462.777	87
462.997	74
463.217	89
463.437	77
463.657	86
463.876	85
464.096	80
464.316	93
464.536	94
464.755	101
464.975	110
465.195	191
465.414	167
465.634	95
465.854	94
466.073	92
466.293	84
466.512	87
466.732	94
466.951	96
467.171	85
467.391	96
467.61	116
467.829	105
468.049	88
468.268	91
468.488	83
468.707	89
468.927	85
469.146	100
469.365	93
469.585	86
469.804	109
470.023	114
470.243	106
470.462	120
470.681	119
470.901	77
471.12	89
471.339	99
471.558	94
471.777	84
471.997	96
472.216	90
472.435	97
472.654	86
472.873	84
473.092	100
473.311	90
473.53	95
473.749	91
473.968	99
474.187	99
474.406	95
474.625	100
474.844	99
475.063	87
475.282	87
475.501	96
475.72	81
475.939	94
476.158	92
476.377	91
476.596	73
476.814	93
477.033	104
477.252	98
477.471	100
477.69	87
477.908	92
478.127	96
478.346	85
478.564	87
478.783	95
479.002	124
479.22	97
479.439	116
479.658	113
479.876	103
480.095	112
480.313	96
480.532	105
480.751	93
480.969	85
481.188	97
481.406	92
481.624	76
481.843	87
482.061	110
482.28	83
482.498	87
482.717	94
482.935	101
483.153	87
483.372	91
483.59	92
483.808	103
484.027	94
484.245	103
484.463	101
484.681	97
484.9	89
485.118	97
485.336	112
485.554	100
485.772	101
485.99	114
486.209	86
486.427	91
486.645	105
486.863	96
487.081	101
487.299	114
487.517	94
487.735	107
487.953	107
488.171	86
488.389	79
488.607	95
488.825	90
489.043	92
489.261	89
489.479	81
489.696	87
489.914	92
490.132	89
490.35	97
490.568	94
490.786	86
491.003	85
491.221	97
491.439	93
491.657	101
491.874	111
492.092	113
492.31	84
492.527	81
492.745	101
492.963	103
493.18	85
493.398	104
493.615	91
493.833	90
494.05	110
494.268	103
494.485	104
494.703	97
494.92	80
495.138	86
495.355	87
495.573	85
495.79	97
496.008	101
496.225	86
496.442	87
496.66	94
496.877	92
497.094	111
497.312	101
497.529	93
497.746	76
497.963	87
498.181	86
498.398	97
498.615	118
498.832	101
499.049	77
499.267	80
499.484	104
499.701	82
499.918	111
500.135	88
500.352	88
500.569	100
500.786	96
501.003	93
501.22	87
501.437	75
501.654	99
501.871	110
502.088	103
502.305	91
502.522	85
502.739	100
502.956	85
503.172	93
503.389	115
503.606	114
503.823	93
504.04	86
504.256	92
504.473	90
504.69	89
504.907	100
505.123	103
505.34	87
505.557	90
505.773	67
505.99	88
506.207	92
506.423	107
506.64	106
506.856	94
507.073	94
507.289	103
507.506	109
507.722	120
507.939	124
508.155	95
508.372	93
508.588	94
508.805	112
509.021	105
509.238	106
509.454	107
509.67	103
509.887	116
510.103	151
510.319	239
510.536	894
510.752	2711
510.968	754
511.184	193
511.401	120
511.617	106
511.833	101
512.049	91
512.265	93
512.481	94
512.698	95
512.914	105
513.13	105
513.346	97
513.562	85
513.778	97
513.994	93
514.21	109
514.426	127
514.642	134
514.858	130
515.074	179
515.29	541
515.506	1787
515.721	636
515.937	155
516.153	110
516.369	99
516.585	101
516.801	107
517.016	83
517.232	111
517.448	99
517.664	82
517.879	111
518.095	86
518.311	108
518.527	88
518.742	93
518.958	101
519.173	96
519.389	112
519.605	93
519.82	119
520.036	114
520.251	124
520.467	126
520.682	112
520.898	120
521.113	135
521.329	133
521.544	239
521.76	662
521.975	2971
522.19	1776
522.406	365
522.621	135
522.836	108
523.052	103
523.267	116
523.482	103
523.698	113
523.913	120
524.128	89
524.343	98
524.559	107
524.774	100
524.989	102
525.204	113
525.419	104
525.634	99
525.849	85
526.064	94
526.28	92
526.495	97
526.71	85
526.925	96
527.14	88
527.355	93
527.57	88
527.785	101
527.999	101
528.214	104
528.429	96
528.644	97
528.859	93
529.074	95
529.289	123
529.503	186
529.718	117
529.933	82
530.148	103
530.363	106
530.577	91
530.792	94
531.007	87
531.221	107
531.436	100
531.651	96
531.865	94
532.08	86
532.295	97
532.509	94
532.724	89
532.938	96
533.153	95
533.367	104
533.582	111
533.796	102
534.011	93
534.225	100
534.44	86
534.654	75
534.868	97
535.083	94
535.297	96
535.511	110
535.726	120
535.94	103
536.154	93
536.369	86
536.583	93
536.797	89
537.011	83
537.225	93
537.44	78
537.654	88
537.868	87
538.082	86
538.296	90
538.51	83
538.724	86
538.938	99
539.153	97
539.367	111
539.581	113
539.795	97
540.009	102
540.222	97
540.436	87
540.65	99
540.864	95
541.078	101
541.292	96
541.506	95
541.72	94
541.934	91
542.147	87
542.361	84
542.575	73
542.789	94
543.002	96
543.216	105
543.43	109
543.644	88
543.857	101
544.071	104
544.285	101
544.498	98
544.712	96
544.925	85
545.139	96
545.352	86
545.566	101
545.779	92
545.993	104
546.206	90
546.42	97
546.633	97
546.847	110
547.06	89
547.274	101
547.487	79
547.7	97
547.914	103
548.127	88
548.34	91
548.554	92
548.767	95
548.98	95
549.193	76
549.407	92
549.62	87
549.833	99
550.046	94
550.259	93
550.473	86
550.686	105
550.899	93
551.112	94
551.325	100
551.538	98
551.751	93
551.964	84
552.177	96
552.39	105
552.603	92
552.816	108
553.029	83
553.242	95
553.455	94
553.667	107
553.88	110
554.093	107
554.306	87
554.519	87
554.732	97
554.944	80
555.157	101
555.37	85
555.583	95
555.795	106
556.008	95
556.221	98
556.433	109
556.646	94
556.859	96
557.071	104
557.284	100
557.496	102
557.709	96
557.921	101
558.134	87
558.346	86
558.559	79
558.771	93
558.984	100
559.196	91
559.409	92
559.621	87
559.833	93
560.046	86
560.258	93
560.47	91
560.683	80
560.895	96
561.107	80
561.32	80
561.532	79
561.744	87
561.956	109
562.168	95
562.381	96
562.593	97
562.805	101
563.017	91
563.229	84
563.441	101
563.653	106
563.865	81
564.077	87
564.289	93
564.501	98
564.713	96
564.925	98
565.137	105
565.349	102
565.561	96
565.773	97
565.985	95
566.197	92
566.408	96
566.62	86
566.832	92
567.044	88
567.255	84
567.467	91
567.679	91
567.891	93
568.102	107
568.314	90
568.526	79
568.737	93
568.949	92
569.161	97
569.372	101
569.584	96
569.795	93
570.007	115
570.218	279
570.43	143
570.641	83
570.853	89
571.064	75
571.276	96
571.487	86
571.698	95
571.91	85
572.121	94
572.333	89
572.544	87
572.755	109
572.966	90
573.178	91
573.389	99
573.6	87
573.811	99
574.023	92
574.234	88
574.445	78
574.656	97
574.867	77
575.078	101
575.289	83
575.501	86
575.712	84
575.923	89
576.134	84
576.345	87
576.556	89
576.767	95
576.978	92
577.188	108
577.399	85
577.61	91
577.821	106
578.032	125
578.243	312
578.454	935
578.665	249
578.875	111
579.086	89
579.297	91
579.508	92
579.718	97
579.929	88
580.14	82
580.35	100
580.561	86
580.772	89
580.982	99
581.193	90
581.403	86
581.614	91
581.825	88
