Data from Uncirc_2001_H10_HRD10591_00026.txt Node
Date: Wed Jan 03 10:44:02 EST 2024
User: Yrep
Spectrometer: HR+D1059
Trigger mode: 1
Integration Time (sec): 1.000000E-1
Scans to average: 1
Electric dark correction enabled: true
Nonlinearity correction enabled: false
Boxcar width: 0
XAxis mode: Wavelengths
Number of Pixels in Spectrum: 2048
>>>>>Begin Spectral Data<<<<<
223.165	-21.81
223.4	-21.81
223.635	-21.81
223.869	-8.81
224.104	-17.81
224.338	-1.81
224.573	-19.81
224.808	-19.81
225.042	2.19
225.277	0.19
225.511	-8.81
225.746	14.19
225.98	11.19
226.215	8.19
226.449	15.19
226.683	14.19
226.918	15.19
227.152	18.19
227.387	45.19
227.621	27.19
227.856	55.19
228.09	39.19
228.324	52.19
228.559	66.19
228.793	66.19
229.027	67.19
229.262	74.19
229.496	61.19
229.73	78.19
229.964	73.19
230.199	81.19
230.433	61.19
230.667	65.19
230.901	73.19
231.136	86.19
231.37	95.19
231.604	74.19
231.838	84.19
232.072	76.19
232.306	77.19
232.541	88.19
232.775	75.19
233.009	89.19
233.243	77.19
233.477	72.19
233.711	78.19
233.945	81.19
234.179	101.19
234.413	84.19
234.647	84.19
234.881	89.19
235.115	83.19
235.349	85.19
235.583	79.19
235.817	76.19
236.051	76.19
236.285	78.19
236.519	69.19
236.753	77.19
236.987	81.19
237.221	101.19
237.455	94.19
237.689	69.19
237.922	93.19
238.156	77.19
238.39	65.19
238.624	64.19
238.858	69.19
239.091	68.19
239.325	81.19
239.559	85.19
239.793	76.19
240.027	76.19
240.26	82.19
240.494	85.19
240.728	77.19
240.961	93.19
241.195	67.19
241.429	73.19
241.662	71.19
241.896	73.19
242.13	88.19
242.363	72.19
242.597	82.19
242.83	92.19
243.064	64.19
243.298	64.19
243.531	91.19
243.765	81.19
243.998	90.19
244.232	80.19
244.465	82.19
244.699	90.19
244.932	81.19
245.166	73.19
245.399	84.19
245.633	88.19
245.866	87.19
246.099	81.19
246.333	80.19
246.566	71.19
246.8	74.19
247.033	74.19
247.266	89.19
247.5	74.19
247.733	82.19
247.966	77.19
248.2	73.19
248.433	87.19
248.666	86.19
248.899	80.19
249.133	88.19
249.366	105.19
249.599	100.19
249.832	87.19
250.066	75.19
250.299	87.19
250.532	83.19
250.765	81.19
250.998	90.19
251.231	72.19
251.465	82.19
251.698	92.19
251.931	79.19
252.164	75.19
252.397	90.19
252.63	74.19
252.863	77.19
253.096	88.19
253.329	88.19
253.562	87.19
253.795	72.19
254.028	73.19
254.261	81.19
254.494	85.19
254.727	80.19
254.96	78.19
255.193	92.19
255.426	82.19
255.659	73.19
255.892	80.19
256.124	87.19
256.357	98.19
256.59	91.19
256.823	90.19
257.056	88.19
257.289	82.19
257.521	88.19
257.754	82.19
257.987	82.19
258.22	90.19
258.452	76.19
258.685	90.19
258.918	92.19
259.151	76.19
259.383	89.19
259.616	81.19
259.849	80.19
260.081	83.19
260.314	94.19
260.547	77.19
260.779	93.19
261.012	74.19
261.244	80.19
261.477	83.19
261.71	103.19
261.942	98.19
262.175	109.19
262.407	100.19
262.64	83.19
262.872	88.19
263.105	78.19
263.337	88.19
263.57	85.19
263.802	96.19
264.035	86.19
264.267	94.19
264.499	98.19
264.732	85.19
264.964	81.19
265.197	84.19
265.429	98.19
265.661	72.19
265.894	90.19
266.126	83.19
266.358	85.19
266.591	91.19
266.823	75.19
267.055	60.19
267.287	88.19
267.52	77.19
267.752	96.19
267.984	80.19
268.216	84.19
268.448	84.19
268.681	81.19
268.913	90.19
269.145	89.19
269.377	94.19
269.609	93.19
269.841	86.19
270.073	80.19
270.306	82.19
270.538	81.19
270.77	105.19
271.002	88.19
271.234	96.19
271.466	92.19
271.698	74.19
271.93	98.19
272.162	91.19
272.394	76.19
272.626	64.19
272.858	91.19
273.09	88.19
273.322	85.19
273.553	72.19
273.785	77.19
274.017	81.19
274.249	97.19
274.481	86.19
274.713	75.19
274.945	82.19
275.176	89.19
275.408	79.19
275.64	80.19
275.872	83.19
276.104	88.19
276.335	92.19
276.567	80.19
276.799	109.19
277.031	102.19
277.262	101.19
277.494	89.19
277.726	91.19
277.957	80.19
278.189	105.19
278.421	88.19
278.652	84.19
278.884	82.19
279.115	93.19
279.347	97.19
279.579	85.19
279.81	89.19
280.042	70.19
280.273	81.19
280.505	85.19
280.736	85.19
280.968	87.19
281.199	91.19
281.431	85.19
281.662	82.19
281.894	88.19
282.125	95.19
282.356	105.19
282.588	129.19
282.819	110.19
283.051	99.19
283.282	97.19
283.513	87.19
283.745	89.19
283.976	83.19
284.207	92.19
284.439	89.19
284.67	72.19
284.901	104.19
285.132	85.19
285.364	76.19
285.595	82.19
285.826	94.19
286.057	87.19
286.288	73.19
286.52	96.19
286.751	83.19
286.982	94.19
287.213	85.19
287.444	70.19
287.675	83.19
287.906	78.19
288.138	92.19
288.369	98.19
288.6	91.19
288.831	81.19
289.062	87.19
289.293	90.19
289.524	92.19
289.755	85.19
289.986	85.19
290.217	88.19
290.448	90.19
290.679	85.19
290.91	83.19
291.141	89.19
291.371	100.19
291.602	92.19
291.833	85.19
292.064	83.19
292.295	89.19
292.526	86.19
292.757	88.19
292.987	101.19
293.218	96.19
293.449	86.19
293.68	83.19
293.91	81.19
294.141	98.19
294.372	91.19
294.603	104.19
294.833	106.19
295.064	80.19
295.295	91.19
295.525	89.19
295.756	109.19
295.987	119.19
296.217	128.19
296.448	117.19
296.679	72.19
296.909	94.19
297.14	99.19
297.37	82.19
297.601	90.19
297.831	89.19
298.062	105.19
298.292	95.19
298.523	89.19
298.753	88.19
298.984	80.19
299.214	91.19
299.445	75.19
299.675	80.19
299.905	90.19
300.136	89.19
300.366	98.19
300.597	91.19
300.827	85.19
301.057	93.19
301.288	108.19
301.518	101.19
301.748	82.19
301.979	101.19
302.209	81.19
302.439	90.19
302.669	97.19
302.9	94.19
303.13	94.19
303.36	76.19
303.59	100.19
303.82	92.19
304.051	86.19
304.281	89.19
304.511	86.19
304.741	88.19
304.971	75.19
305.201	102.19
305.431	102.19
305.661	82.19
305.891	82.19
306.121	100.19
306.352	91.19
306.582	116.19
306.812	97.19
307.042	93.19
307.272	89.19
307.502	88.19
307.731	82.19
307.961	68.19
308.191	82.19
308.421	96.19
308.651	74.19
308.881	110.19
309.111	82.19
309.341	104.19
309.571	97.19
309.8	80.19
310.03	91.19
310.26	99.19
310.49	87.19
310.72	83.19
310.949	111.19
311.179	101.19
311.409	106.19
311.639	107.19
311.868	106.19
312.098	96.19
312.328	96.19
312.557	111.19
312.787	103.19
313.017	106.19
313.246	88.19
313.476	80.19
313.706	99.19
313.935	102.19
314.165	107.19
314.394	107.19
314.624	100.19
314.853	104.19
315.083	96.19
315.312	83.19
315.542	84.19
315.771	98.19
316.001	88.19
316.23	92.19
316.46	84.19
316.689	111.19
316.919	86.19
317.148	97.19
317.377	111.19
317.607	92.19
317.836	89.19
318.065	95.19
318.295	102.19
318.524	83.19
318.753	101.19
318.983	85.19
319.212	93.19
319.441	109.19
319.67	104.19
319.9	109.19
320.129	106.19
320.358	98.19
320.587	79.19
320.816	88.19
321.046	104.19
321.275	103.19
321.504	89.19
321.733	103.19
321.962	98.19
322.191	107.19
322.42	91.19
322.649	110.19
322.878	108.19
323.108	122.19
323.337	123.19
323.566	147.19
323.795	160.19
324.024	197.19
324.253	385.19
324.482	767.19
324.71	1534.19
324.939	1949.19
325.168	725.19
325.397	227.19
325.626	145.19
325.855	122.19
326.084	123.19
326.313	125.19
326.542	161.19
326.77	223.19
326.999	429.19
327.228	840.19
327.457	1515.19
327.686	1168.19
327.914	342.19
328.143	178.19
328.372	134.19
328.6	127.19
328.829	123.19
329.058	132.19
329.287	136.19
329.515	90.19
329.744	114.19
329.972	97.19
330.201	88.19
330.43	106.19
330.658	135.19
330.887	141.19
331.115	135.19
331.344	94.19
331.572	105.19
331.801	107.19
332.03	105.19
332.258	106.19
332.486	98.19
332.715	83.19
332.943	100.19
333.172	84.19
333.4	94.19
333.629	94.19
333.857	112.19
334.085	101.19
334.314	110.19
334.542	105.19
334.771	107.19
334.999	101.19
335.227	105.19
335.455	80.19
335.684	88.19
335.912	84.19
336.14	98.19
336.369	112.19
336.597	91.19
336.825	91.19
337.053	91.19
337.281	97.19
337.51	84.19
337.738	86.19
337.966	80.19
338.194	108.19
338.422	90.19
338.65	105.19
338.878	103.19
339.106	90.19
339.334	88.19
339.562	86.19
339.79	110.19
340.018	96.19
340.246	87.19
340.474	97.19
340.702	113.19
340.93	94.19
341.158	97.19
341.386	112.19
341.614	95.19
341.842	106.19
342.07	101.19
342.298	77.19
342.526	92.19
342.754	93.19
342.981	85.19
343.209	82.19
343.437	87.19
343.665	100.19
343.893	93.19
344.12	98.19
344.348	88.19
344.576	92.19
344.804	88.19
345.031	95.19
345.259	98.19
345.487	110.19
345.714	92.19
345.942	100.19
346.17	84.19
346.397	82.19
346.625	101.19
346.853	100.19
347.08	89.19
347.308	88.19
347.535	86.19
347.763	111.19
347.99	93.19
348.218	92.19
348.445	104.19
348.673	101.19
348.9	93.19
349.128	91.19
349.355	86.19
349.583	95.19
349.81	89.19
350.037	87.19
350.265	92.19
350.492	104.19
350.72	82.19
350.947	97.19
351.174	92.19
351.402	105.19
351.629	109.19
351.856	93.19
352.083	97.19
352.311	101.19
352.538	95.19
352.765	102.19
352.992	116.19
353.22	121.19
353.447	101.19
353.674	112.19
353.901	91.19
354.128	77.19
354.355	101.19
354.583	85.19
354.81	107.19
355.037	100.19
355.264	81.19
355.491	98.19
355.718	102.19
355.945	107.19
356.172	92.19
356.399	95.19
356.626	94.19
356.853	99.19
357.08	106.19
357.307	82.19
357.534	106.19
357.761	98.19
357.988	110.19
358.215	103.19
358.441	112.19
358.668	105.19
358.895	88.19
359.122	93.19
359.349	106.19
359.576	87.19
359.802	117.19
360.029	128.19
360.256	110.19
360.483	98.19
360.709	83.19
360.936	102.19
361.163	98.19
361.39	106.19
361.616	84.19
361.843	102.19
362.07	98.19
362.296	89.19
362.523	107.19
362.749	102.19
362.976	101.19
363.203	90.19
363.429	100.19
363.656	98.19
363.882	90.19
364.109	98.19
364.335	93.19
364.562	99.19
364.788	93.19
365.015	98.19
365.241	101.19
365.468	103.19
365.694	106.19
365.92	101.19
366.147	94.19
366.373	86.19
366.599	92.19
366.826	90.19
367.052	85.19
367.278	94.19
367.505	90.19
367.731	90.19
367.957	95.19
368.184	110.19
368.41	117.19
368.636	110.19
368.862	119.19
369.089	103.19
369.315	94.19
369.541	90.19
369.767	81.19
369.993	84.19
370.219	79.19
370.445	83.19
370.672	94.19
370.898	106.19
371.124	87.19
371.35	103.19
371.576	89.19
371.802	79.19
372.028	84.19
372.254	104.19
372.48	78.19
372.706	89.19
372.932	88.19
373.158	95.19
373.384	73.19
373.61	92.19
373.835	91.19
374.061	106.19
374.287	89.19
374.513	96.19
374.739	76.19
374.965	90.19
375.191	82.19
375.416	94.19
375.642	111.19
375.868	87.19
376.094	97.19
376.319	86.19
376.545	92.19
376.771	98.19
376.997	84.19
377.222	92.19
377.448	98.19
377.674	88.19
377.899	100.19
378.125	90.19
378.35	90.19
378.576	91.19
378.802	89.19
379.027	77.19
379.253	89.19
379.478	106.19
379.704	89.19
379.929	94.19
380.155	97.19
380.38	85.19
380.606	103.19
380.831	78.19
381.057	98.19
381.282	90.19
381.507	105.19
381.733	98.19
381.958	85.19
382.184	92.19
382.409	106.19
382.634	94.19
382.86	88.19
383.085	85.19
383.31	111.19
383.535	94.19
383.761	107.19
383.986	95.19
384.211	88.19
384.436	92.19
384.662	109.19
384.887	103.19
385.112	112.19
385.337	100.19
385.562	116.19
385.787	106.19
386.013	114.19
386.238	112.19
386.463	93.19
386.688	96.19
386.913	105.19
387.138	103.19
387.363	90.19
387.588	110.19
387.813	104.19
388.038	114.19
388.263	115.19
388.488	113.19
388.713	119.19
388.938	93.19
389.163	87.19
389.387	104.19
389.612	93.19
389.837	90.19
390.062	93.19
390.287	84.19
390.512	92.19
390.736	85.19
390.961	95.19
391.186	92.19
391.411	78.19
391.636	93.19
391.86	100.19
392.085	89.19
392.31	104.19
392.534	77.19
392.759	94.19
392.984	82.19
393.208	103.19
393.433	94.19
393.658	99.19
393.882	91.19
394.107	75.19
394.331	90.19
394.556	92.19
394.78	88.19
395.005	105.19
395.229	83.19
395.454	90.19
395.678	86.19
395.903	99.19
396.127	88.19
396.352	84.19
396.576	87.19
396.801	90.19
397.025	101.19
397.249	97.19
397.474	97.19
397.698	102.19
397.922	88.19
398.147	82.19
398.371	88.19
398.595	89.19
398.82	92.19
399.044	88.19
399.268	89.19
399.492	79.19
399.717	80.19
399.941	99.19
400.165	92.19
400.389	77.19
400.613	91.19
400.837	84.19
401.062	68.19
401.286	93.19
401.51	97.19
401.734	90.19
401.958	97.19
402.182	121.19
402.406	160.19
402.63	105.19
402.854	113.19
403.078	99.19
403.302	92.19
403.526	81.19
403.75	74.19
403.974	95.19
404.198	81.19
404.422	82.19
404.645	83.19
404.869	92.19
405.093	101.19
405.317	94.19
405.541	99.19
405.765	84.19
405.988	125.19
406.212	160.19
406.436	244.19
406.66	159.19
406.883	98.19
407.107	93.19
407.331	94.19
407.555	101.19
407.778	93.19
408.002	82.19
408.226	83.19
408.449	93.19
408.673	91.19
408.896	90.19
409.12	92.19
409.344	94.19
409.567	99.19
409.791	96.19
410.014	82.19
410.238	102.19
410.461	91.19
410.685	99.19
410.908	85.19
411.132	108.19
411.355	101.19
411.578	104.19
411.802	82.19
412.025	85.19
412.249	80.19
412.472	78.19
412.695	89.19
412.919	98.19
413.142	82.19
413.365	89.19
413.589	99.19
413.812	90.19
414.035	97.19
414.258	90.19
414.482	86.19
414.705	93.19
414.928	101.19
415.151	94.19
415.374	91.19
415.597	97.19
415.821	105.19
416.044	74.19
416.267	97.19
416.49	90.19
416.713	88.19
416.936	83.19
417.159	84.19
417.382	90.19
417.605	84.19
417.828	92.19
418.051	86.19
418.274	100.19
418.497	106.19
418.72	93.19
418.943	92.19
419.166	85.19
419.389	82.19
419.611	81.19
419.834	102.19
420.057	91.19
420.28	95.19
420.503	89.19
420.726	87.19
420.948	108.19
421.171	94.19
421.394	92.19
421.617	92.19
421.839	83.19
422.062	99.19
422.285	98.19
422.507	108.19
422.73	102.19
422.953	102.19
423.175	83.19
423.398	88.19
423.621	95.19
423.843	93.19
424.066	86.19
424.288	90.19
424.511	94.19
424.733	96.19
424.956	97.19
425.178	105.19
425.401	90.19
425.623	97.19
425.846	80.19
426.068	90.19
426.291	97.19
426.513	90.19
426.735	91.19
426.958	97.19
427.18	114.19
427.402	116.19
427.625	156.19
427.847	126.19
428.069	105.19
428.292	94.19
428.514	94.19
428.736	85.19
428.958	85.19
429.181	83.19
429.403	92.19
429.625	83.19
429.847	97.19
430.069	97.19
430.292	101.19
430.514	93.19
430.736	78.19
430.958	93.19
431.18	90.19
431.402	99.19
431.624	84.19
431.846	88.19
432.068	89.19
432.29	87.19
432.512	99.19
432.734	94.19
432.956	97.19
433.178	100.19
433.4	90.19
433.622	82.19
433.844	91.19
434.066	100.19
434.287	91.19
434.509	85.19
434.731	99.19
434.953	82.19
435.175	72.19
435.397	83.19
435.618	101.19
435.84	108.19
436.062	116.19
436.284	117.19
436.505	106.19
436.727	104.19
436.949	79.19
437.17	97.19
437.392	77.19
437.614	97.19
437.835	107.19
438.057	117.19
438.278	119.19
438.5	120.19
438.721	116.19
438.943	109.19
439.165	86.19
439.386	97.19
439.608	89.19
439.829	113.19
440.05	125.19
440.272	134.19
440.493	99.19
440.715	80.19
440.936	85.19
441.158	84.19
441.379	93.19
441.6	80.19
441.822	102.19
442.043	108.19
442.264	102.19
442.486	100.19
442.707	94.19
442.928	107.19
443.149	126.19
443.371	129.19
443.592	115.19
443.813	112.19
444.034	106.19
444.255	87.19
444.476	93.19
444.698	89.19
444.919	86.19
445.14	134.19
445.361	124.19
445.582	144.19
445.803	132.19
446.024	137.19
446.245	122.19
446.466	103.19
446.687	88.19
446.908	82.19
447.129	101.19
447.35	85.19
447.571	93.19
447.792	87.19
448.013	99.19
448.234	101.19
448.455	101.19
448.675	115.19
448.896	109.19
449.117	103.19
449.338	104.19
449.559	122.19
449.779	121.19
450	104.19
450.221	94.19
450.442	85.19
450.662	81.19
450.883	115.19
451.104	108.19
451.324	97.19
451.545	91.19
451.766	94.19
451.986	101.19
452.207	79.19
452.428	82.19
452.648	93.19
452.869	102.19
453.089	108.19
453.31	116.19
453.53	100.19
453.751	85.19
453.971	111.19
454.192	114.19
454.412	93.19
454.633	85.19
454.853	78.19
455.073	98.19
455.294	94.19
455.514	101.19
455.734	106.19
455.955	80.19
456.175	82.19
456.395	94.19
456.616	93.19
456.836	96.19
457.056	96.19
457.276	83.19
457.497	83.19
457.717	88.19
457.937	92.19
458.157	84.19
458.377	94.19
458.598	113.19
458.818	162.19
459.038	155.19
459.258	129.19
459.478	88.19
459.698	94.19
459.918	90.19
460.138	81.19
460.358	90.19
460.578	94.19
460.798	90.19
461.018	91.19
461.238	94.19
461.458	105.19
461.678	93.19
461.898	88.19
462.118	76.19
462.338	75.19
462.558	91.19
462.777	94.19
462.997	75.19
463.217	90.19
463.437	89.19
463.657	79.19
463.876	79.19
464.096	96.19
464.316	86.19
464.536	96.19
464.755	80.19
464.975	101.19
465.195	165.19
465.414	157.19
465.634	83.19
465.854	81.19
466.073	86.19
466.293	97.19
466.512	86.19
466.732	92.19
466.951	93.19
467.171	101.19
467.391	93.19
467.61	114.19
467.829	96.19
468.049	85.19
468.268	73.19
468.488	78.19
468.707	99.19
468.927	89.19
469.146	87.19
469.365	93.19
469.585	91.19
469.804	89.19
470.023	94.19
470.243	102.19
470.462	106.19
470.681	110.19
470.901	93.19
471.12	83.19
471.339	99.19
471.558	94.19
471.777	80.19
471.997	86.19
472.216	85.19
472.435	95.19
472.654	92.19
472.873	97.19
473.092	94.19
473.311	87.19
473.53	90.19
473.749	99.19
473.968	108.19
474.187	110.19
474.406	87.19
474.625	92.19
474.844	73.19
475.063	88.19
475.282	78.19
475.501	72.19
475.72	81.19
475.939	90.19
476.158	101.19
476.377	88.19
476.596	86.19
476.814	94.19
477.033	83.19
477.252	75.19
477.471	94.19
477.69	90.19
477.908	85.19
478.127	94.19
478.346	87.19
478.564	100.19
478.783	95.19
479.002	97.19
479.22	92.19
479.439	93.19
479.658	95.19
479.876	99.19
480.095	94.19
480.313	112.19
480.532	82.19
480.751	90.19
480.969	111.19
481.188	85.19
481.406	103.19
481.624	97.19
481.843	92.19
482.061	88.19
482.28	73.19
482.498	102.19
482.717	85.19
482.935	94.19
483.153	94.19
483.372	91.19
483.59	104.19
483.808	78.19
484.027	94.19
484.245	78.19
484.463	87.19
484.681	73.19
484.9	102.19
485.118	93.19
485.336	92.19
485.554	100.19
485.772	91.19
485.99	99.19
486.209	103.19
486.427	96.19
486.645	94.19
486.863	117.19
487.081	100.19
487.299	100.19
487.517	98.19
487.735	86.19
487.953	100.19
488.171	96.19
488.389	97.19
488.607	91.19
488.825	101.19
489.043	84.19
489.261	80.19
489.479	87.19
489.696	89.19
489.914	97.19
490.132	104.19
490.35	93.19
490.568	86.19
490.786	95.19
491.003	103.19
491.221	77.19
491.439	91.19
491.657	96.19
491.874	88.19
492.092	104.19
492.31	102.19
492.527	94.19
492.745	88.19
492.963	95.19
493.18	99.19
493.398	94.19
493.615	104.19
493.833	108.19
494.05	88.19
494.268	93.19
494.485	100.19
494.703	99.19
494.92	93.19
495.138	92.19
495.355	89.19
495.573	75.19
495.79	98.19
496.008	95.19
496.225	94.19
496.442	86.19
496.66	91.19
496.877	103.19
497.094	105.19
497.312	92.19
497.529	86.19
497.746	92.19
497.963	81.19
498.181	92.19
498.398	101.19
498.615	104.19
498.832	115.19
499.049	85.19
499.267	82.19
499.484	97.19
499.701	86.19
499.918	86.19
500.135	80.19
500.352	88.19
500.569	81.19
500.786	92.19
501.003	84.19
501.22	89.19
501.437	94.19
501.654	95.19
501.871	89.19
502.088	85.19
502.305	100.19
502.522	97.19
502.739	100.19
502.956	80.19
503.172	94.19
503.389	93.19
503.606	88.19
503.823	112.19
504.04	94.19
504.256	92.19
504.473	91.19
504.69	84.19
504.907	90.19
505.123	86.19
505.34	89.19
505.557	88.19
505.773	98.19
505.99	95.19
506.207	91.19
506.423	98.19
506.64	96.19
506.856	105.19
507.073	76.19
507.289	92.19
507.506	92.19
507.722	113.19
507.939	103.19
508.155	100.19
508.372	92.19
508.588	104.19
508.805	92.19
509.021	87.19
509.238	93.19
509.454	98.19
509.67	87.19
509.887	117.19
510.103	141.19
510.319	205.19
510.536	778.19
510.752	2344.19
510.968	640.19
511.184	138.19
511.401	111.19
511.617	101.19
511.833	90.19
512.049	112.19
512.265	103.19
512.481	86.19
512.698	96.19
512.914	97.19
513.13	79.19
513.346	93.19
513.562	88.19
513.778	92.19
513.994	105.19
514.21	100.19
514.426	128.19
514.642	144.19
514.858	128.19
515.074	158.19
