Data from Uncirc_2001_H10_HRD10591_00061.txt Node
Date: Wed Jan 03 10:44:09 EST 2024
User: Yrep
Spectrometer: HR+D1059
Trigger mode: 1
Integration Time (sec): 1.000000E-1
Scans to average: 1
Electric dark correction enabled: true
Nonlinearity correction enabled: false
Boxcar width: 0
XAxis mode: Wavelengths
Number of Pixels in Spectrum: 2048
>>>>>Begin Spectral Data<<<<<
223.165	-16.69
223.4	-16.69
223.635	-16.69
223.869	-15.69
224.104	-15.69
224.338	-8.69
224.573	-16.69
224.808	-3.69
225.042	-5.69
225.277	-12.69
225.511	-5.69
225.746	4.31
225.98	8.31
226.215	12.31
226.449	18.31
226.683	10.31
226.918	16.31
227.152	31.31
227.387	30.31
227.621	51.31
227.856	41.31
228.09	41.31
228.324	56.31
228.559	53.31
228.793	55.31
229.027	67.31
229.262	59.31
229.496	77.31
229.73	91.31
229.964	79.31
230.199	68.31
230.433	77.31
230.667	90.31
230.901	99.31
231.136	72.31
231.37	67.31
231.604	76.31
231.838	82.31
232.072	81.31
232.306	78.31
232.541	82.31
232.775	87.31
233.009	74.31
233.243	90.31
233.477	69.31
233.711	78.31
233.945	73.31
234.179	83.31
234.413	86.31
234.647	68.31
234.881	87.31
235.115	71.31
235.349	82.31
235.583	81.31
235.817	76.31
236.051	64.31
236.285	69.31
236.519	79.31
236.753	68.31
236.987	82.31
237.221	82.31
237.455	80.31
237.689	68.31
237.922	79.31
238.156	81.31
238.39	67.31
238.624	75.31
238.858	82.31
239.091	77.31
239.325	83.31
239.559	86.31
239.793	82.31
240.027	77.31
240.26	74.31
240.494	70.31
240.728	79.31
240.961	69.31
241.195	91.31
241.429	73.31
241.662	70.31
241.896	68.31
242.13	72.31
242.363	71.31
242.597	84.31
242.83	83.31
243.064	69.31
243.298	67.31
243.531	88.31
243.765	58.31
243.998	79.31
244.232	81.31
244.465	87.31
244.699	79.31
244.932	72.31
245.166	73.31
245.399	95.31
245.633	80.31
245.866	74.31
246.099	69.31
246.333	81.31
246.566	63.31
246.8	80.31
247.033	80.31
247.266	83.31
247.5	88.31
247.733	73.31
247.966	73.31
248.2	81.31
248.433	81.31
248.666	79.31
248.899	79.31
249.133	84.31
249.366	96.31
249.599	91.31
249.832	62.31
250.066	81.31
250.299	58.31
250.532	74.31
250.765	79.31
250.998	67.31
251.231	82.31
251.465	92.31
251.698	74.31
251.931	72.31
252.164	81.31
252.397	81.31
252.63	84.31
252.863	87.31
253.096	85.31
253.329	76.31
253.562	76.31
253.795	70.31
254.028	81.31
254.261	79.31
254.494	83.31
254.727	79.31
254.96	73.31
255.193	86.31
255.426	86.31
255.659	98.31
255.892	93.31
256.124	88.31
256.357	80.31
256.59	75.31
256.823	87.31
257.056	86.31
257.289	85.31
257.521	84.31
257.754	88.31
257.987	77.31
258.22	87.31
258.452	74.31
258.685	69.31
258.918	89.31
259.151	92.31
259.383	77.31
259.616	89.31
259.849	85.31
260.081	87.31
260.314	90.31
260.547	86.31
260.779	81.31
261.012	84.31
261.244	88.31
261.477	93.31
261.71	83.31
261.942	110.31
262.175	122.31
262.407	84.31
262.64	85.31
262.872	78.31
263.105	76.31
263.337	100.31
263.57	83.31
263.802	83.31
264.035	88.31
264.267	84.31
264.499	63.31
264.732	93.31
264.964	77.31
265.197	82.31
265.429	77.31
265.661	93.31
265.894	85.31
266.126	82.31
266.358	89.31
266.591	77.31
266.823	82.31
267.055	84.31
267.287	73.31
267.52	89.31
267.752	75.31
267.984	74.31
268.216	83.31
268.448	86.31
268.681	74.31
268.913	84.31
269.145	95.31
269.377	90.31
269.609	79.31
269.841	84.31
270.073	85.31
270.306	89.31
270.538	86.31
270.77	82.31
271.002	83.31
271.234	79.31
271.466	82.31
271.698	80.31
271.93	90.31
272.162	94.31
272.394	96.31
272.626	71.31
272.858	76.31
273.09	90.31
273.322	89.31
273.553	99.31
273.785	83.31
274.017	85.31
274.249	88.31
274.481	89.31
274.713	89.31
274.945	84.31
275.176	82.31
275.408	83.31
275.64	82.31
275.872	93.31
276.104	96.31
276.335	86.31
276.567	96.31
276.799	112.31
277.031	106.31
277.262	96.31
277.494	87.31
277.726	99.31
277.957	94.31
278.189	85.31
278.421	80.31
278.652	85.31
278.884	88.31
279.115	86.31
279.347	93.31
279.579	83.31
279.81	76.31
280.042	79.31
280.273	80.31
280.505	85.31
280.736	85.31
280.968	95.31
281.199	83.31
281.431	103.31
281.662	103.31
281.894	89.31
282.125	94.31
282.356	115.31
282.588	129.31
282.819	116.31
283.051	90.31
283.282	90.31
283.513	113.31
283.745	87.31
283.976	89.31
284.207	80.31
284.439	99.31
284.67	89.31
284.901	87.31
285.132	84.31
285.364	87.31
285.595	76.31
285.826	88.31
286.057	95.31
286.288	89.31
286.52	85.31
286.751	91.31
286.982	93.31
287.213	81.31
287.444	93.31
287.675	96.31
287.906	90.31
288.138	98.31
288.369	84.31
288.6	85.31
288.831	83.31
289.062	93.31
289.293	87.31
289.524	93.31
289.755	83.31
289.986	87.31
290.217	92.31
290.448	99.31
290.679	90.31
290.91	92.31
291.141	87.31
291.371	80.31
291.602	87.31
291.833	76.31
292.064	90.31
292.295	95.31
292.526	95.31
292.757	91.31
292.987	91.31
293.218	88.31
293.449	94.31
293.68	101.31
293.91	89.31
294.141	85.31
294.372	88.31
294.603	84.31
294.833	87.31
295.064	91.31
295.295	87.31
295.525	101.31
295.756	87.31
295.987	114.31
296.217	143.31
296.448	122.31
296.679	88.31
296.909	84.31
297.14	88.31
297.37	87.31
297.601	90.31
297.831	102.31
298.062	97.31
298.292	93.31
298.523	87.31
298.753	79.31
298.984	92.31
299.214	89.31
299.445	98.31
299.675	104.31
299.905	113.31
300.136	85.31
300.366	97.31
300.597	87.31
300.827	89.31
301.057	93.31
301.288	101.31
301.518	92.31
301.748	93.31
301.979	86.31
302.209	91.31
302.439	78.31
302.669	86.31
302.9	105.31
303.13	98.31
303.36	97.31
303.59	111.31
303.82	108.31
304.051	83.31
304.281	94.31
304.511	88.31
304.741	93.31
304.971	71.31
305.201	104.31
305.431	89.31
305.661	98.31
305.891	108.31
306.121	93.31
306.352	108.31
306.582	101.31
306.812	88.31
307.042	87.31
307.272	105.31
307.502	90.31
307.731	81.31
307.961	81.31
308.191	85.31
308.421	91.31
308.651	85.31
308.881	91.31
309.111	98.31
309.341	92.31
309.571	78.31
309.8	85.31
310.03	90.31
310.26	100.31
310.49	94.31
310.72	95.31
310.949	101.31
311.179	103.31
311.409	98.31
311.639	104.31
311.868	91.31
312.098	93.31
312.328	93.31
312.557	91.31
312.787	99.31
313.017	91.31
313.246	86.31
313.476	83.31
313.706	91.31
313.935	89.31
314.165	88.31
314.394	90.31
314.624	93.31
314.853	87.31
315.083	94.31
315.312	101.31
315.542	91.31
315.771	92.31
316.001	86.31
316.23	91.31
316.46	90.31
316.689	75.31
316.919	101.31
317.148	100.31
317.377	87.31
317.607	88.31
317.836	106.31
318.065	80.31
318.295	83.31
318.524	88.31
318.753	109.31
318.983	112.31
319.212	109.31
319.441	112.31
319.67	109.31
319.9	91.31
320.129	93.31
320.358	87.31
320.587	83.31
320.816	104.31
321.046	100.31
321.275	84.31
321.504	98.31
321.733	98.31
321.962	101.31
322.191	93.31
322.42	96.31
322.649	113.31
322.878	89.31
323.108	108.31
323.337	138.31
323.566	141.31
323.795	139.31
324.024	212.31
324.253	359.31
324.482	735.31
324.71	1502.31
324.939	1934.31
325.168	727.31
325.397	240.31
325.626	152.31
325.855	138.31
326.084	113.31
326.313	125.31
326.542	135.31
326.77	205.31
326.999	419.31
327.228	845.31
327.457	1481.31
327.686	1178.31
327.914	348.31
328.143	179.31
328.372	137.31
328.6	122.31
328.829	121.31
329.058	127.31
329.287	117.31
329.515	111.31
329.744	103.31
329.972	96.31
330.201	93.31
330.43	119.31
330.658	107.31
330.887	130.31
331.115	129.31
331.344	94.31
331.572	100.31
331.801	118.31
332.03	102.31
332.258	107.31
332.486	88.31
332.715	95.31
332.943	86.31
333.172	97.31
333.4	85.31
333.629	94.31
333.857	116.31
334.085	111.31
334.314	96.31
334.542	98.31
334.771	117.31
334.999	95.31
335.227	98.31
335.455	90.31
335.684	92.31
335.912	91.31
336.14	93.31
336.369	101.31
336.597	101.31
336.825	95.31
337.053	100.31
337.281	91.31
337.51	109.31
337.738	91.31
337.966	85.31
338.194	98.31
338.422	96.31
338.65	97.31
338.878	93.31
339.106	70.31
339.334	106.31
339.562	91.31
339.79	84.31
340.018	97.31
340.246	97.31
340.474	92.31
340.702	98.31
340.93	102.31
341.158	111.31
341.386	91.31
341.614	98.31
341.842	94.31
342.07	88.31
342.298	101.31
342.526	87.31
342.754	95.31
342.981	86.31
343.209	95.31
343.437	97.31
343.665	97.31
343.893	98.31
344.12	99.31
344.348	97.31
344.576	92.31
344.804	88.31
345.031	107.31
345.259	97.31
345.487	88.31
345.714	99.31
345.942	83.31
346.17	91.31
346.397	89.31
346.625	99.31
346.853	92.31
347.08	92.31
347.308	99.31
347.535	108.31
347.763	99.31
347.99	106.31
348.218	120.31
348.445	104.31
348.673	106.31
348.9	98.31
349.128	108.31
349.355	107.31
349.583	92.31
349.81	87.31
350.037	97.31
350.265	95.31
350.492	96.31
350.72	102.31
350.947	109.31
351.174	107.31
351.402	108.31
351.629	111.31
351.856	96.31
352.083	107.31
352.311	108.31
352.538	120.31
352.765	122.31
352.992	131.31
353.22	116.31
353.447	113.31
353.674	108.31
353.901	103.31
354.128	90.31
354.355	84.31
354.583	106.31
354.81	96.31
355.037	90.31
355.264	93.31
355.491	108.31
355.718	77.31
355.945	96.31
356.172	99.31
356.399	110.31
356.626	88.31
356.853	87.31
357.08	84.31
357.307	93.31
357.534	97.31
357.761	87.31
357.988	87.31
358.215	87.31
358.441	91.31
358.668	80.31
358.895	97.31
359.122	86.31
359.349	79.31
359.576	79.31
359.802	99.31
360.029	113.31
360.256	116.31
360.483	99.31
360.709	95.31
360.936	112.31
361.163	85.31
361.39	91.31
361.616	107.31
361.843	102.31
362.07	91.31
362.296	96.31
362.523	83.31
362.749	87.31
362.976	96.31
363.203	98.31
363.429	102.31
363.656	100.31
363.882	88.31
364.109	91.31
364.335	93.31
364.562	92.31
364.788	93.31
365.015	91.31
365.241	97.31
365.468	105.31
365.694	105.31
365.92	99.31
366.147	104.31
366.373	79.31
366.599	89.31
366.826	84.31
367.052	99.31
367.278	96.31
367.505	98.31
367.731	99.31
367.957	66.31
368.184	89.31
368.41	102.31
368.636	123.31
368.862	117.31
369.089	111.31
369.315	93.31
369.541	96.31
369.767	96.31
369.993	98.31
370.219	92.31
370.445	81.31
370.672	106.31
370.898	101.31
371.124	78.31
371.35	90.31
371.576	81.31
371.802	83.31
372.028	95.31
372.254	81.31
372.48	75.31
372.706	85.31
372.932	105.31
373.158	99.31
373.384	92.31
373.61	89.31
373.835	83.31
374.061	97.31
374.287	79.31
374.513	85.31
374.739	102.31
374.965	98.31
375.191	84.31
375.416	95.31
375.642	84.31
375.868	80.31
376.094	79.31
376.319	101.31
376.545	103.31
376.771	109.31
376.997	85.31
377.222	95.31
377.448	93.31
377.674	93.31
377.899	98.31
378.125	92.31
378.35	89.31
378.576	85.31
378.802	92.31
379.027	90.31
379.253	89.31
379.478	73.31
379.704	91.31
379.929	86.31
380.155	98.31
380.38	90.31
380.606	99.31
380.831	97.31
381.057	90.31
381.282	89.31
381.507	102.31
381.733	97.31
381.958	85.31
382.184	99.31
382.409	99.31
382.634	92.31
382.86	99.31
383.085	89.31
383.31	111.31
383.535	104.31
383.761	98.31
383.986	103.31
384.211	96.31
384.436	84.31
384.662	98.31
384.887	111.31
385.112	91.31
385.337	104.31
385.562	96.31
385.787	102.31
386.013	90.31
386.238	89.31
386.463	105.31
386.688	118.31
386.913	106.31
387.138	100.31
387.363	90.31
387.588	100.31
387.813	95.31
388.038	95.31
388.263	94.31
388.488	101.31
388.713	88.31
388.938	89.31
389.163	114.31
389.387	98.31
389.612	83.31
389.837	96.31
390.062	108.31
390.287	87.31
390.512	96.31
390.736	102.31
390.961	86.31
391.186	90.31
391.411	84.31
391.636	89.31
391.86	89.31
392.085	81.31
392.31	91.31
392.534	97.31
392.759	97.31
392.984	95.31
393.208	88.31
393.433	91.31
393.658	94.31
393.882	91.31
394.107	87.31
394.331	80.31
394.556	85.31
394.78	91.31
395.005	95.31
395.229	92.31
395.454	94.31
395.678	83.31
395.903	85.31
396.127	91.31
396.352	98.31
396.576	88.31
396.801	93.31
397.025	81.31
397.249	91.31
397.474	86.31
397.698	92.31
397.922	96.31
398.147	84.31
398.371	70.31
398.595	76.31
398.82	92.31
399.044	89.31
399.268	76.31
399.492	107.31
399.717	82.31
399.941	83.31
400.165	99.31
400.389	82.31
400.613	101.31
400.837	85.31
401.062	100.31
401.286	76.31
401.51	72.31
401.734	80.31
401.958	91.31
402.182	110.31
402.406	164.31
402.63	108.31
402.854	106.31
403.078	104.31
403.302	98.31
403.526	81.31
403.75	91.31
403.974	96.31
404.198	87.31
404.422	93.31
404.645	88.31
404.869	100.31
405.093	88.31
405.317	89.31
405.541	86.31
405.765	111.31
405.988	121.31
406.212	207.31
406.436	256.31
406.66	161.31
406.883	106.31
407.107	102.31
407.331	102.31
407.555	103.31
407.778	94.31
408.002	90.31
408.226	81.31
408.449	89.31
408.673	93.31
408.896	99.31
409.12	86.31
409.344	88.31
409.567	94.31
409.791	80.31
410.014	102.31
410.238	95.31
410.461	102.31
410.685	99.31
410.908	99.31
411.132	104.31
411.355	90.31
411.578	86.31
411.802	85.31
412.025	84.31
412.249	94.31
412.472	88.31
412.695	86.31
412.919	89.31
413.142	85.31
413.365	84.31
413.589	91.31
413.812	96.31
414.035	93.31
414.258	99.31
414.482	89.31
414.705	88.31
414.928	95.31
415.151	82.31
415.374	93.31
415.597	91.31
415.821	91.31
416.044	88.31
416.267	107.31
416.49	91.31
416.713	92.31
416.936	103.31
417.159	80.31
417.382	93.31
417.605	76.31
417.828	82.31
418.051	89.31
418.274	89.31
418.497	82.31
418.72	79.31
418.943	82.31
419.166	82.31
419.389	92.31
419.611	109.31
419.834	90.31
420.057	81.31
420.28	81.31
420.503	81.31
420.726	103.31
420.948	82.31
421.171	83.31
421.394	86.31
421.617	98.31
421.839	99.31
422.062	93.31
422.285	106.31
422.507	93.31
422.73	106.31
422.953	81.31
423.175	87.31
423.398	79.31
423.621	104.31
423.843	99.31
424.066	69.31
424.288	91.31
424.511	100.31
424.733	100.31
424.956	111.31
425.178	101.31
425.401	107.31
425.623	100.31
425.846	95.31
426.068	92.31
426.291	91.31
426.513	94.31
426.735	87.31
426.958	97.31
427.18	101.31
427.402	137.31
427.625	157.31
427.847	125.31
428.069	101.31
428.292	93.31
428.514	84.31
428.736	89.31
428.958	67.31
429.181	87.31
429.403	68.31
429.625	104.31
429.847	85.31
430.069	103.31
430.292	101.31
430.514	84.31
430.736	82.31
430.958	88.31
431.18	75.31
431.402	73.31
431.624	88.31
431.846	76.31
432.068	85.31
432.29	95.31
432.512	85.31
432.734	92.31
432.956	100.31
433.178	96.31
433.4	99.31
433.622	87.31
433.844	90.31
434.066	82.31
434.287	91.31
434.509	81.31
434.731	81.31
434.953	98.31
435.175	92.31
435.397	84.31
435.618	101.31
435.84	97.31
436.062	112.31
436.284	105.31
436.505	104.31
436.727	116.31
436.949	95.31
437.17	78.31
437.392	97.31
437.614	97.31
437.835	99.31
438.057	95.31
438.278	95.31
438.5	100.31
438.721	102.31
438.943	105.31
439.165	95.31
439.386	93.31
439.608	100.31
439.829	100.31
440.05	122.31
440.272	131.31
440.493	105.31
440.715	73.31
440.936	86.31
441.158	84.31
441.379	79.31
441.6	94.31
441.822	98.31
442.043	84.31
442.264	95.31
442.486	88.31
442.707	100.31
442.928	99.31
443.149	133.31
443.371	120.31
443.592	92.31
443.813	108.31
444.034	109.31
444.255	97.31
444.476	102.31
444.698	95.31
444.919	90.31
445.14	117.31
445.361	105.31
445.582	105.31
445.803	133.31
446.024	146.31
446.245	139.31
446.466	104.31
446.687	85.31
446.908	92.31
447.129	95.31
447.35	87.31
447.571	96.31
447.792	90.31
448.013	92.31
448.234	103.31
448.455	100.31
448.675	110.31
448.896	119.31
449.117	90.31
449.338	111.31
449.559	110.31
449.779	123.31
450	99.31
450.221	96.31
450.442	95.31
450.662	106.31
450.883	103.31
451.104	127.31
451.324	91.31
451.545	89.31
451.766	83.31
451.986	96.31
452.207	92.31
452.428	97.31
452.648	91.31
452.869	113.31
453.089	121.31
453.31	112.31
453.53	83.31
453.751	97.31
453.971	113.31
454.192	107.31
454.412	100.31
454.633	88.31
454.853	97.31
455.073	73.31
455.294	75.31
455.514	97.31
455.734	99.31
455.955	93.31
456.175	85.31
456.395	83.31
456.616	82.31
456.836	91.31
457.056	82.31
457.276	79.31
457.497	84.31
457.717	82.31
457.937	81.31
458.157	72.31
458.377	82.31
458.598	109.31
458.818	155.31
459.038	167.31
459.258	130.31
459.478	97.31
459.698	83.31
459.918	90.31
460.138	73.31
460.358	97.31
460.578	88.31
460.798	79.31
461.018	86.31
461.238	91.31
461.458	85.31
461.678	88.31
461.898	92.31
462.118	91.31
462.338	67.31
462.558	83.31
462.777	71.31
462.997	90.31
463.217	80.31
463.437	89.31
463.657	85.31
463.876	83.31
464.096	82.31
464.316	93.31
464.536	95.31
464.755	93.31
464.975	111.31
465.195	167.31
465.414	144.31
465.634	106.31
465.854	90.31
466.073	97.31
466.293	84.31
466.512	78.31
466.732	78.31
466.951	80.31
467.171	84.31
467.391	88.31
467.61	100.31
467.829	89.31
468.049	93.31
468.268	92.31
468.488	76.31
468.707	85.31
468.927	82.31
469.146	77.31
469.365	84.31
469.585	82.31
469.804	93.31
470.023	93.31
470.243	94.31
470.462	95.31
470.681	113.31
470.901	88.31
471.12	91.31
471.339	94.31
471.558	96.31
471.777	84.31
471.997	98.31
472.216	96.31
472.435	88.31
472.654	89.31
472.873	96.31
473.092	84.31
473.311	87.31
473.53	76.31
473.749	93.31
473.968	111.31
474.187	107.31
474.406	92.31
474.625	83.31
474.844	95.31
475.063	92.31
475.282	99.31
475.501	87.31
475.72	84.31
475.939	87.31
476.158	78.31
476.377	88.31
476.596	98.31
476.814	87.31
477.033	83.31
477.252	94.31
477.471	94.31
477.69	91.31
477.908	100.31
478.127	96.31
478.346	63.31
478.564	87.31
478.783	99.31
479.002	107.31
479.22	89.31
479.439	100.31
479.658	115.31
479.876	78.31
480.095	105.31
480.313	69.31
480.532	81.31
480.751	91.31
480.969	95.31
481.188	101.31
481.406	110.31
481.624	79.31
481.843	77.31
482.061	85.31
482.28	104.31
482.498	80.31
482.717	95.31
482.935	101.31
483.153	111.31
483.372	90.31
483.59	84.31
483.808	79.31
484.027	94.31
484.245	93.31
484.463	84.31
484.681	104.31
484.9	94.31
485.118	75.31
485.336	105.31
485.554	100.31
485.772	101.31
485.99	101.31
486.209	98.31
486.427	103.31
486.645	112.31
486.863	114.31
487.081	102.31
487.299	105.31
487.517	95.31
487.735	78.31
487.953	86.31
488.171	113.31
488.389	88.31
488.607	101.31
488.825	87.31
489.043	79.31
489.261	100.31
489.479	104.31
489.696	77.31
489.914	85.31
490.132	81.31
490.35	83.31
490.568	94.31
490.786	103.31
491.003	93.31
491.221	95.31
491.439	93.31
491.657	76.31
491.874	70.31
492.092	83.31
492.31	83.31
492.527	95.31
492.745	91.31
492.963	97.31
493.18	84.31
493.398	108.31
493.615	101.31
493.833	81.31
494.05	93.31
494.268	94.31
494.485	84.31
494.703	88.31
494.92	102.31
495.138	98.31
495.355	95.31
495.573	91.31
495.79	81.31
496.008	88.31
496.225	94.31
496.442	85.31
496.66	104.31
496.877	104.31
497.094	94.31
497.312	99.31
497.529	94.31
497.746	89.31
497.963	96.31
498.181	93.31
498.398	98.31
498.615	114.31
498.832	105.31
499.049	75.31
499.267	83.31
499.484	91.31
499.701	85.31
499.918	91.31
500.135	96.31
500.352	98.31
500.569	100.31
500.786	93.31
501.003	90.31
501.22	101.31
501.437	80.31
501.654	99.31
501.871	107.31
502.088	84.31
502.305	99.31
502.522	97.31
502.739	93.31
502.956	83.31
503.172	91.31
503.389	103.31
503.606	105.31
503.823	89.31
504.04	90.31
504.256	78.31
504.473	97.31
504.69	109.31
504.907	91.31
505.123	77.31
505.34	87.31
505.557	90.31
505.773	105.31
505.99	86.31
506.207	83.31
506.423	102.31
506.64	87.31
506.856	89.31
507.073	83.31
507.289	91.31
507.506	105.31
507.722	114.31
507.939	117.31
508.155	99.31
508.372	82.31
508.588	105.31
508.805	104.31
509.021	90.31
509.238	95.31
509.454	117.31
509.67	117.31
509.887	118.31
510.103	133.31
510.319	214.31
510.536	819.31
510.752	2519.31
510.968	691.31
511.184	157.31
511.401	115.31
511.617	95.31
511.833	90.31
512.049	95.31
512.265	80.31
512.481	89.31
512.698	93.31
512.914	88.31
513.13	98.31
513.346	73.31
513.562	86.31
513.778	103.31
513.994	89.31
514.21	91.31
514.426	115.31
514.642	136.31
514.858	127.31
515.074	187.31
515.29	495.31
515.506	1585.31
