Data from Uncirc_2001_H10_HRD10591_00033.txt Node
Date: Wed Jan 03 10:44:03 EST 2024
User: Yrep
Spectrometer: HR+D1059
Trigger mode: 1
Integration Time (sec): 1.000000E-1
Scans to average: 1
Electric dark correction enabled: true
Nonlinearity correction enabled: false
Boxcar width: 0
XAxis mode: Wavelengths
Number of Pixels in Spectrum: 2048
>>>>>Begin Spectral Data<<<<<
223.165	-19.5
223.4	-19.5
223.635	-19.5
223.869	-28.5
224.104	-9.5
224.338	-16.5
224.573	-20.5
224.808	-22.5
225.042	-6.5
225.277	-7.5
225.511	-13.5
225.746	2.5
225.98	13.5
226.215	7.5
226.449	24.5
226.683	28.5
226.918	42.5
227.152	25.5
227.387	26.5
227.621	47.5
227.856	32.5
228.09	44.5
228.324	43.5
228.559	48.5
228.793	47.5
229.027	75.5
229.262	74.5
229.496	61.5
229.73	75.5
229.964	75.5
230.199	76.5
230.433	83.5
230.667	79.5
230.901	66.5
231.136	82.5
231.37	71.5
231.604	80.5
231.838	80.5
232.072	70.5
232.306	78.5
232.541	80.5
232.775	86.5
233.009	72.5
233.243	72.5
233.477	89.5
233.711	83.5
233.945	76.5
234.179	85.5
234.413	84.5
234.647	71.5
234.881	84.5
235.115	74.5
235.349	92.5
235.583	78.5
235.817	68.5
236.051	76.5
236.285	70.5
236.519	72.5
236.753	84.5
236.987	87.5
237.221	80.5
237.455	78.5
237.689	82.5
237.922	81.5
238.156	81.5
238.39	95.5
238.624	93.5
238.858	73.5
239.091	74.5
239.325	84.5
239.559	65.5
239.793	90.5
240.027	71.5
240.26	70.5
240.494	66.5
240.728	75.5
240.961	67.5
241.195	71.5
241.429	72.5
241.662	69.5
241.896	80.5
242.13	83.5
242.363	70.5
242.597	71.5
242.83	83.5
243.064	81.5
243.298	78.5
243.531	71.5
243.765	78.5
243.998	84.5
244.232	71.5
244.465	79.5
244.699	86.5
244.932	70.5
245.166	72.5
245.399	81.5
245.633	84.5
245.866	83.5
246.099	79.5
246.333	84.5
246.566	71.5
246.8	85.5
247.033	76.5
247.266	90.5
247.5	78.5
247.733	84.5
247.966	79.5
248.2	77.5
248.433	78.5
248.666	78.5
248.899	77.5
249.133	94.5
249.366	86.5
249.599	75.5
249.832	86.5
250.066	77.5
250.299	81.5
250.532	80.5
250.765	82.5
250.998	83.5
251.231	78.5
251.465	85.5
251.698	74.5
251.931	72.5
252.164	81.5
252.397	60.5
252.63	84.5
252.863	80.5
253.096	80.5
253.329	77.5
253.562	68.5
253.795	77.5
254.028	89.5
254.261	83.5
254.494	82.5
254.727	76.5
254.96	79.5
255.193	85.5
255.426	69.5
255.659	91.5
255.892	103.5
256.124	78.5
256.357	85.5
256.59	73.5
256.823	74.5
257.056	85.5
257.289	94.5
257.521	92.5
257.754	83.5
257.987	70.5
258.22	79.5
258.452	75.5
258.685	72.5
258.918	81.5
259.151	83.5
259.383	106.5
259.616	87.5
259.849	83.5
260.081	81.5
260.314	84.5
260.547	77.5
260.779	85.5
261.012	68.5
261.244	91.5
261.477	89.5
261.71	87.5
261.942	118.5
262.175	103.5
262.407	92.5
262.64	94.5
262.872	83.5
263.105	82.5
263.337	78.5
263.57	92.5
263.802	78.5
264.035	84.5
264.267	85.5
264.499	78.5
264.732	71.5
264.964	80.5
265.197	78.5
265.429	98.5
265.661	76.5
265.894	67.5
266.126	77.5
266.358	69.5
266.591	70.5
266.823	76.5
267.055	80.5
267.287	86.5
267.52	89.5
267.752	95.5
267.984	81.5
268.216	87.5
268.448	85.5
268.681	77.5
268.913	85.5
269.145	84.5
269.377	77.5
269.609	74.5
269.841	84.5
270.073	88.5
270.306	76.5
270.538	81.5
270.77	87.5
271.002	92.5
271.234	91.5
271.466	86.5
271.698	89.5
271.93	81.5
272.162	83.5
272.394	94.5
272.626	87.5
272.858	87.5
273.09	76.5
273.322	80.5
273.553	87.5
273.785	77.5
274.017	83.5
274.249	79.5
274.481	79.5
274.713	75.5
274.945	83.5
275.176	80.5
275.408	84.5
275.64	71.5
275.872	85.5
276.104	71.5
276.335	74.5
276.567	104.5
276.799	112.5
277.031	84.5
277.262	83.5
277.494	80.5
277.726	91.5
277.957	84.5
278.189	76.5
278.421	74.5
278.652	76.5
278.884	87.5
279.115	81.5
279.347	98.5
279.579	82.5
279.81	88.5
280.042	85.5
280.273	97.5
280.505	81.5
280.736	78.5
280.968	79.5
281.199	90.5
281.431	91.5
281.662	87.5
281.894	101.5
282.125	87.5
282.356	105.5
282.588	133.5
282.819	96.5
283.051	86.5
283.282	66.5
283.513	83.5
283.745	91.5
283.976	83.5
284.207	83.5
284.439	83.5
284.67	83.5
284.901	87.5
285.132	86.5
285.364	84.5
285.595	87.5
285.826	76.5
286.057	99.5
286.288	83.5
286.52	92.5
286.751	87.5
286.982	78.5
287.213	89.5
287.444	97.5
287.675	80.5
287.906	94.5
288.138	89.5
288.369	93.5
288.6	94.5
288.831	87.5
289.062	76.5
289.293	86.5
289.524	89.5
289.755	92.5
289.986	94.5
290.217	93.5
290.448	98.5
290.679	76.5
290.91	82.5
291.141	66.5
291.371	80.5
291.602	87.5
291.833	90.5
292.064	83.5
292.295	108.5
292.526	96.5
292.757	98.5
292.987	100.5
293.218	89.5
293.449	95.5
293.68	81.5
293.91	83.5
294.141	86.5
294.372	88.5
294.603	96.5
294.833	81.5
295.064	97.5
295.295	96.5
295.525	93.5
295.756	107.5
295.987	119.5
296.217	143.5
296.448	122.5
296.679	91.5
296.909	81.5
297.14	92.5
297.37	86.5
297.601	86.5
297.831	97.5
298.062	88.5
298.292	91.5
298.523	83.5
298.753	95.5
298.984	79.5
299.214	88.5
299.445	100.5
299.675	90.5
299.905	76.5
300.136	88.5
300.366	85.5
300.597	87.5
300.827	82.5
301.057	104.5
301.288	107.5
301.518	90.5
301.748	84.5
301.979	91.5
302.209	95.5
302.439	80.5
302.669	97.5
302.9	89.5
303.13	84.5
303.36	97.5
303.59	88.5
303.82	82.5
304.051	84.5
304.281	88.5
304.511	83.5
304.741	88.5
304.971	96.5
305.201	99.5
305.431	93.5
305.661	84.5
305.891	80.5
306.121	107.5
306.352	116.5
306.582	101.5
306.812	87.5
307.042	100.5
307.272	78.5
307.502	86.5
307.731	80.5
307.961	87.5
308.191	86.5
308.421	84.5
308.651	82.5
308.881	89.5
309.111	94.5
309.341	91.5
309.571	91.5
309.8	89.5
310.03	93.5
310.26	100.5
310.49	82.5
310.72	96.5
310.949	102.5
311.179	91.5
311.409	85.5
311.639	99.5
311.868	100.5
312.098	86.5
312.328	86.5
312.557	97.5
312.787	96.5
313.017	98.5
313.246	92.5
313.476	92.5
313.706	79.5
313.935	85.5
314.165	104.5
314.394	105.5
314.624	104.5
314.853	109.5
315.083	82.5
315.312	96.5
315.542	82.5
315.771	100.5
316.001	84.5
316.23	91.5
316.46	85.5
316.689	90.5
316.919	102.5
317.148	99.5
317.377	91.5
317.607	98.5
317.836	86.5
318.065	87.5
318.295	97.5
318.524	82.5
318.753	84.5
318.983	109.5
319.212	100.5
319.441	104.5
319.67	105.5
319.9	91.5
320.129	83.5
320.358	94.5
320.587	99.5
320.816	88.5
321.046	113.5
321.275	98.5
321.504	94.5
321.733	93.5
321.962	92.5
322.191	84.5
322.42	105.5
322.649	108.5
322.878	98.5
323.108	114.5
323.337	131.5
323.566	128.5
323.795	147.5
324.024	185.5
324.253	352.5
324.482	725.5
324.71	1369.5
324.939	1801.5
325.168	677.5
325.397	223.5
325.626	124.5
325.855	116.5
326.084	124.5
326.313	116.5
326.542	138.5
326.77	219.5
326.999	383.5
327.228	804.5
327.457	1366.5
327.686	1081.5
327.914	318.5
328.143	175.5
328.372	156.5
328.6	117.5
328.829	123.5
329.058	110.5
329.287	133.5
329.515	104.5
329.744	105.5
329.972	101.5
330.201	106.5
330.43	108.5
330.658	118.5
330.887	127.5
331.115	114.5
331.344	104.5
331.572	86.5
331.801	96.5
332.03	101.5
332.258	80.5
332.486	96.5
332.715	88.5
332.943	102.5
333.172	105.5
333.4	90.5
333.629	99.5
333.857	100.5
334.085	108.5
334.314	115.5
334.542	102.5
334.771	88.5
334.999	105.5
335.227	91.5
335.455	106.5
335.684	102.5
335.912	94.5
336.14	86.5
336.369	89.5
336.597	101.5
336.825	96.5
337.053	97.5
337.281	99.5
337.51	88.5
337.738	100.5
337.966	89.5
338.194	98.5
338.422	90.5
338.65	87.5
338.878	88.5
339.106	92.5
339.334	90.5
339.562	86.5
339.79	97.5
340.018	93.5
340.246	88.5
340.474	97.5
340.702	97.5
340.93	90.5
341.158	91.5
341.386	87.5
341.614	87.5
341.842	95.5
342.07	97.5
342.298	83.5
342.526	85.5
342.754	93.5
342.981	89.5
343.209	82.5
343.437	107.5
343.665	95.5
343.893	102.5
344.12	96.5
344.348	93.5
344.576	98.5
344.804	91.5
345.031	93.5
345.259	112.5
345.487	96.5
345.714	85.5
345.942	105.5
346.17	80.5
346.397	87.5
346.625	90.5
346.853	90.5
347.08	97.5
347.308	89.5
347.535	80.5
347.763	105.5
347.99	109.5
348.218	112.5
348.445	103.5
348.673	72.5
348.9	90.5
349.128	85.5
349.355	93.5
349.583	102.5
349.81	77.5
350.037	103.5
350.265	97.5
350.492	100.5
350.72	94.5
350.947	99.5
351.174	109.5
351.402	101.5
351.629	96.5
351.856	101.5
352.083	100.5
352.311	83.5
352.538	108.5
352.765	95.5
352.992	105.5
353.22	106.5
353.447	117.5
353.674	103.5
353.901	99.5
354.128	81.5
354.355	92.5
354.583	72.5
354.81	92.5
355.037	93.5
355.264	102.5
355.491	96.5
355.718	81.5
355.945	89.5
356.172	89.5
356.399	106.5
356.626	96.5
356.853	88.5
357.08	89.5
357.307	94.5
357.534	100.5
357.761	90.5
357.988	104.5
358.215	100.5
358.441	89.5
358.668	88.5
358.895	98.5
359.122	97.5
359.349	105.5
359.576	90.5
359.802	100.5
360.029	110.5
360.256	113.5
360.483	98.5
360.709	80.5
360.936	94.5
361.163	88.5
361.39	87.5
361.616	94.5
361.843	93.5
362.07	92.5
362.296	107.5
362.523	76.5
362.749	91.5
362.976	84.5
363.203	91.5
363.429	88.5
363.656	97.5
363.882	87.5
364.109	93.5
364.335	84.5
364.562	88.5
364.788	104.5
365.015	102.5
365.241	95.5
365.468	104.5
365.694	99.5
365.92	86.5
366.147	79.5
366.373	83.5
366.599	94.5
366.826	92.5
367.052	87.5
367.278	85.5
367.505	100.5
367.731	98.5
367.957	92.5
368.184	97.5
368.41	99.5
368.636	111.5
368.862	111.5
369.089	105.5
369.315	107.5
369.541	85.5
369.767	85.5
369.993	108.5
370.219	85.5
370.445	99.5
370.672	89.5
370.898	78.5
371.124	81.5
371.35	92.5
371.576	80.5
371.802	84.5
372.028	83.5
372.254	83.5
372.48	82.5
372.706	75.5
372.932	95.5
373.158	98.5
373.384	88.5
373.61	94.5
373.835	98.5
374.061	79.5
374.287	88.5
374.513	95.5
374.739	77.5
374.965	92.5
375.191	91.5
375.416	84.5
375.642	93.5
375.868	87.5
376.094	82.5
376.319	89.5
376.545	84.5
376.771	98.5
376.997	98.5
377.222	103.5
377.448	101.5
377.674	96.5
377.899	83.5
378.125	97.5
378.35	93.5
378.576	83.5
378.802	89.5
379.027	96.5
379.253	105.5
379.478	93.5
379.704	87.5
379.929	92.5
380.155	97.5
380.38	76.5
380.606	98.5
380.831	93.5
381.057	105.5
381.282	100.5
381.507	108.5
381.733	99.5
381.958	92.5
382.184	90.5
382.409	106.5
382.634	99.5
382.86	94.5
383.085	96.5
383.31	92.5
383.535	99.5
383.761	97.5
383.986	88.5
384.211	96.5
384.436	109.5
384.662	94.5
384.887	91.5
385.112	93.5
385.337	107.5
385.562	113.5
385.787	99.5
386.013	99.5
386.238	112.5
386.463	107.5
386.688	124.5
386.913	100.5
387.138	104.5
387.363	98.5
387.588	106.5
387.813	112.5
388.038	104.5
388.263	118.5
388.488	101.5
388.713	92.5
388.938	83.5
389.163	96.5
389.387	90.5
389.612	91.5
389.837	88.5
390.062	90.5
390.287	85.5
390.512	81.5
390.736	86.5
390.961	96.5
391.186	95.5
391.411	88.5
391.636	91.5
391.86	92.5
392.085	85.5
392.31	89.5
392.534	91.5
392.759	82.5
392.984	81.5
393.208	100.5
393.433	84.5
393.658	89.5
393.882	71.5
394.107	82.5
394.331	94.5
394.556	86.5
394.78	90.5
395.005	87.5
395.229	89.5
395.454	95.5
395.678	86.5
395.903	90.5
396.127	82.5
396.352	80.5
396.576	82.5
396.801	96.5
397.025	100.5
397.249	96.5
397.474	85.5
397.698	88.5
397.922	85.5
398.147	76.5
398.371	95.5
398.595	84.5
398.82	88.5
399.044	89.5
399.268	91.5
399.492	88.5
399.717	88.5
399.941	87.5
400.165	76.5
400.389	84.5
400.613	87.5
400.837	85.5
401.062	78.5
401.286	95.5
401.51	77.5
401.734	89.5
401.958	103.5
402.182	128.5
402.406	156.5
402.63	112.5
402.854	93.5
403.078	98.5
403.302	72.5
403.526	93.5
403.75	76.5
403.974	101.5
404.198	85.5
404.422	100.5
404.645	93.5
404.869	92.5
405.093	74.5
405.317	72.5
405.541	91.5
405.765	93.5
405.988	116.5
406.212	167.5
406.436	230.5
406.66	133.5
406.883	99.5
407.107	86.5
407.331	97.5
407.555	85.5
407.778	98.5
408.002	88.5
408.226	82.5
408.449	88.5
408.673	97.5
408.896	105.5
409.12	87.5
409.344	81.5
409.567	97.5
409.791	76.5
410.014	84.5
410.238	94.5
410.461	79.5
410.685	101.5
410.908	94.5
411.132	105.5
411.355	94.5
411.578	88.5
411.802	102.5
412.025	95.5
412.249	86.5
412.472	83.5
412.695	98.5
412.919	76.5
413.142	89.5
413.365	79.5
413.589	72.5
413.812	94.5
414.035	91.5
414.258	99.5
414.482	84.5
414.705	93.5
414.928	104.5
415.151	86.5
415.374	86.5
415.597	82.5
415.821	87.5
416.044	93.5
416.267	83.5
416.49	98.5
416.713	93.5
416.936	77.5
417.159	92.5
417.382	72.5
417.605	90.5
417.828	87.5
418.051	95.5
418.274	86.5
418.497	93.5
418.72	79.5
418.943	80.5
419.166	84.5
419.389	84.5
419.611	76.5
419.834	94.5
420.057	97.5
420.28	78.5
420.503	69.5
420.726	72.5
420.948	92.5
421.171	88.5
421.394	85.5
421.617	95.5
421.839	82.5
422.062	90.5
422.285	86.5
422.507	97.5
422.73	88.5
422.953	87.5
423.175	95.5
423.398	78.5
423.621	76.5
423.843	95.5
424.066	83.5
424.288	88.5
424.511	89.5
424.733	98.5
424.956	87.5
425.178	96.5
425.401	97.5
425.623	94.5
425.846	89.5
426.068	100.5
426.291	93.5
426.513	92.5
426.735	100.5
426.958	87.5
427.18	94.5
427.402	116.5
427.625	178.5
427.847	117.5
428.069	102.5
428.292	89.5
428.514	74.5
428.736	79.5
428.958	85.5
429.181	80.5
429.403	87.5
429.625	91.5
429.847	84.5
430.069	93.5
430.292	101.5
430.514	84.5
430.736	97.5
430.958	87.5
431.18	77.5
431.402	68.5
431.624	92.5
431.846	90.5
432.068	93.5
432.29	73.5
432.512	77.5
432.734	102.5
432.956	102.5
433.178	106.5
433.4	93.5
433.622	90.5
433.844	95.5
434.066	95.5
434.287	82.5
434.509	83.5
434.731	83.5
434.953	80.5
435.175	87.5
435.397	89.5
435.618	90.5
435.84	87.5
436.062	112.5
436.284	112.5
436.505	90.5
436.727	90.5
436.949	87.5
437.17	90.5
437.392	74.5
437.614	89.5
437.835	97.5
438.057	111.5
438.278	107.5
438.5	92.5
438.721	118.5
438.943	98.5
439.165	95.5
439.386	91.5
439.608	92.5
439.829	112.5
440.05	114.5
440.272	127.5
440.493	90.5
440.715	88.5
440.936	85.5
441.158	86.5
441.379	80.5
441.6	89.5
441.822	85.5
442.043	68.5
442.264	91.5
442.486	103.5
442.707	100.5
442.928	104.5
443.149	109.5
443.371	114.5
443.592	101.5
443.813	104.5
444.034	87.5
444.255	96.5
444.476	82.5
444.698	92.5
444.919	105.5
445.14	141.5
445.361	116.5
445.582	120.5
445.803	127.5
446.024	131.5
446.245	108.5
446.466	115.5
446.687	93.5
446.908	92.5
447.129	97.5
447.35	98.5
447.571	83.5
447.792	88.5
448.013	107.5
448.234	116.5
448.455	97.5
448.675	103.5
448.896	110.5
449.117	111.5
449.338	99.5
449.559	113.5
449.779	118.5
450	89.5
450.221	89.5
450.442	88.5
450.662	97.5
450.883	113.5
451.104	113.5
451.324	97.5
451.545	103.5
451.766	92.5
451.986	79.5
452.207	107.5
452.428	98.5
452.648	100.5
452.869	109.5
453.089	112.5
453.31	114.5
453.53	88.5
453.751	88.5
453.971	100.5
454.192	109.5
454.412	93.5
454.633	83.5
454.853	87.5
455.073	104.5
455.294	89.5
455.514	83.5
455.734	104.5
455.955	71.5
456.175	97.5
456.395	100.5
456.616	89.5
456.836	99.5
457.056	86.5
457.276	93.5
457.497	84.5
457.717	85.5
457.937	87.5
458.157	93.5
458.377	84.5
458.598	114.5
458.818	148.5
459.038	154.5
459.258	128.5
459.478	86.5
459.698	84.5
459.918	98.5
460.138	88.5
460.358	73.5
460.578	88.5
460.798	94.5
461.018	87.5
461.238	93.5
461.458	80.5
461.678	93.5
461.898	95.5
462.118	88.5
462.338	89.5
462.558	89.5
462.777	83.5
462.997	86.5
463.217	89.5
463.437	87.5
463.657	88.5
463.876	100.5
464.096	79.5
464.316	100.5
464.536	95.5
464.755	91.5
464.975	100.5
465.195	150.5
465.414	144.5
465.634	102.5
465.854	90.5
466.073	91.5
466.293	90.5
466.512	84.5
466.732	85.5
466.951	75.5
467.171	96.5
467.391	100.5
467.61	98.5
467.829	102.5
468.049	81.5
468.268	82.5
468.488	91.5
468.707	81.5
468.927	76.5
469.146	91.5
469.365	80.5
469.585	88.5
469.804	100.5
470.023	89.5
470.243	86.5
470.462	83.5
470.681	99.5
470.901	98.5
471.12	86.5
471.339	84.5
471.558	90.5
471.777	83.5
471.997	86.5
472.216	90.5
472.435	84.5
472.654	86.5
472.873	77.5
473.092	59.5
473.311	82.5
473.53	88.5
473.749	86.5
473.968	99.5
474.187	100.5
474.406	93.5
474.625	87.5
474.844	90.5
475.063	80.5
475.282	91.5
475.501	94.5
475.72	83.5
475.939	92.5
476.158	85.5
476.377	87.5
476.596	91.5
476.814	91.5
477.033	90.5
477.252	93.5
477.471	75.5
477.69	95.5
477.908	79.5
478.127	79.5
478.346	82.5
478.564	85.5
478.783	98.5
479.002	93.5
479.22	100.5
479.439	83.5
479.658	93.5
479.876	95.5
480.095	87.5
480.313	85.5
480.532	87.5
480.751	87.5
480.969	87.5
481.188	103.5
481.406	112.5
481.624	100.5
481.843	80.5
482.061	71.5
482.28	83.5
482.498	79.5
482.717	84.5
482.935	93.5
483.153	82.5
483.372	90.5
483.59	98.5
483.808	89.5
484.027	85.5
484.245	92.5
484.463	100.5
484.681	98.5
484.9	95.5
485.118	89.5
485.336	101.5
485.554	101.5
485.772	98.5
485.99	104.5
486.209	89.5
486.427	104.5
486.645	115.5
486.863	114.5
487.081	120.5
487.299	101.5
487.517	77.5
487.735	78.5
487.953	84.5
488.171	90.5
488.389	96.5
488.607	89.5
488.825	97.5
489.043	91.5
489.261	85.5
489.479	85.5
489.696	89.5
489.914	82.5
490.132	79.5
490.35	94.5
490.568	88.5
490.786	89.5
491.003	107.5
491.221	91.5
491.439	102.5
491.657	80.5
491.874	89.5
492.092	96.5
492.31	90.5
492.527	96.5
492.745	82.5
492.963	101.5
493.18	103.5
493.398	89.5
493.615	93.5
493.833	105.5
494.05	92.5
494.268	89.5
494.485	84.5
494.703	90.5
494.92	80.5
495.138	78.5
495.355	109.5
495.573	86.5
495.79	81.5
496.008	90.5
496.225	93.5
496.442	92.5
496.66	95.5
496.877	83.5
497.094	92.5
497.312	97.5
497.529	93.5
497.746	93.5
497.963	89.5
498.181	84.5
498.398	106.5
498.615	95.5
498.832	106.5
499.049	97.5
499.267	88.5
499.484	96.5
499.701	87.5
499.918	88.5
500.135	89.5
500.352	90.5
500.569	92.5
500.786	92.5
501.003	87.5
501.22	80.5
501.437	91.5
501.654	83.5
501.871	107.5
502.088	105.5
502.305	96.5
502.522	104.5
502.739	81.5
502.956	75.5
503.172	87.5
503.389	100.5
503.606	108.5
503.823	90.5
504.04	89.5
504.256	95.5
504.473	87.5
504.69	88.5
504.907	83.5
505.123	84.5
505.34	95.5
505.557	86.5
505.773	89.5
505.99	89.5
506.207	81.5
506.423	89.5
506.64	100.5
506.856	97.5
507.073	96.5
507.289	80.5
507.506	97.5
507.722	111.5
507.939	110.5
508.155	103.5
508.372	86.5
508.588	91.5
508.805	83.5
509.021	93.5
509.238	91.5
509.454	86.5
509.67	123.5
509.887	103.5
510.103	130.5
510.319	226.5
510.536	797.5
510.752	2416.5
510.968	678.5
511.184	158.5
511.401	111.5
511.617	80.5
511.833	89.5
512.049	103.5
512.265	87.5
512.481	94.5
512.698	87.5
512.914	88.5
513.13	90.5
513.346	99.5
513.562	90.5
513.778	93.5
513.994	92.5
514.21	79.5
514.426	133.5
514.642	146.5
514.858	108.5
515.074	165.5
515.29	455.5
515.506	1467.5
515.721	559.5
515.937	159.5
516.153	106.5
516.369	101.5
516.585	95.5
516.801	104.5
517.016	109.5
517.232	101.5
517.448	91.5
517.664	90.5
517.879	97.5
518.095	100.5
518.311	105.5
518.527	103.5
518.742	93.5
518.958	85.5
519.173	88.5
519.389	89.5
519.605	103.5
519.82	100.5
520.036	106.5
520.251	103.5
520.467	107.5
520.682	102.5
520.898	113.5
521.113	121.5
521.329	129.5
521.544	209.5
521.76	569.5
521.975	2452.5
522.19	1456.5
522.406	304.5
522.621	129.5
522.836	101.5
523.052	93.5
523.267	82.5
523.482	98.5
523.698	99.5
523.913	106.5
524.128	102.5
524.343	89.5
524.559	96.5
524.774	91.5
524.989	107.5
525.204	89.5
525.419	103.5
525.634	87.5
525.849	100.5
526.064	94.5
526.28	91.5
526.495	87.5
526.71	87.5
526.925	93.5
527.14	92.5
527.355	76.5
527.57	96.5
527.785	93.5
527.999	94.5
528.214	105.5
528.429	91.5
528.644	90.5
528.859	92.5
529.074	90.5
529.289	122.5
529.503	176.5
529.718	96.5
529.933	92.5
530.148	101.5
530.363	99.5
530.577	97.5
530.792	79.5
531.007	87.5
531.221	96.5
531.436	91.5
531.651	84.5
531.865	87.5
532.08	95.5
532.295	99.5
532.509	99.5
532.724	90.5
532.938	96.5
533.153	94.5
533.367	85.5
533.582	99.5
533.796	80.5
534.011	86.5
534.225	82.5
534.44	86.5
534.654	88.5
534.868	109.5
535.083	91.5
535.297	91.5
535.511	106.5
535.726	96.5
