Data from Uncirc_2001_H10_HRD10591_00045.txt Node
Date: Wed Jan 03 10:44:05 EST 2024
User: Yrep
Spectrometer: HR+D1059
Trigger mode: 1
Integration Time (sec): 1.000000E-1
Scans to average: 1
Electric dark correction enabled: true
Nonlinearity correction enabled: false
Boxcar width: 0
XAxis mode: Wavelengths
Number of Pixels in Spectrum: 2048
>>>>>Begin Spectral Data<<<<<
223.165	-32.81
223.4	-32.81
223.635	-32.81
223.869	-19.81
224.104	-18.81
224.338	-11.81
224.573	-3.81
224.808	-17.81
225.042	5.19
225.277	7.19
225.511	-9.81
225.746	3.19
225.98	22.19
226.215	1.19
226.449	7.19
226.683	16.19
226.918	17.19
227.152	35.19
227.387	24.19
227.621	49.19
227.856	45.19
228.09	34.19
228.324	63.19
228.559	59.19
228.793	57.19
229.027	53.19
229.262	54.19
229.496	87.19
229.73	70.19
229.964	81.19
230.199	73.19
230.433	76.19
230.667	88.19
230.901	74.19
231.136	82.19
231.37	75.19
231.604	76.19
231.838	97.19
232.072	94.19
232.306	82.19
232.541	95.19
232.775	80.19
233.009	74.19
233.243	87.19
233.477	72.19
233.711	74.19
233.945	73.19
234.179	83.19
234.413	74.19
234.647	90.19
234.881	64.19
235.115	84.19
235.349	87.19
235.583	64.19
235.817	68.19
236.051	69.19
236.285	73.19
236.519	75.19
236.753	80.19
236.987	71.19
237.221	96.19
237.455	93.19
237.689	72.19
237.922	73.19
238.156	86.19
238.39	90.19
238.624	77.19
238.858	88.19
239.091	67.19
239.325	73.19
239.559	81.19
239.793	80.19
240.027	73.19
240.26	80.19
240.494	67.19
240.728	78.19
240.961	85.19
241.195	86.19
241.429	80.19
241.662	67.19
241.896	77.19
242.13	88.19
242.363	82.19
242.597	87.19
242.83	80.19
243.064	88.19
243.298	84.19
243.531	72.19
243.765	68.19
243.998	81.19
244.232	90.19
244.465	84.19
244.699	92.19
244.932	89.19
245.166	84.19
245.399	82.19
245.633	78.19
245.866	84.19
246.099	77.19
246.333	71.19
246.566	92.19
246.8	81.19
247.033	72.19
247.266	86.19
247.5	101.19
247.733	73.19
247.966	72.19
248.2	84.19
248.433	85.19
248.666	86.19
248.899	80.19
249.133	78.19
249.366	92.19
249.599	97.19
249.832	81.19
250.066	98.19
250.299	86.19
250.532	66.19
250.765	91.19
250.998	81.19
251.231	85.19
251.465	85.19
251.698	79.19
251.931	73.19
252.164	72.19
252.397	68.19
252.63	80.19
252.863	78.19
253.096	79.19
253.329	75.19
253.562	80.19
253.795	75.19
254.028	77.19
254.261	76.19
254.494	85.19
254.727	86.19
254.96	78.19
255.193	73.19
255.426	88.19
255.659	77.19
255.892	80.19
256.124	85.19
256.357	75.19
256.59	74.19
256.823	82.19
257.056	91.19
257.289	88.19
257.521	81.19
257.754	82.19
257.987	68.19
258.22	78.19
258.452	81.19
258.685	85.19
258.918	81.19
259.151	89.19
259.383	91.19
259.616	75.19
259.849	86.19
260.081	86.19
260.314	93.19
260.547	69.19
260.779	76.19
261.012	77.19
261.244	86.19
261.477	79.19
261.71	98.19
261.942	88.19
262.175	101.19
262.407	88.19
262.64	82.19
262.872	92.19
263.105	82.19
263.337	98.19
263.57	91.19
263.802	85.19
264.035	91.19
264.267	84.19
264.499	86.19
264.732	90.19
264.964	90.19
265.197	82.19
265.429	83.19
265.661	78.19
265.894	85.19
266.126	81.19
266.358	81.19
266.591	75.19
266.823	80.19
267.055	93.19
267.287	90.19
267.52	84.19
267.752	74.19
267.984	82.19
268.216	79.19
268.448	69.19
268.681	85.19
268.913	86.19
269.145	68.19
269.377	93.19
269.609	83.19
269.841	91.19
270.073	82.19
270.306	75.19
270.538	90.19
270.77	82.19
271.002	80.19
271.234	84.19
271.466	84.19
271.698	84.19
271.93	90.19
272.162	93.19
272.394	62.19
272.626	75.19
272.858	85.19
273.09	102.19
273.322	82.19
273.553	91.19
273.785	82.19
274.017	85.19
274.249	88.19
274.481	90.19
274.713	89.19
274.945	86.19
275.176	90.19
275.408	80.19
275.64	93.19
275.872	78.19
276.104	85.19
276.335	90.19
276.567	90.19
276.799	99.19
277.031	99.19
277.262	98.19
277.494	100.19
277.726	85.19
277.957	85.19
278.189	72.19
278.421	85.19
278.652	87.19
278.884	79.19
279.115	78.19
279.347	93.19
279.579	83.19
279.81	86.19
280.042	91.19
280.273	91.19
280.505	71.19
280.736	83.19
280.968	84.19
281.199	93.19
281.431	90.19
281.662	94.19
281.894	98.19
282.125	92.19
282.356	124.19
282.588	124.19
282.819	110.19
283.051	101.19
283.282	82.19
283.513	91.19
283.745	101.19
283.976	94.19
284.207	78.19
284.439	88.19
284.67	96.19
284.901	102.19
285.132	89.19
285.364	92.19
285.595	92.19
285.826	81.19
286.057	81.19
286.288	86.19
286.52	77.19
286.751	77.19
286.982	83.19
287.213	90.19
287.444	87.19
287.675	80.19
287.906	81.19
288.138	93.19
288.369	97.19
288.6	94.19
288.831	88.19
289.062	94.19
289.293	78.19
289.524	85.19
289.755	90.19
289.986	92.19
290.217	68.19
290.448	85.19
290.679	77.19
290.91	93.19
291.141	105.19
291.371	75.19
291.602	103.19
291.833	87.19
292.064	82.19
292.295	84.19
292.526	76.19
292.757	74.19
292.987	87.19
293.218	88.19
293.449	97.19
293.68	90.19
293.91	93.19
294.141	98.19
294.372	97.19
294.603	76.19
294.833	86.19
295.064	99.19
295.295	99.19
295.525	98.19
295.756	89.19
295.987	102.19
296.217	138.19
296.448	120.19
296.679	85.19
296.909	83.19
297.14	88.19
297.37	87.19
297.601	95.19
297.831	98.19
298.062	98.19
298.292	91.19
298.523	92.19
298.753	85.19
298.984	96.19
299.214	89.19
299.445	84.19
299.675	102.19
299.905	98.19
300.136	92.19
300.366	82.19
300.597	97.19
300.827	91.19
301.057	115.19
301.288	95.19
301.518	85.19
301.748	94.19
301.979	89.19
302.209	94.19
302.439	89.19
302.669	89.19
302.9	86.19
303.13	96.19
303.36	101.19
303.59	93.19
303.82	94.19
304.051	91.19
304.281	74.19
304.511	94.19
304.741	97.19
304.971	81.19
305.201	92.19
305.431	115.19
305.661	95.19
305.891	95.19
306.121	84.19
306.352	111.19
306.582	108.19
306.812	85.19
307.042	106.19
307.272	84.19
307.502	107.19
307.731	99.19
307.961	91.19
308.191	110.19
308.421	82.19
308.651	92.19
308.881	88.19
309.111	89.19
309.341	102.19
309.571	93.19
309.8	96.19
310.03	88.19
310.26	105.19
310.49	99.19
310.72	101.19
310.949	100.19
311.179	104.19
311.409	92.19
311.639	104.19
311.868	89.19
312.098	100.19
312.328	100.19
312.557	100.19
312.787	92.19
313.017	107.19
313.246	89.19
313.476	93.19
313.706	86.19
313.935	86.19
314.165	91.19
314.394	114.19
314.624	95.19
314.853	93.19
315.083	90.19
315.312	100.19
315.542	83.19
315.771	90.19
316.001	91.19
316.23	100.19
316.46	76.19
316.689	89.19
316.919	83.19
317.148	92.19
317.377	98.19
317.607	93.19
317.836	87.19
318.065	96.19
318.295	91.19
318.524	90.19
318.753	89.19
318.983	91.19
319.212	90.19
319.441	100.19
319.67	102.19
319.9	99.19
320.129	93.19
320.358	84.19
320.587	102.19
320.816	101.19
321.046	99.19
321.275	98.19
321.504	92.19
321.733	102.19
321.962	106.19
322.191	92.19
322.42	100.19
322.649	107.19
322.878	96.19
323.108	112.19
323.337	116.19
323.566	134.19
323.795	148.19
324.024	176.19
324.253	365.19
324.482	746.19
324.71	1469.19
324.939	1851.19
325.168	696.19
325.397	221.19
325.626	137.19
325.855	121.19
326.084	104.19
326.313	115.19
326.542	156.19
326.77	229.19
326.999	421.19
327.228	812.19
327.457	1437.19
327.686	1124.19
327.914	323.19
328.143	168.19
328.372	146.19
328.6	113.19
328.829	113.19
329.058	131.19
329.287	121.19
329.515	105.19
329.744	104.19
329.972	102.19
330.201	92.19
330.43	110.19
330.658	119.19
330.887	147.19
331.115	115.19
331.344	100.19
331.572	94.19
331.801	109.19
332.03	106.19
332.258	99.19
332.486	88.19
332.715	93.19
332.943	83.19
333.172	95.19
333.4	97.19
333.629	112.19
333.857	112.19
334.085	110.19
334.314	100.19
334.542	89.19
334.771	90.19
334.999	82.19
335.227	102.19
335.455	109.19
335.684	93.19
335.912	108.19
336.14	91.19
336.369	98.19
336.597	111.19
336.825	89.19
337.053	102.19
337.281	96.19
337.51	98.19
337.738	96.19
337.966	94.19
338.194	100.19
338.422	100.19
338.65	93.19
338.878	101.19
339.106	112.19
339.334	106.19
339.562	107.19
339.79	88.19
340.018	109.19
340.246	104.19
340.474	89.19
340.702	86.19
340.93	88.19
341.158	83.19
341.386	93.19
341.614	115.19
341.842	92.19
342.07	76.19
342.298	89.19
342.526	86.19
342.754	94.19
342.981	84.19
343.209	92.19
343.437	117.19
343.665	89.19
343.893	90.19
344.12	92.19
344.348	97.19
344.576	94.19
344.804	92.19
345.031	97.19
345.259	94.19
345.487	107.19
345.714	89.19
345.942	98.19
346.17	86.19
346.397	89.19
346.625	85.19
346.853	80.19
347.08	100.19
347.308	88.19
347.535	101.19
347.763	98.19
347.99	100.19
348.218	96.19
348.445	90.19
348.673	90.19
348.9	97.19
349.128	80.19
349.355	88.19
349.583	105.19
349.81	103.19
350.037	89.19
350.265	104.19
350.492	97.19
350.72	102.19
350.947	102.19
351.174	96.19
351.402	106.19
351.629	106.19
351.856	86.19
352.083	101.19
352.311	107.19
352.538	117.19
352.765	108.19
352.992	122.19
353.22	116.19
353.447	115.19
353.674	102.19
353.901	99.19
354.128	96.19
354.355	84.19
354.583	107.19
354.81	98.19
355.037	105.19
355.264	94.19
355.491	98.19
355.718	86.19
355.945	84.19
356.172	113.19
356.399	102.19
356.626	111.19
356.853	92.19
357.08	101.19
357.307	97.19
357.534	96.19
357.761	88.19
357.988	88.19
358.215	91.19
358.441	93.19
358.668	93.19
358.895	94.19
359.122	79.19
359.349	93.19
359.576	87.19
359.802	104.19
360.029	118.19
360.256	106.19
360.483	93.19
360.709	88.19
360.936	97.19
361.163	96.19
361.39	104.19
361.616	106.19
361.843	88.19
362.07	88.19
362.296	94.19
362.523	89.19
362.749	104.19
362.976	95.19
363.203	86.19
363.429	93.19
363.656	77.19
363.882	94.19
364.109	86.19
364.335	87.19
364.562	101.19
364.788	95.19
365.015	86.19
365.241	92.19
365.468	118.19
365.694	103.19
365.92	79.19
366.147	110.19
366.373	86.19
366.599	96.19
366.826	85.19
367.052	82.19
367.278	93.19
367.505	90.19
367.731	93.19
367.957	85.19
368.184	92.19
368.41	98.19
368.636	110.19
368.862	125.19
369.089	105.19
369.315	94.19
369.541	91.19
369.767	101.19
369.993	88.19
370.219	98.19
370.445	84.19
370.672	90.19
370.898	82.19
371.124	91.19
371.35	80.19
371.576	76.19
371.802	95.19
372.028	84.19
372.254	96.19
372.48	96.19
372.706	80.19
372.932	91.19
373.158	79.19
373.384	93.19
373.61	104.19
373.835	92.19
374.061	88.19
374.287	91.19
374.513	85.19
374.739	93.19
374.965	93.19
375.191	101.19
375.416	103.19
375.642	88.19
375.868	86.19
376.094	104.19
376.319	92.19
376.545	92.19
376.771	85.19
376.997	66.19
377.222	91.19
377.448	92.19
377.674	92.19
377.899	88.19
378.125	80.19
378.35	89.19
378.576	89.19
378.802	84.19
379.027	101.19
379.253	92.19
379.478	78.19
379.704	87.19
379.929	86.19
380.155	89.19
380.38	94.19
380.606	100.19
380.831	94.19
381.057	104.19
381.282	85.19
381.507	96.19
381.733	96.19
381.958	94.19
382.184	104.19
382.409	105.19
382.634	96.19
382.86	102.19
383.085	104.19
383.31	94.19
383.535	84.19
383.761	84.19
383.986	88.19
384.211	93.19
384.436	99.19
384.662	112.19
384.887	99.19
385.112	97.19
385.337	101.19
385.562	95.19
385.787	109.19
386.013	120.19
386.238	116.19
386.463	96.19
386.688	101.19
386.913	100.19
387.138	103.19
387.363	97.19
387.588	89.19
387.813	114.19
388.038	117.19
388.263	102.19
388.488	96.19
388.713	90.19
388.938	101.19
389.163	94.19
389.387	110.19
389.612	98.19
389.837	93.19
390.062	110.19
390.287	96.19
390.512	94.19
390.736	91.19
390.961	91.19
391.186	89.19
391.411	94.19
391.636	97.19
391.86	102.19
392.085	84.19
392.31	97.19
392.534	86.19
392.759	79.19
392.984	85.19
393.208	88.19
393.433	105.19
393.658	93.19
393.882	75.19
394.107	85.19
394.331	83.19
394.556	84.19
394.78	85.19
395.005	74.19
395.229	81.19
395.454	82.19
395.678	91.19
395.903	88.19
396.127	83.19
396.352	92.19
396.576	87.19
396.801	98.19
397.025	92.19
397.249	88.19
397.474	89.19
397.698	85.19
397.922	88.19
398.147	83.19
398.371	88.19
398.595	77.19
398.82	93.19
399.044	92.19
399.268	78.19
399.492	92.19
399.717	91.19
399.941	90.19
400.165	79.19
400.389	88.19
400.613	94.19
400.837	86.19
401.062	91.19
401.286	82.19
401.51	78.19
401.734	94.19
401.958	91.19
402.182	126.19
402.406	158.19
402.63	108.19
402.854	84.19
403.078	92.19
403.302	96.19
403.526	82.19
403.75	90.19
403.974	95.19
404.198	88.19
404.422	73.19
404.645	85.19
404.869	104.19
405.093	96.19
405.317	104.19
405.541	103.19
405.765	107.19
405.988	119.19
406.212	172.19
406.436	223.19
406.66	138.19
406.883	89.19
407.107	87.19
407.331	106.19
407.555	97.19
407.778	109.19
408.002	85.19
408.226	86.19
408.449	98.19
408.673	88.19
408.896	93.19
409.12	85.19
409.344	100.19
409.567	83.19
409.791	97.19
410.014	102.19
410.238	101.19
410.461	93.19
410.685	106.19
410.908	99.19
411.132	92.19
411.355	101.19
411.578	84.19
411.802	92.19
412.025	92.19
412.249	101.19
412.472	93.19
412.695	101.19
412.919	89.19
413.142	101.19
413.365	98.19
413.589	91.19
413.812	93.19
414.035	80.19
414.258	110.19
414.482	89.19
414.705	72.19
414.928	86.19
415.151	98.19
415.374	104.19
415.597	94.19
415.821	91.19
416.044	102.19
416.267	99.19
416.49	82.19
416.713	80.19
416.936	76.19
417.159	92.19
417.382	101.19
417.605	87.19
417.828	88.19
418.051	77.19
418.274	86.19
418.497	89.19
418.72	83.19
418.943	89.19
419.166	83.19
419.389	75.19
419.611	75.19
419.834	90.19
420.057	99.19
420.28	97.19
420.503	77.19
420.726	88.19
420.948	98.19
421.171	97.19
421.394	106.19
421.617	90.19
421.839	79.19
422.062	95.19
422.285	95.19
422.507	93.19
422.73	102.19
422.953	80.19
423.175	100.19
423.398	88.19
423.621	104.19
423.843	92.19
424.066	99.19
424.288	93.19
424.511	75.19
424.733	102.19
424.956	106.19
425.178	105.19
425.401	102.19
425.623	116.19
425.846	100.19
426.068	101.19
426.291	88.19
426.513	89.19
426.735	87.19
426.958	108.19
427.18	113.19
427.402	130.19
427.625	160.19
427.847	136.19
428.069	107.19
428.292	92.19
428.514	80.19
428.736	83.19
428.958	84.19
429.181	93.19
429.403	96.19
429.625	84.19
429.847	95.19
430.069	96.19
430.292	100.19
430.514	80.19
430.736	84.19
430.958	88.19
431.18	84.19
431.402	69.19
431.624	84.19
431.846	83.19
432.068	86.19
432.29	87.19
432.512	89.19
432.734	70.19
432.956	84.19
433.178	86.19
433.4	105.19
433.622	79.19
433.844	100.19
434.066	101.19
434.287	92.19
434.509	90.19
434.731	84.19
434.953	106.19
435.175	88.19
435.397	92.19
435.618	88.19
435.84	97.19
436.062	101.19
436.284	107.19
436.505	93.19
436.727	94.19
436.949	101.19
437.17	88.19
437.392	78.19
437.614	92.19
437.835	93.19
438.057	109.19
438.278	99.19
438.5	103.19
438.721	118.19
438.943	89.19
439.165	78.19
439.386	86.19
439.608	85.19
439.829	93.19
440.05	119.19
440.272	128.19
440.493	109.19
440.715	81.19
440.936	100.19
441.158	113.19
441.379	95.19
441.6	88.19
441.822	105.19
442.043	94.19
442.264	102.19
442.486	94.19
442.707	95.19
442.928	108.19
443.149	115.19
443.371	130.19
443.592	101.19
443.813	120.19
444.034	102.19
444.255	99.19
444.476	96.19
444.698	101.19
444.919	86.19
445.14	117.19
445.361	119.19
445.582	117.19
445.803	149.19
446.024	133.19
446.245	128.19
446.466	100.19
446.687	94.19
446.908	87.19
447.129	91.19
447.35	93.19
447.571	90.19
447.792	90.19
448.013	105.19
448.234	109.19
448.455	100.19
448.675	103.19
448.896	128.19
449.117	98.19
449.338	102.19
449.559	141.19
449.779	132.19
450	100.19
450.221	80.19
450.442	91.19
450.662	82.19
450.883	104.19
451.104	95.19
451.324	97.19
451.545	98.19
451.766	91.19
451.986	98.19
452.207	101.19
452.428	92.19
452.648	112.19
452.869	95.19
453.089	102.19
453.31	128.19
453.53	105.19
453.751	94.19
453.971	118.19
454.192	109.19
454.412	102.19
454.633	93.19
454.853	76.19
455.073	78.19
455.294	89.19
455.514	94.19
455.734	102.19
455.955	85.19
456.175	80.19
456.395	91.19
456.616	73.19
456.836	91.19
457.056	80.19
457.276	76.19
457.497	84.19
457.717	79.19
457.937	74.19
458.157	89.19
458.377	79.19
458.598	118.19
458.818	133.19
459.038	156.19
459.258	126.19
459.478	102.19
459.698	100.19
459.918	93.19
460.138	89.19
460.358	82.19
460.578	92.19
460.798	95.19
461.018	85.19
461.238	70.19
461.458	93.19
461.678	84.19
461.898	79.19
462.118	94.19
462.338	93.19
462.558	88.19
462.777	78.19
462.997	65.19
463.217	83.19
463.437	90.19
463.657	84.19
463.876	74.19
464.096	92.19
464.316	78.19
464.536	90.19
464.755	86.19
464.975	102.19
465.195	147.19
465.414	158.19
465.634	103.19
465.854	84.19
466.073	100.19
466.293	84.19
466.512	69.19
466.732	93.19
466.951	89.19
467.171	88.19
467.391	101.19
467.61	94.19
467.829	80.19
468.049	86.19
468.268	90.19
468.488	74.19
468.707	73.19
468.927	87.19
469.146	83.19
469.365	82.19
469.585	100.19
469.804	93.19
470.023	95.19
470.243	93.19
470.462	94.19
470.681	119.19
470.901	83.19
471.12	84.19
471.339	87.19
471.558	89.19
471.777	90.19
471.997	86.19
472.216	93.19
472.435	97.19
472.654	86.19
472.873	80.19
473.092	78.19
473.311	90.19
473.53	79.19
473.749	97.19
473.968	95.19
474.187	91.19
474.406	90.19
474.625	90.19
474.844	96.19
475.063	88.19
475.282	85.19
475.501	85.19
475.72	88.19
475.939	75.19
476.158	90.19
476.377	87.19
476.596	88.19
476.814	94.19
477.033	86.19
477.252	68.19
477.471	88.19
477.69	97.19
477.908	98.19
478.127	92.19
478.346	77.19
478.564	83.19
478.783	97.19
479.002	108.19
479.22	102.19
479.439	103.19
479.658	110.19
479.876	89.19
480.095	83.19
480.313	93.19
480.532	98.19
480.751	104.19
480.969	103.19
481.188	99.19
481.406	93.19
481.624	103.19
481.843	98.19
482.061	83.19
482.28	91.19
482.498	112.19
482.717	93.19
482.935	103.19
483.153	93.19
483.372	90.19
483.59	88.19
483.808	89.19
484.027	93.19
484.245	103.19
484.463	85.19
484.681	93.19
484.9	105.19
485.118	83.19
485.336	97.19
485.554	80.19
485.772	90.19
485.99	98.19
486.209	103.19
486.427	94.19
486.645	118.19
486.863	110.19
487.081	88.19
487.299	94.19
487.517	100.19
487.735	107.19
487.953	85.19
488.171	96.19
488.389	97.19
488.607	89.19
488.825	81.19
489.043	90.19
489.261	88.19
489.479	86.19
489.696	105.19
489.914	95.19
490.132	99.19
490.35	83.19
490.568	76.19
490.786	82.19
491.003	94.19
491.221	85.19
491.439	88.19
491.657	97.19
491.874	98.19
492.092	102.19
492.31	84.19
492.527	99.19
492.745	96.19
492.963	85.19
493.18	94.19
493.398	105.19
493.615	106.19
493.833	103.19
494.05	95.19
494.268	88.19
494.485	91.19
494.703	94.19
494.92	85.19
495.138	86.19
495.355	106.19
495.573	92.19
495.79	95.19
496.008	84.19
496.225	96.19
496.442	88.19
496.66	93.19
496.877	85.19
497.094	99.19
497.312	89.19
497.529	84.19
497.746	106.19
497.963	92.19
498.181	98.19
498.398	108.19
498.615	108.19
498.832	84.19
499.049	90.19
499.267	102.19
499.484	92.19
499.701	94.19
499.918	93.19
500.135	88.19
500.352	99.19
500.569	77.19
500.786	91.19
501.003	97.19
501.22	97.19
501.437	101.19
501.654	94.19
501.871	106.19
502.088	95.19
502.305	95.19
502.522	89.19
502.739	91.19
502.956	90.19
503.172	91.19
503.389	104.19
503.606	116.19
503.823	92.19
504.04	91.19
504.256	87.19
504.473	86.19
504.69	85.19
504.907	86.19
505.123	89.19
505.34	92.19
505.557	104.19
505.773	95.19
505.99	91.19
506.207	90.19
506.423	92.19
506.64	101.19
506.856	100.19
507.073	104.19
507.289	93.19
507.506	103.19
507.722	107.19
507.939	135.19
508.155	92.19
508.372	98.19
508.588	93.19
508.805	98.19
509.021	93.19
509.238	95.19
509.454	99.19
509.67	110.19
509.887	121.19
510.103	133.19
510.319	210.19
510.536	788.19
510.752	2350.19
510.968	645.19
511.184	154.19
511.401	117.19
511.617	98.19
511.833	96.19
512.049	99.19
512.265	97.19
512.481	93.19
512.698	104.19
512.914	91.19
513.13	90.19
513.346	100.19
513.562	94.19
513.778	100.19
513.994	90.19
514.21	93.19
514.426	119.19
514.642	148.19
514.858	117.19
515.074	176.19
515.29	475.19
515.506	1496.19
