Data from Uncirc_2001_H10_HRD10591_00054.txt Node
Date: Wed Jan 03 10:44:07 EST 2024
User: Yrep
Spectrometer: HR+D1059
Trigger mode: 1
Integration Time (sec): 1.000000E-1
Scans to average: 1
Electric dark correction enabled: true
Nonlinearity correction enabled: false
Boxcar width: 0
XAxis mode: Wavelengths
Number of Pixels in Spectrum: 2048
>>>>>Begin Spectral Data<<<<<
223.165	-29.06
223.4	-29.06
223.635	-29.06
223.869	-15.06
224.104	-15.06
224.338	-11.06
224.573	-3.06
224.808	-18.06
225.042	-9.06
225.277	-3.06
225.511	-3.06
225.746	22.94
225.98	4.94
226.215	8.94
226.449	8.94
226.683	22.94
226.918	10.94
227.152	26.94
227.387	22.94
227.621	40.94
227.856	40.94
228.09	37.94
228.324	44.94
228.559	61.94
228.793	48.94
229.027	60.94
229.262	70.94
229.496	80.94
229.73	82.94
229.964	81.94
230.199	71.94
230.433	72.94
230.667	81.94
230.901	69.94
231.136	76.94
231.37	69.94
231.604	88.94
231.838	85.94
232.072	77.94
232.306	83.94
232.541	93.94
232.775	74.94
233.009	86.94
233.243	78.94
233.477	82.94
233.711	74.94
233.945	63.94
234.179	72.94
234.413	64.94
234.647	86.94
234.881	76.94
235.115	76.94
235.349	88.94
235.583	78.94
235.817	75.94
236.051	76.94
236.285	92.94
236.519	84.94
236.753	83.94
236.987	83.94
237.221	86.94
237.455	80.94
237.689	78.94
237.922	65.94
238.156	57.94
238.39	80.94
238.624	61.94
238.858	75.94
239.091	80.94
239.325	86.94
239.559	74.94
239.793	85.94
240.027	72.94
240.26	65.94
240.494	88.94
240.728	70.94
240.961	80.94
241.195	70.94
241.429	81.94
241.662	68.94
241.896	78.94
242.13	82.94
242.363	79.94
242.597	75.94
242.83	75.94
243.064	76.94
243.298	73.94
243.531	81.94
243.765	85.94
243.998	82.94
244.232	92.94
244.465	84.94
244.699	81.94
244.932	78.94
245.166	81.94
245.399	89.94
245.633	85.94
245.866	85.94
246.099	81.94
246.333	84.94
246.566	80.94
246.8	74.94
247.033	71.94
247.266	77.94
247.5	68.94
247.733	82.94
247.966	65.94
248.2	72.94
248.433	64.94
248.666	72.94
248.899	77.94
249.133	73.94
249.366	87.94
249.599	102.94
249.832	72.94
250.066	81.94
250.299	81.94
250.532	75.94
250.765	78.94
250.998	82.94
251.231	91.94
251.465	85.94
251.698	92.94
251.931	71.94
252.164	86.94
252.397	77.94
252.63	73.94
252.863	81.94
253.096	82.94
253.329	75.94
253.562	90.94
253.795	80.94
254.028	83.94
254.261	74.94
254.494	82.94
254.727	93.94
254.96	81.94
255.193	75.94
255.426	79.94
255.659	92.94
255.892	89.94
256.124	93.94
256.357	74.94
256.59	65.94
256.823	81.94
257.056	89.94
257.289	81.94
257.521	80.94
257.754	94.94
257.987	85.94
258.22	99.94
258.452	93.94
258.685	82.94
258.918	65.94
259.151	96.94
259.383	89.94
259.616	78.94
259.849	87.94
260.081	69.94
260.314	95.94
260.547	83.94
260.779	77.94
261.012	83.94
261.244	85.94
261.477	89.94
261.71	99.94
261.942	114.94
262.175	117.94
262.407	85.94
262.64	84.94
262.872	84.94
263.105	81.94
263.337	85.94
263.57	85.94
263.802	78.94
264.035	89.94
264.267	81.94
264.499	88.94
264.732	80.94
264.964	99.94
265.197	84.94
265.429	75.94
265.661	85.94
265.894	82.94
266.126	92.94
266.358	82.94
266.591	78.94
266.823	88.94
267.055	98.94
267.287	68.94
267.52	81.94
267.752	92.94
267.984	97.94
268.216	90.94
268.448	72.94
268.681	70.94
268.913	101.94
269.145	91.94
269.377	70.94
269.609	68.94
269.841	86.94
270.073	90.94
270.306	72.94
270.538	82.94
270.77	74.94
271.002	89.94
271.234	76.94
271.466	90.94
271.698	84.94
271.93	97.94
272.162	76.94
272.394	94.94
272.626	91.94
272.858	83.94
273.09	78.94
273.322	86.94
273.553	84.94
273.785	80.94
274.017	94.94
274.249	92.94
274.481	74.94
274.713	100.94
274.945	83.94
275.176	81.94
275.408	103.94
275.64	93.94
275.872	82.94
276.104	86.94
276.335	96.94
276.567	90.94
276.799	109.94
277.031	98.94
277.262	99.94
277.494	83.94
277.726	89.94
277.957	84.94
278.189	68.94
278.421	85.94
278.652	82.94
278.884	81.94
279.115	88.94
279.347	94.94
279.579	89.94
279.81	83.94
280.042	72.94
280.273	92.94
280.505	81.94
280.736	78.94
280.968	82.94
281.199	86.94
281.431	86.94
281.662	91.94
281.894	96.94
282.125	102.94
282.356	121.94
282.588	142.94
282.819	101.94
283.051	100.94
283.282	84.94
283.513	97.94
283.745	86.94
283.976	88.94
284.207	90.94
284.439	98.94
284.67	99.94
284.901	93.94
285.132	88.94
285.364	83.94
285.595	90.94
285.826	87.94
286.057	68.94
286.288	88.94
286.52	85.94
286.751	93.94
286.982	84.94
287.213	81.94
287.444	86.94
287.675	87.94
287.906	93.94
288.138	98.94
288.369	101.94
288.6	97.94
288.831	68.94
289.062	88.94
289.293	90.94
289.524	75.94
289.755	93.94
289.986	84.94
290.217	97.94
290.448	77.94
290.679	69.94
290.91	80.94
291.141	89.94
291.371	79.94
291.602	82.94
291.833	83.94
292.064	81.94
292.295	93.94
292.526	73.94
292.757	90.94
292.987	74.94
293.218	89.94
293.449	103.94
293.68	90.94
293.91	82.94
294.141	94.94
294.372	77.94
294.603	91.94
294.833	98.94
295.064	92.94
295.295	82.94
295.525	90.94
295.756	104.94
295.987	90.94
296.217	134.94
296.448	94.94
296.679	94.94
296.909	90.94
297.14	97.94
297.37	96.94
297.601	89.94
297.831	78.94
298.062	84.94
298.292	89.94
298.523	84.94
298.753	90.94
298.984	93.94
299.214	94.94
299.445	92.94
299.675	90.94
299.905	91.94
300.136	86.94
300.366	93.94
300.597	90.94
300.827	103.94
301.057	91.94
301.288	109.94
301.518	102.94
301.748	89.94
301.979	92.94
302.209	80.94
302.439	82.94
302.669	85.94
302.9	89.94
303.13	105.94
303.36	94.94
303.59	97.94
303.82	94.94
304.051	101.94
304.281	94.94
304.511	102.94
304.741	94.94
304.971	85.94
305.201	93.94
305.431	86.94
305.661	97.94
305.891	94.94
306.121	86.94
306.352	101.94
306.582	96.94
306.812	84.94
307.042	94.94
307.272	104.94
307.502	93.94
307.731	105.94
307.961	89.94
308.191	93.94
308.421	84.94
308.651	76.94
308.881	90.94
309.111	97.94
309.341	89.94
309.571	97.94
309.8	93.94
310.03	98.94
310.26	103.94
310.49	89.94
310.72	90.94
310.949	103.94
311.179	103.94
311.409	96.94
311.639	90.94
311.868	88.94
312.098	102.94
312.328	80.94
312.557	86.94
312.787	96.94
313.017	107.94
313.246	107.94
313.476	93.94
313.706	86.94
313.935	102.94
314.165	88.94
314.394	102.94
314.624	104.94
314.853	107.94
315.083	88.94
315.312	92.94
315.542	93.94
315.771	84.94
316.001	68.94
316.23	81.94
316.46	88.94
316.689	96.94
316.919	84.94
317.148	93.94
317.377	88.94
317.607	87.94
317.836	104.94
318.065	93.94
318.295	100.94
318.524	99.94
318.753	91.94
318.983	97.94
319.212	91.94
319.441	109.94
319.67	107.94
319.9	101.94
320.129	98.94
320.358	97.94
320.587	88.94
320.816	101.94
321.046	88.94
321.275	97.94
321.504	103.94
321.733	101.94
321.962	103.94
322.191	103.94
322.42	99.94
322.649	97.94
322.878	115.94
323.108	101.94
323.337	121.94
323.566	127.94
323.795	160.94
324.024	226.94
324.253	379.94
324.482	752.94
324.71	1572.94
324.939	1981.94
325.168	734.94
325.397	228.94
325.626	130.94
325.855	122.94
326.084	120.94
326.313	129.94
326.542	149.94
326.77	214.94
326.999	439.94
327.228	880.94
327.457	1540.94
327.686	1196.94
327.914	338.94
328.143	184.94
328.372	148.94
328.6	126.94
328.829	110.94
329.058	123.94
329.287	129.94
329.515	104.94
329.744	96.94
329.972	91.94
330.201	90.94
330.43	94.94
330.658	131.94
330.887	123.94
331.115	116.94
331.344	96.94
331.572	114.94
331.801	100.94
332.03	107.94
332.258	94.94
332.486	94.94
332.715	93.94
332.943	101.94
333.172	100.94
333.4	101.94
333.629	112.94
333.857	110.94
334.085	99.94
334.314	99.94
334.542	82.94
334.771	98.94
334.999	113.94
335.227	99.94
335.455	109.94
335.684	101.94
335.912	106.94
336.14	107.94
336.369	91.94
336.597	96.94
336.825	96.94
337.053	84.94
337.281	91.94
337.51	80.94
337.738	92.94
337.966	88.94
338.194	93.94
338.422	102.94
338.65	108.94
338.878	92.94
339.106	90.94
339.334	88.94
339.562	93.94
339.79	105.94
340.018	97.94
340.246	90.94
340.474	99.94
340.702	95.94
340.93	94.94
341.158	88.94
341.386	104.94
341.614	109.94
341.842	98.94
342.07	100.94
342.298	91.94
342.526	76.94
342.754	85.94
342.981	80.94
343.209	91.94
343.437	91.94
343.665	106.94
343.893	94.94
344.12	97.94
344.348	88.94
344.576	102.94
344.804	93.94
345.031	90.94
345.259	94.94
345.487	93.94
345.714	91.94
345.942	115.94
346.17	86.94
346.397	93.94
346.625	89.94
346.853	85.94
347.08	93.94
347.308	94.94
347.535	98.94
347.763	98.94
347.99	87.94
348.218	83.94
348.445	95.94
348.673	81.94
348.9	106.94
349.128	114.94
349.355	86.94
349.583	77.94
349.81	91.94
350.037	86.94
350.265	103.94
350.492	107.94
350.72	103.94
350.947	98.94
351.174	116.94
351.402	120.94
351.629	107.94
351.856	102.94
352.083	101.94
352.311	91.94
352.538	112.94
352.765	102.94
352.992	112.94
353.22	107.94
353.447	99.94
353.674	99.94
353.901	91.94
354.128	85.94
354.355	99.94
354.583	102.94
354.81	109.94
355.037	101.94
355.264	91.94
355.491	84.94
355.718	93.94
355.945	100.94
356.172	89.94
356.399	84.94
356.626	99.94
356.853	94.94
357.08	95.94
357.307	101.94
357.534	99.94
357.761	88.94
357.988	98.94
358.215	86.94
358.441	99.94
358.668	81.94
358.895	90.94
359.122	94.94
359.349	87.94
359.576	93.94
359.802	96.94
360.029	97.94
360.256	103.94
360.483	93.94
360.709	94.94
360.936	102.94
361.163	89.94
361.39	103.94
361.616	104.94
361.843	102.94
362.07	107.94
362.296	93.94
362.523	93.94
362.749	103.94
362.976	103.94
363.203	90.94
363.429	92.94
363.656	95.94
363.882	92.94
364.109	84.94
364.335	77.94
364.562	86.94
364.788	93.94
365.015	103.94
365.241	102.94
365.468	117.94
365.694	108.94
365.92	97.94
366.147	91.94
366.373	93.94
366.599	88.94
366.826	97.94
367.052	91.94
367.278	100.94
367.505	75.94
367.731	82.94
367.957	99.94
368.184	94.94
368.41	94.94
368.636	123.94
368.862	128.94
369.089	115.94
369.315	92.94
369.541	97.94
369.767	81.94
369.993	84.94
370.219	89.94
370.445	86.94
370.672	77.94
370.898	96.94
371.124	74.94
371.35	103.94
371.576	87.94
371.802	82.94
372.028	101.94
372.254	108.94
372.48	89.94
372.706	94.94
372.932	86.94
373.158	89.94
373.384	106.94
373.61	93.94
373.835	89.94
374.061	95.94
374.287	103.94
374.513	84.94
374.739	86.94
374.965	96.94
375.191	88.94
375.416	97.94
375.642	85.94
375.868	82.94
376.094	96.94
376.319	90.94
376.545	101.94
376.771	93.94
376.997	89.94
377.222	80.94
377.448	94.94
377.674	103.94
377.899	103.94
378.125	76.94
378.35	93.94
378.576	107.94
378.802	84.94
379.027	94.94
379.253	106.94
379.478	86.94
379.704	80.94
379.929	80.94
380.155	93.94
380.38	109.94
380.606	89.94
380.831	93.94
381.057	94.94
381.282	91.94
381.507	88.94
381.733	89.94
381.958	95.94
382.184	95.94
382.409	102.94
382.634	111.94
382.86	94.94
383.085	94.94
383.31	97.94
383.535	97.94
383.761	91.94
383.986	100.94
384.211	108.94
384.436	102.94
384.662	109.94
384.887	102.94
385.112	101.94
385.337	111.94
385.562	106.94
385.787	101.94
386.013	113.94
386.238	97.94
386.463	102.94
386.688	116.94
386.913	108.94
387.138	109.94
387.363	105.94
387.588	85.94
387.813	112.94
388.038	106.94
388.263	107.94
388.488	106.94
388.713	93.94
388.938	109.94
389.163	103.94
389.387	110.94
389.612	93.94
389.837	96.94
390.062	82.94
390.287	93.94
390.512	105.94
390.736	86.94
390.961	89.94
391.186	97.94
391.411	115.94
391.636	94.94
391.86	81.94
392.085	91.94
392.31	93.94
392.534	89.94
392.759	92.94
392.984	91.94
393.208	76.94
393.433	94.94
393.658	89.94
393.882	80.94
394.107	84.94
394.331	88.94
394.556	93.94
394.78	97.94
395.005	84.94
395.229	85.94
395.454	109.94
395.678	99.94
395.903	73.94
396.127	102.94
396.352	84.94
396.576	82.94
396.801	102.94
397.025	85.94
397.249	86.94
397.474	102.94
397.698	87.94
397.922	84.94
398.147	80.94
398.371	85.94
398.595	86.94
398.82	82.94
399.044	81.94
399.268	82.94
399.492	93.94
399.717	86.94
399.941	79.94
400.165	100.94
400.389	92.94
400.613	82.94
400.837	94.94
401.062	95.94
401.286	93.94
401.51	89.94
401.734	89.94
401.958	93.94
402.182	129.94
402.406	157.94
402.63	128.94
402.854	100.94
403.078	88.94
403.302	87.94
403.526	74.94
403.75	97.94
403.974	91.94
404.198	87.94
404.422	90.94
404.645	90.94
404.869	96.94
405.093	91.94
405.317	87.94
405.541	101.94
405.765	97.94
405.988	108.94
406.212	156.94
406.436	220.94
406.66	150.94
406.883	90.94
407.107	99.94
407.331	93.94
407.555	105.94
407.778	94.94
408.002	80.94
408.226	88.94
408.449	100.94
408.673	88.94
408.896	103.94
409.12	91.94
409.344	90.94
409.567	92.94
409.791	94.94
410.014	91.94
410.238	88.94
410.461	104.94
410.685	93.94
410.908	93.94
411.132	96.94
411.355	92.94
411.578	95.94
411.802	85.94
412.025	85.94
412.249	79.94
412.472	99.94
412.695	98.94
412.919	96.94
413.142	98.94
413.365	94.94
413.589	80.94
413.812	96.94
414.035	94.94
414.258	91.94
414.482	109.94
414.705	93.94
414.928	85.94
415.151	92.94
415.374	100.94
415.597	85.94
415.821	105.94
416.044	92.94
416.267	95.94
416.49	88.94
416.713	99.94
416.936	90.94
417.159	85.94
417.382	89.94
417.605	95.94
417.828	106.94
418.051	100.94
418.274	106.94
418.497	93.94
418.72	89.94
418.943	93.94
419.166	89.94
419.389	91.94
419.611	97.94
419.834	97.94
420.057	85.94
420.28	92.94
420.503	98.94
420.726	97.94
420.948	97.94
421.171	95.94
421.394	80.94
421.617	92.94
421.839	93.94
422.062	90.94
422.285	93.94
422.507	95.94
422.73	108.94
422.953	83.94
423.175	100.94
423.398	96.94
423.621	94.94
423.843	94.94
424.066	96.94
424.288	86.94
424.511	85.94
424.733	98.94
424.956	110.94
425.178	98.94
425.401	104.94
425.623	98.94
425.846	93.94
426.068	105.94
426.291	100.94
426.513	74.94
426.735	92.94
426.958	90.94
427.18	115.94
427.402	133.94
427.625	158.94
427.847	116.94
428.069	110.94
428.292	88.94
428.514	97.94
428.736	82.94
428.958	105.94
429.181	99.94
429.403	96.94
429.625	93.94
429.847	84.94
430.069	93.94
430.292	84.94
430.514	78.94
430.736	86.94
430.958	98.94
431.18	94.94
431.402	90.94
431.624	83.94
431.846	85.94
432.068	92.94
432.29	90.94
432.512	89.94
432.734	100.94
432.956	97.94
433.178	111.94
433.4	96.94
433.622	112.94
433.844	100.94
434.066	91.94
434.287	98.94
434.509	92.94
434.731	82.94
434.953	94.94
435.175	98.94
435.397	102.94
435.618	103.94
435.84	97.94
436.062	117.94
436.284	105.94
436.505	104.94
436.727	117.94
436.949	93.94
437.17	95.94
437.392	74.94
437.614	87.94
437.835	107.94
438.057	111.94
438.278	103.94
438.5	106.94
438.721	119.94
438.943	112.94
439.165	98.94
439.386	93.94
439.608	88.94
439.829	104.94
440.05	110.94
440.272	141.94
440.493	100.94
440.715	96.94
440.936	83.94
441.158	98.94
441.379	90.94
441.6	87.94
441.822	102.94
442.043	93.94
442.264	102.94
442.486	117.94
442.707	94.94
442.928	101.94
443.149	120.94
443.371	136.94
443.592	97.94
443.813	104.94
444.034	101.94
444.255	85.94
444.476	80.94
444.698	77.94
444.919	87.94
445.14	124.94
445.361	114.94
445.582	121.94
445.803	134.94
446.024	136.94
446.245	148.94
446.466	114.94
446.687	85.94
446.908	95.94
447.129	93.94
447.35	90.94
447.571	94.94
447.792	94.94
448.013	101.94
448.234	108.94
448.455	104.94
448.675	97.94
448.896	128.94
449.117	113.94
449.338	107.94
449.559	132.94
449.779	151.94
450	86.94
450.221	93.94
450.442	89.94
450.662	106.94
450.883	113.94
451.104	116.94
451.324	94.94
451.545	100.94
451.766	91.94
451.986	88.94
452.207	85.94
452.428	97.94
452.648	95.94
452.869	103.94
453.089	114.94
453.31	127.94
453.53	83.94
453.751	89.94
453.971	110.94
454.192	90.94
454.412	93.94
454.633	91.94
454.853	116.94
455.073	101.94
455.294	86.94
455.514	93.94
455.734	85.94
455.955	93.94
456.175	75.94
456.395	86.94
456.616	88.94
456.836	86.94
457.056	80.94
457.276	89.94
457.497	72.94
457.717	88.94
457.937	101.94
458.157	88.94
458.377	98.94
458.598	107.94
458.818	148.94
459.038	157.94
459.258	105.94
459.478	83.94
459.698	86.94
459.918	92.94
460.138	91.94
460.358	90.94
460.578	84.94
460.798	89.94
461.018	87.94
461.238	90.94
461.458	94.94
461.678	98.94
461.898	88.94
462.118	88.94
462.338	76.94
462.558	89.94
462.777	82.94
462.997	90.94
463.217	89.94
463.437	94.94
463.657	89.94
463.876	97.94
464.096	97.94
464.316	89.94
464.536	112.94
464.755	108.94
464.975	102.94
465.195	169.94
465.414	155.94
465.634	81.94
465.854	96.94
466.073	98.94
466.293	93.94
466.512	76.94
466.732	76.94
466.951	86.94
467.171	71.94
467.391	82.94
467.61	80.94
467.829	94.94
468.049	86.94
468.268	90.94
468.488	85.94
468.707	95.94
468.927	78.94
469.146	96.94
469.365	96.94
469.585	92.94
469.804	88.94
470.023	96.94
470.243	99.94
470.462	103.94
470.681	98.94
470.901	87.94
471.12	88.94
471.339	86.94
471.558	88.94
471.777	76.94
471.997	90.94
472.216	85.94
472.435	92.94
472.654	94.94
472.873	82.94
473.092	88.94
473.311	84.94
473.53	79.94
473.749	92.94
473.968	108.94
474.187	99.94
474.406	86.94
474.625	94.94
474.844	84.94
475.063	93.94
475.282	95.94
475.501	93.94
475.72	89.94
475.939	92.94
476.158	95.94
476.377	90.94
476.596	92.94
476.814	81.94
477.033	97.94
477.252	84.94
477.471	96.94
477.69	91.94
477.908	77.94
478.127	97.94
478.346	78.94
478.564	91.94
478.783	104.94
479.002	91.94
479.22	85.94
479.439	105.94
479.658	96.94
479.876	87.94
480.095	93.94
480.313	88.94
480.532	96.94
480.751	102.94
480.969	92.94
481.188	94.94
481.406	92.94
481.624	96.94
481.843	77.94
482.061	90.94
482.28	90.94
482.498	95.94
482.717	88.94
482.935	96.94
483.153	85.94
483.372	94.94
483.59	98.94
483.808	75.94
484.027	84.94
484.245	99.94
484.463	96.94
484.681	100.94
484.9	95.94
485.118	89.94
485.336	96.94
485.554	100.94
485.772	95.94
485.99	96.94
486.209	86.94
486.427	99.94
486.645	102.94
486.863	119.94
487.081	104.94
487.299	92.94
487.517	99.94
487.735	98.94
487.953	97.94
488.171	100.94
488.389	87.94
488.607	99.94
488.825	82.94
489.043	95.94
489.261	86.94
489.479	95.94
489.696	76.94
489.914	93.94
490.132	90.94
490.35	92.94
490.568	93.94
490.786	90.94
491.003	100.94
491.221	81.94
491.439	85.94
491.657	71.94
491.874	112.94
492.092	85.94
492.31	96.94
492.527	76.94
492.745	86.94
492.963	85.94
493.18	100.94
493.398	90.94
493.615	93.94
493.833	94.94
494.05	86.94
494.268	94.94
494.485	86.94
494.703	90.94
494.92	76.94
495.138	103.94
495.355	96.94
495.573	84.94
495.79	97.94
496.008	94.94
496.225	92.94
496.442	87.94
496.66	105.94
496.877	96.94
497.094	103.94
497.312	99.94
497.529	86.94
497.746	99.94
497.963	91.94
498.181	100.94
498.398	86.94
498.615	107.94
498.832	94.94
499.049	89.94
499.267	86.94
499.484	98.94
499.701	100.94
499.918	74.94
500.135	100.94
500.352	97.94
500.569	77.94
500.786	92.94
501.003	95.94
501.22	94.94
501.437	81.94
501.654	93.94
501.871	94.94
502.088	93.94
502.305	103.94
502.522	101.94
502.739	90.94
502.956	66.94
503.172	84.94
503.389	93.94
503.606	106.94
503.823	80.94
504.04	96.94
504.256	89.94
504.473	97.94
504.69	91.94
504.907	93.94
505.123	92.94
505.34	102.94
505.557	101.94
505.773	89.94
505.99	83.94
506.207	92.94
506.423	72.94
506.64	112.94
506.856	86.94
507.073	91.94
507.289	86.94
507.506	102.94
507.722	122.94
507.939	109.94
508.155	101.94
508.372	89.94
508.588	95.94
508.805	108.94
509.021	93.94
509.238	98.94
509.454	89.94
509.67	105.94
509.887	105.94
510.103	126.94
510.319	203.94
510.536	771.94
510.752	2334.94
510.968	664.94
511.184	156.94
511.401	107.94
511.617	115.94
511.833	112.94
512.049	87.94
512.265	88.94
512.481	89.94
512.698	83.94
512.914	99.94
513.13	96.94
513.346	85.94
513.562	85.94
513.778	94.94
513.994	101.94
514.21	91.94
514.426	101.94
514.642	130.94
514.858	126.94
515.074	172.94
515.29	461.94
515.506	1518.94
