Data from Uncirc_2001_H10_HRD10591_00037.txt Node
Date: Wed Jan 03 10:44:04 EST 2024
User: Yrep
Spectrometer: HR+D1059
Trigger mode: 1
Integration Time (sec): 1.000000E-1
Scans to average: 1
Electric dark correction enabled: true
Nonlinearity correction enabled: false
Boxcar width: 0
XAxis mode: Wavelengths
Number of Pixels in Spectrum: 2048
>>>>>Begin Spectral Data<<<<<
223.165	-19.44
223.4	-19.44
223.635	-19.44
223.869	-19.44
224.104	-5.44
224.338	-12.44
224.573	-18.44
224.808	-23.44
225.042	-19.44
225.277	-23.44
225.511	2.56
225.746	10.56
225.98	14.56
226.215	15.56
226.449	26.56
226.683	14.56
226.918	26.56
227.152	30.56
227.387	42.56
227.621	44.56
227.856	46.56
228.09	45.56
228.324	63.56
228.559	59.56
228.793	64.56
229.027	52.56
229.262	70.56
229.496	64.56
229.73	86.56
229.964	73.56
230.199	73.56
230.433	70.56
230.667	80.56
230.901	81.56
231.136	78.56
231.37	85.56
231.604	82.56
231.838	82.56
232.072	76.56
232.306	86.56
232.541	75.56
232.775	71.56
233.009	89.56
233.243	76.56
233.477	82.56
233.711	94.56
233.945	87.56
234.179	74.56
234.413	78.56
234.647	82.56
234.881	78.56
235.115	72.56
235.349	100.56
235.583	90.56
235.817	76.56
236.051	79.56
236.285	85.56
236.519	75.56
236.753	87.56
236.987	90.56
237.221	82.56
237.455	77.56
237.689	78.56
237.922	80.56
238.156	81.56
238.39	86.56
238.624	59.56
238.858	78.56
239.091	80.56
239.325	76.56
239.559	87.56
239.793	79.56
240.027	92.56
240.26	58.56
240.494	80.56
240.728	82.56
240.961	78.56
241.195	72.56
241.429	74.56
241.662	87.56
241.896	75.56
242.13	88.56
242.363	91.56
242.597	77.56
242.83	73.56
243.064	81.56
243.298	79.56
243.531	75.56
243.765	74.56
243.998	86.56
244.232	88.56
244.465	82.56
244.699	102.56
244.932	78.56
245.166	89.56
245.399	76.56
245.633	85.56
245.866	100.56
246.099	69.56
246.333	85.56
246.566	86.56
246.8	78.56
247.033	80.56
247.266	73.56
247.5	85.56
247.733	74.56
247.966	80.56
248.2	102.56
248.433	86.56
248.666	87.56
248.899	92.56
249.133	78.56
249.366	95.56
249.599	84.56
249.832	80.56
250.066	93.56
250.299	78.56
250.532	83.56
250.765	91.56
250.998	74.56
251.231	80.56
251.465	79.56
251.698	72.56
251.931	79.56
252.164	90.56
252.397	74.56
252.63	89.56
252.863	83.56
253.096	77.56
253.329	97.56
253.562	82.56
253.795	71.56
254.028	81.56
254.261	87.56
254.494	82.56
254.727	73.56
254.96	89.56
255.193	78.56
255.426	89.56
255.659	77.56
255.892	75.56
256.124	85.56
256.357	83.56
256.59	79.56
256.823	103.56
257.056	94.56
257.289	95.56
257.521	87.56
257.754	88.56
257.987	78.56
258.22	83.56
258.452	82.56
258.685	77.56
258.918	92.56
259.151	88.56
259.383	76.56
259.616	101.56
259.849	76.56
260.081	83.56
260.314	92.56
260.547	87.56
260.779	86.56
261.012	85.56
261.244	98.56
261.477	84.56
261.71	91.56
261.942	130.56
262.175	104.56
262.407	86.56
262.64	91.56
262.872	78.56
263.105	81.56
263.337	64.56
263.57	84.56
263.802	87.56
264.035	86.56
264.267	90.56
264.499	73.56
264.732	94.56
264.964	92.56
265.197	77.56
265.429	87.56
265.661	87.56
265.894	100.56
266.126	97.56
266.358	82.56
266.591	79.56
266.823	84.56
267.055	85.56
267.287	83.56
267.52	67.56
267.752	84.56
267.984	79.56
268.216	91.56
268.448	94.56
268.681	83.56
268.913	80.56
269.145	95.56
269.377	87.56
269.609	93.56
269.841	73.56
270.073	94.56
270.306	86.56
270.538	79.56
270.77	84.56
271.002	80.56
271.234	68.56
271.466	83.56
271.698	79.56
271.93	96.56
272.162	92.56
272.394	88.56
272.626	85.56
272.858	76.56
273.09	82.56
273.322	94.56
273.553	73.56
273.785	91.56
274.017	70.56
274.249	92.56
274.481	95.56
274.713	78.56
274.945	93.56
275.176	97.56
275.408	89.56
275.64	100.56
275.872	95.56
276.104	96.56
276.335	90.56
276.567	96.56
276.799	96.56
277.031	98.56
277.262	88.56
277.494	95.56
277.726	80.56
277.957	85.56
278.189	90.56
278.421	81.56
278.652	87.56
278.884	90.56
279.115	82.56
279.347	83.56
279.579	86.56
279.81	96.56
280.042	83.56
280.273	98.56
280.505	79.56
280.736	88.56
280.968	79.56
281.199	84.56
281.431	87.56
281.662	87.56
281.894	103.56
282.125	87.56
282.356	126.56
282.588	128.56
282.819	102.56
283.051	86.56
283.282	84.56
283.513	93.56
283.745	96.56
283.976	82.56
284.207	82.56
284.439	94.56
284.67	82.56
284.901	76.56
285.132	94.56
285.364	91.56
285.595	87.56
285.826	72.56
286.057	87.56
286.288	81.56
286.52	95.56
286.751	85.56
286.982	92.56
287.213	76.56
287.444	86.56
287.675	93.56
287.906	90.56
288.138	93.56
288.369	98.56
288.6	77.56
288.831	86.56
289.062	94.56
289.293	87.56
289.524	75.56
289.755	67.56
289.986	95.56
290.217	97.56
290.448	106.56
290.679	83.56
290.91	101.56
291.141	93.56
291.371	88.56
291.602	103.56
291.833	88.56
292.064	82.56
292.295	90.56
292.526	75.56
292.757	92.56
292.987	107.56
293.218	94.56
293.449	90.56
293.68	88.56
293.91	94.56
294.141	98.56
294.372	89.56
294.603	107.56
294.833	111.56
295.064	101.56
295.295	98.56
295.525	82.56
295.756	108.56
295.987	111.56
296.217	131.56
296.448	116.56
296.679	89.56
296.909	75.56
297.14	101.56
297.37	84.56
297.601	88.56
297.831	93.56
298.062	96.56
298.292	94.56
298.523	91.56
298.753	87.56
298.984	90.56
299.214	78.56
299.445	90.56
299.675	87.56
299.905	84.56
300.136	91.56
300.366	93.56
300.597	92.56
300.827	91.56
301.057	85.56
301.288	98.56
301.518	89.56
301.748	100.56
301.979	119.56
302.209	108.56
302.439	86.56
302.669	78.56
302.9	90.56
303.13	90.56
303.36	97.56
303.59	106.56
303.82	110.56
304.051	83.56
304.281	95.56
304.511	94.56
304.741	78.56
304.971	99.56
305.201	91.56
305.431	101.56
305.661	91.56
305.891	86.56
306.121	96.56
306.352	114.56
306.582	93.56
306.812	91.56
307.042	96.56
307.272	84.56
307.502	88.56
307.731	83.56
307.961	94.56
308.191	94.56
308.421	93.56
308.651	91.56
308.881	96.56
309.111	94.56
309.341	93.56
309.571	99.56
309.8	96.56
310.03	92.56
310.26	89.56
310.49	97.56
310.72	105.56
310.949	114.56
311.179	91.56
311.409	119.56
311.639	102.56
311.868	86.56
312.098	95.56
312.328	100.56
312.557	106.56
312.787	106.56
313.017	109.56
313.246	106.56
313.476	99.56
313.706	103.56
313.935	102.56
314.165	105.56
314.394	95.56
314.624	99.56
314.853	102.56
315.083	89.56
315.312	92.56
315.542	94.56
315.771	85.56
316.001	78.56
316.23	93.56
316.46	94.56
316.689	102.56
316.919	97.56
317.148	105.56
317.377	106.56
317.607	106.56
317.836	87.56
318.065	82.56
318.295	74.56
318.524	104.56
318.753	88.56
318.983	100.56
319.212	105.56
319.441	106.56
319.67	110.56
319.9	96.56
320.129	93.56
320.358	109.56
320.587	95.56
320.816	92.56
321.046	101.56
321.275	96.56
321.504	95.56
321.733	95.56
321.962	102.56
322.191	110.56
322.42	98.56
322.649	103.56
322.878	115.56
323.108	124.56
323.337	114.56
323.566	117.56
323.795	148.56
324.024	184.56
324.253	357.56
324.482	742.56
324.71	1480.56
324.939	1851.56
325.168	722.56
325.397	222.56
325.626	141.56
325.855	127.56
326.084	135.56
326.313	137.56
326.542	140.56
326.77	203.56
326.999	410.56
327.228	827.56
327.457	1431.56
327.686	1136.56
327.914	322.56
328.143	175.56
328.372	132.56
328.6	137.56
328.829	116.56
329.058	110.56
329.287	121.56
329.515	112.56
329.744	93.56
329.972	99.56
330.201	102.56
330.43	114.56
330.658	112.56
330.887	137.56
331.115	121.56
331.344	99.56
331.572	97.56
331.801	86.56
332.03	101.56
332.258	103.56
332.486	88.56
332.715	77.56
332.943	95.56
333.172	88.56
333.4	97.56
333.629	116.56
333.857	106.56
334.085	110.56
334.314	79.56
334.542	94.56
334.771	105.56
334.999	106.56
335.227	101.56
335.455	92.56
335.684	92.56
335.912	98.56
336.14	108.56
336.369	100.56
336.597	108.56
336.825	101.56
337.053	92.56
337.281	89.56
337.51	87.56
337.738	87.56
337.966	87.56
338.194	114.56
338.422	102.56
338.65	90.56
338.878	84.56
339.106	96.56
339.334	94.56
339.562	95.56
339.79	90.56
340.018	91.56
340.246	88.56
340.474	95.56
340.702	93.56
340.93	105.56
341.158	101.56
341.386	85.56
341.614	75.56
341.842	87.56
342.07	91.56
342.298	94.56
342.526	77.56
342.754	80.56
342.981	88.56
343.209	90.56
343.437	99.56
343.665	100.56
343.893	91.56
344.12	97.56
344.348	99.56
344.576	94.56
344.804	105.56
345.031	108.56
345.259	102.56
345.487	74.56
345.714	102.56
345.942	88.56
346.17	73.56
346.397	98.56
346.625	107.56
346.853	109.56
347.08	99.56
347.308	94.56
347.535	96.56
347.763	100.56
347.99	100.56
348.218	102.56
348.445	95.56
348.673	117.56
348.9	88.56
349.128	87.56
349.355	85.56
349.583	108.56
349.81	102.56
350.037	100.56
350.265	102.56
350.492	106.56
350.72	114.56
350.947	91.56
351.174	105.56
351.402	95.56
351.629	104.56
351.856	100.56
352.083	101.56
352.311	100.56
352.538	102.56
352.765	114.56
352.992	109.56
353.22	112.56
353.447	103.56
353.674	108.56
353.901	108.56
354.128	95.56
354.355	87.56
354.583	117.56
354.81	94.56
355.037	95.56
355.264	97.56
355.491	90.56
355.718	105.56
355.945	106.56
356.172	104.56
356.399	101.56
356.626	102.56
356.853	93.56
357.08	82.56
357.307	87.56
357.534	86.56
357.761	88.56
357.988	99.56
358.215	93.56
358.441	96.56
358.668	93.56
358.895	93.56
359.122	93.56
359.349	101.56
359.576	86.56
359.802	94.56
360.029	99.56
360.256	114.56
360.483	96.56
360.709	86.56
360.936	100.56
361.163	80.56
361.39	96.56
361.616	91.56
361.843	92.56
362.07	99.56
362.296	108.56
362.523	89.56
362.749	112.56
362.976	94.56
363.203	87.56
363.429	90.56
363.656	95.56
363.882	87.56
364.109	106.56
364.335	109.56
364.562	108.56
364.788	92.56
365.015	102.56
365.241	114.56
365.468	118.56
365.694	117.56
365.92	105.56
366.147	89.56
366.373	90.56
366.599	92.56
366.826	104.56
367.052	81.56
367.278	86.56
367.505	93.56
367.731	90.56
367.957	100.56
368.184	93.56
368.41	115.56
368.636	113.56
368.862	102.56
369.089	94.56
369.315	92.56
369.541	90.56
369.767	102.56
369.993	85.56
370.219	102.56
370.445	87.56
370.672	99.56
370.898	78.56
371.124	78.56
371.35	94.56
371.576	82.56
371.802	87.56
372.028	102.56
372.254	96.56
372.48	91.56
372.706	80.56
372.932	93.56
373.158	86.56
373.384	91.56
373.61	105.56
373.835	96.56
374.061	103.56
374.287	88.56
374.513	101.56
374.739	90.56
374.965	80.56
375.191	91.56
375.416	74.56
375.642	91.56
375.868	87.56
376.094	88.56
376.319	99.56
376.545	95.56
376.771	92.56
376.997	92.56
377.222	102.56
377.448	105.56
377.674	86.56
377.899	92.56
378.125	103.56
378.35	103.56
378.576	104.56
378.802	96.56
379.027	98.56
379.253	88.56
379.478	93.56
379.704	87.56
379.929	102.56
380.155	88.56
380.38	94.56
380.606	99.56
380.831	82.56
381.057	90.56
381.282	84.56
381.507	108.56
381.733	80.56
381.958	109.56
382.184	111.56
382.409	106.56
382.634	111.56
382.86	106.56
383.085	113.56
383.31	105.56
383.535	96.56
383.761	92.56
383.986	97.56
384.211	99.56
384.436	103.56
384.662	91.56
384.887	102.56
385.112	108.56
385.337	100.56
385.562	106.56
385.787	102.56
386.013	124.56
386.238	118.56
386.463	90.56
386.688	109.56
386.913	105.56
387.138	111.56
387.363	100.56
387.588	100.56
387.813	92.56
388.038	94.56
388.263	121.56
388.488	97.56
388.713	100.56
388.938	85.56
389.163	101.56
389.387	94.56
389.612	104.56
389.837	97.56
390.062	114.56
390.287	100.56
390.512	92.56
390.736	82.56
390.961	97.56
391.186	111.56
391.411	88.56
391.636	88.56
391.86	83.56
392.085	89.56
392.31	93.56
392.534	79.56
392.759	67.56
392.984	88.56
393.208	96.56
393.433	88.56
393.658	109.56
393.882	94.56
394.107	80.56
394.331	83.56
394.556	96.56
394.78	85.56
395.005	97.56
395.229	94.56
395.454	100.56
395.678	76.56
395.903	88.56
396.127	75.56
396.352	89.56
396.576	83.56
396.801	101.56
397.025	96.56
397.249	86.56
397.474	96.56
397.698	91.56
397.922	95.56
398.147	101.56
398.371	100.56
398.595	91.56
398.82	94.56
399.044	97.56
399.268	93.56
399.492	84.56
399.717	82.56
399.941	86.56
400.165	96.56
400.389	91.56
400.613	87.56
400.837	89.56
401.062	99.56
401.286	92.56
401.51	89.56
401.734	79.56
401.958	95.56
402.182	127.56
402.406	159.56
402.63	114.56
402.854	100.56
403.078	91.56
403.302	88.56
403.526	88.56
403.75	100.56
403.974	99.56
404.198	81.56
404.422	93.56
404.645	101.56
404.869	100.56
405.093	90.56
405.317	99.56
405.541	96.56
405.765	116.56
405.988	115.56
406.212	159.56
406.436	217.56
406.66	139.56
406.883	107.56
407.107	84.56
407.331	114.56
407.555	92.56
407.778	99.56
408.002	89.56
408.226	74.56
408.449	94.56
408.673	105.56
408.896	99.56
409.12	96.56
409.344	93.56
409.567	81.56
409.791	83.56
410.014	102.56
410.238	98.56
410.461	87.56
410.685	98.56
410.908	102.56
411.132	101.56
411.355	106.56
411.578	103.56
411.802	90.56
412.025	85.56
412.249	89.56
412.472	93.56
412.695	91.56
412.919	97.56
413.142	73.56
413.365	90.56
413.589	95.56
413.812	84.56
414.035	87.56
414.258	89.56
414.482	88.56
414.705	83.56
414.928	96.56
415.151	99.56
415.374	93.56
415.597	93.56
415.821	105.56
416.044	88.56
416.267	96.56
416.49	95.56
416.713	81.56
416.936	91.56
417.159	90.56
417.382	88.56
417.605	89.56
417.828	99.56
418.051	100.56
418.274	88.56
418.497	92.56
418.72	79.56
418.943	99.56
419.166	90.56
419.389	96.56
419.611	95.56
419.834	96.56
420.057	69.56
420.28	97.56
420.503	99.56
420.726	84.56
420.948	90.56
421.171	95.56
421.394	91.56
421.617	92.56
421.839	89.56
422.062	94.56
422.285	96.56
422.507	99.56
422.73	110.56
422.953	97.56
423.175	94.56
423.398	95.56
423.621	91.56
423.843	95.56
424.066	72.56
424.288	81.56
424.511	92.56
424.733	101.56
424.956	109.56
425.178	103.56
425.401	101.56
425.623	111.56
425.846	101.56
426.068	92.56
426.291	101.56
426.513	95.56
426.735	92.56
426.958	106.56
427.18	105.56
427.402	118.56
427.625	161.56
427.847	124.56
428.069	106.56
428.292	103.56
428.514	89.56
428.736	94.56
428.958	95.56
429.181	85.56
429.403	87.56
429.625	93.56
429.847	89.56
430.069	101.56
430.292	90.56
430.514	82.56
430.736	94.56
430.958	89.56
431.18	100.56
431.402	95.56
431.624	85.56
431.846	91.56
432.068	90.56
432.29	81.56
432.512	90.56
432.734	92.56
432.956	94.56
433.178	97.56
433.4	89.56
433.622	88.56
433.844	78.56
434.066	96.56
434.287	94.56
434.509	80.56
434.731	91.56
434.953	93.56
435.175	94.56
435.397	96.56
435.618	90.56
435.84	95.56
436.062	122.56
436.284	116.56
436.505	100.56
436.727	103.56
436.949	92.56
437.17	83.56
437.392	90.56
437.614	98.56
437.835	106.56
438.057	125.56
438.278	112.56
438.5	107.56
438.721	126.56
438.943	104.56
439.165	88.56
439.386	100.56
439.608	98.56
439.829	100.56
440.05	130.56
440.272	142.56
440.493	102.56
440.715	95.56
440.936	90.56
441.158	91.56
441.379	87.56
441.6	97.56
441.822	87.56
442.043	97.56
442.264	105.56
442.486	114.56
442.707	99.56
442.928	106.56
443.149	124.56
443.371	121.56
443.592	103.56
443.813	103.56
444.034	107.56
444.255	98.56
444.476	86.56
444.698	78.56
444.919	91.56
445.14	134.56
445.361	112.56
445.582	115.56
445.803	144.56
446.024	130.56
446.245	124.56
446.466	101.56
446.687	102.56
446.908	96.56
447.129	98.56
447.35	91.56
447.571	94.56
447.792	109.56
448.013	105.56
448.234	114.56
448.455	98.56
448.675	120.56
448.896	128.56
449.117	107.56
449.338	98.56
449.559	136.56
449.779	137.56
450	88.56
450.221	90.56
450.442	92.56
450.662	90.56
450.883	106.56
451.104	105.56
451.324	99.56
451.545	98.56
451.766	93.56
451.986	102.56
452.207	100.56
452.428	91.56
452.648	98.56
452.869	105.56
453.089	115.56
453.31	109.56
453.53	90.56
453.751	83.56
453.971	98.56
454.192	109.56
454.412	95.56
454.633	90.56
454.853	101.56
455.073	80.56
455.294	84.56
455.514	86.56
455.734	86.56
455.955	84.56
456.175	84.56
456.395	94.56
456.616	86.56
456.836	93.56
457.056	87.56
457.276	88.56
457.497	89.56
457.717	85.56
457.937	96.56
458.157	93.56
458.377	91.56
458.598	114.56
458.818	142.56
459.038	162.56
459.258	127.56
459.478	103.56
459.698	103.56
459.918	99.56
460.138	93.56
460.358	87.56
460.578	78.56
460.798	85.56
461.018	99.56
461.238	95.56
461.458	95.56
461.678	95.56
461.898	87.56
462.118	85.56
462.338	100.56
462.558	85.56
462.777	81.56
462.997	84.56
463.217	91.56
463.437	84.56
463.657	74.56
463.876	88.56
464.096	90.56
464.316	98.56
464.536	87.56
464.755	105.56
464.975	111.56
465.195	160.56
465.414	158.56
465.634	101.56
465.854	98.56
466.073	75.56
466.293	89.56
466.512	90.56
466.732	94.56
466.951	105.56
467.171	94.56
467.391	87.56
467.61	100.56
467.829	95.56
468.049	74.56
468.268	92.56
468.488	100.56
468.707	95.56
468.927	76.56
469.146	96.56
469.365	97.56
469.585	101.56
469.804	93.56
470.023	101.56
470.243	92.56
470.462	86.56
470.681	102.56
470.901	109.56
471.12	90.56
471.339	89.56
471.558	78.56
471.777	92.56
471.997	91.56
472.216	96.56
472.435	103.56
472.654	84.56
472.873	90.56
473.092	84.56
473.311	99.56
473.53	91.56
473.749	108.56
473.968	87.56
474.187	100.56
474.406	89.56
474.625	87.56
474.844	83.56
475.063	89.56
475.282	90.56
475.501	89.56
475.72	88.56
475.939	96.56
476.158	87.56
476.377	95.56
476.596	87.56
476.814	94.56
477.033	88.56
477.252	87.56
477.471	105.56
477.69	91.56
477.908	92.56
478.127	104.56
478.346	98.56
478.564	92.56
478.783	102.56
479.002	93.56
479.22	104.56
479.439	109.56
479.658	110.56
479.876	95.56
480.095	91.56
480.313	97.56
480.532	83.56
480.751	74.56
480.969	94.56
481.188	103.56
481.406	98.56
481.624	99.56
481.843	104.56
482.061	94.56
482.28	83.56
482.498	87.56
482.717	96.56
482.935	92.56
483.153	92.56
483.372	88.56
483.59	91.56
483.808	100.56
484.027	93.56
484.245	104.56
484.463	87.56
484.681	96.56
484.9	106.56
485.118	94.56
485.336	89.56
485.554	103.56
485.772	105.56
485.99	110.56
486.209	96.56
486.427	104.56
486.645	116.56
486.863	115.56
487.081	108.56
487.299	99.56
487.517	100.56
487.735	101.56
487.953	86.56
488.171	111.56
488.389	111.56
488.607	110.56
488.825	90.56
489.043	95.56
489.261	99.56
489.479	78.56
489.696	91.56
489.914	92.56
490.132	92.56
490.35	106.56
490.568	84.56
490.786	91.56
491.003	100.56
491.221	84.56
491.439	96.56
491.657	81.56
491.874	101.56
492.092	88.56
492.31	82.56
492.527	94.56
492.745	86.56
492.963	79.56
493.18	98.56
493.398	97.56
493.615	94.56
493.833	102.56
494.05	92.56
494.268	68.56
494.485	85.56
494.703	92.56
494.92	90.56
495.138	91.56
495.355	99.56
495.573	105.56
495.79	86.56
496.008	89.56
496.225	87.56
496.442	97.56
496.66	95.56
496.877	102.56
497.094	93.56
497.312	97.56
497.529	94.56
497.746	87.56
497.963	95.56
498.181	92.56
498.398	99.56
498.615	104.56
498.832	125.56
499.049	99.56
499.267	95.56
499.484	91.56
499.701	99.56
499.918	88.56
500.135	96.56
500.352	78.56
500.569	96.56
500.786	92.56
501.003	104.56
501.22	98.56
501.437	94.56
501.654	96.56
501.871	101.56
502.088	93.56
502.305	95.56
502.522	99.56
502.739	101.56
502.956	104.56
503.172	88.56
503.389	99.56
503.606	107.56
503.823	93.56
504.04	101.56
504.256	96.56
504.473	106.56
504.69	78.56
504.907	85.56
505.123	82.56
505.34	93.56
505.557	100.56
505.773	102.56
505.99	67.56
506.207	84.56
506.423	98.56
506.64	80.56
506.856	93.56
507.073	83.56
507.289	93.56
507.506	102.56
507.722	118.56
507.939	118.56
508.155	91.56
508.372	90.56
508.588	85.56
508.805	96.56
509.021	91.56
509.238	103.56
509.454	105.56
509.67	103.56
509.887	111.56
510.103	131.56
510.319	212.56
510.536	750.56
510.752	2286.56
510.968	647.56
511.184	158.56
511.401	110.56
511.617	103.56
511.833	100.56
512.049	106.56
512.265	91.56
512.481	102.56
512.698	91.56
512.914	104.56
513.13	102.56
513.346	102.56
513.562	91.56
513.778	106.56
513.994	116.56
514.21	98.56
514.426	132.56
514.642	136.56
