Data from Uncirc_2001_H10_HRD10591_00084.txt Node
Date: Wed Jan 03 10:44:13 EST 2024
User: Yrep
Spectrometer: HR+D1059
Trigger mode: 1
Integration Time (sec): 1.000000E-1
Scans to average: 1
Electric dark correction enabled: true
Nonlinearity correction enabled: false
Boxcar width: 0
XAxis mode: Wavelengths
Number of Pixels in Spectrum: 2048
>>>>>Begin Spectral Data<<<<<
223.165	-12.25
223.4	-12.25
223.635	-12.25
223.869	-19.25
224.104	-16.25
224.338	-19.25
224.573	-23.25
224.808	-19.25
225.042	-9.25
225.277	-11.25
225.511	-11.25
225.746	9.75
225.98	17.75
226.215	15.75
226.449	27.75
226.683	17.75
226.918	23.75
227.152	28.75
227.387	45.75
227.621	48.75
227.856	58.75
228.09	48.75
228.324	59.75
228.559	63.75
228.793	81.75
229.027	67.75
229.262	72.75
229.496	82.75
229.73	99.75
229.964	93.75
230.199	77.75
230.433	71.75
230.667	81.75
230.901	92.75
231.136	88.75
231.37	80.75
231.604	89.75
231.838	87.75
232.072	86.75
232.306	93.75
232.541	88.75
232.775	84.75
233.009	70.75
233.243	95.75
233.477	91.75
233.711	84.75
233.945	97.75
234.179	83.75
234.413	83.75
234.647	89.75
234.881	83.75
235.115	79.75
235.349	104.75
235.583	75.75
235.817	83.75
236.051	82.75
236.285	77.75
236.519	75.75
236.753	84.75
236.987	92.75
237.221	84.75
237.455	84.75
237.689	79.75
237.922	86.75
238.156	100.75
238.39	75.75
238.624	101.75
238.858	71.75
239.091	69.75
239.325	77.75
239.559	80.75
239.793	78.75
240.027	86.75
240.26	79.75
240.494	75.75
240.728	77.75
240.961	87.75
241.195	84.75
241.429	80.75
241.662	87.75
241.896	79.75
242.13	84.75
242.363	90.75
242.597	81.75
242.83	79.75
243.064	71.75
243.298	96.75
243.531	92.75
243.765	85.75
243.998	98.75
244.232	92.75
244.465	76.75
244.699	94.75
244.932	85.75
245.166	96.75
245.399	95.75
245.633	75.75
245.866	73.75
246.099	76.75
246.333	86.75
246.566	88.75
246.8	72.75
247.033	83.75
247.266	79.75
247.5	75.75
247.733	84.75
247.966	88.75
248.2	69.75
248.433	78.75
248.666	84.75
248.899	77.75
249.133	94.75
249.366	100.75
249.599	82.75
249.832	100.75
250.066	95.75
250.299	87.75
250.532	67.75
250.765	88.75
250.998	96.75
251.231	89.75
251.465	78.75
251.698	85.75
251.931	91.75
252.164	93.75
252.397	89.75
252.63	96.75
252.863	92.75
253.096	86.75
253.329	93.75
253.562	86.75
253.795	76.75
254.028	77.75
254.261	80.75
254.494	76.75
254.727	77.75
254.96	91.75
255.193	84.75
255.426	84.75
255.659	82.75
255.892	91.75
256.124	84.75
256.357	79.75
256.59	87.75
256.823	92.75
257.056	82.75
257.289	78.75
257.521	78.75
257.754	83.75
257.987	79.75
258.22	92.75
258.452	72.75
258.685	88.75
258.918	95.75
259.151	90.75
259.383	93.75
259.616	79.75
259.849	87.75
260.081	90.75
260.314	96.75
260.547	77.75
260.779	96.75
261.012	81.75
261.244	83.75
261.477	100.75
261.71	103.75
261.942	120.75
262.175	117.75
262.407	83.75
262.64	84.75
262.872	87.75
263.105	97.75
263.337	93.75
263.57	92.75
263.802	80.75
264.035	87.75
264.267	81.75
264.499	87.75
264.732	78.75
264.964	101.75
265.197	91.75
265.429	81.75
265.661	83.75
265.894	101.75
266.126	92.75
266.358	90.75
266.591	83.75
266.823	102.75
267.055	94.75
267.287	94.75
267.52	75.75
267.752	85.75
267.984	86.75
268.216	90.75
268.448	93.75
268.681	71.75
268.913	81.75
269.145	86.75
269.377	85.75
269.609	85.75
269.841	97.75
270.073	73.75
270.306	85.75
270.538	91.75
270.77	79.75
271.002	91.75
271.234	87.75
271.466	86.75
271.698	80.75
271.93	87.75
272.162	85.75
272.394	79.75
272.626	80.75
272.858	97.75
273.09	85.75
273.322	75.75
273.553	86.75
273.785	85.75
274.017	89.75
274.249	84.75
274.481	84.75
274.713	97.75
274.945	88.75
275.176	91.75
275.408	78.75
275.64	98.75
275.872	72.75
276.104	93.75
276.335	91.75
276.567	100.75
276.799	91.75
277.031	105.75
277.262	92.75
277.494	80.75
277.726	88.75
277.957	94.75
278.189	108.75
278.421	95.75
278.652	95.75
278.884	102.75
279.115	86.75
279.347	88.75
279.579	75.75
279.81	89.75
280.042	93.75
280.273	80.75
280.505	88.75
280.736	89.75
280.968	97.75
281.199	85.75
281.431	96.75
281.662	64.75
281.894	82.75
282.125	117.75
282.356	119.75
282.588	143.75
282.819	111.75
283.051	81.75
283.282	96.75
283.513	110.75
283.745	91.75
283.976	81.75
284.207	94.75
284.439	86.75
284.67	90.75
284.901	89.75
285.132	85.75
285.364	98.75
285.595	96.75
285.826	90.75
286.057	86.75
286.288	109.75
286.52	94.75
286.751	91.75
286.982	87.75
287.213	82.75
287.444	86.75
287.675	92.75
287.906	95.75
288.138	95.75
288.369	92.75
288.6	89.75
288.831	87.75
289.062	89.75
289.293	83.75
289.524	97.75
289.755	91.75
289.986	84.75
290.217	81.75
290.448	92.75
290.679	80.75
290.91	82.75
291.141	78.75
291.371	89.75
291.602	85.75
291.833	85.75
292.064	82.75
292.295	85.75
292.526	86.75
292.757	99.75
292.987	77.75
293.218	102.75
293.449	86.75
293.68	81.75
293.91	107.75
294.141	102.75
294.372	102.75
294.603	93.75
294.833	89.75
295.064	78.75
295.295	99.75
295.525	82.75
295.756	92.75
295.987	117.75
296.217	146.75
296.448	124.75
296.679	85.75
296.909	93.75
297.14	81.75
297.37	81.75
297.601	100.75
297.831	97.75
298.062	91.75
298.292	89.75
298.523	95.75
298.753	85.75
298.984	96.75
299.214	89.75
299.445	98.75
299.675	86.75
299.905	93.75
300.136	94.75
300.366	94.75
300.597	96.75
300.827	101.75
301.057	91.75
301.288	102.75
301.518	89.75
301.748	105.75
301.979	102.75
302.209	94.75
302.439	92.75
302.669	80.75
302.9	88.75
303.13	75.75
303.36	101.75
303.59	100.75
303.82	105.75
304.051	107.75
304.281	80.75
304.511	96.75
304.741	100.75
304.971	78.75
305.201	92.75
305.431	90.75
305.661	90.75
305.891	112.75
306.121	90.75
306.352	97.75
306.582	99.75
306.812	96.75
307.042	95.75
307.272	86.75
307.502	91.75
307.731	91.75
307.961	91.75
308.191	96.75
308.421	80.75
308.651	94.75
308.881	102.75
309.111	109.75
309.341	98.75
309.571	107.75
309.8	78.75
310.03	108.75
310.26	103.75
310.49	101.75
310.72	103.75
310.949	98.75
311.179	94.75
311.409	105.75
311.639	83.75
311.868	79.75
312.098	100.75
312.328	96.75
312.557	104.75
312.787	108.75
313.017	101.75
313.246	94.75
313.476	94.75
313.706	100.75
313.935	84.75
314.165	103.75
314.394	99.75
314.624	92.75
314.853	93.75
315.083	95.75
315.312	88.75
315.542	89.75
315.771	95.75
316.001	108.75
316.23	100.75
316.46	91.75
316.689	94.75
316.919	94.75
317.148	104.75
317.377	105.75
317.607	94.75
317.836	100.75
318.065	98.75
318.295	93.75
318.524	98.75
318.753	97.75
318.983	85.75
319.212	98.75
319.441	109.75
319.67	110.75
319.9	103.75
320.129	93.75
320.358	92.75
320.587	116.75
320.816	108.75
321.046	83.75
321.275	91.75
321.504	104.75
321.733	103.75
321.962	97.75
322.191	110.75
322.42	112.75
322.649	96.75
322.878	105.75
323.108	108.75
323.337	118.75
323.566	121.75
323.795	131.75
324.024	198.75
324.253	367.75
324.482	756.75
324.71	1502.75
324.939	1919.75
325.168	716.75
325.397	221.75
325.626	163.75
325.855	121.75
326.084	123.75
326.313	127.75
326.542	166.75
326.77	215.75
326.999	403.75
327.228	808.75
327.457	1469.75
327.686	1154.75
327.914	335.75
328.143	205.75
328.372	138.75
328.6	120.75
328.829	122.75
329.058	131.75
329.287	145.75
329.515	104.75
329.744	104.75
329.972	108.75
330.201	112.75
330.43	105.75
330.658	126.75
330.887	128.75
331.115	136.75
331.344	97.75
331.572	98.75
331.801	110.75
332.03	103.75
332.258	95.75
332.486	95.75
332.715	92.75
332.943	108.75
333.172	96.75
333.4	104.75
333.629	95.75
333.857	113.75
334.085	112.75
334.314	104.75
334.542	116.75
334.771	121.75
334.999	100.75
335.227	100.75
335.455	95.75
335.684	94.75
335.912	117.75
336.14	98.75
336.369	98.75
336.597	106.75
336.825	97.75
337.053	90.75
337.281	94.75
337.51	108.75
337.738	84.75
337.966	98.75
338.194	84.75
338.422	99.75
338.65	101.75
338.878	97.75
339.106	96.75
339.334	97.75
339.562	97.75
339.79	98.75
340.018	99.75
340.246	84.75
340.474	100.75
340.702	107.75
340.93	86.75
341.158	93.75
341.386	101.75
341.614	101.75
341.842	100.75
342.07	92.75
342.298	93.75
342.526	87.75
342.754	107.75
342.981	96.75
343.209	86.75
343.437	108.75
343.665	105.75
343.893	110.75
344.12	96.75
344.348	102.75
344.576	118.75
344.804	94.75
345.031	101.75
345.259	109.75
345.487	96.75
345.714	95.75
345.942	91.75
346.17	91.75
346.397	101.75
346.625	89.75
346.853	83.75
347.08	96.75
347.308	93.75
347.535	82.75
347.763	102.75
347.99	103.75
348.218	108.75
348.445	111.75
348.673	107.75
348.9	107.75
349.128	105.75
349.355	96.75
349.583	93.75
349.81	89.75
350.037	96.75
350.265	93.75
350.492	95.75
350.72	104.75
350.947	97.75
351.174	103.75
351.402	128.75
351.629	103.75
351.856	97.75
352.083	90.75
352.311	111.75
352.538	111.75
352.765	103.75
352.992	105.75
353.22	99.75
353.447	113.75
353.674	97.75
353.901	105.75
354.128	101.75
354.355	92.75
354.583	103.75
354.81	109.75
355.037	97.75
355.264	94.75
355.491	80.75
355.718	92.75
355.945	96.75
356.172	107.75
356.399	99.75
356.626	93.75
356.853	93.75
357.08	87.75
357.307	87.75
357.534	100.75
357.761	95.75
357.988	99.75
358.215	94.75
358.441	102.75
358.668	99.75
358.895	92.75
359.122	92.75
359.349	103.75
359.576	89.75
359.802	114.75
360.029	112.75
360.256	111.75
360.483	89.75
360.709	93.75
360.936	89.75
361.163	95.75
361.39	100.75
361.616	92.75
361.843	90.75
362.07	86.75
362.296	92.75
362.523	103.75
362.749	95.75
362.976	95.75
363.203	99.75
363.429	91.75
363.656	77.75
363.882	87.75
364.109	100.75
364.335	81.75
364.562	104.75
364.788	91.75
365.015	101.75
365.241	107.75
365.468	111.75
365.694	127.75
365.92	96.75
366.147	99.75
366.373	87.75
366.599	95.75
366.826	84.75
367.052	97.75
367.278	96.75
367.505	94.75
367.731	93.75
367.957	103.75
368.184	92.75
368.41	99.75
368.636	103.75
368.862	119.75
369.089	108.75
369.315	107.75
369.541	94.75
369.767	89.75
369.993	85.75
370.219	86.75
370.445	100.75
370.672	94.75
370.898	71.75
371.124	72.75
371.35	91.75
371.576	87.75
371.802	101.75
372.028	100.75
372.254	83.75
372.48	97.75
372.706	96.75
372.932	87.75
373.158	86.75
373.384	93.75
373.61	85.75
373.835	98.75
374.061	107.75
374.287	96.75
374.513	85.75
374.739	94.75
374.965	103.75
375.191	79.75
375.416	109.75
375.642	87.75
375.868	103.75
376.094	100.75
376.319	96.75
376.545	90.75
376.771	97.75
376.997	103.75
377.222	90.75
377.448	85.75
377.674	87.75
377.899	95.75
378.125	92.75
378.35	104.75
378.576	95.75
378.802	104.75
379.027	86.75
379.253	102.75
379.478	90.75
379.704	99.75
379.929	100.75
380.155	110.75
380.38	97.75
380.606	89.75
380.831	88.75
381.057	92.75
381.282	103.75
381.507	89.75
381.733	82.75
381.958	104.75
382.184	95.75
382.409	98.75
382.634	100.75
382.86	111.75
383.085	103.75
383.31	105.75
383.535	97.75
383.761	87.75
383.986	100.75
384.211	96.75
384.436	99.75
384.662	81.75
384.887	89.75
385.112	98.75
385.337	104.75
385.562	109.75
385.787	104.75
386.013	102.75
386.238	112.75
386.463	100.75
386.688	109.75
386.913	103.75
387.138	112.75
387.363	108.75
387.588	108.75
387.813	105.75
388.038	105.75
388.263	103.75
388.488	98.75
388.713	88.75
388.938	94.75
389.163	102.75
389.387	89.75
389.612	95.75
389.837	92.75
390.062	89.75
390.287	95.75
390.512	94.75
390.736	93.75
390.961	93.75
391.186	100.75
391.411	92.75
391.636	106.75
391.86	92.75
392.085	97.75
392.31	96.75
392.534	90.75
392.759	94.75
392.984	110.75
393.208	93.75
393.433	105.75
393.658	102.75
393.882	80.75
394.107	84.75
394.331	83.75
394.556	86.75
394.78	104.75
395.005	92.75
395.229	94.75
395.454	77.75
395.678	92.75
395.903	77.75
396.127	95.75
396.352	86.75
396.576	87.75
396.801	75.75
397.025	89.75
397.249	95.75
397.474	86.75
397.698	85.75
397.922	91.75
398.147	84.75
398.371	81.75
398.595	96.75
398.82	87.75
399.044	93.75
399.268	80.75
399.492	93.75
399.717	115.75
399.941	84.75
400.165	89.75
400.389	99.75
400.613	100.75
400.837	104.75
401.062	99.75
401.286	91.75
401.51	91.75
401.734	112.75
401.958	111.75
402.182	120.75
402.406	167.75
402.63	127.75
402.854	101.75
403.078	91.75
403.302	83.75
403.526	89.75
403.75	93.75
403.974	89.75
404.198	83.75
404.422	91.75
404.645	89.75
404.869	91.75
405.093	95.75
405.317	107.75
405.541	92.75
405.765	109.75
405.988	133.75
406.212	200.75
406.436	232.75
406.66	131.75
406.883	128.75
407.107	95.75
407.331	101.75
407.555	108.75
407.778	99.75
408.002	91.75
408.226	86.75
408.449	90.75
408.673	92.75
408.896	109.75
409.12	101.75
409.344	83.75
409.567	83.75
409.791	96.75
410.014	101.75
410.238	88.75
410.461	106.75
410.685	99.75
410.908	91.75
411.132	108.75
411.355	100.75
411.578	96.75
411.802	102.75
412.025	83.75
412.249	98.75
412.472	96.75
412.695	94.75
412.919	104.75
413.142	88.75
413.365	101.75
413.589	99.75
413.812	85.75
414.035	82.75
414.258	93.75
414.482	87.75
414.705	88.75
414.928	92.75
415.151	103.75
415.374	106.75
415.597	96.75
415.821	93.75
416.044	91.75
416.267	93.75
416.49	101.75
416.713	88.75
416.936	92.75
417.159	89.75
417.382	96.75
417.605	95.75
417.828	100.75
418.051	111.75
418.274	93.75
418.497	97.75
418.72	94.75
418.943	86.75
419.166	96.75
419.389	93.75
419.611	89.75
419.834	80.75
420.057	90.75
420.28	90.75
420.503	86.75
420.726	102.75
420.948	101.75
421.171	88.75
421.394	93.75
421.617	92.75
421.839	95.75
422.062	97.75
422.285	104.75
422.507	105.75
422.73	93.75
422.953	97.75
423.175	85.75
423.398	91.75
423.621	81.75
423.843	92.75
424.066	83.75
424.288	96.75
424.511	103.75
424.733	104.75
424.956	111.75
425.178	114.75
425.401	101.75
425.623	101.75
425.846	81.75
426.068	98.75
426.291	93.75
426.513	100.75
426.735	89.75
426.958	104.75
427.18	118.75
427.402	134.75
427.625	162.75
427.847	132.75
428.069	101.75
428.292	101.75
428.514	88.75
428.736	90.75
428.958	92.75
429.181	103.75
429.403	99.75
429.625	86.75
429.847	84.75
430.069	108.75
430.292	94.75
430.514	83.75
430.736	72.75
430.958	90.75
431.18	84.75
431.402	78.75
431.624	71.75
431.846	95.75
432.068	84.75
432.29	73.75
432.512	80.75
432.734	92.75
432.956	91.75
433.178	110.75
433.4	104.75
433.622	109.75
433.844	96.75
434.066	87.75
434.287	99.75
434.509	99.75
434.731	91.75
434.953	104.75
435.175	99.75
435.397	80.75
435.618	96.75
435.84	106.75
436.062	120.75
436.284	106.75
436.505	111.75
436.727	111.75
436.949	87.75
437.17	82.75
437.392	82.75
437.614	93.75
437.835	127.75
438.057	119.75
438.278	118.75
438.5	100.75
438.721	125.75
438.943	112.75
439.165	103.75
439.386	85.75
439.608	102.75
439.829	107.75
440.05	113.75
440.272	140.75
440.493	108.75
440.715	104.75
440.936	89.75
441.158	105.75
441.379	96.75
441.6	109.75
441.822	93.75
442.043	103.75
442.264	106.75
442.486	93.75
442.707	106.75
442.928	113.75
443.149	136.75
443.371	115.75
443.592	111.75
443.813	120.75
444.034	101.75
444.255	89.75
444.476	81.75
444.698	87.75
444.919	71.75
445.14	132.75
445.361	122.75
445.582	125.75
445.803	139.75
446.024	120.75
446.245	132.75
446.466	111.75
446.687	90.75
446.908	82.75
447.129	97.75
447.35	86.75
447.571	98.75
447.792	99.75
448.013	107.75
448.234	108.75
448.455	102.75
448.675	120.75
448.896	116.75
449.117	101.75
449.338	114.75
449.559	144.75
449.779	129.75
450	110.75
450.221	81.75
450.442	92.75
450.662	89.75
450.883	111.75
451.104	104.75
451.324	107.75
451.545	81.75
451.766	96.75
451.986	90.75
452.207	109.75
452.428	96.75
452.648	102.75
452.869	102.75
453.089	116.75
453.31	121.75
453.53	105.75
453.751	98.75
453.971	127.75
454.192	112.75
454.412	101.75
454.633	92.75
454.853	89.75
455.073	89.75
455.294	91.75
455.514	100.75
455.734	88.75
455.955	106.75
456.175	98.75
456.395	79.75
456.616	79.75
456.836	79.75
457.056	92.75
457.276	84.75
457.497	87.75
457.717	87.75
457.937	90.75
458.157	93.75
458.377	96.75
458.598	118.75
458.818	169.75
459.038	162.75
459.258	105.75
459.478	94.75
459.698	88.75
459.918	84.75
460.138	88.75
460.358	77.75
460.578	77.75
460.798	102.75
461.018	86.75
461.238	96.75
461.458	99.75
461.678	92.75
461.898	101.75
462.118	89.75
462.338	87.75
462.558	96.75
462.777	97.75
462.997	88.75
463.217	88.75
463.437	73.75
463.657	83.75
463.876	84.75
464.096	93.75
464.316	101.75
464.536	108.75
464.755	95.75
464.975	110.75
465.195	166.75
465.414	169.75
465.634	103.75
465.854	85.75
466.073	81.75
466.293	97.75
466.512	95.75
466.732	89.75
466.951	85.75
467.171	93.75
467.391	109.75
467.61	107.75
467.829	102.75
468.049	94.75
468.268	94.75
468.488	88.75
468.707	91.75
468.927	84.75
469.146	96.75
469.365	92.75
469.585	94.75
469.804	97.75
470.023	105.75
470.243	80.75
470.462	109.75
470.681	112.75
470.901	92.75
471.12	108.75
471.339	86.75
471.558	68.75
471.777	85.75
471.997	96.75
472.216	88.75
472.435	92.75
472.654	88.75
472.873	94.75
473.092	91.75
473.311	93.75
473.53	75.75
473.749	86.75
473.968	91.75
474.187	105.75
474.406	99.75
474.625	97.75
474.844	74.75
475.063	105.75
475.282	91.75
475.501	97.75
475.72	87.75
475.939	93.75
476.158	87.75
476.377	80.75
476.596	100.75
476.814	104.75
477.033	98.75
477.252	91.75
477.471	87.75
477.69	82.75
477.908	79.75
478.127	103.75
478.346	95.75
478.564	92.75
478.783	88.75
479.002	107.75
479.22	100.75
479.439	107.75
479.658	110.75
479.876	95.75
480.095	94.75
480.313	95.75
480.532	104.75
480.751	84.75
480.969	95.75
481.188	104.75
481.406	106.75
481.624	93.75
481.843	98.75
482.061	89.75
482.28	88.75
482.498	95.75
482.717	81.75
482.935	84.75
483.153	93.75
483.372	96.75
483.59	92.75
483.808	83.75
484.027	101.75
484.245	96.75
484.463	85.75
484.681	111.75
484.9	96.75
485.118	109.75
485.336	94.75
485.554	98.75
485.772	89.75
485.99	97.75
486.209	111.75
486.427	91.75
486.645	110.75
486.863	119.75
487.081	98.75
487.299	101.75
487.517	106.75
487.735	97.75
487.953	99.75
488.171	101.75
488.389	100.75
488.607	88.75
488.825	91.75
489.043	85.75
489.261	96.75
489.479	79.75
489.696	91.75
489.914	94.75
490.132	89.75
490.35	88.75
490.568	93.75
490.786	93.75
491.003	92.75
491.221	95.75
491.439	111.75
491.657	109.75
491.874	83.75
492.092	109.75
492.31	100.75
492.527	94.75
492.745	93.75
492.963	97.75
493.18	94.75
493.398	92.75
493.615	100.75
493.833	96.75
494.05	102.75
494.268	82.75
494.485	109.75
494.703	106.75
494.92	98.75
495.138	101.75
495.355	101.75
495.573	100.75
495.79	86.75
496.008	98.75
496.225	88.75
496.442	93.75
496.66	88.75
496.877	95.75
497.094	85.75
497.312	110.75
497.529	102.75
497.746	105.75
497.963	104.75
498.181	95.75
498.398	106.75
498.615	97.75
498.832	108.75
499.049	88.75
499.267	91.75
499.484	93.75
499.701	79.75
499.918	96.75
500.135	102.75
500.352	100.75
500.569	85.75
500.786	95.75
501.003	98.75
501.22	93.75
501.437	94.75
501.654	100.75
501.871	118.75
502.088	80.75
502.305	90.75
502.522	104.75
502.739	105.75
502.956	99.75
503.172	107.75
503.389	95.75
503.606	97.75
503.823	95.75
504.04	90.75
504.256	96.75
504.473	91.75
504.69	103.75
504.907	103.75
505.123	103.75
505.34	101.75
505.557	97.75
505.773	79.75
505.99	91.75
506.207	93.75
506.423	94.75
506.64	87.75
506.856	103.75
507.073	104.75
507.289	103.75
507.506	96.75
507.722	104.75
507.939	118.75
508.155	91.75
508.372	82.75
508.588	95.75
508.805	104.75
509.021	89.75
509.238	102.75
509.454	100.75
509.67	105.75
509.887	121.75
510.103	144.75
510.319	215.75
510.536	813.75
510.752	2480.75
510.968	673.75
511.184	161.75
511.401	122.75
511.617	95.75
511.833	101.75
512.049	104.75
512.265	81.75
512.481	104.75
512.698	94.75
512.914	103.75
513.13	99.75
513.346	98.75
513.562	97.75
513.778	90.75
513.994	100.75
