Data from Uncirc_2001_H10_HRD10591_00051.txt Node
Date: Wed Jan 03 10:44:07 EST 2024
User: Yrep
Spectrometer: HR+D1059
Trigger mode: 1
Integration Time (sec): 1.000000E-1
Scans to average: 1
Electric dark correction enabled: true
Nonlinearity correction enabled: false
Boxcar width: 0
XAxis mode: Wavelengths
Number of Pixels in Spectrum: 2048
>>>>>Begin Spectral Data<<<<<
223.165	-18.06
223.4	-18.06
223.635	-18.06
223.869	-29.06
224.104	-20.06
224.338	-23.06
224.573	-23.06
224.808	0.94
225.042	2.94
225.277	-13.06
225.511	1.94
225.746	9.94
225.98	3.94
226.215	4.94
226.449	34.94
226.683	18.94
226.918	20.94
227.152	26.94
227.387	36.94
227.621	31.94
227.856	52.94
228.09	40.94
228.324	55.94
228.559	60.94
228.793	67.94
229.027	67.94
229.262	72.94
229.496	69.94
229.73	74.94
229.964	81.94
230.199	79.94
230.433	70.94
230.667	88.94
230.901	80.94
231.136	67.94
231.37	97.94
231.604	88.94
231.838	81.94
232.072	78.94
232.306	66.94
232.541	73.94
232.775	99.94
233.009	87.94
233.243	88.94
233.477	77.94
233.711	70.94
233.945	94.94
234.179	79.94
234.413	98.94
234.647	81.94
234.881	73.94
235.115	74.94
235.349	85.94
235.583	84.94
235.817	82.94
236.051	84.94
236.285	86.94
236.519	64.94
236.753	75.94
236.987	94.94
237.221	66.94
237.455	90.94
237.689	76.94
237.922	72.94
238.156	81.94
238.39	82.94
238.624	82.94
238.858	90.94
239.091	73.94
239.325	84.94
239.559	56.94
239.793	78.94
240.027	91.94
240.26	75.94
240.494	76.94
240.728	77.94
240.961	74.94
241.195	75.94
241.429	90.94
241.662	89.94
241.896	87.94
242.13	89.94
242.363	81.94
242.597	82.94
242.83	86.94
243.064	84.94
243.298	77.94
243.531	82.94
243.765	59.94
243.998	85.94
244.232	93.94
244.465	90.94
244.699	86.94
244.932	84.94
245.166	74.94
245.399	71.94
245.633	73.94
245.866	80.94
246.099	75.94
246.333	91.94
246.566	82.94
246.8	68.94
247.033	90.94
247.266	73.94
247.5	76.94
247.733	82.94
247.966	81.94
248.2	88.94
248.433	92.94
248.666	91.94
248.899	82.94
249.133	81.94
249.366	84.94
249.599	94.94
249.832	77.94
250.066	78.94
250.299	88.94
250.532	75.94
250.765	84.94
250.998	74.94
251.231	72.94
251.465	69.94
251.698	81.94
251.931	92.94
252.164	86.94
252.397	90.94
252.63	82.94
252.863	80.94
253.096	85.94
253.329	80.94
253.562	83.94
253.795	81.94
254.028	92.94
254.261	78.94
254.494	72.94
254.727	92.94
254.96	89.94
255.193	89.94
255.426	83.94
255.659	84.94
255.892	88.94
256.124	89.94
256.357	76.94
256.59	83.94
256.823	85.94
257.056	93.94
257.289	96.94
257.521	80.94
257.754	77.94
257.987	84.94
258.22	85.94
258.452	86.94
258.685	92.94
258.918	92.94
259.151	98.94
259.383	85.94
259.616	89.94
259.849	67.94
260.081	92.94
260.314	91.94
260.547	94.94
260.779	92.94
261.012	84.94
261.244	86.94
261.477	99.94
261.71	88.94
261.942	101.94
262.175	113.94
262.407	95.94
262.64	87.94
262.872	84.94
263.105	84.94
263.337	66.94
263.57	72.94
263.802	86.94
264.035	69.94
264.267	96.94
264.499	69.94
264.732	86.94
264.964	93.94
265.197	81.94
265.429	90.94
265.661	81.94
265.894	94.94
266.126	83.94
266.358	96.94
266.591	68.94
266.823	86.94
267.055	79.94
267.287	85.94
267.52	83.94
267.752	83.94
267.984	72.94
268.216	86.94
268.448	86.94
268.681	83.94
268.913	75.94
269.145	90.94
269.377	74.94
269.609	85.94
269.841	78.94
270.073	73.94
270.306	75.94
270.538	75.94
270.77	93.94
271.002	88.94
271.234	82.94
271.466	78.94
271.698	92.94
271.93	81.94
272.162	86.94
272.394	90.94
272.626	77.94
272.858	96.94
273.09	85.94
273.322	91.94
273.553	58.94
273.785	86.94
274.017	84.94
274.249	74.94
274.481	81.94
274.713	85.94
274.945	89.94
275.176	89.94
275.408	93.94
275.64	77.94
275.872	93.94
276.104	87.94
276.335	75.94
276.567	96.94
276.799	95.94
277.031	110.94
277.262	92.94
277.494	99.94
277.726	85.94
277.957	78.94
278.189	99.94
278.421	92.94
278.652	81.94
278.884	88.94
279.115	92.94
279.347	91.94
279.579	78.94
279.81	63.94
280.042	83.94
280.273	61.94
280.505	85.94
280.736	82.94
280.968	90.94
281.199	84.94
281.431	81.94
281.662	81.94
281.894	66.94
282.125	97.94
282.356	123.94
282.588	131.94
282.819	120.94
283.051	100.94
283.282	88.94
283.513	87.94
283.745	85.94
283.976	83.94
284.207	98.94
284.439	94.94
284.67	96.94
284.901	92.94
285.132	88.94
285.364	65.94
285.595	82.94
285.826	87.94
286.057	80.94
286.288	89.94
286.52	89.94
286.751	102.94
286.982	98.94
287.213	87.94
287.444	94.94
287.675	97.94
287.906	83.94
288.138	80.94
288.369	87.94
288.6	84.94
288.831	94.94
289.062	92.94
289.293	98.94
289.524	79.94
289.755	72.94
289.986	95.94
290.217	85.94
290.448	89.94
290.679	94.94
290.91	98.94
291.141	86.94
291.371	102.94
291.602	86.94
291.833	84.94
292.064	94.94
292.295	104.94
292.526	82.94
292.757	89.94
292.987	81.94
293.218	98.94
293.449	103.94
293.68	79.94
293.91	78.94
294.141	93.94
294.372	101.94
294.603	92.94
294.833	85.94
295.064	91.94
295.295	94.94
295.525	90.94
295.756	100.94
295.987	115.94
296.217	131.94
296.448	110.94
296.679	108.94
296.909	98.94
297.14	96.94
297.37	94.94
297.601	72.94
297.831	87.94
298.062	89.94
298.292	102.94
298.523	97.94
298.753	83.94
298.984	93.94
299.214	92.94
299.445	108.94
299.675	90.94
299.905	97.94
300.136	86.94
300.366	92.94
300.597	93.94
300.827	85.94
301.057	97.94
301.288	93.94
301.518	108.94
301.748	81.94
301.979	100.94
302.209	91.94
302.439	79.94
302.669	87.94
302.9	100.94
303.13	98.94
303.36	107.94
303.59	97.94
303.82	95.94
304.051	78.94
304.281	109.94
304.511	100.94
304.741	87.94
304.971	87.94
305.201	91.94
305.431	82.94
305.661	89.94
305.891	82.94
306.121	96.94
306.352	93.94
306.582	113.94
306.812	104.94
307.042	87.94
307.272	72.94
307.502	99.94
307.731	93.94
307.961	91.94
308.191	89.94
308.421	79.94
308.651	93.94
308.881	101.94
309.111	109.94
309.341	104.94
309.571	87.94
309.8	108.94
310.03	106.94
310.26	107.94
310.49	94.94
310.72	90.94
310.949	91.94
311.179	101.94
311.409	100.94
311.639	104.94
311.868	98.94
312.098	108.94
312.328	94.94
312.557	115.94
312.787	111.94
313.017	93.94
313.246	89.94
313.476	94.94
313.706	91.94
313.935	91.94
314.165	96.94
314.394	102.94
314.624	95.94
314.853	99.94
315.083	92.94
315.312	84.94
315.542	80.94
315.771	86.94
316.001	97.94
316.23	82.94
316.46	82.94
316.689	84.94
316.919	88.94
317.148	94.94
317.377	91.94
317.607	99.94
317.836	93.94
318.065	102.94
318.295	91.94
318.524	94.94
318.753	99.94
318.983	86.94
319.212	102.94
319.441	117.94
319.67	99.94
319.9	99.94
320.129	115.94
320.358	100.94
320.587	90.94
320.816	98.94
321.046	104.94
321.275	104.94
321.504	98.94
321.733	102.94
321.962	102.94
322.191	104.94
322.42	103.94
322.649	108.94
322.878	119.94
323.108	108.94
323.337	121.94
323.566	124.94
323.795	144.94
324.024	189.94
324.253	339.94
324.482	720.94
324.71	1390.94
324.939	1828.94
325.168	674.94
325.397	222.94
325.626	142.94
325.855	128.94
326.084	119.94
326.313	128.94
326.542	152.94
326.77	208.94
326.999	389.94
327.228	783.94
327.457	1381.94
327.686	1075.94
327.914	320.94
328.143	179.94
328.372	131.94
328.6	132.94
328.829	126.94
329.058	123.94
329.287	126.94
329.515	117.94
329.744	106.94
329.972	110.94
330.201	108.94
330.43	100.94
330.658	117.94
330.887	131.94
331.115	121.94
331.344	69.94
331.572	108.94
331.801	109.94
332.03	96.94
332.258	92.94
332.486	91.94
332.715	104.94
332.943	115.94
333.172	91.94
333.4	106.94
333.629	101.94
333.857	107.94
334.085	112.94
334.314	101.94
334.542	92.94
334.771	90.94
334.999	98.94
335.227	98.94
335.455	86.94
335.684	104.94
335.912	85.94
336.14	105.94
336.369	102.94
336.597	105.94
336.825	117.94
337.053	88.94
337.281	97.94
337.51	80.94
337.738	95.94
337.966	91.94
338.194	91.94
338.422	95.94
338.65	84.94
338.878	96.94
339.106	106.94
339.334	106.94
339.562	95.94
339.79	92.94
340.018	105.94
340.246	80.94
340.474	84.94
340.702	90.94
340.93	90.94
341.158	85.94
341.386	93.94
341.614	98.94
341.842	92.94
342.07	99.94
342.298	85.94
342.526	99.94
342.754	82.94
342.981	88.94
343.209	86.94
343.437	102.94
343.665	90.94
343.893	97.94
344.12	102.94
344.348	90.94
344.576	95.94
344.804	93.94
345.031	111.94
345.259	104.94
345.487	103.94
345.714	100.94
345.942	89.94
346.17	94.94
346.397	85.94
346.625	90.94
346.853	101.94
347.08	97.94
347.308	99.94
347.535	101.94
347.763	101.94
347.99	100.94
348.218	109.94
348.445	101.94
348.673	101.94
348.9	89.94
349.128	94.94
349.355	94.94
349.583	96.94
349.81	91.94
350.037	100.94
350.265	93.94
350.492	86.94
350.72	102.94
350.947	108.94
351.174	97.94
351.402	98.94
351.629	94.94
351.856	104.94
352.083	116.94
352.311	96.94
352.538	93.94
352.765	105.94
352.992	128.94
353.22	108.94
353.447	113.94
353.674	102.94
353.901	96.94
354.128	89.94
354.355	92.94
354.583	99.94
354.81	103.94
355.037	100.94
355.264	88.94
355.491	103.94
355.718	91.94
355.945	91.94
356.172	100.94
356.399	97.94
356.626	100.94
356.853	71.94
357.08	91.94
357.307	94.94
357.534	91.94
357.761	105.94
357.988	95.94
358.215	110.94
358.441	104.94
358.668	90.94
358.895	86.94
359.122	86.94
359.349	84.94
359.576	91.94
359.802	97.94
360.029	108.94
360.256	97.94
360.483	98.94
360.709	77.94
360.936	100.94
361.163	103.94
361.39	107.94
361.616	83.94
361.843	86.94
362.07	94.94
362.296	94.94
362.523	90.94
362.749	102.94
362.976	94.94
363.203	97.94
363.429	102.94
363.656	98.94
363.882	84.94
364.109	78.94
364.335	87.94
364.562	92.94
364.788	92.94
365.015	115.94
365.241	84.94
365.468	105.94
365.694	110.94
365.92	91.94
366.147	94.94
366.373	90.94
366.599	90.94
366.826	94.94
367.052	94.94
367.278	93.94
367.505	108.94
367.731	104.94
367.957	94.94
368.184	94.94
368.41	115.94
368.636	108.94
368.862	119.94
369.089	106.94
369.315	93.94
369.541	93.94
369.767	99.94
369.993	84.94
370.219	90.94
370.445	106.94
370.672	82.94
370.898	86.94
371.124	92.94
371.35	100.94
371.576	89.94
371.802	95.94
372.028	96.94
372.254	87.94
372.48	104.94
372.706	84.94
372.932	94.94
373.158	82.94
373.384	99.94
373.61	85.94
373.835	94.94
374.061	85.94
374.287	85.94
374.513	89.94
374.739	84.94
374.965	81.94
375.191	87.94
375.416	82.94
375.642	102.94
375.868	104.94
376.094	102.94
376.319	102.94
376.545	95.94
376.771	77.94
376.997	88.94
377.222	96.94
377.448	80.94
377.674	94.94
377.899	75.94
378.125	90.94
378.35	101.94
378.576	91.94
378.802	85.94
379.027	84.94
379.253	82.94
379.478	88.94
379.704	82.94
379.929	86.94
380.155	98.94
380.38	102.94
380.606	109.94
380.831	90.94
381.057	87.94
381.282	101.94
381.507	95.94
381.733	85.94
381.958	89.94
382.184	92.94
382.409	93.94
382.634	96.94
382.86	93.94
383.085	94.94
383.31	96.94
383.535	105.94
383.761	103.94
383.986	105.94
384.211	84.94
384.436	92.94
384.662	108.94
384.887	106.94
385.112	98.94
385.337	109.94
385.562	84.94
385.787	100.94
386.013	101.94
386.238	119.94
386.463	102.94
386.688	99.94
386.913	95.94
387.138	102.94
387.363	101.94
387.588	106.94
387.813	105.94
388.038	114.94
388.263	113.94
388.488	113.94
388.713	100.94
388.938	99.94
389.163	102.94
389.387	84.94
389.612	105.94
389.837	79.94
390.062	84.94
390.287	93.94
390.512	89.94
390.736	89.94
390.961	106.94
391.186	100.94
391.411	104.94
391.636	84.94
391.86	97.94
392.085	85.94
392.31	92.94
392.534	98.94
392.759	85.94
392.984	87.94
393.208	97.94
393.433	107.94
393.658	83.94
393.882	91.94
394.107	74.94
394.331	88.94
394.556	77.94
394.78	90.94
395.005	76.94
395.229	97.94
395.454	80.94
395.678	84.94
395.903	89.94
396.127	83.94
396.352	80.94
396.576	88.94
396.801	92.94
397.025	88.94
397.249	99.94
397.474	89.94
397.698	88.94
397.922	83.94
398.147	80.94
398.371	70.94
398.595	79.94
398.82	102.94
399.044	97.94
399.268	90.94
399.492	86.94
399.717	86.94
399.941	91.94
400.165	86.94
400.389	84.94
400.613	87.94
400.837	77.94
401.062	100.94
401.286	102.94
401.51	92.94
401.734	80.94
401.958	104.94
402.182	126.94
402.406	148.94
402.63	108.94
402.854	99.94
403.078	80.94
403.302	92.94
403.526	95.94
403.75	90.94
403.974	96.94
404.198	91.94
404.422	97.94
404.645	91.94
404.869	88.94
405.093	86.94
405.317	92.94
405.541	93.94
405.765	95.94
405.988	108.94
406.212	166.94
406.436	220.94
406.66	134.94
406.883	98.94
407.107	76.94
407.331	98.94
407.555	97.94
407.778	93.94
408.002	79.94
408.226	84.94
408.449	85.94
408.673	104.94
408.896	109.94
409.12	89.94
409.344	96.94
409.567	102.94
409.791	109.94
410.014	87.94
410.238	89.94
410.461	88.94
410.685	94.94
410.908	89.94
411.132	110.94
411.355	104.94
411.578	93.94
411.802	93.94
412.025	89.94
412.249	89.94
412.472	86.94
412.695	93.94
412.919	86.94
413.142	98.94
413.365	91.94
413.589	78.94
413.812	96.94
414.035	98.94
414.258	82.94
414.482	95.94
414.705	84.94
414.928	77.94
415.151	90.94
415.374	98.94
415.597	92.94
415.821	94.94
416.044	79.94
416.267	93.94
416.49	82.94
416.713	100.94
416.936	107.94
417.159	90.94
417.382	75.94
417.605	90.94
417.828	76.94
418.051	90.94
418.274	85.94
418.497	90.94
418.72	94.94
418.943	96.94
419.166	94.94
419.389	92.94
419.611	89.94
419.834	88.94
420.057	87.94
420.28	92.94
420.503	85.94
420.726	79.94
420.948	86.94
421.171	112.94
421.394	86.94
421.617	84.94
421.839	99.94
422.062	91.94
422.285	89.94
422.507	102.94
422.73	100.94
422.953	76.94
423.175	84.94
423.398	84.94
423.621	85.94
423.843	96.94
424.066	95.94
424.288	76.94
424.511	90.94
424.733	101.94
424.956	98.94
425.178	100.94
425.401	101.94
425.623	100.94
425.846	90.94
426.068	83.94
426.291	90.94
426.513	89.94
426.735	94.94
426.958	89.94
427.18	99.94
427.402	148.94
427.625	154.94
427.847	140.94
428.069	92.94
428.292	82.94
428.514	99.94
428.736	89.94
428.958	90.94
429.181	84.94
429.403	80.94
429.625	76.94
429.847	98.94
430.069	100.94
430.292	87.94
430.514	101.94
430.736	85.94
430.958	66.94
431.18	82.94
431.402	83.94
431.624	85.94
431.846	85.94
432.068	92.94
432.29	91.94
432.512	74.94
432.734	82.94
432.956	94.94
433.178	111.94
433.4	101.94
433.622	80.94
433.844	72.94
434.066	84.94
434.287	84.94
434.509	104.94
434.731	92.94
434.953	85.94
435.175	91.94
435.397	82.94
435.618	84.94
435.84	89.94
436.062	111.94
436.284	114.94
436.505	116.94
436.727	104.94
436.949	98.94
437.17	90.94
437.392	96.94
437.614	84.94
437.835	96.94
438.057	104.94
438.278	98.94
438.5	93.94
438.721	114.94
438.943	105.94
439.165	94.94
439.386	94.94
439.608	91.94
439.829	106.94
440.05	129.94
440.272	132.94
440.493	102.94
440.715	92.94
440.936	82.94
441.158	88.94
441.379	97.94
441.6	85.94
441.822	88.94
442.043	100.94
442.264	110.94
442.486	101.94
442.707	82.94
442.928	101.94
443.149	127.94
443.371	128.94
443.592	104.94
443.813	96.94
444.034	102.94
444.255	103.94
444.476	92.94
444.698	78.94
444.919	94.94
445.14	130.94
445.361	109.94
445.582	104.94
445.803	117.94
446.024	130.94
446.245	124.94
446.466	106.94
446.687	90.94
446.908	84.94
447.129	89.94
447.35	91.94
447.571	83.94
447.792	101.94
448.013	97.94
448.234	106.94
448.455	104.94
448.675	99.94
448.896	121.94
449.117	103.94
449.338	107.94
449.559	107.94
449.779	119.94
450	88.94
450.221	69.94
450.442	93.94
450.662	97.94
450.883	108.94
451.104	99.94
451.324	76.94
451.545	92.94
451.766	93.94
451.986	104.94
452.207	82.94
452.428	103.94
452.648	102.94
452.869	113.94
453.089	119.94
453.31	118.94
453.53	99.94
453.751	100.94
453.971	94.94
454.192	109.94
454.412	94.94
454.633	88.94
454.853	98.94
455.073	80.94
455.294	85.94
455.514	98.94
455.734	97.94
455.955	72.94
456.175	94.94
456.395	81.94
456.616	84.94
456.836	91.94
457.056	91.94
457.276	85.94
457.497	65.94
457.717	89.94
457.937	99.94
458.157	84.94
458.377	85.94
458.598	115.94
458.818	151.94
459.038	166.94
459.258	122.94
459.478	94.94
459.698	89.94
459.918	77.94
460.138	83.94
460.358	96.94
460.578	79.94
460.798	89.94
461.018	93.94
461.238	94.94
461.458	82.94
461.678	76.94
461.898	80.94
462.118	68.94
462.338	88.94
462.558	93.94
462.777	94.94
462.997	78.94
463.217	94.94
463.437	84.94
463.657	74.94
463.876	74.94
464.096	90.94
464.316	92.94
464.536	94.94
464.755	89.94
464.975	108.94
465.195	165.94
465.414	155.94
465.634	114.94
465.854	84.94
466.073	75.94
466.293	77.94
466.512	82.94
466.732	77.94
466.951	77.94
467.171	107.94
467.391	93.94
467.61	98.94
467.829	106.94
468.049	97.94
468.268	83.94
468.488	80.94
468.707	77.94
468.927	83.94
469.146	89.94
469.365	80.94
469.585	102.94
469.804	101.94
470.023	83.94
470.243	85.94
470.462	93.94
470.681	109.94
470.901	100.94
471.12	82.94
471.339	76.94
471.558	84.94
471.777	89.94
471.997	99.94
472.216	90.94
472.435	95.94
472.654	102.94
472.873	91.94
473.092	91.94
473.311	98.94
473.53	83.94
473.749	98.94
473.968	88.94
474.187	87.94
474.406	92.94
474.625	94.94
474.844	103.94
475.063	87.94
475.282	80.94
475.501	84.94
475.72	80.94
475.939	77.94
476.158	80.94
476.377	96.94
476.596	94.94
476.814	94.94
477.033	89.94
477.252	86.94
477.471	87.94
477.69	83.94
477.908	84.94
478.127	103.94
478.346	82.94
478.564	88.94
478.783	102.94
479.002	100.94
479.22	99.94
479.439	98.94
479.658	98.94
479.876	86.94
480.095	94.94
480.313	73.94
480.532	83.94
480.751	94.94
480.969	82.94
481.188	95.94
481.406	99.94
481.624	96.94
481.843	95.94
482.061	82.94
482.28	84.94
482.498	98.94
482.717	90.94
482.935	95.94
483.153	74.94
483.372	84.94
483.59	87.94
483.808	84.94
484.027	87.94
484.245	83.94
484.463	86.94
484.681	88.94
484.9	86.94
485.118	88.94
485.336	90.94
485.554	98.94
485.772	100.94
485.99	95.94
486.209	99.94
486.427	109.94
486.645	113.94
486.863	88.94
487.081	91.94
487.299	101.94
487.517	89.94
487.735	95.94
487.953	76.94
488.171	90.94
488.389	87.94
488.607	92.94
488.825	78.94
489.043	72.94
489.261	85.94
489.479	101.94
489.696	96.94
489.914	99.94
490.132	81.94
490.35	90.94
490.568	91.94
490.786	99.94
491.003	93.94
491.221	83.94
491.439	92.94
491.657	88.94
491.874	89.94
492.092	81.94
492.31	82.94
492.527	85.94
492.745	80.94
492.963	83.94
493.18	96.94
493.398	92.94
493.615	96.94
493.833	102.94
494.05	83.94
494.268	80.94
494.485	93.94
494.703	89.94
494.92	109.94
495.138	97.94
495.355	81.94
495.573	95.94
495.79	89.94
496.008	83.94
496.225	84.94
496.442	93.94
496.66	87.94
496.877	82.94
497.094	101.94
497.312	91.94
497.529	91.94
497.746	84.94
497.963	90.94
498.181	94.94
498.398	86.94
498.615	113.94
498.832	101.94
499.049	76.94
499.267	101.94
499.484	96.94
499.701	100.94
499.918	94.94
500.135	78.94
500.352	93.94
500.569	80.94
500.786	106.94
501.003	101.94
501.22	100.94
501.437	85.94
501.654	84.94
501.871	93.94
502.088	79.94
502.305	85.94
502.522	87.94
502.739	86.94
502.956	86.94
503.172	88.94
503.389	97.94
503.606	90.94
503.823	102.94
504.04	86.94
504.256	98.94
504.473	83.94
504.69	103.94
504.907	95.94
505.123	80.94
505.34	99.94
505.557	95.94
505.773	96.94
505.99	88.94
506.207	98.94
506.423	90.94
506.64	90.94
506.856	98.94
507.073	95.94
507.289	98.94
507.506	88.94
507.722	105.94
507.939	102.94
508.155	95.94
508.372	97.94
508.588	88.94
508.805	80.94
509.021	103.94
509.238	106.94
509.454	96.94
509.67	104.94
509.887	106.94
510.103	125.94
510.319	221.94
510.536	736.94
510.752	2268.94
510.968	626.94
511.184	157.94
511.401	104.94
511.617	94.94
511.833	93.94
512.049	101.94
512.265	90.94
512.481	91.94
512.698	95.94
512.914	99.94
513.13	93.94
513.346	82.94
513.562	89.94
513.778	94.94
513.994	92.94
514.21	100.94
514.426	115.94
514.642	126.94
514.858	133.94
515.074	150.94
515.29	468.94
515.506	1433.94
