Data from Uncirc_2001_H10_HRD10591_00099.txt Node
Date: Wed Jan 03 10:44:16 EST 2024
User: Yrep
Spectrometer: HR+D1059
Trigger mode: 1
Integration Time (sec): 1.000000E-1
Scans to average: 1
Electric dark correction enabled: true
Nonlinearity correction enabled: false
Boxcar width: 0
XAxis mode: Wavelengths
Number of Pixels in Spectrum: 2048
>>>>>Begin Spectral Data<<<<<
223.165	-19.19
223.4	-19.19
223.635	-19.19
223.869	-13.19
224.104	-13.19
224.338	-22.19
224.573	-12.19
224.808	-20.19
225.042	-14.19
225.277	-6.19
225.511	-0.19
225.746	8.81
225.98	9.81
226.215	3.81
226.449	21.81
226.683	25.81
226.918	23.81
227.152	26.81
227.387	22.81
227.621	40.81
227.856	40.81
228.09	37.81
228.324	47.81
228.559	45.81
228.793	56.81
229.027	58.81
229.262	49.81
229.496	65.81
229.73	92.81
229.964	71.81
230.199	73.81
230.433	63.81
230.667	77.81
230.901	77.81
231.136	86.81
231.37	60.81
231.604	63.81
231.838	91.81
232.072	72.81
232.306	82.81
232.541	76.81
232.775	88.81
233.009	85.81
233.243	83.81
233.477	80.81
233.711	71.81
233.945	76.81
234.179	83.81
234.413	86.81
234.647	79.81
234.881	69.81
235.115	70.81
235.349	74.81
235.583	70.81
235.817	73.81
236.051	65.81
236.285	68.81
236.519	75.81
236.753	78.81
236.987	58.81
237.221	73.81
237.455	72.81
237.689	62.81
237.922	78.81
238.156	73.81
238.39	60.81
238.624	58.81
238.858	79.81
239.091	72.81
239.325	56.81
239.559	69.81
239.793	75.81
240.027	56.81
240.26	72.81
240.494	53.81
240.728	61.81
240.961	64.81
241.195	73.81
241.429	55.81
241.662	65.81
241.896	64.81
242.13	71.81
242.363	77.81
242.597	80.81
242.83	68.81
243.064	72.81
243.298	80.81
243.531	78.81
243.765	74.81
243.998	81.81
244.232	74.81
244.465	72.81
244.699	68.81
244.932	72.81
245.166	58.81
245.399	65.81
245.633	70.81
245.866	73.81
246.099	77.81
246.333	73.81
246.566	73.81
246.8	68.81
247.033	74.81
247.266	71.81
247.5	74.81
247.733	81.81
247.966	84.81
248.2	57.81
248.433	70.81
248.666	70.81
248.899	89.81
249.133	72.81
249.366	87.81
249.599	82.81
249.832	84.81
250.066	83.81
250.299	73.81
250.532	65.81
250.765	78.81
250.998	95.81
251.231	89.81
251.465	68.81
251.698	67.81
251.931	67.81
252.164	79.81
252.397	72.81
252.63	75.81
252.863	68.81
253.096	69.81
253.329	84.81
253.562	76.81
253.795	74.81
254.028	79.81
254.261	80.81
254.494	74.81
254.727	81.81
254.96	80.81
255.193	84.81
255.426	72.81
255.659	65.81
255.892	81.81
256.124	71.81
256.357	95.81
256.59	89.81
256.823	70.81
257.056	76.81
257.289	76.81
257.521	78.81
257.754	66.81
257.987	70.81
258.22	66.81
258.452	67.81
258.685	73.81
258.918	76.81
259.151	71.81
259.383	79.81
259.616	80.81
259.849	74.81
260.081	79.81
260.314	80.81
260.547	78.81
260.779	85.81
261.012	93.81
261.244	87.81
261.477	81.81
261.71	96.81
261.942	110.81
262.175	117.81
262.407	93.81
262.64	92.81
262.872	79.81
263.105	86.81
263.337	82.81
263.57	80.81
263.802	84.81
264.035	70.81
264.267	77.81
264.499	98.81
264.732	76.81
264.964	79.81
265.197	93.81
265.429	92.81
265.661	83.81
265.894	72.81
266.126	87.81
266.358	78.81
266.591	77.81
266.823	80.81
267.055	81.81
267.287	84.81
267.52	80.81
267.752	64.81
267.984	79.81
268.216	82.81
268.448	86.81
268.681	74.81
268.913	81.81
269.145	79.81
269.377	72.81
269.609	89.81
269.841	78.81
270.073	79.81
270.306	67.81
270.538	81.81
270.77	68.81
271.002	87.81
271.234	79.81
271.466	81.81
271.698	78.81
271.93	76.81
272.162	81.81
272.394	85.81
272.626	87.81
272.858	83.81
273.09	84.81
273.322	69.81
273.553	79.81
273.785	76.81
274.017	96.81
274.249	73.81
274.481	81.81
274.713	87.81
274.945	67.81
275.176	78.81
275.408	80.81
275.64	72.81
275.872	80.81
276.104	89.81
276.335	85.81
276.567	86.81
276.799	98.81
277.031	94.81
277.262	83.81
277.494	93.81
277.726	76.81
277.957	78.81
278.189	80.81
278.421	72.81
278.652	89.81
278.884	82.81
279.115	70.81
279.347	89.81
279.579	84.81
279.81	95.81
280.042	92.81
280.273	80.81
280.505	93.81
280.736	78.81
280.968	80.81
281.199	84.81
281.431	70.81
281.662	108.81
281.894	78.81
282.125	88.81
282.356	119.81
282.588	134.81
282.819	109.81
283.051	89.81
283.282	75.81
283.513	79.81
283.745	74.81
283.976	82.81
284.207	86.81
284.439	94.81
284.67	96.81
284.901	89.81
285.132	72.81
285.364	84.81
285.595	90.81
285.826	77.81
286.057	88.81
286.288	72.81
286.52	71.81
286.751	87.81
286.982	101.81
287.213	82.81
287.444	97.81
287.675	97.81
287.906	71.81
288.138	87.81
288.369	90.81
288.6	73.81
288.831	83.81
289.062	97.81
289.293	79.81
289.524	62.81
289.755	78.81
289.986	72.81
290.217	86.81
290.448	67.81
290.679	84.81
290.91	81.81
291.141	76.81
291.371	88.81
291.602	77.81
291.833	79.81
292.064	93.81
292.295	81.81
292.526	82.81
292.757	92.81
292.987	81.81
293.218	80.81
293.449	89.81
293.68	72.81
293.91	91.81
294.141	82.81
294.372	84.81
294.603	82.81
294.833	85.81
295.064	85.81
295.295	94.81
295.525	86.81
295.756	78.81
295.987	97.81
296.217	118.81
296.448	114.81
296.679	95.81
296.909	77.81
297.14	87.81
297.37	81.81
297.601	79.81
297.831	87.81
298.062	72.81
298.292	86.81
298.523	75.81
298.753	80.81
298.984	80.81
299.214	83.81
299.445	89.81
299.675	89.81
299.905	84.81
300.136	89.81
300.366	76.81
300.597	76.81
300.827	94.81
301.057	80.81
301.288	98.81
301.518	93.81
301.748	82.81
301.979	93.81
302.209	78.81
302.439	73.81
302.669	86.81
302.9	84.81
303.13	82.81
303.36	97.81
303.59	83.81
303.82	110.81
304.051	81.81
304.281	93.81
304.511	88.81
304.741	108.81
304.971	102.81
305.201	97.81
305.431	89.81
305.661	85.81
305.891	81.81
306.121	97.81
306.352	79.81
306.582	89.81
306.812	93.81
307.042	79.81
307.272	97.81
307.502	94.81
307.731	67.81
307.961	95.81
308.191	89.81
308.421	74.81
308.651	76.81
308.881	96.81
309.111	96.81
309.341	89.81
309.571	86.81
309.8	100.81
310.03	95.81
310.26	91.81
310.49	76.81
310.72	88.81
310.949	102.81
311.179	84.81
311.409	89.81
311.639	90.81
311.868	99.81
312.098	92.81
312.328	88.81
312.557	97.81
312.787	95.81
313.017	100.81
313.246	96.81
313.476	92.81
313.706	88.81
313.935	85.81
314.165	96.81
314.394	87.81
314.624	90.81
314.853	85.81
315.083	72.81
315.312	96.81
315.542	100.81
315.771	86.81
316.001	98.81
316.23	84.81
316.46	92.81
316.689	92.81
316.919	89.81
317.148	101.81
317.377	78.81
317.607	103.81
317.836	82.81
318.065	92.81
318.295	84.81
318.524	84.81
318.753	89.81
318.983	93.81
319.212	113.81
319.441	115.81
319.67	88.81
319.9	94.81
320.129	88.81
320.358	77.81
320.587	89.81
320.816	95.81
321.046	111.81
321.275	90.81
321.504	78.81
321.733	81.81
321.962	82.81
322.191	88.81
322.42	97.81
322.649	100.81
322.878	96.81
323.108	113.81
323.337	110.81
323.566	143.81
323.795	148.81
324.024	182.81
324.253	400.81
324.482	784.81
324.71	1610.81
324.939	2079.81
325.168	774.81
325.397	225.81
325.626	151.81
325.855	113.81
326.084	119.81
326.313	129.81
326.542	153.81
326.77	226.81
326.999	447.81
327.228	913.81
327.457	1604.81
327.686	1276.81
327.914	345.81
328.143	178.81
328.372	142.81
328.6	134.81
328.829	117.81
329.058	140.81
329.287	115.81
329.515	109.81
329.744	94.81
329.972	85.81
330.201	80.81
330.43	102.81
330.658	111.81
330.887	130.81
331.115	118.81
331.344	94.81
331.572	95.81
331.801	106.81
332.03	96.81
332.258	95.81
332.486	86.81
332.715	88.81
332.943	89.81
333.172	97.81
333.4	111.81
333.629	90.81
333.857	100.81
334.085	110.81
334.314	96.81
334.542	101.81
334.771	106.81
334.999	81.81
335.227	93.81
335.455	85.81
335.684	101.81
335.912	86.81
336.14	87.81
336.369	79.81
336.597	84.81
336.825	90.81
337.053	90.81
337.281	82.81
337.51	96.81
337.738	95.81
337.966	94.81
338.194	77.81
338.422	94.81
338.65	83.81
338.878	92.81
339.106	89.81
339.334	89.81
339.562	85.81
339.79	93.81
340.018	86.81
340.246	90.81
340.474	100.81
340.702	71.81
340.93	87.81
341.158	83.81
341.386	83.81
341.614	88.81
341.842	81.81
342.07	89.81
342.298	89.81
342.526	90.81
342.754	76.81
342.981	96.81
343.209	91.81
343.437	106.81
343.665	73.81
343.893	79.81
344.12	89.81
344.348	86.81
344.576	80.81
344.804	105.81
345.031	88.81
345.259	86.81
345.487	95.81
345.714	78.81
345.942	96.81
346.17	106.81
346.397	84.81
346.625	90.81
346.853	79.81
347.08	88.81
347.308	81.81
347.535	105.81
347.763	95.81
347.99	106.81
348.218	105.81
348.445	90.81
348.673	100.81
348.9	105.81
349.128	94.81
349.355	84.81
349.583	76.81
349.81	83.81
350.037	93.81
350.265	106.81
350.492	95.81
350.72	102.81
350.947	111.81
351.174	95.81
351.402	114.81
351.629	98.81
351.856	102.81
352.083	89.81
352.311	102.81
352.538	104.81
352.765	97.81
352.992	123.81
353.22	94.81
353.447	85.81
353.674	94.81
353.901	85.81
354.128	98.81
354.355	98.81
354.583	94.81
354.81	101.81
355.037	102.81
355.264	99.81
355.491	96.81
355.718	96.81
355.945	83.81
356.172	93.81
356.399	73.81
356.626	96.81
356.853	86.81
357.08	89.81
357.307	89.81
357.534	89.81
357.761	82.81
357.988	86.81
358.215	93.81
358.441	90.81
358.668	89.81
358.895	89.81
359.122	83.81
359.349	85.81
359.576	88.81
359.802	98.81
360.029	122.81
360.256	111.81
360.483	99.81
360.709	91.81
360.936	72.81
361.163	82.81
361.39	82.81
361.616	97.81
361.843	90.81
362.07	107.81
362.296	85.81
362.523	89.81
362.749	94.81
362.976	82.81
363.203	98.81
363.429	77.81
363.656	82.81
363.882	81.81
364.109	100.81
364.335	101.81
364.562	97.81
364.788	80.81
365.015	96.81
365.241	93.81
365.468	116.81
365.694	95.81
365.92	104.81
366.147	96.81
366.373	84.81
366.599	85.81
366.826	80.81
367.052	77.81
367.278	81.81
367.505	72.81
367.731	93.81
367.957	88.81
368.184	82.81
368.41	97.81
368.636	119.81
368.862	128.81
369.089	100.81
369.315	85.81
369.541	81.81
369.767	82.81
369.993	96.81
370.219	78.81
370.445	102.81
370.672	84.81
370.898	94.81
371.124	74.81
371.35	81.81
371.576	88.81
371.802	104.81
372.028	82.81
372.254	82.81
372.48	91.81
372.706	77.81
372.932	84.81
373.158	79.81
373.384	87.81
373.61	88.81
373.835	82.81
374.061	80.81
374.287	92.81
374.513	93.81
374.739	83.81
374.965	87.81
375.191	86.81
375.416	91.81
375.642	80.81
375.868	83.81
376.094	85.81
376.319	85.81
376.545	95.81
376.771	83.81
376.997	79.81
377.222	84.81
377.448	77.81
377.674	81.81
377.899	99.81
378.125	102.81
378.35	83.81
378.576	89.81
378.802	90.81
379.027	98.81
379.253	78.81
379.478	78.81
379.704	78.81
379.929	92.81
380.155	89.81
380.38	86.81
380.606	92.81
380.831	81.81
381.057	90.81
381.282	90.81
381.507	77.81
381.733	94.81
381.958	95.81
382.184	91.81
382.409	91.81
382.634	95.81
382.86	94.81
383.085	89.81
383.31	100.81
383.535	89.81
383.761	82.81
383.986	93.81
384.211	98.81
384.436	89.81
384.662	103.81
384.887	96.81
385.112	100.81
385.337	106.81
385.562	97.81
385.787	88.81
386.013	116.81
386.238	105.81
386.463	114.81
386.688	103.81
386.913	107.81
387.138	80.81
387.363	70.81
387.588	96.81
387.813	80.81
388.038	87.81
388.263	99.81
388.488	88.81
388.713	88.81
388.938	90.81
389.163	86.81
389.387	78.81
389.612	98.81
389.837	86.81
390.062	80.81
390.287	87.81
390.512	85.81
390.736	79.81
390.961	89.81
391.186	78.81
391.411	86.81
391.636	93.81
391.86	87.81
392.085	82.81
392.31	84.81
392.534	73.81
392.759	95.81
392.984	81.81
393.208	85.81
393.433	93.81
393.658	82.81
393.882	91.81
394.107	84.81
394.331	81.81
394.556	74.81
394.78	85.81
395.005	80.81
395.229	96.81
395.454	96.81
395.678	95.81
395.903	92.81
396.127	87.81
396.352	93.81
396.576	87.81
396.801	95.81
397.025	92.81
397.249	85.81
397.474	83.81
397.698	82.81
397.922	78.81
398.147	87.81
398.371	76.81
398.595	91.81
398.82	79.81
399.044	86.81
399.268	81.81
399.492	87.81
399.717	80.81
399.941	74.81
400.165	91.81
400.389	88.81
400.613	83.81
400.837	82.81
401.062	84.81
401.286	84.81
401.51	85.81
401.734	93.81
401.958	85.81
402.182	102.81
402.406	165.81
402.63	125.81
402.854	87.81
403.078	90.81
403.302	92.81
403.526	73.81
403.75	73.81
403.974	82.81
404.198	102.81
404.422	71.81
404.645	88.81
404.869	88.81
405.093	85.81
405.317	98.81
405.541	87.81
405.765	95.81
405.988	102.81
406.212	162.81
406.436	235.81
406.66	154.81
406.883	99.81
407.107	81.81
407.331	90.81
407.555	92.81
407.778	83.81
408.002	91.81
408.226	84.81
408.449	90.81
408.673	84.81
408.896	80.81
409.12	90.81
409.344	89.81
409.567	82.81
409.791	86.81
410.014	96.81
410.238	88.81
410.461	80.81
410.685	90.81
410.908	93.81
411.132	85.81
411.355	77.81
411.578	97.81
411.802	84.81
412.025	86.81
412.249	83.81
412.472	76.81
412.695	92.81
412.919	73.81
413.142	85.81
413.365	76.81
413.589	89.81
413.812	94.81
414.035	80.81
414.258	79.81
414.482	97.81
414.705	76.81
414.928	86.81
415.151	67.81
415.374	81.81
415.597	92.81
415.821	82.81
416.044	85.81
416.267	88.81
416.49	86.81
416.713	90.81
416.936	93.81
417.159	95.81
417.382	76.81
417.605	89.81
417.828	87.81
418.051	83.81
418.274	84.81
418.497	82.81
418.72	97.81
418.943	88.81
419.166	84.81
419.389	94.81
419.611	74.81
419.834	92.81
420.057	83.81
420.28	79.81
420.503	86.81
420.726	74.81
420.948	83.81
421.171	90.81
421.394	89.81
421.617	90.81
421.839	100.81
422.062	95.81
422.285	85.81
422.507	93.81
422.73	88.81
422.953	90.81
423.175	87.81
423.398	78.81
423.621	93.81
423.843	89.81
424.066	80.81
424.288	87.81
424.511	91.81
424.733	89.81
424.956	103.81
425.178	108.81
425.401	82.81
425.623	103.81
425.846	86.81
426.068	90.81
426.291	89.81
426.513	76.81
426.735	93.81
426.958	72.81
427.18	102.81
427.402	129.81
427.625	168.81
427.847	118.81
428.069	88.81
428.292	88.81
428.514	79.81
428.736	87.81
428.958	73.81
429.181	76.81
429.403	90.81
429.625	97.81
429.847	94.81
430.069	100.81
430.292	86.81
430.514	70.81
430.736	99.81
430.958	95.81
431.18	86.81
431.402	84.81
431.624	84.81
431.846	74.81
432.068	92.81
432.29	82.81
432.512	79.81
432.734	82.81
432.956	86.81
433.178	87.81
433.4	89.81
433.622	74.81
433.844	85.81
434.066	89.81
434.287	88.81
434.509	87.81
434.731	77.81
434.953	88.81
435.175	89.81
435.397	87.81
435.618	90.81
435.84	94.81
436.062	101.81
436.284	109.81
436.505	97.81
436.727	106.81
436.949	90.81
437.17	87.81
437.392	88.81
437.614	90.81
437.835	107.81
438.057	132.81
438.278	110.81
438.5	88.81
438.721	126.81
438.943	103.81
439.165	82.81
439.386	84.81
439.608	82.81
439.829	100.81
440.05	110.81
440.272	144.81
440.493	104.81
440.715	83.81
440.936	88.81
441.158	93.81
441.379	78.81
441.6	91.81
441.822	94.81
442.043	86.81
442.264	105.81
442.486	107.81
442.707	88.81
442.928	101.81
443.149	126.81
443.371	122.81
443.592	111.81
443.813	115.81
444.034	106.81
444.255	93.81
444.476	81.81
444.698	77.81
444.919	85.81
445.14	130.81
445.361	118.81
445.582	101.81
445.803	140.81
446.024	130.81
446.245	132.81
446.466	118.81
446.687	75.81
446.908	87.81
447.129	92.81
447.35	83.81
447.571	94.81
447.792	81.81
448.013	91.81
448.234	92.81
448.455	98.81
448.675	116.81
448.896	120.81
449.117	83.81
449.338	97.81
449.559	125.81
449.779	124.81
450	79.81
450.221	79.81
450.442	89.81
450.662	98.81
450.883	112.81
451.104	96.81
451.324	89.81
451.545	79.81
451.766	93.81
451.986	86.81
452.207	94.81
452.428	96.81
452.648	98.81
452.869	113.81
453.089	114.81
453.31	113.81
453.53	83.81
453.751	66.81
453.971	97.81
454.192	107.81
454.412	92.81
454.633	69.81
454.853	86.81
455.073	77.81
455.294	81.81
455.514	94.81
455.734	93.81
455.955	87.81
456.175	77.81
456.395	74.81
456.616	83.81
456.836	74.81
457.056	78.81
457.276	87.81
457.497	85.81
457.717	85.81
457.937	84.81
458.157	71.81
458.377	95.81
458.598	104.81
458.818	165.81
459.038	166.81
459.258	125.81
459.478	88.81
459.698	68.81
459.918	81.81
460.138	80.81
460.358	68.81
460.578	89.81
460.798	84.81
461.018	81.81
461.238	78.81
461.458	83.81
461.678	97.81
461.898	87.81
462.118	72.81
462.338	97.81
462.558	81.81
462.777	82.81
462.997	90.81
463.217	78.81
463.437	70.81
463.657	85.81
463.876	85.81
464.096	87.81
464.316	93.81
464.536	92.81
464.755	84.81
464.975	114.81
465.195	173.81
465.414	155.81
465.634	90.81
465.854	80.81
466.073	76.81
466.293	77.81
466.512	83.81
466.732	80.81
466.951	87.81
467.171	79.81
467.391	97.81
467.61	105.81
467.829	79.81
468.049	88.81
468.268	85.81
468.488	85.81
468.707	86.81
468.927	96.81
469.146	103.81
469.365	81.81
469.585	94.81
469.804	84.81
470.023	105.81
470.243	86.81
470.462	100.81
470.681	114.81
470.901	79.81
471.12	80.81
471.339	79.81
471.558	89.81
471.777	90.81
471.997	89.81
472.216	74.81
472.435	82.81
472.654	86.81
472.873	88.81
473.092	81.81
473.311	69.81
473.53	87.81
473.749	87.81
473.968	92.81
474.187	112.81
474.406	90.81
474.625	85.81
474.844	87.81
475.063	77.81
475.282	91.81
475.501	87.81
475.72	87.81
475.939	80.81
476.158	70.81
476.377	97.81
476.596	84.81
476.814	97.81
477.033	95.81
477.252	72.81
477.471	58.81
477.69	84.81
477.908	92.81
478.127	82.81
478.346	87.81
478.564	94.81
478.783	95.81
479.002	82.81
479.22	75.81
479.439	94.81
479.658	109.81
479.876	100.81
480.095	94.81
480.313	81.81
480.532	83.81
480.751	90.81
480.969	98.81
481.188	103.81
481.406	102.81
481.624	86.81
481.843	87.81
482.061	86.81
482.28	88.81
482.498	83.81
482.717	71.81
482.935	85.81
483.153	92.81
483.372	76.81
483.59	81.81
483.808	89.81
484.027	82.81
484.245	88.81
484.463	100.81
484.681	90.81
484.9	95.81
485.118	93.81
485.336	84.81
485.554	62.81
485.772	89.81
485.99	96.81
486.209	94.81
486.427	102.81
486.645	99.81
486.863	108.81
487.081	92.81
487.299	83.81
487.517	93.81
487.735	87.81
487.953	78.81
488.171	72.81
488.389	90.81
488.607	102.81
488.825	88.81
489.043	96.81
489.261	89.81
489.479	82.81
489.696	84.81
489.914	99.81
490.132	82.81
490.35	79.81
490.568	91.81
490.786	82.81
491.003	69.81
491.221	78.81
491.439	82.81
491.657	90.81
491.874	84.81
492.092	97.81
492.31	91.81
492.527	74.81
492.745	76.81
492.963	80.81
493.18	81.81
493.398	74.81
493.615	88.81
493.833	89.81
494.05	88.81
494.268	94.81
494.485	81.81
494.703	84.81
494.92	76.81
495.138	80.81
495.355	96.81
495.573	89.81
495.79	94.81
496.008	81.81
496.225	80.81
496.442	83.81
496.66	85.81
496.877	80.81
497.094	87.81
497.312	82.81
497.529	71.81
497.746	64.81
497.963	79.81
498.181	88.81
498.398	88.81
498.615	100.81
498.832	107.81
499.049	91.81
499.267	97.81
499.484	87.81
499.701	86.81
499.918	83.81
500.135	76.81
500.352	100.81
500.569	91.81
500.786	89.81
501.003	78.81
501.22	90.81
501.437	94.81
501.654	106.81
501.871	104.81
502.088	93.81
502.305	81.81
502.522	76.81
502.739	80.81
502.956	81.81
503.172	101.81
503.389	111.81
503.606	108.81
503.823	108.81
504.04	82.81
504.256	107.81
504.473	92.81
504.69	91.81
504.907	91.81
505.123	88.81
505.34	73.81
505.557	79.81
505.773	75.81
505.99	79.81
506.207	87.81
506.423	71.81
506.64	77.81
506.856	94.81
507.073	86.81
507.289	93.81
507.506	94.81
507.722	108.81
507.939	106.81
508.155	88.81
508.372	92.81
508.588	89.81
508.805	94.81
509.021	86.81
509.238	98.81
509.454	81.81
509.67	94.81
509.887	97.81
510.103	138.81
510.319	218.81
510.536	808.81
510.752	2523.81
510.968	677.81
511.184	146.81
511.401	93.81
511.617	91.81
511.833	88.81
512.049	80.81
512.265	103.81
512.481	98.81
512.698	87.81
512.914	94.81
513.13	76.81
513.346	82.81
513.562	90.81
513.778	102.81
513.994	94.81
514.21	101.81
514.426	136.81
514.642	144.81
514.858	122.81
515.074	175.81
515.29	503.81
515.506	1672.81
515.721	598.81
515.937	167.81
516.153	100.81
516.369	101.81
516.585	101.81
516.801	94.81
517.016	87.81
