Data from Uncirc_2001_H10_HRD10591_00040.txt Node
Date: Wed Jan 03 10:44:04 EST 2024
User: Yrep
Spectrometer: HR+D1059
Trigger mode: 1
Integration Time (sec): 1.000000E-1
Scans to average: 1
Electric dark correction enabled: true
Nonlinearity correction enabled: false
Boxcar width: 0
XAxis mode: Wavelengths
Number of Pixels in Spectrum: 2048
>>>>>Begin Spectral Data<<<<<
223.165	-15.88
223.4	-15.88
223.635	-15.88
223.869	-21.88
224.104	-13.88
224.338	-30.88
224.573	-19.88
224.808	-11.88
225.042	-14.88
225.277	-6.88
225.511	-1.88
225.746	-2.88
225.98	4.12
226.215	12.12
226.449	26.12
226.683	20.12
226.918	39.12
227.152	39.12
227.387	34.12
227.621	34.12
227.856	42.12
228.09	42.12
228.324	52.12
228.559	53.12
228.793	55.12
229.027	59.12
229.262	67.12
229.496	70.12
229.73	68.12
229.964	61.12
230.199	68.12
230.433	74.12
230.667	77.12
230.901	64.12
231.136	80.12
231.37	77.12
231.604	94.12
231.838	68.12
232.072	91.12
232.306	86.12
232.541	69.12
232.775	74.12
233.009	82.12
233.243	61.12
233.477	78.12
233.711	74.12
233.945	67.12
234.179	76.12
234.413	86.12
234.647	83.12
234.881	77.12
235.115	74.12
235.349	80.12
235.583	76.12
235.817	83.12
236.051	83.12
236.285	84.12
236.519	80.12
236.753	83.12
236.987	78.12
237.221	78.12
237.455	80.12
237.689	79.12
237.922	80.12
238.156	71.12
238.39	82.12
238.624	60.12
238.858	90.12
239.091	65.12
239.325	76.12
239.559	77.12
239.793	84.12
240.027	92.12
240.26	74.12
240.494	80.12
240.728	78.12
240.961	67.12
241.195	74.12
241.429	78.12
241.662	72.12
241.896	67.12
242.13	82.12
242.363	74.12
242.597	77.12
242.83	86.12
243.064	77.12
243.298	74.12
243.531	69.12
243.765	64.12
243.998	88.12
244.232	80.12
244.465	74.12
244.699	79.12
244.932	77.12
245.166	76.12
245.399	93.12
245.633	79.12
245.866	81.12
246.099	87.12
246.333	83.12
246.566	61.12
246.8	56.12
247.033	82.12
247.266	73.12
247.5	87.12
247.733	82.12
247.966	85.12
248.2	74.12
248.433	78.12
248.666	79.12
248.899	75.12
249.133	85.12
249.366	88.12
249.599	88.12
249.832	93.12
250.066	77.12
250.299	82.12
250.532	81.12
250.765	86.12
250.998	79.12
251.231	81.12
251.465	75.12
251.698	82.12
251.931	75.12
252.164	84.12
252.397	74.12
252.63	77.12
252.863	80.12
253.096	90.12
253.329	85.12
253.562	75.12
253.795	94.12
254.028	92.12
254.261	75.12
254.494	72.12
254.727	80.12
254.96	89.12
255.193	57.12
255.426	98.12
255.659	95.12
255.892	78.12
256.124	90.12
256.357	87.12
256.59	94.12
256.823	92.12
257.056	75.12
257.289	76.12
257.521	81.12
257.754	88.12
257.987	79.12
258.22	96.12
258.452	76.12
258.685	76.12
258.918	83.12
259.151	79.12
259.383	81.12
259.616	80.12
259.849	73.12
260.081	92.12
260.314	81.12
260.547	81.12
260.779	67.12
261.012	61.12
261.244	93.12
261.477	81.12
261.71	90.12
261.942	90.12
262.175	91.12
262.407	86.12
262.64	73.12
262.872	69.12
263.105	74.12
263.337	82.12
263.57	85.12
263.802	84.12
264.035	80.12
264.267	88.12
264.499	72.12
264.732	85.12
264.964	93.12
265.197	80.12
265.429	76.12
265.661	85.12
265.894	94.12
266.126	100.12
266.358	79.12
266.591	83.12
266.823	77.12
267.055	82.12
267.287	82.12
267.52	76.12
267.752	75.12
267.984	88.12
268.216	72.12
268.448	91.12
268.681	88.12
268.913	84.12
269.145	85.12
269.377	92.12
269.609	76.12
269.841	96.12
270.073	91.12
270.306	90.12
270.538	97.12
270.77	83.12
271.002	76.12
271.234	98.12
271.466	85.12
271.698	84.12
271.93	84.12
272.162	80.12
272.394	87.12
272.626	92.12
272.858	76.12
273.09	84.12
273.322	77.12
273.553	86.12
273.785	89.12
274.017	95.12
274.249	84.12
274.481	81.12
274.713	83.12
274.945	84.12
275.176	75.12
275.408	108.12
275.64	82.12
275.872	91.12
276.104	95.12
276.335	102.12
276.567	96.12
276.799	98.12
277.031	96.12
277.262	89.12
277.494	66.12
277.726	89.12
277.957	85.12
278.189	89.12
278.421	82.12
278.652	88.12
278.884	70.12
279.115	89.12
279.347	81.12
279.579	76.12
279.81	88.12
280.042	77.12
280.273	94.12
280.505	97.12
280.736	84.12
280.968	77.12
281.199	81.12
281.431	85.12
281.662	95.12
281.894	76.12
282.125	87.12
282.356	103.12
282.588	109.12
282.819	109.12
283.051	82.12
283.282	96.12
283.513	85.12
283.745	94.12
283.976	86.12
284.207	76.12
284.439	92.12
284.67	82.12
284.901	85.12
285.132	83.12
285.364	82.12
285.595	93.12
285.826	89.12
286.057	95.12
286.288	90.12
286.52	87.12
286.751	83.12
286.982	85.12
287.213	77.12
287.444	80.12
287.675	89.12
287.906	99.12
288.138	82.12
288.369	82.12
288.6	97.12
288.831	92.12
289.062	98.12
289.293	80.12
289.524	94.12
289.755	85.12
289.986	92.12
290.217	86.12
290.448	91.12
290.679	95.12
290.91	91.12
291.141	84.12
291.371	86.12
291.602	84.12
291.833	83.12
292.064	97.12
292.295	79.12
292.526	82.12
292.757	74.12
292.987	82.12
293.218	100.12
293.449	105.12
293.68	88.12
293.91	90.12
294.141	82.12
294.372	82.12
294.603	95.12
294.833	83.12
295.064	91.12
295.295	93.12
295.525	84.12
295.756	82.12
295.987	103.12
296.217	113.12
296.448	92.12
296.679	96.12
296.909	98.12
297.14	73.12
297.37	98.12
297.601	80.12
297.831	99.12
298.062	84.12
298.292	100.12
298.523	97.12
298.753	93.12
298.984	91.12
299.214	87.12
299.445	85.12
299.675	83.12
299.905	97.12
300.136	96.12
300.366	94.12
300.597	86.12
300.827	96.12
301.057	83.12
301.288	81.12
301.518	87.12
301.748	89.12
301.979	96.12
302.209	85.12
302.439	86.12
302.669	85.12
302.9	85.12
303.13	95.12
303.36	97.12
303.59	86.12
303.82	101.12
304.051	101.12
304.281	96.12
304.511	79.12
304.741	93.12
304.971	90.12
305.201	94.12
305.431	89.12
305.661	85.12
305.891	76.12
306.121	85.12
306.352	92.12
306.582	97.12
306.812	91.12
307.042	102.12
307.272	87.12
307.502	96.12
307.731	92.12
307.961	95.12
308.191	95.12
308.421	101.12
308.651	101.12
308.881	83.12
309.111	85.12
309.341	98.12
309.571	91.12
309.8	89.12
310.03	90.12
310.26	93.12
310.49	82.12
310.72	109.12
310.949	99.12
311.179	99.12
311.409	106.12
311.639	86.12
311.868	91.12
312.098	102.12
312.328	106.12
312.557	87.12
312.787	83.12
313.017	99.12
313.246	85.12
313.476	92.12
313.706	92.12
313.935	103.12
314.165	86.12
314.394	98.12
314.624	90.12
314.853	97.12
315.083	82.12
315.312	84.12
315.542	94.12
315.771	88.12
316.001	97.12
316.23	92.12
316.46	93.12
316.689	104.12
316.919	94.12
317.148	89.12
317.377	89.12
317.607	85.12
317.836	88.12
318.065	92.12
318.295	95.12
318.524	100.12
318.753	95.12
318.983	89.12
319.212	80.12
319.441	97.12
319.67	100.12
319.9	86.12
320.129	101.12
320.358	96.12
320.587	91.12
320.816	100.12
321.046	101.12
321.275	94.12
321.504	104.12
321.733	88.12
321.962	84.12
322.191	95.12
322.42	93.12
322.649	91.12
322.878	96.12
323.108	105.12
323.337	110.12
323.566	105.12
323.795	105.12
324.024	142.12
324.253	227.12
324.482	415.12
324.71	757.12
324.939	950.12
325.168	380.12
325.397	164.12
325.626	119.12
325.855	110.12
326.084	93.12
326.313	96.12
326.542	116.12
326.77	155.12
326.999	261.12
327.228	456.12
327.457	747.12
327.686	597.12
327.914	205.12
328.143	138.12
328.372	125.12
328.6	116.12
328.829	94.12
329.058	109.12
329.287	92.12
329.515	90.12
329.744	94.12
329.972	95.12
330.201	87.12
330.43	104.12
330.658	105.12
330.887	118.12
331.115	116.12
331.344	98.12
331.572	82.12
331.801	102.12
332.03	95.12
332.258	91.12
332.486	85.12
332.715	92.12
332.943	87.12
333.172	89.12
333.4	94.12
333.629	91.12
333.857	78.12
334.085	90.12
334.314	102.12
334.542	83.12
334.771	94.12
334.999	94.12
335.227	94.12
335.455	96.12
335.684	80.12
335.912	88.12
336.14	84.12
336.369	100.12
336.597	98.12
336.825	88.12
337.053	82.12
337.281	97.12
337.51	89.12
337.738	90.12
337.966	93.12
338.194	83.12
338.422	84.12
338.65	93.12
338.878	90.12
339.106	88.12
339.334	101.12
339.562	90.12
339.79	87.12
340.018	90.12
340.246	86.12
340.474	87.12
340.702	99.12
340.93	98.12
341.158	90.12
341.386	88.12
341.614	82.12
341.842	96.12
342.07	104.12
342.298	77.12
342.526	96.12
342.754	81.12
342.981	80.12
343.209	85.12
343.437	93.12
343.665	81.12
343.893	98.12
344.12	94.12
344.348	75.12
344.576	98.12
344.804	78.12
345.031	98.12
345.259	92.12
345.487	91.12
345.714	95.12
345.942	86.12
346.17	102.12
346.397	98.12
346.625	73.12
346.853	85.12
347.08	91.12
347.308	88.12
347.535	73.12
347.763	99.12
347.99	106.12
348.218	98.12
348.445	92.12
348.673	84.12
348.9	93.12
349.128	98.12
349.355	93.12
349.583	77.12
349.81	88.12
350.037	100.12
350.265	88.12
350.492	70.12
350.72	90.12
350.947	87.12
351.174	94.12
351.402	94.12
351.629	98.12
351.856	93.12
352.083	88.12
352.311	95.12
352.538	98.12
352.765	100.12
352.992	95.12
353.22	92.12
353.447	100.12
353.674	98.12
353.901	81.12
354.128	90.12
354.355	84.12
354.583	89.12
354.81	89.12
355.037	85.12
355.264	90.12
355.491	99.12
355.718	84.12
355.945	93.12
356.172	89.12
356.399	94.12
356.626	80.12
356.853	84.12
357.08	90.12
357.307	90.12
357.534	90.12
357.761	84.12
357.988	84.12
358.215	90.12
358.441	74.12
358.668	95.12
358.895	101.12
359.122	79.12
359.349	81.12
359.576	90.12
359.802	78.12
360.029	103.12
360.256	105.12
360.483	101.12
360.709	84.12
360.936	84.12
361.163	82.12
361.39	88.12
361.616	89.12
361.843	94.12
362.07	78.12
362.296	94.12
362.523	97.12
362.749	92.12
362.976	95.12
363.203	86.12
363.429	93.12
363.656	83.12
363.882	87.12
364.109	98.12
364.335	78.12
364.562	102.12
364.788	79.12
365.015	93.12
365.241	95.12
365.468	102.12
365.694	103.12
365.92	86.12
366.147	84.12
366.373	91.12
366.599	83.12
366.826	92.12
367.052	90.12
367.278	87.12
367.505	86.12
367.731	97.12
367.957	97.12
368.184	89.12
368.41	92.12
368.636	89.12
368.862	99.12
369.089	98.12
369.315	87.12
369.541	101.12
369.767	92.12
369.993	112.12
370.219	82.12
370.445	85.12
370.672	91.12
370.898	86.12
371.124	84.12
371.35	95.12
371.576	90.12
371.802	98.12
372.028	85.12
372.254	89.12
372.48	68.12
372.706	72.12
372.932	92.12
373.158	87.12
373.384	94.12
373.61	98.12
373.835	96.12
374.061	89.12
374.287	94.12
374.513	74.12
374.739	104.12
374.965	94.12
375.191	93.12
375.416	91.12
375.642	94.12
375.868	85.12
376.094	93.12
376.319	88.12
376.545	87.12
376.771	98.12
376.997	93.12
377.222	86.12
377.448	89.12
377.674	79.12
377.899	86.12
378.125	91.12
378.35	94.12
378.576	100.12
378.802	97.12
379.027	79.12
379.253	85.12
379.478	86.12
379.704	99.12
379.929	90.12
380.155	99.12
380.38	91.12
380.606	69.12
380.831	84.12
381.057	94.12
381.282	98.12
381.507	90.12
381.733	89.12
381.958	87.12
382.184	86.12
382.409	97.12
382.634	80.12
382.86	81.12
383.085	89.12
383.31	94.12
383.535	92.12
383.761	97.12
383.986	84.12
384.211	83.12
384.436	99.12
384.662	103.12
384.887	89.12
385.112	89.12
385.337	92.12
385.562	88.12
385.787	93.12
386.013	80.12
386.238	93.12
386.463	82.12
386.688	93.12
386.913	88.12
387.138	78.12
387.363	96.12
387.588	91.12
387.813	89.12
388.038	89.12
388.263	85.12
388.488	108.12
388.713	95.12
388.938	98.12
389.163	100.12
389.387	93.12
389.612	93.12
389.837	93.12
390.062	87.12
390.287	82.12
390.512	78.12
390.736	83.12
390.961	84.12
391.186	81.12
391.411	82.12
391.636	87.12
391.86	93.12
392.085	93.12
392.31	80.12
392.534	91.12
392.759	85.12
392.984	81.12
393.208	93.12
393.433	100.12
393.658	94.12
393.882	76.12
394.107	78.12
394.331	99.12
394.556	78.12
394.78	90.12
395.005	90.12
395.229	77.12
395.454	92.12
395.678	90.12
395.903	87.12
396.127	77.12
396.352	95.12
396.576	84.12
396.801	115.12
397.025	84.12
397.249	85.12
397.474	94.12
397.698	80.12
397.922	80.12
398.147	89.12
398.371	71.12
398.595	97.12
398.82	83.12
399.044	80.12
399.268	78.12
399.492	73.12
399.717	83.12
399.941	97.12
400.165	75.12
400.389	82.12
400.613	70.12
400.837	78.12
401.062	92.12
401.286	74.12
401.51	81.12
401.734	86.12
401.958	78.12
402.182	118.12
402.406	135.12
402.63	102.12
402.854	85.12
403.078	93.12
403.302	60.12
403.526	90.12
403.75	77.12
403.974	77.12
404.198	74.12
404.422	88.12
404.645	78.12
404.869	91.12
405.093	85.12
405.317	84.12
405.541	90.12
405.765	86.12
405.988	100.12
406.212	128.12
406.436	177.12
406.66	115.12
406.883	92.12
407.107	75.12
407.331	92.12
407.555	83.12
407.778	97.12
408.002	91.12
408.226	80.12
408.449	84.12
408.673	86.12
408.896	85.12
409.12	90.12
409.344	93.12
409.567	84.12
409.791	89.12
410.014	88.12
410.238	82.12
410.461	85.12
410.685	87.12
410.908	91.12
411.132	85.12
411.355	92.12
411.578	76.12
411.802	82.12
412.025	85.12
412.249	79.12
412.472	88.12
412.695	82.12
412.919	90.12
413.142	90.12
413.365	86.12
413.589	82.12
413.812	82.12
414.035	89.12
414.258	80.12
414.482	89.12
414.705	78.12
414.928	83.12
415.151	90.12
415.374	64.12
415.597	76.12
415.821	70.12
416.044	78.12
416.267	84.12
416.49	83.12
416.713	77.12
416.936	89.12
417.159	79.12
417.382	77.12
417.605	90.12
417.828	81.12
418.051	76.12
418.274	78.12
418.497	84.12
418.72	88.12
418.943	93.12
419.166	87.12
419.389	89.12
419.611	88.12
419.834	83.12
420.057	85.12
420.28	89.12
420.503	88.12
420.726	82.12
420.948	76.12
421.171	85.12
421.394	80.12
421.617	80.12
421.839	93.12
422.062	75.12
422.285	75.12
422.507	87.12
422.73	92.12
422.953	79.12
423.175	80.12
423.398	80.12
423.621	80.12
423.843	89.12
424.066	77.12
424.288	81.12
424.511	87.12
424.733	83.12
424.956	86.12
425.178	78.12
425.401	90.12
425.623	75.12
425.846	81.12
426.068	78.12
426.291	80.12
426.513	79.12
426.735	92.12
426.958	92.12
427.18	93.12
427.402	106.12
427.625	116.12
427.847	100.12
428.069	86.12
428.292	101.12
428.514	93.12
428.736	86.12
428.958	86.12
429.181	88.12
429.403	99.12
429.625	92.12
429.847	87.12
430.069	97.12
430.292	85.12
430.514	89.12
430.736	91.12
430.958	87.12
431.18	74.12
431.402	84.12
431.624	62.12
431.846	78.12
432.068	82.12
432.29	77.12
432.512	80.12
432.734	88.12
432.956	91.12
433.178	82.12
433.4	89.12
433.622	84.12
433.844	92.12
434.066	93.12
434.287	71.12
434.509	80.12
434.731	69.12
434.953	86.12
435.175	79.12
435.397	87.12
435.618	88.12
435.84	97.12
436.062	96.12
436.284	106.12
436.505	80.12
436.727	92.12
436.949	103.12
437.17	76.12
437.392	107.12
437.614	82.12
437.835	88.12
438.057	94.12
438.278	83.12
438.5	93.12
438.721	96.12
438.943	66.12
439.165	81.12
439.386	94.12
439.608	92.12
439.829	102.12
440.05	102.12
440.272	86.12
440.493	98.12
440.715	86.12
440.936	85.12
441.158	74.12
441.379	86.12
441.6	86.12
441.822	86.12
442.043	99.12
442.264	75.12
442.486	88.12
442.707	74.12
442.928	85.12
443.149	106.12
443.371	114.12
443.592	87.12
443.813	90.12
444.034	82.12
444.255	87.12
444.476	81.12
444.698	77.12
444.919	75.12
445.14	117.12
445.361	114.12
445.582	102.12
445.803	86.12
446.024	95.12
446.245	110.12
446.466	87.12
446.687	80.12
446.908	93.12
447.129	83.12
447.35	87.12
447.571	92.12
447.792	92.12
448.013	91.12
448.234	87.12
448.455	88.12
448.675	98.12
448.896	112.12
449.117	84.12
449.338	90.12
449.559	90.12
449.779	98.12
450	91.12
450.221	85.12
450.442	78.12
450.662	97.12
450.883	99.12
451.104	89.12
451.324	105.12
451.545	85.12
451.766	87.12
451.986	86.12
452.207	91.12
452.428	76.12
452.648	81.12
452.869	99.12
453.089	89.12
453.31	109.12
453.53	83.12
453.751	90.12
453.971	86.12
454.192	93.12
454.412	86.12
454.633	77.12
454.853	83.12
455.073	87.12
455.294	77.12
455.514	94.12
455.734	90.12
455.955	78.12
456.175	92.12
456.395	91.12
456.616	91.12
456.836	82.12
457.056	90.12
457.276	94.12
457.497	97.12
457.717	91.12
457.937	86.12
458.157	80.12
458.377	97.12
458.598	86.12
458.818	116.12
459.038	106.12
459.258	86.12
459.478	86.12
459.698	74.12
459.918	89.12
460.138	80.12
460.358	90.12
460.578	87.12
460.798	94.12
461.018	97.12
461.238	75.12
461.458	84.12
461.678	80.12
461.898	77.12
462.118	83.12
462.338	84.12
462.558	89.12
462.777	80.12
462.997	75.12
463.217	79.12
463.437	91.12
463.657	80.12
463.876	88.12
464.096	97.12
464.316	92.12
464.536	93.12
464.755	93.12
464.975	108.12
465.195	133.12
465.414	132.12
465.634	79.12
465.854	92.12
466.073	83.12
466.293	81.12
466.512	79.12
466.732	84.12
466.951	84.12
467.171	98.12
467.391	83.12
467.61	102.12
467.829	83.12
468.049	85.12
468.268	74.12
468.488	88.12
468.707	79.12
468.927	74.12
469.146	75.12
469.365	77.12
469.585	85.12
469.804	90.12
470.023	98.12
470.243	88.12
470.462	93.12
470.681	89.12
470.901	91.12
471.12	82.12
471.339	77.12
471.558	86.12
471.777	82.12
471.997	96.12
472.216	80.12
472.435	84.12
472.654	92.12
472.873	80.12
473.092	82.12
473.311	88.12
473.53	102.12
473.749	93.12
473.968	72.12
474.187	94.12
474.406	87.12
474.625	90.12
474.844	94.12
475.063	79.12
475.282	85.12
475.501	83.12
475.72	89.12
475.939	83.12
476.158	93.12
476.377	81.12
476.596	88.12
476.814	92.12
477.033	92.12
477.252	78.12
477.471	95.12
477.69	89.12
477.908	72.12
478.127	82.12
478.346	88.12
478.564	82.12
478.783	85.12
479.002	86.12
479.22	92.12
479.439	100.12
479.658	82.12
479.876	90.12
480.095	91.12
480.313	82.12
480.532	71.12
480.751	91.12
480.969	98.12
481.188	85.12
481.406	84.12
481.624	80.12
481.843	75.12
482.061	82.12
482.28	91.12
482.498	92.12
482.717	79.12
482.935	95.12
483.153	82.12
483.372	91.12
483.59	97.12
483.808	87.12
484.027	91.12
484.245	74.12
484.463	74.12
484.681	102.12
484.9	86.12
485.118	94.12
485.336	93.12
485.554	82.12
485.772	80.12
485.99	87.12
486.209	97.12
486.427	92.12
486.645	91.12
486.863	90.12
487.081	86.12
487.299	88.12
487.517	89.12
487.735	78.12
487.953	85.12
488.171	72.12
488.389	79.12
488.607	99.12
488.825	99.12
489.043	83.12
489.261	99.12
489.479	99.12
489.696	105.12
489.914	101.12
490.132	84.12
490.35	93.12
490.568	70.12
490.786	89.12
491.003	80.12
491.221	89.12
491.439	77.12
491.657	80.12
491.874	70.12
492.092	87.12
492.31	89.12
492.527	94.12
492.745	93.12
492.963	78.12
493.18	79.12
493.398	98.12
493.615	81.12
493.833	88.12
494.05	74.12
494.268	91.12
494.485	70.12
494.703	101.12
494.92	81.12
495.138	83.12
495.355	76.12
495.573	75.12
495.79	85.12
496.008	81.12
496.225	77.12
496.442	90.12
496.66	96.12
496.877	88.12
497.094	91.12
497.312	88.12
497.529	76.12
497.746	61.12
497.963	83.12
498.181	73.12
498.398	89.12
498.615	98.12
498.832	102.12
499.049	84.12
499.267	83.12
499.484	93.12
499.701	86.12
499.918	82.12
500.135	79.12
500.352	80.12
500.569	87.12
500.786	77.12
501.003	81.12
501.22	80.12
501.437	92.12
501.654	82.12
501.871	97.12
502.088	86.12
502.305	82.12
502.522	86.12
502.739	92.12
502.956	88.12
503.172	100.12
503.389	80.12
503.606	94.12
503.823	87.12
504.04	97.12
504.256	92.12
504.473	86.12
504.69	87.12
504.907	88.12
505.123	91.12
505.34	104.12
505.557	85.12
505.773	92.12
505.99	88.12
506.207	92.12
506.423	91.12
506.64	87.12
506.856	96.12
507.073	81.12
507.289	81.12
507.506	86.12
507.722	93.12
507.939	81.12
508.155	101.12
508.372	93.12
508.588	95.12
508.805	102.12
509.021	86.12
509.238	83.12
509.454	92.12
509.67	97.12
509.887	101.12
510.103	119.12
510.319	169.12
510.536	495.12
510.752	1316.12
510.968	386.12
511.184	106.12
511.401	117.12
511.617	88.12
511.833	89.12
512.049	95.12
512.265	86.12
512.481	79.12
512.698	94.12
512.914	92.12
513.13	81.12
513.346	77.12
513.562	101.12
513.778	89.12
513.994	89.12
514.21	86.12
514.426	99.12
514.642	110.12
514.858	120.12
515.074	134.12
515.29	290.12
515.506	827.12
515.721	351.12
515.937	121.12
516.153	93.12
516.369	80.12
516.585	92.12
516.801	83.12
517.016	99.12
517.232	86.12
517.448	88.12
517.664	80.12
517.879	81.12
518.095	96.12
