Data from Uncirc_2001_H10_HRD10591_00098.txt Node
Date: Wed Jan 03 10:44:16 EST 2024
User: Yrep
Spectrometer: HR+D1059
Trigger mode: 1
Integration Time (sec): 1.000000E-1
Scans to average: 1
Electric dark correction enabled: true
Nonlinearity correction enabled: false
Boxcar width: 0
XAxis mode: Wavelengths
Number of Pixels in Spectrum: 2048
>>>>>Begin Spectral Data<<<<<
223.165	-23.69
223.4	-23.69
223.635	-23.69
223.869	-29.69
224.104	-11.69
224.338	-16.69
224.573	-4.69
224.808	-17.69
225.042	-3.69
225.277	-9.69
225.511	-6.69
225.746	15.31
225.98	31.31
226.215	8.31
226.449	13.31
226.683	20.31
226.918	18.31
227.152	17.31
227.387	34.31
227.621	38.31
227.856	50.31
228.09	47.31
228.324	48.31
228.559	47.31
228.793	63.31
229.027	69.31
229.262	59.31
229.496	84.31
229.73	90.31
229.964	87.31
230.199	57.31
230.433	76.31
230.667	77.31
230.901	80.31
231.136	81.31
231.37	70.31
231.604	79.31
231.838	70.31
232.072	82.31
232.306	80.31
232.541	91.31
232.775	76.31
233.009	85.31
233.243	82.31
233.477	79.31
233.711	90.31
233.945	78.31
234.179	80.31
234.413	74.31
234.647	92.31
234.881	94.31
235.115	78.31
235.349	79.31
235.583	81.31
235.817	76.31
236.051	76.31
236.285	85.31
236.519	70.31
236.753	68.31
236.987	82.31
237.221	87.31
237.455	92.31
237.689	84.31
237.922	95.31
238.156	74.31
238.39	73.31
238.624	66.31
238.858	81.31
239.091	64.31
239.325	74.31
239.559	72.31
239.793	84.31
240.027	77.31
240.26	79.31
240.494	84.31
240.728	72.31
240.961	80.31
241.195	77.31
241.429	81.31
241.662	85.31
241.896	74.31
242.13	70.31
242.363	83.31
242.597	73.31
242.83	79.31
243.064	74.31
243.298	78.31
243.531	71.31
243.765	80.31
243.998	76.31
244.232	82.31
244.465	78.31
244.699	95.31
244.932	79.31
245.166	76.31
245.399	68.31
245.633	73.31
245.866	66.31
246.099	74.31
246.333	76.31
246.566	57.31
246.8	81.31
247.033	86.31
247.266	88.31
247.5	79.31
247.733	80.31
247.966	79.31
248.2	84.31
248.433	73.31
248.666	75.31
248.899	93.31
249.133	88.31
249.366	99.31
249.599	101.31
249.832	87.31
250.066	72.31
250.299	91.31
250.532	86.31
250.765	70.31
250.998	86.31
251.231	82.31
251.465	99.31
251.698	73.31
251.931	84.31
252.164	80.31
252.397	70.31
252.63	72.31
252.863	82.31
253.096	74.31
253.329	85.31
253.562	69.31
253.795	87.31
254.028	81.31
254.261	81.31
254.494	76.31
254.727	70.31
254.96	89.31
255.193	76.31
255.426	93.31
255.659	98.31
255.892	84.31
256.124	102.31
256.357	72.31
256.59	79.31
256.823	85.31
257.056	80.31
257.289	83.31
257.521	96.31
257.754	90.31
257.987	83.31
258.22	88.31
258.452	74.31
258.685	70.31
258.918	83.31
259.151	81.31
259.383	83.31
259.616	91.31
259.849	84.31
260.081	85.31
260.314	71.31
260.547	87.31
260.779	72.31
261.012	89.31
261.244	85.31
261.477	82.31
261.71	92.31
261.942	114.31
262.175	121.31
262.407	79.31
262.64	76.31
262.872	82.31
263.105	63.31
263.337	90.31
263.57	83.31
263.802	82.31
264.035	73.31
264.267	76.31
264.499	81.31
264.732	82.31
264.964	90.31
265.197	96.31
265.429	76.31
265.661	87.31
265.894	97.31
266.126	96.31
266.358	84.31
266.591	87.31
266.823	88.31
267.055	79.31
267.287	79.31
267.52	83.31
267.752	60.31
267.984	75.31
268.216	92.31
268.448	95.31
268.681	74.31
268.913	74.31
269.145	74.31
269.377	79.31
269.609	82.31
269.841	75.31
270.073	89.31
270.306	87.31
270.538	89.31
270.77	71.31
271.002	63.31
271.234	85.31
271.466	96.31
271.698	91.31
271.93	60.31
272.162	79.31
272.394	82.31
272.626	88.31
272.858	75.31
273.09	78.31
273.322	70.31
273.553	74.31
273.785	83.31
274.017	89.31
274.249	85.31
274.481	101.31
274.713	86.31
274.945	70.31
275.176	93.31
275.408	82.31
275.64	93.31
275.872	85.31
276.104	90.31
276.335	99.31
276.567	105.31
276.799	92.31
277.031	99.31
277.262	74.31
277.494	81.31
277.726	73.31
277.957	98.31
278.189	83.31
278.421	89.31
278.652	88.31
278.884	82.31
279.115	83.31
279.347	96.31
279.579	89.31
279.81	80.31
280.042	78.31
280.273	77.31
280.505	73.31
280.736	101.31
280.968	85.31
281.199	73.31
281.431	72.31
281.662	89.31
281.894	79.31
282.125	118.31
282.356	105.31
282.588	142.31
282.819	121.31
283.051	92.31
283.282	82.31
283.513	85.31
283.745	97.31
283.976	86.31
284.207	93.31
284.439	85.31
284.67	67.31
284.901	98.31
285.132	92.31
285.364	91.31
285.595	75.31
285.826	78.31
286.057	81.31
286.288	95.31
286.52	79.31
286.751	87.31
286.982	79.31
287.213	78.31
287.444	96.31
287.675	90.31
287.906	90.31
288.138	84.31
288.369	85.31
288.6	79.31
288.831	84.31
289.062	94.31
289.293	92.31
289.524	90.31
289.755	94.31
289.986	98.31
290.217	97.31
290.448	73.31
290.679	74.31
290.91	86.31
291.141	91.31
291.371	80.31
291.602	87.31
291.833	73.31
292.064	84.31
292.295	92.31
292.526	79.31
292.757	97.31
292.987	89.31
293.218	81.31
293.449	82.31
293.68	86.31
293.91	77.31
294.141	90.31
294.372	79.31
294.603	77.31
294.833	92.31
295.064	86.31
295.295	87.31
295.525	94.31
295.756	98.31
295.987	122.31
296.217	144.31
296.448	124.31
296.679	85.31
296.909	89.31
297.14	82.31
297.37	98.31
297.601	74.31
297.831	85.31
298.062	98.31
298.292	87.31
298.523	94.31
298.753	85.31
298.984	92.31
299.214	87.31
299.445	83.31
299.675	95.31
299.905	73.31
300.136	99.31
300.366	88.31
300.597	66.31
300.827	86.31
301.057	106.31
301.288	87.31
301.518	93.31
301.748	84.31
301.979	91.31
302.209	79.31
302.439	85.31
302.669	83.31
302.9	89.31
303.13	83.31
303.36	99.31
303.59	108.31
303.82	101.31
304.051	88.31
304.281	92.31
304.511	79.31
304.741	87.31
304.971	86.31
305.201	94.31
305.431	89.31
305.661	99.31
305.891	89.31
306.121	102.31
306.352	106.31
306.582	116.31
306.812	89.31
307.042	80.31
307.272	98.31
307.502	101.31
307.731	92.31
307.961	83.31
308.191	76.31
308.421	82.31
308.651	74.31
308.881	86.31
309.111	87.31
309.341	94.31
309.571	93.31
309.8	94.31
310.03	85.31
310.26	82.31
310.49	95.31
310.72	102.31
310.949	105.31
311.179	78.31
311.409	101.31
311.639	94.31
311.868	92.31
312.098	95.31
312.328	103.31
312.557	110.31
312.787	103.31
313.017	91.31
313.246	93.31
313.476	83.31
313.706	84.31
313.935	106.31
314.165	101.31
314.394	98.31
314.624	103.31
314.853	76.31
315.083	87.31
315.312	105.31
315.542	94.31
315.771	83.31
316.001	76.31
316.23	87.31
316.46	91.31
316.689	96.31
316.919	92.31
317.148	91.31
317.377	92.31
317.607	89.31
317.836	104.31
318.065	91.31
318.295	83.31
318.524	101.31
318.753	79.31
318.983	96.31
319.212	92.31
319.441	100.31
319.67	114.31
319.9	93.31
320.129	96.31
320.358	95.31
320.587	83.31
320.816	99.31
321.046	108.31
321.275	99.31
321.504	89.31
321.733	100.31
321.962	86.31
322.191	86.31
322.42	92.31
322.649	103.31
322.878	102.31
323.108	110.31
323.337	122.31
323.566	115.31
323.795	163.31
324.024	218.31
324.253	399.31
324.482	799.31
324.71	1572.31
324.939	2102.31
325.168	767.31
325.397	227.31
325.626	146.31
325.855	117.31
326.084	124.31
326.313	114.31
326.542	146.31
326.77	209.31
326.999	440.31
327.228	894.31
327.457	1525.31
327.686	1212.31
327.914	357.31
328.143	179.31
328.372	152.31
328.6	120.31
328.829	129.31
329.058	128.31
329.287	137.31
329.515	111.31
329.744	92.31
329.972	99.31
330.201	107.31
330.43	102.31
330.658	125.31
330.887	148.31
331.115	124.31
331.344	107.31
331.572	99.31
331.801	102.31
332.03	101.31
332.258	96.31
332.486	84.31
332.715	89.31
332.943	90.31
333.172	93.31
333.4	92.31
333.629	106.31
333.857	116.31
334.085	98.31
334.314	90.31
334.542	95.31
334.771	88.31
334.999	104.31
335.227	96.31
335.455	76.31
335.684	90.31
335.912	88.31
336.14	97.31
336.369	94.31
336.597	92.31
336.825	91.31
337.053	79.31
337.281	84.31
337.51	88.31
337.738	98.31
337.966	89.31
338.194	102.31
338.422	112.31
338.65	96.31
338.878	87.31
339.106	87.31
339.334	83.31
339.562	81.31
339.79	103.31
340.018	94.31
340.246	86.31
340.474	88.31
340.702	82.31
340.93	92.31
341.158	100.31
341.386	91.31
341.614	89.31
341.842	93.31
342.07	84.31
342.298	88.31
342.526	85.31
342.754	96.31
342.981	95.31
343.209	85.31
343.437	96.31
343.665	89.31
343.893	81.31
344.12	81.31
344.348	90.31
344.576	83.31
344.804	89.31
345.031	88.31
345.259	88.31
345.487	87.31
345.714	87.31
345.942	103.31
346.17	75.31
346.397	73.31
346.625	97.31
346.853	84.31
347.08	100.31
347.308	91.31
347.535	101.31
347.763	99.31
347.99	99.31
348.218	97.31
348.445	101.31
348.673	103.31
348.9	92.31
349.128	89.31
349.355	79.31
349.583	96.31
349.81	102.31
350.037	89.31
350.265	92.31
350.492	96.31
350.72	90.31
350.947	119.31
351.174	104.31
351.402	106.31
351.629	110.31
351.856	97.31
352.083	96.31
352.311	106.31
352.538	101.31
352.765	106.31
352.992	124.31
353.22	116.31
353.447	106.31
353.674	95.31
353.901	102.31
354.128	87.31
354.355	92.31
354.583	98.31
354.81	92.31
355.037	98.31
355.264	98.31
355.491	86.31
355.718	92.31
355.945	70.31
356.172	82.31
356.399	88.31
356.626	91.31
356.853	94.31
357.08	85.31
357.307	102.31
357.534	80.31
357.761	91.31
357.988	97.31
358.215	87.31
358.441	96.31
358.668	96.31
358.895	90.31
359.122	82.31
359.349	100.31
359.576	100.31
359.802	104.31
360.029	116.31
360.256	100.31
360.483	105.31
360.709	98.31
360.936	100.31
361.163	87.31
361.39	99.31
361.616	95.31
361.843	79.31
362.07	88.31
362.296	86.31
362.523	92.31
362.749	100.31
362.976	75.31
363.203	99.31
363.429	82.31
363.656	82.31
363.882	92.31
364.109	94.31
364.335	98.31
364.562	89.31
364.788	89.31
365.015	102.31
365.241	94.31
365.468	109.31
365.694	113.31
365.92	85.31
366.147	78.31
366.373	81.31
366.599	85.31
366.826	92.31
367.052	78.31
367.278	79.31
367.505	88.31
367.731	98.31
367.957	85.31
368.184	87.31
368.41	104.31
368.636	111.31
368.862	132.31
369.089	110.31
369.315	91.31
369.541	97.31
369.767	90.31
369.993	80.31
370.219	91.31
370.445	85.31
370.672	89.31
370.898	92.31
371.124	78.31
371.35	71.31
371.576	89.31
371.802	95.31
372.028	75.31
372.254	85.31
372.48	68.31
372.706	84.31
372.932	87.31
373.158	81.31
373.384	83.31
373.61	75.31
373.835	88.31
374.061	71.31
374.287	87.31
374.513	86.31
374.739	81.31
374.965	82.31
375.191	88.31
375.416	90.31
375.642	85.31
375.868	85.31
376.094	83.31
376.319	72.31
376.545	95.31
376.771	87.31
376.997	97.31
377.222	82.31
377.448	73.31
377.674	89.31
377.899	90.31
378.125	85.31
378.35	85.31
378.576	84.31
378.802	86.31
379.027	82.31
379.253	91.31
379.478	71.31
379.704	78.31
379.929	95.31
380.155	91.31
380.38	84.31
380.606	86.31
380.831	100.31
381.057	104.31
381.282	90.31
381.507	111.31
381.733	100.31
381.958	90.31
382.184	101.31
382.409	95.31
382.634	94.31
382.86	87.31
383.085	86.31
383.31	98.31
383.535	96.31
383.761	87.31
383.986	92.31
384.211	80.31
384.436	85.31
384.662	78.31
384.887	96.31
385.112	92.31
385.337	87.31
385.562	113.31
385.787	100.31
386.013	99.31
386.238	116.31
386.463	102.31
386.688	95.31
386.913	84.31
387.138	100.31
387.363	89.31
387.588	104.31
387.813	103.31
388.038	94.31
388.263	104.31
388.488	105.31
388.713	109.31
388.938	94.31
389.163	88.31
389.387	79.31
389.612	81.31
389.837	84.31
390.062	89.31
390.287	98.31
390.512	91.31
390.736	89.31
390.961	92.31
391.186	100.31
391.411	90.31
391.636	92.31
391.86	75.31
392.085	78.31
392.31	91.31
392.534	91.31
392.759	76.31
392.984	88.31
393.208	86.31
393.433	87.31
393.658	78.31
393.882	84.31
394.107	72.31
394.331	84.31
394.556	89.31
394.78	91.31
395.005	83.31
395.229	94.31
395.454	86.31
395.678	81.31
395.903	87.31
396.127	97.31
396.352	81.31
396.576	85.31
396.801	79.31
397.025	62.31
397.249	97.31
397.474	83.31
397.698	84.31
397.922	81.31
398.147	71.31
398.371	85.31
398.595	93.31
398.82	93.31
399.044	87.31
399.268	96.31
399.492	84.31
399.717	88.31
399.941	74.31
400.165	81.31
400.389	93.31
400.613	89.31
400.837	92.31
401.062	79.31
401.286	97.31
401.51	92.31
401.734	90.31
401.958	99.31
402.182	140.31
402.406	171.31
402.63	102.31
402.854	95.31
403.078	98.31
403.302	78.31
403.526	85.31
403.75	90.31
403.974	81.31
404.198	94.31
404.422	84.31
404.645	80.31
404.869	87.31
405.093	95.31
405.317	92.31
405.541	105.31
405.765	100.31
405.988	123.31
406.212	210.31
406.436	259.31
406.66	152.31
406.883	94.31
407.107	73.31
407.331	92.31
407.555	85.31
407.778	97.31
408.002	94.31
408.226	87.31
408.449	99.31
408.673	87.31
408.896	93.31
409.12	97.31
409.344	100.31
409.567	94.31
409.791	78.31
410.014	92.31
410.238	84.31
410.461	91.31
410.685	88.31
410.908	94.31
411.132	91.31
411.355	91.31
411.578	99.31
411.802	79.31
412.025	99.31
412.249	92.31
412.472	83.31
412.695	73.31
412.919	67.31
413.142	66.31
413.365	72.31
413.589	85.31
413.812	92.31
414.035	90.31
414.258	104.31
414.482	90.31
414.705	81.31
414.928	79.31
415.151	88.31
415.374	88.31
415.597	97.31
415.821	85.31
416.044	91.31
416.267	74.31
416.49	85.31
416.713	83.31
416.936	101.31
417.159	75.31
417.382	89.31
417.605	87.31
417.828	100.31
418.051	84.31
418.274	70.31
418.497	72.31
418.72	87.31
418.943	95.31
419.166	82.31
419.389	88.31
419.611	72.31
419.834	80.31
420.057	79.31
420.28	79.31
420.503	96.31
420.726	86.31
420.948	96.31
421.171	98.31
421.394	88.31
421.617	87.31
421.839	91.31
422.062	71.31
422.285	92.31
422.507	80.31
422.73	106.31
422.953	84.31
423.175	84.31
423.398	79.31
423.621	88.31
423.843	91.31
424.066	82.31
424.288	82.31
424.511	89.31
424.733	85.31
424.956	114.31
425.178	92.31
425.401	88.31
425.623	100.31
425.846	89.31
426.068	94.31
426.291	92.31
426.513	85.31
426.735	84.31
426.958	88.31
427.18	104.31
427.402	120.31
427.625	174.31
427.847	141.31
428.069	108.31
428.292	84.31
428.514	86.31
428.736	90.31
428.958	79.31
429.181	88.31
429.403	84.31
429.625	87.31
429.847	95.31
430.069	95.31
430.292	93.31
430.514	98.31
430.736	85.31
430.958	89.31
431.18	92.31
431.402	81.31
431.624	77.31
431.846	88.31
432.068	103.31
432.29	88.31
432.512	82.31
432.734	93.31
432.956	86.31
433.178	110.31
433.4	92.31
433.622	91.31
433.844	89.31
434.066	87.31
434.287	85.31
434.509	84.31
434.731	72.31
434.953	89.31
435.175	95.31
435.397	91.31
435.618	87.31
435.84	91.31
436.062	98.31
436.284	100.31
436.505	96.31
436.727	96.31
436.949	82.31
437.17	78.31
437.392	93.31
437.614	96.31
437.835	97.31
438.057	120.31
438.278	114.31
438.5	105.31
438.721	104.31
438.943	100.31
439.165	82.31
439.386	90.31
439.608	101.31
439.829	96.31
440.05	144.31
440.272	150.31
440.493	104.31
440.715	90.31
440.936	94.31
441.158	89.31
441.379	91.31
441.6	84.31
441.822	102.31
442.043	91.31
442.264	93.31
442.486	95.31
442.707	103.31
442.928	120.31
443.149	132.31
443.371	134.31
443.592	100.31
443.813	99.31
444.034	98.31
444.255	94.31
444.476	81.31
444.698	90.31
444.919	90.31
445.14	115.31
445.361	115.31
445.582	110.31
445.803	125.31
446.024	126.31
446.245	128.31
446.466	119.31
446.687	93.31
446.908	98.31
447.129	92.31
447.35	90.31
447.571	84.31
447.792	94.31
448.013	98.31
448.234	103.31
448.455	102.31
448.675	110.31
448.896	103.31
449.117	99.31
449.338	99.31
449.559	122.31
449.779	114.31
450	100.31
450.221	83.31
450.442	92.31
450.662	77.31
450.883	106.31
451.104	126.31
451.324	88.31
451.545	92.31
451.766	76.31
451.986	83.31
452.207	93.31
452.428	81.31
452.648	106.31
452.869	111.31
453.089	111.31
453.31	118.31
453.53	102.31
453.751	87.31
453.971	117.31
454.192	116.31
454.412	94.31
454.633	88.31
454.853	81.31
455.073	80.31
455.294	88.31
455.514	101.31
455.734	98.31
455.955	95.31
456.175	79.31
456.395	80.31
456.616	66.31
456.836	80.31
457.056	77.31
457.276	66.31
457.497	82.31
457.717	85.31
457.937	75.31
458.157	79.31
458.377	106.31
458.598	106.31
458.818	159.31
459.038	176.31
459.258	124.31
459.478	79.31
459.698	90.31
459.918	91.31
460.138	80.31
460.358	86.31
460.578	86.31
460.798	84.31
461.018	87.31
461.238	96.31
461.458	87.31
461.678	80.31
461.898	80.31
462.118	96.31
462.338	83.31
462.558	80.31
462.777	74.31
462.997	91.31
463.217	78.31
463.437	90.31
463.657	87.31
463.876	95.31
464.096	87.31
464.316	96.31
464.536	107.31
464.755	101.31
464.975	120.31
465.195	182.31
465.414	179.31
465.634	103.31
465.854	81.31
466.073	78.31
466.293	85.31
466.512	92.31
466.732	72.31
466.951	75.31
467.171	85.31
467.391	85.31
467.61	107.31
467.829	99.31
468.049	92.31
468.268	88.31
468.488	92.31
468.707	85.31
468.927	91.31
469.146	84.31
469.365	89.31
469.585	90.31
469.804	94.31
470.023	85.31
470.243	88.31
470.462	113.31
470.681	101.31
470.901	95.31
471.12	95.31
471.339	88.31
471.558	75.31
471.777	81.31
471.997	82.31
472.216	85.31
472.435	97.31
472.654	82.31
472.873	83.31
473.092	87.31
473.311	76.31
473.53	80.31
473.749	89.31
473.968	91.31
474.187	91.31
474.406	98.31
474.625	84.31
474.844	89.31
475.063	92.31
475.282	83.31
475.501	83.31
475.72	105.31
475.939	79.31
476.158	87.31
476.377	94.31
476.596	91.31
476.814	97.31
477.033	90.31
477.252	84.31
477.471	95.31
477.69	94.31
477.908	88.31
478.127	83.31
478.346	86.31
478.564	80.31
478.783	101.31
479.002	101.31
479.22	99.31
479.439	98.31
479.658	116.31
479.876	91.31
480.095	91.31
480.313	110.31
480.532	96.31
480.751	89.31
480.969	83.31
481.188	97.31
481.406	78.31
481.624	101.31
481.843	95.31
482.061	76.31
482.28	75.31
482.498	70.31
482.717	89.31
482.935	71.31
483.153	85.31
483.372	90.31
483.59	79.31
483.808	101.31
484.027	83.31
484.245	109.31
484.463	100.31
484.681	86.31
484.9	76.31
485.118	91.31
485.336	100.31
485.554	84.31
485.772	87.31
485.99	93.31
486.209	82.31
486.427	106.31
486.645	120.31
486.863	107.31
487.081	115.31
487.299	98.31
487.517	82.31
487.735	82.31
487.953	83.31
488.171	92.31
488.389	105.31
488.607	92.31
488.825	92.31
489.043	88.31
489.261	101.31
489.479	78.31
489.696	90.31
489.914	92.31
490.132	78.31
490.35	77.31
490.568	81.31
490.786	98.31
491.003	85.31
491.221	77.31
491.439	86.31
491.657	96.31
491.874	85.31
492.092	80.31
492.31	89.31
492.527	89.31
492.745	93.31
492.963	92.31
493.18	98.31
493.398	73.31
493.615	107.31
493.833	104.31
494.05	98.31
494.268	85.31
494.485	94.31
494.703	85.31
494.92	100.31
495.138	88.31
495.355	84.31
495.573	90.31
495.79	90.31
496.008	96.31
496.225	90.31
496.442	90.31
496.66	95.31
496.877	87.31
497.094	105.31
497.312	78.31
497.529	82.31
497.746	89.31
497.963	106.31
498.181	91.31
498.398	90.31
498.615	107.31
498.832	93.31
499.049	85.31
499.267	86.31
499.484	94.31
499.701	104.31
499.918	85.31
500.135	90.31
500.352	100.31
500.569	76.31
500.786	91.31
501.003	85.31
501.22	82.31
501.437	81.31
501.654	103.31
501.871	103.31
502.088	111.31
502.305	97.31
502.522	86.31
502.739	89.31
502.956	96.31
503.172	93.31
503.389	82.31
503.606	108.31
503.823	89.31
504.04	79.31
504.256	82.31
504.473	80.31
504.69	73.31
504.907	88.31
505.123	83.31
505.34	82.31
505.557	75.31
505.773	78.31
505.99	92.31
506.207	76.31
506.423	86.31
506.64	79.31
506.856	96.31
507.073	81.31
507.289	104.31
507.506	94.31
507.722	126.31
507.939	116.31
508.155	94.31
508.372	98.31
508.588	99.31
508.805	82.31
509.021	94.31
509.238	108.31
509.454	100.31
509.67	96.31
509.887	112.31
510.103	125.31
510.319	250.31
510.536	891.31
510.752	2874.31
510.968	762.31
511.184	164.31
511.401	112.31
511.617	106.31
511.833	81.31
512.049	94.31
512.265	86.31
512.481	78.31
512.698	87.31
512.914	84.31
513.13	90.31
513.346	95.31
513.562	115.31
513.778	90.31
513.994	98.31
514.21	110.31
514.426	109.31
514.642	131.31
514.858	146.31
515.074	186.31
515.29	552.31
515.506	1884.31
515.721	670.31
515.937	174.31
516.153	113.31
516.369	96.31
