Data from Uncirc_2001_H10_HRD10591_00063.txt Node
Date: Wed Jan 03 10:44:09 EST 2024
User: Yrep
Spectrometer: HR+D1059
Trigger mode: 1
Integration Time (sec): 1.000000E-1
Scans to average: 1
Electric dark correction enabled: true
Nonlinearity correction enabled: false
Boxcar width: 0
XAxis mode: Wavelengths
Number of Pixels in Spectrum: 2048
>>>>>Begin Spectral Data<<<<<
223.165	-12
223.4	-12
223.635	-12
223.869	-10
224.104	-27
224.338	-21
224.573	-20
224.808	-7
225.042	9
225.277	-5
225.511	11
225.746	4
225.98	5
226.215	-7
226.449	13
226.683	11
226.918	32
227.152	24
227.387	25
227.621	49
227.856	41
228.09	38
228.324	41
228.559	60
228.793	49
229.027	41
229.262	69
229.496	65
229.73	73
229.964	81
230.199	74
230.433	75
230.667	78
230.901	71
231.136	76
231.37	85
231.604	74
231.838	71
232.072	62
232.306	78
232.541	63
232.775	69
233.009	72
233.243	87
233.477	63
233.711	80
233.945	68
234.179	76
234.413	89
234.647	75
234.881	65
235.115	78
235.349	78
235.583	75
235.817	78
236.051	70
236.285	71
236.519	86
236.753	78
236.987	72
237.221	80
237.455	84
237.689	72
237.922	80
238.156	65
238.39	67
238.624	70
238.858	64
239.091	67
239.325	65
239.559	83
239.793	65
240.027	77
240.26	69
240.494	85
240.728	65
240.961	70
241.195	76
241.429	84
241.662	75
241.896	73
242.13	71
242.363	68
242.597	80
242.83	71
243.064	67
243.298	72
243.531	68
243.765	76
243.998	95
244.232	76
244.465	89
244.699	70
244.932	57
245.166	88
245.399	73
245.633	81
245.866	87
246.099	80
246.333	71
246.566	69
246.8	70
247.033	84
247.266	78
247.5	70
247.733	66
247.966	78
248.2	76
248.433	73
248.666	86
248.899	82
249.133	82
249.366	91
249.599	72
249.832	91
250.066	85
250.299	86
250.532	85
250.765	82
250.998	69
251.231	72
251.465	67
251.698	68
251.931	66
252.164	71
252.397	86
252.63	87
252.863	88
253.096	83
253.329	81
253.562	80
253.795	80
254.028	81
254.261	80
254.494	88
254.727	62
254.96	85
255.193	83
255.426	84
255.659	72
255.892	79
256.124	68
256.357	76
256.59	75
256.823	69
257.056	77
257.289	65
257.521	70
257.754	69
257.987	72
258.22	81
258.452	80
258.685	97
258.918	76
259.151	87
259.383	71
259.616	67
259.849	72
260.081	85
260.314	71
260.547	85
260.779	82
261.012	75
261.244	83
261.477	89
261.71	94
261.942	97
262.175	110
262.407	85
262.64	85
262.872	88
263.105	79
263.337	96
263.57	75
263.802	83
264.035	81
264.267	91
264.499	69
264.732	81
264.964	92
265.197	73
265.429	77
265.661	75
265.894	96
266.126	81
266.358	85
266.591	86
266.823	71
267.055	72
267.287	79
267.52	76
267.752	93
267.984	72
268.216	83
268.448	72
268.681	84
268.913	68
269.145	73
269.377	86
269.609	78
269.841	84
270.073	81
270.306	80
270.538	74
270.77	83
271.002	81
271.234	83
271.466	93
271.698	79
271.93	85
272.162	94
272.394	81
272.626	75
272.858	87
273.09	88
273.322	80
273.553	60
273.785	84
274.017	100
274.249	91
274.481	104
274.713	91
274.945	82
275.176	73
275.408	83
275.64	70
275.872	74
276.104	65
276.335	89
276.567	101
276.799	109
277.031	97
277.262	86
277.494	85
277.726	92
277.957	82
278.189	91
278.421	86
278.652	82
278.884	85
279.115	92
279.347	65
279.579	87
279.81	93
280.042	79
280.273	90
280.505	87
280.736	85
280.968	88
281.199	82
281.431	77
281.662	98
281.894	99
282.125	97
282.356	123
282.588	151
282.819	124
283.051	81
283.282	81
283.513	78
283.745	80
283.976	88
284.207	92
284.439	85
284.67	87
284.901	71
285.132	86
285.364	79
285.595	78
285.826	94
286.057	88
286.288	93
286.52	79
286.751	82
286.982	88
287.213	75
287.444	74
287.675	70
287.906	81
288.138	81
288.369	89
288.6	82
288.831	86
289.062	78
289.293	78
289.524	85
289.755	86
289.986	93
290.217	94
290.448	86
290.679	75
290.91	74
291.141	97
291.371	87
291.602	88
291.833	93
292.064	79
292.295	81
292.526	81
292.757	81
292.987	76
293.218	87
293.449	91
293.68	75
293.91	71
294.141	92
294.372	89
294.603	89
294.833	88
295.064	84
295.295	89
295.525	78
295.756	100
295.987	110
296.217	126
296.448	120
296.679	94
296.909	98
297.14	77
297.37	80
297.601	89
297.831	100
298.062	85
298.292	82
298.523	104
298.753	79
298.984	90
299.214	85
299.445	100
299.675	88
299.905	89
300.136	84
300.366	88
300.597	76
300.827	92
301.057	96
301.288	112
301.518	88
301.748	71
301.979	99
302.209	88
302.439	104
302.669	83
302.9	84
303.13	88
303.36	92
303.59	93
303.82	100
304.051	87
304.281	84
304.511	91
304.741	81
304.971	79
305.201	89
305.431	87
305.661	94
305.891	94
306.121	89
306.352	98
306.582	91
306.812	79
307.042	83
307.272	87
307.502	87
307.731	96
307.961	93
308.191	89
308.421	86
308.651	91
308.881	83
309.111	88
309.341	84
309.571	85
309.8	102
310.03	96
310.26	94
310.49	105
310.72	96
310.949	105
311.179	96
311.409	77
311.639	79
311.868	78
312.098	92
312.328	90
312.557	99
312.787	113
313.017	107
313.246	92
313.476	77
313.706	88
313.935	97
314.165	105
314.394	98
314.624	100
314.853	96
315.083	90
315.312	94
315.542	83
315.771	93
316.001	88
316.23	84
316.46	92
316.689	79
316.919	88
317.148	90
317.377	94
317.607	89
317.836	92
318.065	83
318.295	101
318.524	83
318.753	90
318.983	104
319.212	94
319.441	107
319.67	113
319.9	88
320.129	97
320.358	92
320.587	94
320.816	98
321.046	92
321.275	99
321.504	101
321.733	82
321.962	80
322.191	93
322.42	101
322.649	116
322.878	94
323.108	111
323.337	117
323.566	135
323.795	133
324.024	187
324.253	375
324.482	781
324.71	1558
324.939	2003
325.168	758
325.397	217
325.626	147
325.855	132
326.084	119
326.313	124
326.542	123
326.77	233
326.999	438
327.228	853
327.457	1546
327.686	1189
327.914	335
328.143	191
328.372	132
328.6	124
328.829	112
329.058	125
329.287	136
329.515	98
329.744	101
329.972	90
330.201	90
330.43	108
330.658	119
330.887	150
331.115	118
331.344	93
331.572	92
331.801	109
332.03	107
332.258	96
332.486	98
332.715	107
332.943	101
333.172	102
333.4	104
333.629	95
333.857	107
334.085	106
334.314	94
334.542	99
334.771	89
334.999	89
335.227	78
335.455	87
335.684	104
335.912	92
336.14	87
336.369	103
336.597	89
336.825	99
337.053	88
337.281	93
337.51	87
337.738	85
337.966	91
338.194	95
338.422	89
338.65	101
338.878	97
339.106	76
339.334	83
339.562	83
339.79	85
340.018	96
340.246	101
340.474	99
340.702	78
340.93	83
341.158	84
341.386	84
341.614	86
341.842	107
342.07	88
342.298	99
342.526	89
342.754	89
342.981	87
343.209	81
343.437	85
343.665	86
343.893	80
344.12	84
344.348	87
344.576	77
344.804	76
345.031	102
345.259	91
345.487	84
345.714	74
345.942	89
346.17	89
346.397	89
346.625	102
346.853	101
347.08	82
347.308	99
347.535	89
347.763	99
347.99	93
348.218	90
348.445	112
348.673	98
348.9	93
349.128	88
349.355	100
349.583	98
349.81	88
350.037	92
350.265	93
350.492	97
350.72	84
350.947	94
351.174	89
351.402	102
351.629	101
351.856	91
352.083	105
352.311	96
352.538	95
352.765	105
352.992	110
353.22	102
353.447	112
353.674	97
353.901	91
354.128	99
354.355	94
354.583	87
354.81	90
355.037	88
355.264	85
355.491	109
355.718	99
355.945	72
356.172	79
356.399	77
356.626	93
356.853	97
357.08	81
357.307	81
357.534	81
357.761	102
357.988	90
358.215	90
358.441	87
358.668	67
358.895	93
359.122	86
359.349	75
359.576	88
359.802	99
360.029	130
360.256	115
360.483	95
360.709	62
360.936	90
361.163	108
361.39	97
361.616	91
361.843	87
362.07	78
362.296	87
362.523	81
362.749	85
362.976	97
363.203	83
363.429	85
363.656	80
363.882	88
364.109	99
364.335	78
364.562	81
364.788	87
365.015	70
365.241	92
365.468	113
365.694	104
365.92	104
366.147	87
366.373	83
366.599	86
366.826	75
367.052	78
367.278	96
367.505	91
367.731	89
367.957	79
368.184	95
368.41	100
368.636	106
368.862	124
369.089	106
369.315	92
369.541	90
369.767	81
369.993	91
370.219	82
370.445	82
370.672	88
370.898	75
371.124	76
371.35	71
371.576	85
371.802	68
372.028	81
372.254	76
372.48	86
372.706	84
372.932	90
373.158	79
373.384	84
373.61	86
373.835	78
374.061	84
374.287	89
374.513	85
374.739	75
374.965	75
375.191	80
375.416	89
375.642	97
375.868	90
376.094	83
376.319	81
376.545	89
376.771	84
376.997	85
377.222	83
377.448	90
377.674	90
377.899	81
378.125	78
378.35	78
378.576	89
378.802	99
379.027	78
379.253	86
379.478	89
379.704	99
379.929	90
380.155	99
380.38	98
380.606	89
380.831	87
381.057	95
381.282	80
381.507	87
381.733	74
381.958	83
382.184	77
382.409	85
382.634	88
382.86	98
383.085	89
383.31	93
383.535	96
383.761	88
383.986	88
384.211	72
384.436	88
384.662	86
384.887	89
385.112	92
385.337	91
385.562	95
385.787	83
386.013	116
386.238	118
386.463	95
386.688	97
386.913	106
387.138	102
387.363	102
387.588	95
387.813	94
388.038	99
388.263	107
388.488	97
388.713	77
388.938	89
389.163	83
389.387	89
389.612	93
389.837	76
390.062	86
390.287	92
390.512	87
390.736	97
390.961	83
391.186	85
391.411	84
391.636	65
391.86	77
392.085	92
392.31	83
392.534	78
392.759	81
392.984	87
393.208	107
393.433	80
393.658	87
393.882	78
394.107	87
394.331	79
394.556	93
394.78	92
395.005	105
395.229	82
395.454	92
395.678	68
395.903	71
396.127	81
396.352	72
396.576	78
396.801	82
397.025	81
397.249	78
397.474	78
397.698	92
397.922	86
398.147	89
398.371	76
398.595	78
398.82	89
399.044	82
399.268	81
399.492	86
399.717	82
399.941	86
400.165	71
400.389	95
400.613	75
400.837	92
401.062	74
401.286	81
401.51	79
401.734	87
401.958	101
402.182	125
402.406	164
402.63	101
402.854	83
403.078	83
403.302	96
403.526	87
403.75	85
403.974	86
404.198	76
404.422	79
404.645	89
404.869	85
405.093	87
405.317	97
405.541	76
405.765	89
405.988	121
406.212	182
406.436	259
406.66	135
406.883	97
407.107	75
407.331	88
407.555	94
407.778	89
408.002	94
408.226	85
408.449	86
408.673	87
408.896	86
409.12	88
409.344	82
409.567	74
409.791	100
410.014	84
410.238	87
410.461	94
410.685	97
410.908	96
411.132	103
411.355	95
411.578	89
411.802	85
412.025	80
412.249	84
412.472	83
412.695	89
412.919	69
413.142	85
413.365	78
413.589	76
413.812	84
414.035	76
414.258	74
414.482	75
414.705	101
414.928	87
415.151	81
415.374	89
415.597	91
415.821	83
416.044	78
416.267	94
416.49	71
416.713	89
416.936	80
417.159	81
417.382	80
417.605	63
417.828	83
418.051	92
418.274	75
418.497	81
418.72	83
418.943	89
419.166	70
419.389	80
419.611	80
419.834	97
420.057	86
420.28	92
420.503	84
420.726	83
420.948	83
421.171	100
421.394	88
421.617	88
421.839	78
422.062	67
422.285	100
422.507	92
422.73	101
422.953	92
423.175	90
423.398	82
423.621	82
423.843	80
424.066	71
424.288	95
424.511	80
424.733	99
424.956	113
425.178	93
425.401	99
425.623	97
425.846	86
426.068	95
426.291	89
426.513	88
426.735	90
426.958	89
427.18	110
427.402	140
427.625	149
427.847	126
428.069	101
428.292	82
428.514	82
428.736	69
428.958	74
429.181	91
429.403	75
429.625	99
429.847	76
430.069	84
430.292	86
430.514	73
430.736	76
430.958	84
431.18	70
431.402	81
431.624	68
431.846	75
432.068	84
432.29	72
432.512	73
432.734	80
432.956	84
433.178	83
433.4	78
433.622	103
433.844	89
434.066	89
434.287	73
434.509	87
434.731	83
434.953	71
435.175	100
435.397	99
435.618	87
435.84	98
436.062	118
436.284	101
436.505	94
436.727	90
436.949	93
437.17	84
437.392	93
437.614	95
437.835	100
438.057	118
438.278	108
438.5	93
438.721	99
438.943	101
439.165	84
439.386	76
439.608	92
439.829	100
440.05	128
440.272	120
440.493	88
440.715	89
440.936	97
441.158	96
441.379	73
441.6	99
441.822	108
442.043	93
442.264	95
442.486	89
442.707	82
442.928	91
443.149	129
443.371	123
443.592	102
443.813	108
444.034	98
444.255	81
444.476	96
444.698	76
444.919	73
445.14	118
445.361	121
445.582	113
445.803	125
446.024	135
446.245	135
446.466	104
446.687	92
446.908	86
447.129	86
447.35	88
447.571	68
447.792	79
448.013	78
448.234	110
448.455	106
448.675	101
448.896	112
449.117	93
449.338	98
449.559	113
449.779	128
450	99
450.221	88
450.442	97
450.662	99
450.883	89
451.104	100
451.324	86
451.545	84
451.766	86
451.986	86
452.207	73
452.428	98
452.648	83
452.869	100
453.089	118
453.31	129
453.53	93
453.751	93
453.971	115
454.192	108
454.412	103
454.633	99
454.853	76
455.073	92
455.294	81
455.514	92
455.734	84
455.955	76
456.175	85
456.395	79
456.616	77
456.836	85
457.056	90
457.276	97
457.497	79
457.717	77
457.937	81
458.157	93
458.377	81
458.598	102
458.818	150
459.038	150
459.258	100
459.478	82
459.698	69
459.918	75
460.138	65
460.358	73
460.578	89
460.798	98
461.018	87
461.238	87
461.458	84
461.678	72
461.898	84
462.118	86
462.338	75
462.558	72
462.777	86
462.997	84
463.217	88
463.437	91
463.657	83
463.876	85
464.096	104
464.316	81
464.536	79
464.755	87
464.975	99
465.195	169
465.414	177
465.634	94
465.854	77
466.073	80
466.293	84
466.512	76
466.732	71
466.951	87
467.171	84
467.391	89
467.61	101
467.829	113
468.049	76
468.268	77
468.488	73
468.707	81
468.927	80
469.146	79
469.365	89
469.585	81
469.804	93
470.023	100
470.243	93
470.462	98
470.681	112
470.901	108
471.12	84
471.339	77
471.558	84
471.777	88
471.997	94
472.216	89
472.435	107
472.654	86
472.873	86
473.092	79
473.311	90
473.53	72
473.749	84
473.968	81
474.187	105
474.406	83
474.625	66
474.844	93
475.063	88
475.282	76
475.501	69
475.72	83
475.939	82
476.158	84
476.377	86
476.596	88
476.814	89
477.033	81
477.252	89
477.471	82
477.69	89
477.908	83
478.127	73
478.346	87
478.564	89
478.783	100
479.002	87
479.22	86
479.439	107
479.658	96
479.876	90
480.095	88
480.313	85
480.532	90
480.751	84
480.969	95
481.188	100
481.406	81
481.624	80
481.843	89
482.061	80
482.28	77
482.498	69
482.717	80
482.935	80
483.153	95
483.372	82
483.59	103
483.808	71
484.027	89
484.245	81
484.463	84
484.681	85
484.9	88
485.118	76
485.336	77
485.554	105
485.772	89
485.99	100
486.209	84
486.427	79
486.645	88
486.863	125
487.081	101
487.299	86
487.517	96
487.735	87
487.953	90
488.171	95
488.389	95
488.607	100
488.825	94
489.043	83
489.261	83
489.479	86
489.696	82
489.914	87
490.132	89
490.35	87
490.568	83
490.786	76
491.003	84
491.221	72
491.439	91
491.657	85
491.874	81
492.092	85
492.31	83
492.527	87
492.745	94
492.963	83
493.18	92
493.398	88
493.615	91
493.833	83
494.05	68
494.268	82
494.485	76
494.703	79
494.92	67
495.138	91
495.355	81
495.573	73
495.79	78
496.008	94
496.225	100
496.442	69
496.66	88
496.877	91
497.094	87
497.312	96
497.529	81
497.746	91
497.963	76
498.181	78
498.398	97
498.615	103
498.832	104
499.049	94
499.267	93
499.484	72
499.701	94
499.918	87
500.135	88
500.352	89
500.569	77
500.786	92
501.003	86
501.22	85
501.437	85
501.654	81
501.871	101
502.088	100
502.305	102
502.522	86
502.739	90
502.956	84
503.172	95
503.389	82
503.606	106
503.823	74
504.04	97
504.256	88
504.473	77
504.69	78
504.907	77
505.123	79
505.34	80
505.557	93
505.773	79
505.99	92
506.207	88
506.423	71
506.64	69
506.856	76
507.073	87
507.289	89
507.506	81
507.722	104
507.939	102
508.155	92
508.372	95
508.588	84
508.805	85
509.021	94
509.238	96
509.454	96
509.67	109
509.887	120
510.103	127
510.319	230
510.536	832
510.752	2575
510.968	707
511.184	157
511.401	117
511.617	107
511.833	76
512.049	93
512.265	87
512.481	89
512.698	87
512.914	89
513.13	88
513.346	94
513.562	92
513.778	94
513.994	87
514.21	94
514.426	110
514.642	118
514.858	130
515.074	181
515.29	510
515.506	1722
515.721	619
515.937	154
516.153	104
516.369	91
516.585	97
516.801	88
517.016	94
517.232	106
517.448	105
517.664	93
517.879	90
518.095	76
518.311	92
518.527	91
518.742	98
518.958	86
519.173	88
519.389	80
519.605	84
519.82	105
520.036	112
520.251	118
520.467	109
520.682	103
520.898	111
521.113	111
521.329	140
521.544	217
521.76	644
521.975	2865
522.19	1695
522.406	346
522.621	135
522.836	111
523.052	86
523.267	89
523.482	104
523.698	99
523.913	118
524.128	108
524.343	97
524.559	78
524.774	86
524.989	95
525.204	110
525.419	97
525.634	74
525.849	85
526.064	87
526.28	101
526.495	86
526.71	89
526.925	82
527.14	84
527.355	85
527.57	92
527.785	103
527.999	85
528.214	88
528.429	101
528.644	88
528.859	87
529.074	97
529.289	134
529.503	191
529.718	109
529.933	78
530.148	95
530.363	81
530.577	82
530.792	87
531.007	84
531.221	99
531.436	67
531.651	77
531.865	93
532.08	80
532.295	92
532.509	86
532.724	97
532.938	93
533.153	83
533.367	85
533.582	86
533.796	91
534.011	95
534.225	96
534.44	93
534.654	92
534.868	86
535.083	88
535.297	80
535.511	109
535.726	90
535.94	77
536.154	87
536.369	89
536.583	88
536.797	75
537.011	85
537.225	94
537.44	105
537.654	84
537.868	81
538.082	84
538.296	92
538.51	92
538.724	86
538.938	96
539.153	94
539.367	99
539.581	98
539.795	80
540.009	97
540.222	97
540.436	87
540.65	73
540.864	72
541.078	99
541.292	76
541.506	73
541.72	88
541.934	70
542.147	79
542.361	92
542.575	97
542.789	84
543.002	75
543.216	84
543.43	88
543.644	89
543.857	83
544.071	96
544.285	89
544.498	85
544.712	84
544.925	72
545.139	83
545.352	94
545.566	103
545.779	93
545.993	89
546.206	86
546.42	92
546.633	85
546.847	87
547.06	86
547.274	82
547.487	93
547.7	82
547.914	73
548.127	80
548.34	76
548.554	76
548.767	81
548.98	103
549.193	93
549.407	84
549.62	92
549.833	82
550.046	90
550.259	69
550.473	84
550.686	92
550.899	84
551.112	80
551.325	75
551.538	90
551.751	93
551.964	79
552.177	89
552.39	76
552.603	93
552.816	86
553.029	91
553.242	94
553.455	101
553.667	87
553.88	106
554.093	87
554.306	93
554.519	82
554.732	94
554.944	89
555.157	82
555.37	84
555.583	85
555.795	86
556.008	89
556.221	83
556.433	87
556.646	75
556.859	89
557.071	82
557.284	84
557.496	85
557.709	91
557.921	102
558.134	77
558.346	83
558.559	91
558.771	85
558.984	77
559.196	81
559.409	77
559.621	85
559.833	84
560.046	88
560.258	79
560.47	82
560.683	85
560.895	78
561.107	93
561.32	86
561.532	84
561.744	92
561.956	95
562.168	91
562.381	88
562.593	71
562.805	85
563.017	90
563.229	84
563.441	83
563.653	75
563.865	89
564.077	83
564.289	89
564.501	96
564.713	76
564.925	87
565.137	112
565.349	100
565.561	80
565.773	83
565.985	76
566.197	91
566.408	83
566.62	91
566.832	98
567.044	77
567.255	89
567.467	90
567.679	92
567.891	84
568.102	84
568.314	98
568.526	76
568.737	96
568.949	83
569.161	73
569.372	66
569.584	79
569.795	96
570.007	121
570.218	263
570.43	147
570.641	91
570.853	81
571.064	101
571.276	68
571.487	89
571.698	96
571.91	96
572.121	83
572.333	66
572.544	84
572.755	83
572.966	89
573.178	78
573.389	80
573.6	91
573.811	69
574.023	80
574.234	97
574.445	85
574.656	94
574.867	94
575.078	77
575.289	81
575.501	87
575.712	65
575.923	84
576.134	88
576.345	85
576.556	77
576.767	75
576.978	93
577.188	77
577.399	96
577.61	89
577.821	95
578.032	126
578.243	295
578.454	891
578.665	239
578.875	92
579.086	81
579.297	85
579.508	95
579.718	94
579.929	80
580.14	88
580.35	87
580.561	88
580.772	93
580.982	76
581.193	74
581.403	83
581.614	83
581.825	95
582.035	76
582.246	73
582.456	87
582.667	89
582.877	95
583.087	78
583.298	79
583.508	80
583.719	77
583.929	98
584.139	96
584.35	88
584.56	81
584.77	87
584.981	86
585.191	88
585.401	87
585.611	84
585.821	90
586.032	83
586.242	84
