Data from Uncirc_2001_H10_HRD10591_00016.txt Node
Date: Wed Jan 03 10:44:00 EST 2024
User: Yrep
Spectrometer: HR+D1059
Trigger mode: 1
Integration Time (sec): 1.000000E-1
Scans to average: 1
Electric dark correction enabled: true
Nonlinearity correction enabled: false
Boxcar width: 0
XAxis mode: Wavelengths
Number of Pixels in Spectrum: 2048
>>>>>Begin Spectral Data<<<<<
223.165	-18
223.4	-18
223.635	-18
223.869	-26
224.104	-18
224.338	-15
224.573	-15
224.808	-6
225.042	-7
225.277	-10
225.511	6
225.746	-5
225.98	12
226.215	17
226.449	14
226.683	21
226.918	25
227.152	25
227.387	30
227.621	31
227.856	36
228.09	26
228.324	34
228.559	66
228.793	58
229.027	50
229.262	65
229.496	83
229.73	81
229.964	87
230.199	68
230.433	64
230.667	66
230.901	74
231.136	84
231.37	89
231.604	78
231.838	85
232.072	90
232.306	88
232.541	62
232.775	86
233.009	60
233.243	82
233.477	101
233.711	96
233.945	78
234.179	86
234.413	76
234.647	88
234.881	95
235.115	90
235.349	79
235.583	78
235.817	76
236.051	59
236.285	84
236.519	72
236.753	78
236.987	82
237.221	79
237.455	82
237.689	88
237.922	70
238.156	75
238.39	83
238.624	73
238.858	83
239.091	81
239.325	78
239.559	73
239.793	82
240.027	70
240.26	60
240.494	78
240.728	69
240.961	55
241.195	76
241.429	82
241.662	77
241.896	84
242.13	64
242.363	78
242.597	82
242.83	73
243.064	70
243.298	72
243.531	67
243.765	78
243.998	84
244.232	73
244.465	75
244.699	73
244.932	83
245.166	72
245.399	87
245.633	77
245.866	73
246.099	83
246.333	80
246.566	73
246.8	73
247.033	83
247.266	71
247.5	74
247.733	81
247.966	72
248.2	83
248.433	78
248.666	83
248.899	87
249.133	72
249.366	90
249.599	99
249.832	84
250.066	78
250.299	76
250.532	74
250.765	69
250.998	66
251.231	75
251.465	75
251.698	74
251.931	89
252.164	85
252.397	80
252.63	86
252.863	79
253.096	82
253.329	86
253.562	74
253.795	79
254.028	83
254.261	83
254.494	96
254.727	75
254.96	67
255.193	79
255.426	74
255.659	65
255.892	78
256.124	87
256.357	85
256.59	70
256.823	77
257.056	92
257.289	73
257.521	87
257.754	85
257.987	73
258.22	77
258.452	88
258.685	77
258.918	71
259.151	88
259.383	72
259.616	67
259.849	87
260.081	72
260.314	83
260.547	73
260.779	87
261.012	80
261.244	79
261.477	87
261.71	91
261.942	115
262.175	119
262.407	96
262.64	74
262.872	89
263.105	82
263.337	75
263.57	82
263.802	73
264.035	74
264.267	88
264.499	82
264.732	86
264.964	74
265.197	86
265.429	73
265.661	74
265.894	77
266.126	100
266.358	92
266.591	80
266.823	75
267.055	70
267.287	90
267.52	87
267.752	80
267.984	84
268.216	79
268.448	88
268.681	71
268.913	87
269.145	74
269.377	78
269.609	79
269.841	74
270.073	72
270.306	84
270.538	77
270.77	86
271.002	77
271.234	77
271.466	83
271.698	76
271.93	78
272.162	86
272.394	100
272.626	81
272.858	78
273.09	95
273.322	84
273.553	70
273.785	82
274.017	71
274.249	82
274.481	96
274.713	83
274.945	78
275.176	97
275.408	97
275.64	82
275.872	78
276.104	79
276.335	88
276.567	87
276.799	103
277.031	91
277.262	72
277.494	81
277.726	89
277.957	74
278.189	76
278.421	89
278.652	89
278.884	84
279.115	80
279.347	85
279.579	76
279.81	86
280.042	81
280.273	89
280.505	84
280.736	80
280.968	90
281.199	84
281.431	78
281.662	73
281.894	83
282.125	80
282.356	100
282.588	130
282.819	112
283.051	90
283.282	78
283.513	74
283.745	80
283.976	71
284.207	74
284.439	86
284.67	90
284.901	87
285.132	85
285.364	99
285.595	78
285.826	93
286.057	78
286.288	82
286.52	86
286.751	74
286.982	75
287.213	83
287.444	104
287.675	80
287.906	90
288.138	91
288.369	79
288.6	88
288.831	89
289.062	96
289.293	97
289.524	75
289.755	68
289.986	82
290.217	96
290.448	81
290.679	94
290.91	92
291.141	83
291.371	91
291.602	91
291.833	80
292.064	95
292.295	82
292.526	68
292.757	94
292.987	85
293.218	88
293.449	86
293.68	82
293.91	95
294.141	82
294.372	73
294.603	87
294.833	88
295.064	75
295.295	80
295.525	79
295.756	109
295.987	110
296.217	119
296.448	103
296.679	88
296.909	86
297.14	78
297.37	96
297.601	91
297.831	88
298.062	103
298.292	92
298.523	79
298.753	96
298.984	80
299.214	72
299.445	102
299.675	87
299.905	90
300.136	94
300.366	93
300.597	85
300.827	91
301.057	107
301.288	95
301.518	78
301.748	88
301.979	84
302.209	90
302.439	81
302.669	90
302.9	92
303.13	88
303.36	78
303.59	96
303.82	96
304.051	95
304.281	93
304.511	92
304.741	77
304.971	91
305.201	93
305.431	100
305.661	84
305.891	96
306.121	88
306.352	101
306.582	115
306.812	89
307.042	104
307.272	80
307.502	81
307.731	90
307.961	70
308.191	90
308.421	97
308.651	104
308.881	87
309.111	87
309.341	86
309.571	95
309.8	107
310.03	96
310.26	91
310.49	88
310.72	97
310.949	89
311.179	92
311.409	83
311.639	95
311.868	94
312.098	96
312.328	83
312.557	98
312.787	120
313.017	94
313.246	89
313.476	92
313.706	80
313.935	88
314.165	96
314.394	89
314.624	84
314.853	98
315.083	85
315.312	91
315.542	73
315.771	97
316.001	85
316.23	88
316.46	90
316.689	92
316.919	91
317.148	91
317.377	89
317.607	93
317.836	90
318.065	100
318.295	71
318.524	96
318.753	95
318.983	90
319.212	93
319.441	82
319.67	99
319.9	101
320.129	96
320.358	105
320.587	87
320.816	86
321.046	97
321.275	85
321.504	69
321.733	93
321.962	94
322.191	106
322.42	107
322.649	110
322.878	114
323.108	121
323.337	116
323.566	127
323.795	130
324.024	181
324.253	340
324.482	682
324.71	1367
324.939	1688
325.168	638
325.397	222
325.626	142
325.855	120
326.084	111
326.313	125
326.542	144
326.77	199
326.999	379
327.228	747
327.457	1321
327.686	1060
327.914	290
328.143	169
328.372	138
328.6	116
328.829	112
329.058	115
329.287	119
329.515	103
329.744	96
329.972	108
330.201	102
330.43	113
330.658	124
330.887	153
331.115	122
331.344	99
331.572	88
331.801	88
332.03	94
332.258	96
332.486	92
332.715	92
332.943	102
333.172	93
333.4	90
333.629	104
333.857	99
334.085	96
334.314	91
334.542	89
334.771	104
334.999	98
335.227	91
335.455	92
335.684	91
335.912	80
336.14	106
336.369	94
336.597	104
336.825	95
337.053	88
337.281	90
337.51	103
337.738	97
337.966	96
338.194	102
338.422	97
338.65	99
338.878	82
339.106	92
339.334	92
339.562	98
339.79	98
340.018	86
340.246	89
340.474	77
340.702	88
340.93	101
341.158	97
341.386	103
341.614	86
341.842	89
342.07	85
342.298	88
342.526	77
342.754	107
342.981	67
343.209	94
343.437	84
343.665	80
343.893	86
344.12	111
344.348	90
344.576	102
344.804	91
345.031	92
345.259	115
345.487	78
345.714	92
345.942	94
346.17	95
346.397	76
346.625	84
346.853	78
347.08	88
347.308	97
347.535	92
347.763	103
347.99	113
348.218	91
348.445	97
348.673	83
348.9	93
349.128	92
349.355	84
349.583	105
349.81	98
350.037	87
350.265	88
350.492	89
350.72	91
350.947	109
351.174	117
351.402	103
351.629	99
351.856	102
352.083	96
352.311	94
352.538	84
352.765	106
352.992	98
353.22	104
353.447	93
353.674	98
353.901	95
354.128	94
354.355	100
354.583	106
354.81	96
355.037	92
355.264	94
355.491	91
355.718	113
355.945	101
356.172	86
356.399	104
356.626	108
356.853	87
357.08	84
357.307	102
357.534	102
357.761	83
357.988	106
358.215	102
358.441	92
358.668	81
358.895	94
359.122	98
359.349	96
359.576	107
359.802	88
360.029	100
360.256	104
360.483	87
360.709	83
360.936	88
361.163	83
361.39	90
361.616	99
361.843	84
362.07	98
362.296	101
362.523	90
362.749	74
362.976	88
363.203	74
363.429	92
363.656	101
363.882	88
364.109	98
364.335	84
364.562	73
364.788	82
365.015	84
365.241	91
365.468	94
365.694	97
365.92	100
366.147	98
366.373	86
366.599	78
366.826	90
367.052	84
367.278	79
367.505	82
367.731	91
367.957	86
368.184	96
368.41	84
368.636	115
368.862	114
369.089	102
369.315	82
369.541	90
369.767	91
369.993	93
370.219	76
370.445	88
370.672	92
370.898	93
371.124	89
371.35	93
371.576	98
371.802	96
372.028	96
372.254	102
372.48	99
372.706	82
372.932	77
373.158	89
373.384	95
373.61	94
373.835	87
374.061	91
374.287	74
374.513	87
374.739	91
374.965	77
375.191	83
375.416	90
375.642	83
375.868	87
376.094	83
376.319	82
376.545	88
376.771	102
376.997	91
377.222	112
377.448	87
377.674	85
377.899	107
378.125	96
378.35	104
378.576	94
378.802	85
379.027	90
379.253	97
379.478	82
379.704	98
379.929	94
380.155	90
380.38	110
380.606	96
380.831	93
381.057	87
381.282	84
381.507	92
381.733	103
381.958	92
382.184	85
382.409	104
382.634	105
382.86	98
383.085	99
383.31	104
383.535	95
383.761	92
383.986	99
384.211	103
384.436	106
384.662	97
384.887	105
385.112	113
385.337	108
385.562	112
385.787	107
386.013	112
386.238	107
386.463	92
386.688	109
386.913	110
387.138	93
387.363	114
387.588	96
387.813	105
388.038	107
388.263	96
388.488	107
388.713	100
388.938	90
389.163	90
389.387	98
389.612	92
389.837	96
390.062	95
390.287	95
390.512	95
390.736	90
390.961	86
391.186	90
391.411	97
391.636	93
391.86	87
392.085	96
392.31	82
392.534	89
392.759	84
392.984	95
393.208	80
393.433	115
393.658	101
393.882	83
394.107	104
394.331	83
394.556	80
394.78	85
395.005	87
395.229	84
395.454	100
395.678	90
395.903	74
396.127	93
396.352	84
396.576	75
396.801	102
397.025	86
397.249	92
397.474	91
397.698	82
397.922	100
398.147	82
398.371	78
398.595	86
398.82	90
399.044	82
399.268	88
399.492	84
399.717	99
399.941	102
400.165	94
400.389	68
400.613	94
400.837	79
401.062	85
401.286	91
401.51	79
401.734	87
401.958	96
402.182	114
402.406	134
402.63	110
402.854	101
403.078	71
403.302	90
403.526	91
403.75	75
403.974	85
404.198	95
404.422	89
404.645	89
404.869	88
405.093	97
405.317	96
405.541	91
405.765	98
405.988	106
406.212	168
406.436	212
406.66	134
406.883	92
407.107	101
407.331	102
407.555	107
407.778	96
408.002	91
408.226	91
408.449	97
408.673	83
408.896	90
409.12	95
409.344	85
409.567	80
409.791	92
410.014	83
410.238	83
410.461	84
410.685	98
410.908	100
411.132	105
411.355	96
411.578	103
411.802	87
412.025	84
412.249	95
412.472	86
412.695	85
412.919	91
413.142	88
413.365	96
413.589	92
413.812	98
414.035	80
414.258	94
414.482	82
414.705	86
414.928	87
415.151	96
415.374	80
415.597	81
415.821	88
416.044	84
416.267	83
416.49	86
416.713	81
416.936	81
417.159	95
417.382	79
417.605	89
417.828	92
418.051	81
418.274	86
418.497	82
418.72	73
418.943	76
419.166	93
419.389	88
419.611	78
419.834	99
420.057	90
420.28	79
420.503	71
420.726	96
420.948	74
421.171	89
421.394	97
421.617	91
421.839	87
422.062	86
422.285	104
422.507	86
422.73	97
422.953	85
423.175	90
423.398	94
423.621	80
423.843	87
424.066	92
424.288	90
424.511	94
424.733	95
424.956	100
425.178	82
425.401	95
425.623	95
425.846	86
426.068	89
426.291	95
426.513	94
426.735	81
426.958	88
427.18	101
427.402	140
427.625	156
427.847	114
428.069	105
428.292	89
428.514	89
428.736	94
428.958	76
429.181	88
429.403	77
429.625	81
429.847	80
430.069	112
430.292	79
430.514	93
430.736	83
430.958	89
431.18	81
431.402	87
431.624	74
431.846	86
432.068	73
432.29	86
432.512	91
432.734	74
432.956	83
433.178	99
433.4	88
433.622	103
433.844	112
434.066	94
434.287	88
434.509	97
434.731	86
434.953	92
435.175	88
435.397	90
435.618	103
435.84	88
436.062	113
436.284	101
436.505	95
436.727	82
436.949	92
437.17	83
437.392	83
437.614	80
437.835	105
438.057	113
438.278	93
438.5	79
438.721	107
438.943	100
439.165	82
439.386	74
439.608	102
439.829	90
440.05	118
440.272	124
440.493	105
440.715	92
440.936	90
441.158	79
441.379	98
441.6	94
441.822	106
442.043	94
442.264	106
442.486	96
442.707	97
442.928	102
443.149	123
443.371	119
443.592	101
443.813	100
444.034	108
444.255	96
444.476	80
444.698	69
444.919	82
445.14	126
445.361	118
445.582	109
445.803	118
446.024	110
446.245	135
446.466	106
446.687	78
446.908	85
447.129	82
447.35	82
447.571	92
447.792	76
448.013	86
448.234	102
448.455	95
448.675	105
448.896	106
449.117	95
449.338	109
449.559	111
449.779	130
450	98
450.221	77
450.442	82
450.662	91
450.883	97
451.104	98
451.324	80
451.545	97
451.766	86
451.986	75
452.207	80
452.428	91
452.648	90
452.869	98
453.089	109
453.31	102
453.53	91
453.751	99
453.971	88
454.192	98
454.412	84
454.633	80
454.853	90
455.073	80
455.294	94
455.514	95
455.734	90
455.955	90
456.175	79
456.395	82
456.616	81
456.836	80
457.056	86
457.276	92
457.497	79
457.717	98
457.937	92
458.157	94
458.377	86
458.598	100
458.818	128
459.038	160
459.258	103
459.478	94
459.698	84
459.918	80
460.138	60
460.358	78
460.578	94
460.798	92
461.018	100
461.238	92
461.458	80
461.678	89
461.898	91
462.118	79
462.338	88
462.558	91
462.777	72
462.997	78
463.217	93
463.437	76
463.657	83
463.876	78
464.096	84
464.316	92
464.536	78
464.755	92
464.975	89
465.195	153
465.414	132
465.634	94
465.854	83
466.073	93
466.293	91
466.512	76
466.732	92
466.951	77
467.171	111
467.391	89
467.61	87
467.829	89
468.049	80
468.268	89
468.488	83
468.707	71
468.927	85
469.146	85
469.365	79
469.585	88
469.804	95
470.023	94
470.243	86
470.462	94
470.681	109
470.901	83
471.12	86
471.339	74
471.558	80
471.777	96
471.997	73
472.216	99
472.435	84
472.654	85
472.873	82
473.092	99
473.311	86
473.53	79
473.749	95
473.968	86
474.187	103
474.406	105
474.625	98
474.844	81
475.063	94
475.282	85
475.501	87
475.72	98
475.939	81
476.158	80
476.377	85
476.596	87
476.814	90
477.033	97
477.252	90
477.471	90
477.69	84
477.908	88
478.127	90
478.346	97
478.564	83
478.783	90
479.002	73
479.22	81
479.439	103
479.658	112
479.876	86
480.095	95
480.313	85
480.532	96
480.751	96
480.969	75
481.188	99
481.406	90
481.624	90
481.843	84
482.061	89
482.28	77
482.498	84
482.717	91
482.935	83
483.153	95
483.372	89
483.59	101
483.808	96
484.027	83
484.245	80
484.463	92
484.681	88
484.9	89
485.118	100
485.336	98
485.554	98
485.772	118
485.99	96
486.209	90
486.427	97
486.645	107
486.863	102
487.081	99
487.299	78
487.517	98
487.735	96
487.953	96
488.171	71
488.389	99
488.607	96
488.825	92
489.043	93
489.261	98
489.479	67
489.696	95
489.914	77
490.132	91
490.35	77
490.568	88
490.786	96
491.003	68
491.221	86
491.439	104
491.657	98
491.874	90
492.092	90
492.31	87
492.527	95
492.745	85
492.963	94
493.18	94
493.398	89
493.615	110
493.833	93
494.05	88
494.268	80
494.485	88
494.703	89
494.92	98
495.138	89
495.355	92
495.573	88
495.79	86
496.008	75
496.225	94
496.442	90
496.66	91
496.877	81
497.094	100
497.312	89
497.529	76
497.746	99
497.963	94
498.181	94
498.398	82
498.615	104
498.832	95
499.049	98
499.267	94
499.484	91
499.701	88
499.918	86
500.135	79
500.352	90
500.569	98
500.786	94
501.003	82
501.22	89
501.437	89
501.654	108
501.871	112
502.088	90
502.305	83
502.522	82
502.739	79
502.956	86
503.172	91
503.389	103
503.606	103
503.823	100
504.04	100
504.256	68
504.473	76
504.69	89
504.907	99
505.123	89
505.34	98
505.557	88
505.773	89
505.99	90
506.207	90
506.423	86
506.64	97
506.856	91
507.073	104
507.289	91
507.506	101
507.722	108
507.939	119
508.155	93
508.372	107
508.588	91
508.805	85
509.021	90
509.238	92
509.454	89
509.67	86
509.887	120
510.103	120
510.319	201
510.536	692
510.752	2034
510.968	574
511.184	148
511.401	112
511.617	91
511.833	101
512.049	96
512.265	73
512.481	96
512.698	93
512.914	73
513.13	102
513.346	81
513.562	91
513.778	108
513.994	102
514.21	96
514.426	106
514.642	136
514.858	135
515.074	162
515.29	426
515.506	1320
515.721	505
515.937	144
516.153	99
516.369	94
516.585	99
516.801	99
517.016	88
517.232	85
517.448	91
517.664	101
517.879	100
518.095	86
518.311	85
518.527	98
518.742	76
518.958	77
519.173	90
519.389	97
519.605	88
519.82	90
520.036	103
520.251	114
520.467	121
520.682	98
520.898	92
521.113	119
521.329	133
521.544	201
521.76	521
521.975	2091
522.19	1254
522.406	283
522.621	119
522.836	102
523.052	94
523.267	101
523.482	104
523.698	100
523.913	113
524.128	110
524.343	92
524.559	94
524.774	98
524.989	103
525.204	98
525.419	84
525.634	84
525.849	99
526.064	99
526.28	106
526.495	85
526.71	89
526.925	90
527.14	98
527.355	88
527.57	81
527.785	89
527.999	91
528.214	98
528.429	96
528.644	79
528.859	87
529.074	96
529.289	123
529.503	151
529.718	101
529.933	99
530.148	94
530.363	79
530.577	84
530.792	102
531.007	102
531.221	103
531.436	85
531.651	88
531.865	91
532.08	90
532.295	98
532.509	89
532.724	86
532.938	88
533.153	87
533.367	92
533.582	105
533.796	89
534.011	95
534.225	82
534.44	87
534.654	82
534.868	86
535.083	83
535.297	105
535.511	113
535.726	102
535.94	96
536.154	74
536.369	92
536.583	87
536.797	101
537.011	87
537.225	90
537.44	91
537.654	98
537.868	80
538.082	88
538.296	98
538.51	99
538.724	90
538.938	93
539.153	86
539.367	98
539.581	98
539.795	91
540.009	73
540.222	87
540.436	93
540.65	107
540.864	90
541.078	101
541.292	102
541.506	92
541.72	79
541.934	103
542.147	83
542.361	76
542.575	91
542.789	90
543.002	83
543.216	88
543.43	86
543.644	91
543.857	81
544.071	92
544.285	71
544.498	99
544.712	83
544.925	88
545.139	80
545.352	71
545.566	81
545.779	80
545.993	98
546.206	98
546.42	86
546.633	95
546.847	95
547.06	95
547.274	90
547.487	79
547.7	89
547.914	83
548.127	92
548.34	101
548.554	91
548.767	92
548.98	95
549.193	88
549.407	94
549.62	95
549.833	89
550.046	86
550.259	94
550.473	84
550.686	91
550.899	89
551.112	95
551.325	84
551.538	83
551.751	105
551.964	84
552.177	87
552.39	112
552.603	85
552.816	80
553.029	82
553.242	91
553.455	97
553.667	96
553.88	94
554.093	88
554.306	83
554.519	86
554.732	96
554.944	79
555.157	95
555.37	83
555.583	74
555.795	74
556.008	91
556.221	85
556.433	96
556.646	84
556.859	82
557.071	82
557.284	97
557.496	87
557.709	84
557.921	94
558.134	95
558.346	84
558.559	89
558.771	76
558.984	85
559.196	90
559.409	101
559.621	93
559.833	89
560.046	98
560.258	89
560.47	66
560.683	82
560.895	85
561.107	84
561.32	79
561.532	81
561.744	80
561.956	98
562.168	101
562.381	82
562.593	84
562.805	92
563.017	93
563.229	84
563.441	98
563.653	99
563.865	93
564.077	84
564.289	81
564.501	94
564.713	78
564.925	92
565.137	90
565.349	94
565.561	90
565.773	88
565.985	78
566.197	92
566.408	90
566.62	86
566.832	75
567.044	95
567.255	92
567.467	90
567.679	88
567.891	91
568.102	95
568.314	71
568.526	90
568.737	79
568.949	79
569.161	83
569.372	95
569.584	75
569.795	98
570.007	108
570.218	241
570.43	139
570.641	88
570.853	88
571.064	89
571.276	94
571.487	73
571.698	79
571.91	98
572.121	78
572.333	86
572.544	89
572.755	91
572.966	72
573.178	76
573.389	95
573.6	90
573.811	96
574.023	99
574.234	87
574.445	77
574.656	84
574.867	90
575.078	95
575.289	84
575.501	88
575.712	90
575.923	100
576.134	74
576.345	90
576.556	110
576.767	92
576.978	88
577.188	84
577.399	92
577.61	92
577.821	86
578.032	105
578.243	264
578.454	697
578.665	198
578.875	101
579.086	96
579.297	108
579.508	89
579.718	74
579.929	85
580.14	83
580.35	87
580.561	92
580.772	99
580.982	94
581.193	102
581.403	90
581.614	89
581.825	75
582.035	86
582.246	103
582.456	95
582.667	80
582.877	69
583.087	89
583.298	79
583.508	90
583.719	64
583.929	88
584.139	76
584.35	96
584.56	94
584.77	100
584.981	74
585.191	85
585.401	75
