Data from Uncirc_2001_H10_HRD10591_00093.txt Node
Date: Wed Jan 03 10:44:15 EST 2024
User: Yrep
Spectrometer: HR+D1059
Trigger mode: 1
Integration Time (sec): 1.000000E-1
Scans to average: 1
Electric dark correction enabled: true
Nonlinearity correction enabled: false
Boxcar width: 0
XAxis mode: Wavelengths
Number of Pixels in Spectrum: 2048
>>>>>Begin Spectral Data<<<<<
223.165	-13.62
223.4	-13.62
223.635	-13.62
223.869	-16.62
224.104	-12.62
224.338	-17.62
224.573	-18.62
224.808	-14.62
225.042	-1.62
225.277	-10.62
225.511	-19.62
225.746	5.38
225.98	16.38
226.215	6.38
226.449	15.38
226.683	25.38
226.918	28.38
227.152	28.38
227.387	27.38
227.621	37.38
227.856	42.38
228.09	51.38
228.324	54.38
228.559	57.38
228.793	70.38
229.027	53.38
229.262	59.38
229.496	63.38
229.73	81.38
229.964	79.38
230.199	86.38
230.433	82.38
230.667	86.38
230.901	77.38
231.136	88.38
231.37	84.38
231.604	77.38
231.838	78.38
232.072	71.38
232.306	82.38
232.541	81.38
232.775	62.38
233.009	85.38
233.243	89.38
233.477	92.38
233.711	82.38
233.945	86.38
234.179	81.38
234.413	73.38
234.647	85.38
234.881	76.38
235.115	86.38
235.349	79.38
235.583	76.38
235.817	79.38
236.051	74.38
236.285	73.38
236.519	85.38
236.753	80.38
236.987	81.38
237.221	91.38
237.455	82.38
237.689	75.38
237.922	79.38
238.156	85.38
238.39	89.38
238.624	82.38
238.858	72.38
239.091	71.38
239.325	84.38
239.559	73.38
239.793	87.38
240.027	94.38
240.26	81.38
240.494	89.38
240.728	71.38
240.961	74.38
241.195	88.38
241.429	84.38
241.662	81.38
241.896	80.38
242.13	86.38
242.363	81.38
242.597	78.38
242.83	69.38
243.064	69.38
243.298	88.38
243.531	89.38
243.765	81.38
243.998	79.38
244.232	72.38
244.465	85.38
244.699	85.38
244.932	74.38
245.166	87.38
245.399	92.38
245.633	85.38
245.866	80.38
246.099	83.38
246.333	76.38
246.566	79.38
246.8	76.38
247.033	85.38
247.266	81.38
247.5	73.38
247.733	80.38
247.966	92.38
248.2	94.38
248.433	81.38
248.666	75.38
248.899	90.38
249.133	88.38
249.366	90.38
249.599	107.38
249.832	92.38
250.066	92.38
250.299	79.38
250.532	75.38
250.765	91.38
250.998	91.38
251.231	82.38
251.465	86.38
251.698	77.38
251.931	89.38
252.164	78.38
252.397	77.38
252.63	89.38
252.863	83.38
253.096	100.38
253.329	94.38
253.562	83.38
253.795	80.38
254.028	82.38
254.261	99.38
254.494	87.38
254.727	60.38
254.96	91.38
255.193	87.38
255.426	87.38
255.659	74.38
255.892	81.38
256.124	75.38
256.357	98.38
256.59	97.38
256.823	100.38
257.056	101.38
257.289	82.38
257.521	88.38
257.754	86.38
257.987	79.38
258.22	75.38
258.452	76.38
258.685	81.38
258.918	53.38
259.151	81.38
259.383	75.38
259.616	70.38
259.849	95.38
260.081	78.38
260.314	89.38
260.547	70.38
260.779	82.38
261.012	92.38
261.244	86.38
261.477	91.38
261.71	91.38
261.942	104.38
262.175	123.38
262.407	83.38
262.64	80.38
262.872	91.38
263.105	82.38
263.337	77.38
263.57	88.38
263.802	99.38
264.035	71.38
264.267	78.38
264.499	92.38
264.732	95.38
264.964	73.38
265.197	78.38
265.429	75.38
265.661	87.38
265.894	85.38
266.126	85.38
266.358	68.38
266.591	86.38
266.823	83.38
267.055	83.38
267.287	72.38
267.52	75.38
267.752	82.38
267.984	83.38
268.216	82.38
268.448	76.38
268.681	76.38
268.913	83.38
269.145	85.38
269.377	97.38
269.609	90.38
269.841	94.38
270.073	75.38
270.306	90.38
270.538	77.38
270.77	86.38
271.002	90.38
271.234	93.38
271.466	78.38
271.698	90.38
271.93	85.38
272.162	75.38
272.394	99.38
272.626	84.38
272.858	88.38
273.09	81.38
273.322	94.38
273.553	94.38
273.785	85.38
274.017	95.38
274.249	75.38
274.481	85.38
274.713	78.38
274.945	92.38
275.176	87.38
275.408	87.38
275.64	81.38
275.872	91.38
276.104	82.38
276.335	102.38
276.567	106.38
276.799	91.38
277.031	93.38
277.262	91.38
277.494	85.38
277.726	94.38
277.957	93.38
278.189	85.38
278.421	91.38
278.652	83.38
278.884	92.38
279.115	93.38
279.347	82.38
279.579	93.38
279.81	98.38
280.042	93.38
280.273	83.38
280.505	80.38
280.736	97.38
280.968	98.38
281.199	95.38
281.431	90.38
281.662	89.38
281.894	78.38
282.125	110.38
282.356	124.38
282.588	151.38
282.819	119.38
283.051	92.38
283.282	87.38
283.513	82.38
283.745	90.38
283.976	86.38
284.207	95.38
284.439	92.38
284.67	102.38
284.901	93.38
285.132	77.38
285.364	72.38
285.595	76.38
285.826	91.38
286.057	95.38
286.288	79.38
286.52	98.38
286.751	88.38
286.982	89.38
287.213	89.38
287.444	82.38
287.675	86.38
287.906	98.38
288.138	90.38
288.369	97.38
288.6	100.38
288.831	82.38
289.062	74.38
289.293	95.38
289.524	83.38
289.755	95.38
289.986	84.38
290.217	93.38
290.448	90.38
290.679	85.38
290.91	87.38
291.141	92.38
291.371	99.38
291.602	106.38
291.833	99.38
292.064	78.38
292.295	91.38
292.526	79.38
292.757	74.38
292.987	83.38
293.218	89.38
293.449	85.38
293.68	95.38
293.91	74.38
294.141	90.38
294.372	92.38
294.603	86.38
294.833	98.38
295.064	94.38
295.295	90.38
295.525	95.38
295.756	113.38
295.987	122.38
296.217	150.38
296.448	127.38
296.679	98.38
296.909	86.38
297.14	99.38
297.37	89.38
297.601	85.38
297.831	93.38
298.062	91.38
298.292	92.38
298.523	86.38
298.753	74.38
298.984	84.38
299.214	102.38
299.445	90.38
299.675	90.38
299.905	83.38
300.136	85.38
300.366	92.38
300.597	82.38
300.827	91.38
301.057	95.38
301.288	117.38
301.518	107.38
301.748	89.38
301.979	116.38
302.209	76.38
302.439	84.38
302.669	83.38
302.9	87.38
303.13	100.38
303.36	91.38
303.59	100.38
303.82	78.38
304.051	104.38
304.281	82.38
304.511	88.38
304.741	92.38
304.971	89.38
305.201	77.38
305.431	94.38
305.661	78.38
305.891	90.38
306.121	83.38
306.352	110.38
306.582	108.38
306.812	94.38
307.042	90.38
307.272	97.38
307.502	94.38
307.731	86.38
307.961	89.38
308.191	107.38
308.421	88.38
308.651	87.38
308.881	85.38
309.111	92.38
309.341	72.38
309.571	94.38
309.8	108.38
310.03	86.38
310.26	96.38
310.49	87.38
310.72	104.38
310.949	102.38
311.179	107.38
311.409	89.38
311.639	92.38
311.868	95.38
312.098	107.38
312.328	102.38
312.557	101.38
312.787	113.38
313.017	99.38
313.246	89.38
313.476	83.38
313.706	98.38
313.935	107.38
314.165	114.38
314.394	93.38
314.624	95.38
314.853	99.38
315.083	92.38
315.312	95.38
315.542	95.38
315.771	92.38
316.001	93.38
316.23	101.38
316.46	87.38
316.689	93.38
316.919	98.38
317.148	91.38
317.377	95.38
317.607	95.38
317.836	94.38
318.065	93.38
318.295	82.38
318.524	95.38
318.753	99.38
318.983	94.38
319.212	89.38
319.441	110.38
319.67	93.38
319.9	95.38
320.129	93.38
320.358	103.38
320.587	92.38
320.816	106.38
321.046	101.38
321.275	99.38
321.504	95.38
321.733	84.38
321.962	100.38
322.191	109.38
322.42	106.38
322.649	119.38
322.878	102.38
323.108	113.38
323.337	116.38
323.566	123.38
323.795	161.38
324.024	203.38
324.253	403.38
324.482	813.38
324.71	1638.38
324.939	2124.38
325.168	790.38
325.397	236.38
325.626	161.38
325.855	126.38
326.084	121.38
326.313	134.38
326.542	162.38
326.77	237.38
326.999	454.38
327.228	901.38
327.457	1643.38
327.686	1251.38
327.914	352.38
328.143	183.38
328.372	147.38
328.6	135.38
328.829	123.38
329.058	144.38
329.287	134.38
329.515	127.38
329.744	96.38
329.972	107.38
330.201	95.38
330.43	123.38
330.658	141.38
330.887	156.38
331.115	137.38
331.344	100.38
331.572	97.38
331.801	113.38
332.03	115.38
332.258	110.38
332.486	95.38
332.715	95.38
332.943	105.38
333.172	100.38
333.4	95.38
333.629	110.38
333.857	112.38
334.085	108.38
334.314	103.38
334.542	97.38
334.771	105.38
334.999	116.38
335.227	91.38
335.455	88.38
335.684	93.38
335.912	92.38
336.14	84.38
336.369	91.38
336.597	110.38
336.825	105.38
337.053	85.38
337.281	85.38
337.51	95.38
337.738	79.38
337.966	98.38
338.194	101.38
338.422	100.38
338.65	98.38
338.878	93.38
339.106	99.38
339.334	102.38
339.562	96.38
339.79	87.38
340.018	90.38
340.246	101.38
340.474	109.38
340.702	98.38
340.93	92.38
341.158	95.38
341.386	90.38
341.614	108.38
341.842	98.38
342.07	92.38
342.298	102.38
342.526	113.38
342.754	101.38
342.981	81.38
343.209	100.38
343.437	89.38
343.665	77.38
343.893	95.38
344.12	92.38
344.348	81.38
344.576	110.38
344.804	93.38
345.031	87.38
345.259	82.38
345.487	95.38
345.714	97.38
345.942	101.38
346.17	92.38
346.397	97.38
346.625	99.38
346.853	84.38
347.08	94.38
347.308	107.38
347.535	100.38
347.763	113.38
347.99	107.38
348.218	95.38
348.445	100.38
348.673	113.38
348.9	89.38
349.128	88.38
349.355	97.38
349.583	94.38
349.81	91.38
350.037	95.38
350.265	102.38
350.492	85.38
350.72	99.38
350.947	99.38
351.174	110.38
351.402	122.38
351.629	102.38
351.856	101.38
352.083	111.38
352.311	119.38
352.538	110.38
352.765	103.38
352.992	117.38
353.22	92.38
353.447	103.38
353.674	107.38
353.901	100.38
354.128	91.38
354.355	94.38
354.583	99.38
354.81	101.38
355.037	100.38
355.264	97.38
355.491	93.38
355.718	94.38
355.945	102.38
356.172	86.38
356.399	94.38
356.626	105.38
356.853	90.38
357.08	94.38
357.307	95.38
357.534	91.38
357.761	96.38
357.988	88.38
358.215	97.38
358.441	85.38
358.668	89.38
358.895	89.38
359.122	91.38
359.349	102.38
359.576	111.38
359.802	108.38
360.029	104.38
360.256	109.38
360.483	101.38
360.709	78.38
360.936	98.38
361.163	112.38
361.39	110.38
361.616	99.38
361.843	87.38
362.07	111.38
362.296	102.38
362.523	94.38
362.749	89.38
362.976	91.38
363.203	93.38
363.429	81.38
363.656	93.38
363.882	80.38
364.109	87.38
364.335	93.38
364.562	90.38
364.788	87.38
365.015	76.38
365.241	99.38
365.468	105.38
365.694	112.38
365.92	93.38
366.147	98.38
366.373	97.38
366.599	89.38
366.826	85.38
367.052	78.38
367.278	86.38
367.505	95.38
367.731	110.38
367.957	86.38
368.184	94.38
368.41	88.38
368.636	114.38
368.862	120.38
369.089	103.38
369.315	91.38
369.541	97.38
369.767	88.38
369.993	113.38
370.219	101.38
370.445	80.38
370.672	82.38
370.898	89.38
371.124	86.38
371.35	99.38
371.576	95.38
371.802	98.38
372.028	85.38
372.254	85.38
372.48	105.38
372.706	95.38
372.932	88.38
373.158	84.38
373.384	90.38
373.61	101.38
373.835	97.38
374.061	92.38
374.287	98.38
374.513	87.38
374.739	86.38
374.965	99.38
375.191	100.38
375.416	86.38
375.642	99.38
375.868	97.38
376.094	80.38
376.319	95.38
376.545	89.38
376.771	85.38
376.997	91.38
377.222	96.38
377.448	95.38
377.674	88.38
377.899	92.38
378.125	81.38
378.35	91.38
378.576	94.38
378.802	93.38
379.027	93.38
379.253	90.38
379.478	96.38
379.704	85.38
379.929	83.38
380.155	83.38
380.38	96.38
380.606	92.38
380.831	95.38
381.057	98.38
381.282	113.38
381.507	105.38
381.733	96.38
381.958	102.38
382.184	97.38
382.409	100.38
382.634	99.38
382.86	92.38
383.085	81.38
383.31	105.38
383.535	103.38
383.761	100.38
383.986	101.38
384.211	95.38
384.436	97.38
384.662	99.38
384.887	109.38
385.112	101.38
385.337	101.38
385.562	89.38
385.787	101.38
386.013	101.38
386.238	105.38
386.463	106.38
386.688	112.38
386.913	113.38
387.138	104.38
387.363	106.38
387.588	108.38
387.813	100.38
388.038	114.38
388.263	88.38
388.488	82.38
388.713	80.38
388.938	100.38
389.163	89.38
389.387	83.38
389.612	98.38
389.837	82.38
390.062	95.38
390.287	90.38
390.512	98.38
390.736	99.38
390.961	94.38
391.186	86.38
391.411	95.38
391.636	98.38
391.86	93.38
392.085	78.38
392.31	92.38
392.534	93.38
392.759	85.38
392.984	87.38
393.208	84.38
393.433	82.38
393.658	92.38
393.882	78.38
394.107	76.38
394.331	85.38
394.556	93.38
394.78	104.38
395.005	94.38
395.229	101.38
395.454	97.38
395.678	85.38
395.903	102.38
396.127	87.38
396.352	109.38
396.576	87.38
396.801	77.38
397.025	85.38
397.249	95.38
397.474	89.38
397.698	98.38
397.922	94.38
398.147	93.38
398.371	82.38
398.595	88.38
398.82	86.38
399.044	80.38
399.268	90.38
399.492	86.38
399.717	96.38
399.941	98.38
400.165	112.38
400.389	95.38
400.613	90.38
400.837	90.38
401.062	87.38
401.286	86.38
401.51	94.38
401.734	98.38
401.958	100.38
402.182	147.38
402.406	175.38
402.63	120.38
402.854	91.38
403.078	103.38
403.302	86.38
403.526	92.38
403.75	79.38
403.974	90.38
404.198	101.38
404.422	89.38
404.645	89.38
404.869	87.38
405.093	96.38
405.317	88.38
405.541	103.38
405.765	123.38
405.988	132.38
406.212	183.38
406.436	249.38
406.66	159.38
406.883	116.38
407.107	97.38
407.331	102.38
407.555	116.38
407.778	112.38
408.002	108.38
408.226	98.38
408.449	93.38
408.673	86.38
408.896	102.38
409.12	86.38
409.344	87.38
409.567	81.38
409.791	99.38
410.014	94.38
410.238	100.38
410.461	94.38
410.685	91.38
410.908	117.38
411.132	99.38
411.355	105.38
411.578	111.38
411.802	84.38
412.025	89.38
412.249	97.38
412.472	88.38
412.695	86.38
412.919	95.38
413.142	87.38
413.365	104.38
413.589	85.38
413.812	86.38
414.035	108.38
414.258	103.38
414.482	94.38
414.705	86.38
414.928	99.38
415.151	102.38
415.374	89.38
415.597	90.38
415.821	95.38
416.044	87.38
416.267	95.38
416.49	83.38
416.713	79.38
416.936	84.38
417.159	94.38
417.382	83.38
417.605	86.38
417.828	95.38
418.051	78.38
418.274	94.38
418.497	93.38
418.72	82.38
418.943	88.38
419.166	78.38
419.389	81.38
419.611	81.38
419.834	84.38
420.057	97.38
420.28	86.38
420.503	92.38
420.726	102.38
420.948	82.38
421.171	99.38
421.394	99.38
421.617	109.38
421.839	91.38
422.062	96.38
422.285	87.38
422.507	107.38
422.73	103.38
422.953	84.38
423.175	92.38
423.398	84.38
423.621	92.38
423.843	80.38
424.066	92.38
424.288	88.38
424.511	107.38
424.733	97.38
424.956	96.38
425.178	92.38
425.401	94.38
425.623	98.38
425.846	85.38
426.068	92.38
426.291	97.38
426.513	92.38
426.735	105.38
426.958	108.38
427.18	112.38
427.402	143.38
427.625	171.38
427.847	136.38
428.069	101.38
428.292	90.38
428.514	101.38
428.736	100.38
428.958	82.38
429.181	82.38
429.403	91.38
429.625	83.38
429.847	91.38
430.069	94.38
430.292	76.38
430.514	91.38
430.736	87.38
430.958	85.38
431.18	106.38
431.402	90.38
431.624	101.38
431.846	77.38
432.068	90.38
432.29	75.38
432.512	81.38
432.734	82.38
432.956	86.38
433.178	87.38
433.4	115.38
433.622	83.38
433.844	100.38
434.066	103.38
434.287	94.38
434.509	94.38
434.731	78.38
434.953	89.38
435.175	84.38
435.397	85.38
435.618	86.38
435.84	94.38
436.062	123.38
436.284	124.38
436.505	95.38
436.727	100.38
436.949	95.38
437.17	93.38
437.392	98.38
437.614	91.38
437.835	117.38
438.057	127.38
438.278	120.38
438.5	101.38
438.721	131.38
438.943	101.38
439.165	95.38
439.386	84.38
439.608	101.38
439.829	94.38
440.05	135.38
440.272	149.38
440.493	96.38
440.715	85.38
440.936	94.38
441.158	92.38
441.379	94.38
441.6	82.38
441.822	92.38
442.043	102.38
442.264	109.38
442.486	103.38
442.707	95.38
442.928	100.38
443.149	131.38
443.371	149.38
443.592	120.38
443.813	100.38
444.034	121.38
444.255	98.38
444.476	86.38
444.698	88.38
444.919	92.38
445.14	136.38
445.361	128.38
445.582	119.38
445.803	147.38
446.024	142.38
446.245	145.38
446.466	114.38
446.687	103.38
446.908	92.38
447.129	110.38
447.35	93.38
447.571	100.38
447.792	100.38
448.013	94.38
448.234	103.38
448.455	95.38
448.675	110.38
448.896	112.38
449.117	109.38
449.338	97.38
449.559	127.38
449.779	126.38
450	97.38
450.221	86.38
450.442	78.38
450.662	97.38
450.883	109.38
451.104	123.38
451.324	95.38
451.545	91.38
451.766	91.38
451.986	100.38
452.207	90.38
452.428	97.38
452.648	104.38
452.869	121.38
453.089	126.38
453.31	131.38
453.53	107.38
453.751	94.38
453.971	97.38
454.192	112.38
454.412	86.38
454.633	89.38
454.853	102.38
455.073	78.38
455.294	96.38
455.514	104.38
455.734	83.38
455.955	93.38
456.175	86.38
456.395	85.38
456.616	86.38
456.836	86.38
457.056	82.38
457.276	92.38
457.497	80.38
457.717	84.38
457.937	73.38
458.157	91.38
458.377	90.38
458.598	100.38
458.818	182.38
459.038	178.38
459.258	116.38
459.478	95.38
459.698	93.38
459.918	79.38
460.138	106.38
460.358	86.38
460.578	82.38
460.798	92.38
461.018	94.38
461.238	78.38
461.458	101.38
461.678	107.38
461.898	82.38
462.118	79.38
462.338	84.38
462.558	81.38
462.777	93.38
462.997	104.38
463.217	94.38
463.437	79.38
463.657	85.38
463.876	90.38
464.096	99.38
464.316	83.38
464.536	101.38
464.755	79.38
464.975	113.38
465.195	185.38
465.414	174.38
465.634	105.38
465.854	92.38
466.073	88.38
466.293	89.38
466.512	79.38
466.732	93.38
466.951	81.38
467.171	88.38
467.391	102.38
467.61	106.38
467.829	100.38
468.049	110.38
468.268	98.38
468.488	99.38
468.707	77.38
468.927	82.38
469.146	85.38
469.365	82.38
469.585	73.38
469.804	97.38
470.023	87.38
470.243	87.38
470.462	106.38
470.681	111.38
470.901	93.38
471.12	88.38
471.339	81.38
471.558	90.38
471.777	86.38
471.997	80.38
472.216	90.38
472.435	100.38
472.654	76.38
472.873	95.38
473.092	88.38
473.311	78.38
473.53	88.38
473.749	87.38
473.968	109.38
474.187	129.38
474.406	93.38
474.625	83.38
474.844	83.38
475.063	94.38
475.282	83.38
475.501	92.38
475.72	90.38
475.939	85.38
476.158	68.38
476.377	97.38
476.596	82.38
476.814	93.38
477.033	75.38
477.252	93.38
477.471	81.38
477.69	99.38
477.908	88.38
478.127	95.38
478.346	81.38
478.564	92.38
478.783	99.38
479.002	81.38
479.22	79.38
479.439	108.38
479.658	108.38
479.876	101.38
480.095	101.38
480.313	108.38
480.532	92.38
480.751	106.38
480.969	84.38
481.188	110.38
481.406	114.38
481.624	96.38
481.843	85.38
482.061	86.38
482.28	96.38
482.498	89.38
482.717	99.38
482.935	88.38
483.153	91.38
483.372	78.38
483.59	93.38
483.808	77.38
484.027	77.38
484.245	93.38
484.463	109.38
484.681	90.38
484.9	94.38
485.118	84.38
485.336	86.38
485.554	78.38
485.772	97.38
485.99	92.38
486.209	98.38
486.427	89.38
486.645	123.38
486.863	92.38
487.081	107.38
487.299	93.38
487.517	81.38
487.735	100.38
487.953	98.38
488.171	89.38
488.389	102.38
488.607	101.38
488.825	104.38
489.043	84.38
489.261	100.38
489.479	89.38
489.696	105.38
489.914	81.38
490.132	95.38
490.35	88.38
490.568	80.38
490.786	90.38
491.003	89.38
491.221	86.38
491.439	93.38
491.657	89.38
491.874	93.38
492.092	94.38
492.31	87.38
492.527	92.38
492.745	82.38
492.963	94.38
493.18	103.38
493.398	101.38
493.615	87.38
493.833	88.38
494.05	91.38
494.268	98.38
494.485	109.38
494.703	101.38
494.92	88.38
495.138	85.38
495.355	83.38
495.573	87.38
495.79	97.38
496.008	85.38
496.225	86.38
496.442	91.38
496.66	104.38
496.877	83.38
497.094	88.38
497.312	106.38
497.529	108.38
497.746	98.38
497.963	88.38
498.181	89.38
498.398	90.38
498.615	97.38
498.832	107.38
499.049	78.38
499.267	85.38
499.484	83.38
499.701	92.38
499.918	106.38
500.135	97.38
500.352	106.38
500.569	95.38
500.786	90.38
501.003	84.38
501.22	95.38
501.437	90.38
501.654	92.38
501.871	103.38
502.088	87.38
502.305	88.38
502.522	90.38
502.739	102.38
502.956	102.38
503.172	78.38
503.389	104.38
503.606	110.38
503.823	97.38
504.04	91.38
504.256	98.38
504.473	95.38
504.69	106.38
504.907	90.38
505.123	88.38
505.34	78.38
505.557	87.38
505.773	90.38
505.99	99.38
506.207	93.38
506.423	94.38
506.64	98.38
506.856	83.38
507.073	95.38
507.289	93.38
507.506	107.38
507.722	142.38
507.939	110.38
508.155	101.38
508.372	91.38
508.588	104.38
508.805	90.38
509.021	106.38
509.238	91.38
509.454	110.38
509.67	105.38
509.887	112.38
510.103	136.38
510.319	224.38
510.536	879.38
510.752	2714.38
510.968	712.38
511.184	166.38
511.401	117.38
511.617	105.38
511.833	92.38
512.049	99.38
512.265	86.38
512.481	101.38
512.698	91.38
512.914	93.38
513.13	84.38
513.346	87.38
513.562	105.38
513.778	102.38
513.994	94.38
514.21	100.38
514.426	116.38
514.642	144.38
514.858	125.38
