Data from Uncirc_2001_H10_HRD10591_00023.txt Node
Date: Wed Jan 03 10:44:01 EST 2024
User: Yrep
Spectrometer: HR+D1059
Trigger mode: 1
Integration Time (sec): 1.000000E-1
Scans to average: 1
Electric dark correction enabled: true
Nonlinearity correction enabled: false
Boxcar width: 0
XAxis mode: Wavelengths
Number of Pixels in Spectrum: 2048
>>>>>Begin Spectral Data<<<<<
223.165	-24.38
223.4	-24.38
223.635	-24.38
223.869	-17.38
224.104	-27.38
224.338	-19.38
224.573	-11.38
224.808	-6.38
225.042	-10.38
225.277	3.62
225.511	-8.38
225.746	-9.38
225.98	11.62
226.215	24.62
226.449	14.62
226.683	13.62
226.918	37.62
227.152	28.62
227.387	25.62
227.621	50.62
227.856	51.62
228.09	36.62
228.324	62.62
228.559	46.62
228.793	62.62
229.027	68.62
229.262	63.62
229.496	78.62
229.73	86.62
229.964	70.62
230.199	75.62
230.433	76.62
230.667	73.62
230.901	72.62
231.136	81.62
231.37	78.62
231.604	77.62
231.838	67.62
232.072	73.62
232.306	73.62
232.541	79.62
232.775	73.62
233.009	78.62
233.243	77.62
233.477	71.62
233.711	77.62
233.945	82.62
234.179	80.62
234.413	85.62
234.647	85.62
234.881	80.62
235.115	77.62
235.349	72.62
235.583	74.62
235.817	72.62
236.051	79.62
236.285	83.62
236.519	68.62
236.753	81.62
236.987	76.62
237.221	72.62
237.455	76.62
237.689	78.62
237.922	75.62
238.156	87.62
238.39	65.62
238.624	71.62
238.858	76.62
239.091	82.62
239.325	70.62
239.559	72.62
239.793	96.62
240.027	86.62
240.26	77.62
240.494	74.62
240.728	62.62
240.961	59.62
241.195	70.62
241.429	67.62
241.662	64.62
241.896	73.62
242.13	61.62
242.363	60.62
242.597	77.62
242.83	78.62
243.064	67.62
243.298	75.62
243.531	62.62
243.765	70.62
243.998	67.62
244.232	79.62
244.465	89.62
244.699	85.62
244.932	64.62
245.166	62.62
245.399	70.62
245.633	82.62
245.866	73.62
246.099	84.62
246.333	74.62
246.566	73.62
246.8	73.62
247.033	79.62
247.266	72.62
247.5	70.62
247.733	83.62
247.966	84.62
248.2	80.62
248.433	80.62
248.666	77.62
248.899	66.62
249.133	65.62
249.366	93.62
249.599	97.62
249.832	93.62
250.066	76.62
250.299	70.62
250.532	75.62
250.765	68.62
250.998	74.62
251.231	77.62
251.465	67.62
251.698	81.62
251.931	77.62
252.164	83.62
252.397	78.62
252.63	71.62
252.863	81.62
253.096	68.62
253.329	75.62
253.562	77.62
253.795	86.62
254.028	78.62
254.261	80.62
254.494	90.62
254.727	90.62
254.96	67.62
255.193	66.62
255.426	66.62
255.659	72.62
255.892	76.62
256.124	81.62
256.357	67.62
256.59	71.62
256.823	78.62
257.056	87.62
257.289	87.62
257.521	95.62
257.754	66.62
257.987	92.62
258.22	82.62
258.452	78.62
258.685	73.62
258.918	74.62
259.151	77.62
259.383	74.62
259.616	72.62
259.849	82.62
260.081	90.62
260.314	86.62
260.547	80.62
260.779	76.62
261.012	76.62
261.244	70.62
261.477	78.62
261.71	92.62
261.942	102.62
262.175	103.62
262.407	104.62
262.64	91.62
262.872	77.62
263.105	97.62
263.337	88.62
263.57	63.62
263.802	78.62
264.035	78.62
264.267	80.62
264.499	69.62
264.732	86.62
264.964	85.62
265.197	78.62
265.429	74.62
265.661	73.62
265.894	67.62
266.126	94.62
266.358	83.62
266.591	84.62
266.823	68.62
267.055	82.62
267.287	68.62
267.52	90.62
267.752	71.62
267.984	91.62
268.216	68.62
268.448	79.62
268.681	72.62
268.913	91.62
269.145	77.62
269.377	73.62
269.609	87.62
269.841	83.62
270.073	87.62
270.306	81.62
270.538	88.62
270.77	87.62
271.002	85.62
271.234	77.62
271.466	95.62
271.698	93.62
271.93	85.62
272.162	96.62
272.394	90.62
272.626	77.62
272.858	74.62
273.09	94.62
273.322	73.62
273.553	72.62
273.785	88.62
274.017	78.62
274.249	71.62
274.481	74.62
274.713	79.62
274.945	76.62
275.176	94.62
275.408	85.62
275.64	56.62
275.872	85.62
276.104	93.62
276.335	89.62
276.567	100.62
276.799	87.62
277.031	113.62
277.262	71.62
277.494	71.62
277.726	80.62
277.957	80.62
278.189	83.62
278.421	92.62
278.652	82.62
278.884	72.62
279.115	86.62
279.347	91.62
279.579	84.62
279.81	76.62
280.042	77.62
280.273	82.62
280.505	83.62
280.736	86.62
280.968	88.62
281.199	86.62
281.431	80.62
281.662	97.62
281.894	96.62
282.125	97.62
282.356	116.62
282.588	117.62
282.819	90.62
283.051	70.62
283.282	78.62
283.513	84.62
283.745	78.62
283.976	86.62
284.207	80.62
284.439	96.62
284.67	84.62
284.901	88.62
285.132	81.62
285.364	78.62
285.595	88.62
285.826	82.62
286.057	84.62
286.288	96.62
286.52	81.62
286.751	91.62
286.982	96.62
287.213	76.62
287.444	77.62
287.675	90.62
287.906	85.62
288.138	73.62
288.369	76.62
288.6	90.62
288.831	85.62
289.062	84.62
289.293	75.62
289.524	91.62
289.755	71.62
289.986	84.62
290.217	71.62
290.448	84.62
290.679	74.62
290.91	89.62
291.141	78.62
291.371	73.62
291.602	77.62
291.833	70.62
292.064	90.62
292.295	86.62
292.526	97.62
292.757	77.62
292.987	83.62
293.218	67.62
293.449	97.62
293.68	98.62
293.91	96.62
294.141	83.62
294.372	84.62
294.603	77.62
294.833	79.62
295.064	87.62
295.295	89.62
295.525	101.62
295.756	95.62
295.987	105.62
296.217	118.62
296.448	119.62
296.679	87.62
296.909	73.62
297.14	89.62
297.37	93.62
297.601	77.62
297.831	89.62
298.062	82.62
298.292	74.62
298.523	87.62
298.753	97.62
298.984	94.62
299.214	102.62
299.445	81.62
299.675	90.62
299.905	77.62
300.136	76.62
300.366	78.62
300.597	85.62
300.827	96.62
301.057	90.62
301.288	94.62
301.518	99.62
301.748	93.62
301.979	88.62
302.209	86.62
302.439	86.62
302.669	95.62
302.9	82.62
303.13	89.62
303.36	89.62
303.59	72.62
303.82	102.62
304.051	97.62
304.281	91.62
304.511	98.62
304.741	91.62
304.971	92.62
305.201	82.62
305.431	88.62
305.661	95.62
305.891	83.62
306.121	100.62
306.352	99.62
306.582	112.62
306.812	83.62
307.042	106.62
307.272	89.62
307.502	84.62
307.731	100.62
307.961	87.62
308.191	78.62
308.421	82.62
308.651	83.62
308.881	74.62
309.111	98.62
309.341	89.62
309.571	73.62
309.8	100.62
310.03	92.62
310.26	80.62
310.49	97.62
310.72	94.62
310.949	96.62
311.179	88.62
311.409	89.62
311.639	86.62
311.868	99.62
312.098	89.62
312.328	93.62
312.557	94.62
312.787	100.62
313.017	99.62
313.246	91.62
313.476	87.62
313.706	66.62
313.935	91.62
314.165	88.62
314.394	98.62
314.624	90.62
314.853	107.62
315.083	94.62
315.312	94.62
315.542	97.62
315.771	81.62
316.001	71.62
316.23	83.62
316.46	86.62
316.689	90.62
316.919	83.62
317.148	96.62
317.377	88.62
317.607	91.62
317.836	90.62
318.065	84.62
318.295	68.62
318.524	88.62
318.753	81.62
318.983	86.62
319.212	84.62
319.441	111.62
319.67	97.62
319.9	94.62
320.129	92.62
320.358	94.62
320.587	90.62
320.816	88.62
321.046	89.62
321.275	103.62
321.504	97.62
321.733	81.62
321.962	93.62
322.191	112.62
322.42	109.62
322.649	98.62
322.878	114.62
323.108	106.62
323.337	118.62
323.566	129.62
323.795	136.62
324.024	172.62
324.253	335.62
324.482	692.62
324.71	1346.62
324.939	1683.62
325.168	655.62
325.397	217.62
325.626	129.62
325.855	121.62
326.084	140.62
326.313	133.62
326.542	148.62
326.77	219.62
326.999	384.62
327.228	766.62
327.457	1325.62
327.686	1093.62
327.914	319.62
328.143	166.62
328.372	142.62
328.6	116.62
328.829	118.62
329.058	117.62
329.287	104.62
329.515	103.62
329.744	96.62
329.972	93.62
330.201	89.62
330.43	102.62
330.658	108.62
330.887	129.62
331.115	119.62
331.344	100.62
331.572	99.62
331.801	94.62
332.03	90.62
332.258	94.62
332.486	85.62
332.715	87.62
332.943	86.62
333.172	85.62
333.4	103.62
333.629	103.62
333.857	90.62
334.085	115.62
334.314	93.62
334.542	99.62
334.771	98.62
334.999	87.62
335.227	91.62
335.455	87.62
335.684	99.62
335.912	89.62
336.14	101.62
336.369	115.62
336.597	80.62
336.825	92.62
337.053	87.62
337.281	82.62
337.51	77.62
337.738	94.62
337.966	96.62
338.194	94.62
338.422	88.62
338.65	86.62
338.878	91.62
339.106	88.62
339.334	100.62
339.562	90.62
339.79	89.62
340.018	92.62
340.246	93.62
340.474	94.62
340.702	97.62
340.93	87.62
341.158	73.62
341.386	95.62
341.614	96.62
341.842	90.62
342.07	97.62
342.298	90.62
342.526	94.62
342.754	90.62
342.981	94.62
343.209	93.62
343.437	101.62
343.665	81.62
343.893	89.62
344.12	89.62
344.348	98.62
344.576	78.62
344.804	83.62
345.031	81.62
345.259	93.62
345.487	98.62
345.714	80.62
345.942	77.62
346.17	92.62
346.397	93.62
346.625	75.62
346.853	96.62
347.08	89.62
347.308	80.62
347.535	104.62
347.763	89.62
347.99	93.62
348.218	105.62
348.445	100.62
348.673	92.62
348.9	98.62
349.128	87.62
349.355	90.62
349.583	95.62
349.81	82.62
350.037	102.62
350.265	98.62
350.492	89.62
350.72	102.62
350.947	87.62
351.174	112.62
351.402	100.62
351.629	107.62
351.856	101.62
352.083	89.62
352.311	89.62
352.538	100.62
352.765	85.62
352.992	109.62
353.22	117.62
353.447	105.62
353.674	97.62
353.901	81.62
354.128	86.62
354.355	104.62
354.583	85.62
354.81	104.62
355.037	96.62
355.264	97.62
355.491	85.62
355.718	98.62
355.945	100.62
356.172	106.62
356.399	88.62
356.626	90.62
356.853	99.62
357.08	91.62
357.307	108.62
357.534	83.62
357.761	86.62
357.988	95.62
358.215	102.62
358.441	106.62
358.668	105.62
358.895	80.62
359.122	84.62
359.349	91.62
359.576	89.62
359.802	100.62
360.029	104.62
360.256	102.62
360.483	100.62
360.709	78.62
360.936	91.62
361.163	86.62
361.39	83.62
361.616	93.62
361.843	97.62
362.07	78.62
362.296	110.62
362.523	93.62
362.749	92.62
362.976	85.62
363.203	82.62
363.429	88.62
363.656	93.62
363.882	82.62
364.109	88.62
364.335	97.62
364.562	93.62
364.788	67.62
365.015	94.62
365.241	74.62
365.468	102.62
365.694	96.62
365.92	90.62
366.147	94.62
366.373	92.62
366.599	84.62
366.826	82.62
367.052	98.62
367.278	83.62
367.505	82.62
367.731	93.62
367.957	89.62
368.184	90.62
368.41	103.62
368.636	102.62
368.862	104.62
369.089	93.62
369.315	92.62
369.541	98.62
369.767	83.62
369.993	95.62
370.219	74.62
370.445	92.62
370.672	76.62
370.898	88.62
371.124	85.62
371.35	75.62
371.576	74.62
371.802	86.62
372.028	88.62
372.254	88.62
372.48	78.62
372.706	80.62
372.932	80.62
373.158	76.62
373.384	84.62
373.61	90.62
373.835	95.62
374.061	72.62
374.287	83.62
374.513	100.62
374.739	83.62
374.965	94.62
375.191	88.62
375.416	95.62
375.642	93.62
375.868	79.62
376.094	88.62
376.319	97.62
376.545	97.62
376.771	93.62
376.997	78.62
377.222	76.62
377.448	87.62
377.674	87.62
377.899	76.62
378.125	85.62
378.35	97.62
378.576	83.62
378.802	85.62
379.027	106.62
379.253	86.62
379.478	76.62
379.704	80.62
379.929	81.62
380.155	98.62
380.38	109.62
380.606	97.62
380.831	99.62
381.057	85.62
381.282	101.62
381.507	87.62
381.733	98.62
381.958	84.62
382.184	87.62
382.409	94.62
382.634	102.62
382.86	92.62
383.085	109.62
383.31	94.62
383.535	96.62
383.761	88.62
383.986	89.62
384.211	95.62
384.436	100.62
384.662	86.62
384.887	99.62
385.112	101.62
385.337	96.62
385.562	95.62
385.787	112.62
386.013	109.62
386.238	118.62
386.463	104.62
386.688	112.62
386.913	103.62
387.138	101.62
387.363	105.62
387.588	99.62
387.813	95.62
388.038	99.62
388.263	115.62
388.488	100.62
388.713	90.62
388.938	91.62
389.163	91.62
389.387	94.62
389.612	96.62
389.837	98.62
390.062	102.62
390.287	93.62
390.512	98.62
390.736	97.62
390.961	101.62
391.186	95.62
391.411	91.62
391.636	84.62
391.86	86.62
392.085	85.62
392.31	82.62
392.534	82.62
392.759	80.62
392.984	86.62
393.208	100.62
393.433	93.62
393.658	91.62
393.882	81.62
394.107	79.62
394.331	90.62
394.556	77.62
394.78	94.62
395.005	86.62
395.229	80.62
395.454	80.62
395.678	81.62
395.903	85.62
396.127	82.62
396.352	96.62
396.576	93.62
396.801	86.62
397.025	88.62
397.249	86.62
397.474	78.62
397.698	76.62
397.922	77.62
398.147	72.62
398.371	81.62
398.595	79.62
398.82	81.62
399.044	83.62
399.268	67.62
399.492	73.62
399.717	86.62
399.941	94.62
400.165	81.62
400.389	77.62
400.613	86.62
400.837	82.62
401.062	91.62
401.286	81.62
401.51	97.62
401.734	85.62
401.958	98.62
402.182	108.62
402.406	143.62
402.63	98.62
402.854	83.62
403.078	82.62
403.302	98.62
403.526	83.62
403.75	82.62
403.974	88.62
404.198	73.62
404.422	88.62
404.645	84.62
404.869	93.62
405.093	83.62
405.317	97.62
405.541	90.62
405.765	103.62
405.988	108.62
406.212	154.62
406.436	195.62
406.66	120.62
406.883	83.62
407.107	79.62
407.331	109.62
407.555	97.62
407.778	85.62
408.002	72.62
408.226	103.62
408.449	89.62
408.673	94.62
408.896	85.62
409.12	97.62
409.344	90.62
409.567	102.62
409.791	82.62
410.014	81.62
410.238	82.62
410.461	79.62
410.685	95.62
410.908	104.62
411.132	102.62
411.355	85.62
411.578	92.62
411.802	99.62
412.025	84.62
412.249	72.62
412.472	88.62
412.695	94.62
412.919	93.62
413.142	87.62
413.365	78.62
413.589	97.62
413.812	85.62
414.035	95.62
414.258	87.62
414.482	84.62
414.705	100.62
414.928	83.62
415.151	84.62
415.374	99.62
415.597	86.62
415.821	84.62
416.044	92.62
416.267	84.62
416.49	90.62
416.713	83.62
416.936	85.62
417.159	101.62
417.382	65.62
417.605	84.62
417.828	79.62
418.051	86.62
418.274	91.62
418.497	76.62
418.72	81.62
418.943	88.62
419.166	79.62
419.389	82.62
419.611	81.62
419.834	81.62
420.057	80.62
420.28	75.62
420.503	80.62
420.726	80.62
420.948	87.62
421.171	84.62
421.394	82.62
421.617	87.62
421.839	77.62
422.062	89.62
422.285	71.62
422.507	91.62
422.73	102.62
422.953	94.62
423.175	94.62
423.398	80.62
423.621	76.62
423.843	87.62
424.066	88.62
424.288	84.62
424.511	93.62
424.733	106.62
424.956	102.62
425.178	91.62
425.401	84.62
425.623	101.62
425.846	98.62
426.068	78.62
426.291	97.62
426.513	95.62
426.735	86.62
426.958	88.62
427.18	99.62
427.402	135.62
427.625	169.62
427.847	119.62
428.069	101.62
428.292	84.62
428.514	85.62
428.736	84.62
428.958	74.62
429.181	105.62
429.403	93.62
429.625	64.62
429.847	84.62
430.069	103.62
430.292	89.62
430.514	84.62
430.736	84.62
430.958	81.62
431.18	77.62
431.402	92.62
431.624	81.62
431.846	87.62
432.068	86.62
432.29	84.62
432.512	96.62
432.734	86.62
432.956	87.62
433.178	82.62
433.4	87.62
433.622	82.62
433.844	85.62
434.066	88.62
434.287	84.62
434.509	85.62
434.731	77.62
434.953	93.62
435.175	77.62
435.397	93.62
435.618	86.62
435.84	101.62
436.062	98.62
436.284	124.62
436.505	96.62
436.727	89.62
436.949	100.62
437.17	88.62
437.392	97.62
437.614	85.62
437.835	114.62
438.057	103.62
438.278	93.62
438.5	92.62
438.721	108.62
438.943	89.62
439.165	75.62
439.386	80.62
439.608	81.62
439.829	89.62
440.05	105.62
440.272	117.62
440.493	89.62
440.715	87.62
440.936	74.62
441.158	84.62
441.379	89.62
441.6	97.62
441.822	89.62
442.043	101.62
442.264	101.62
442.486	92.62
442.707	88.62
442.928	94.62
443.149	113.62
443.371	122.62
443.592	90.62
443.813	106.62
444.034	108.62
444.255	82.62
444.476	91.62
444.698	84.62
444.919	85.62
445.14	104.62
445.361	103.62
445.582	106.62
445.803	132.62
446.024	123.62
446.245	133.62
446.466	100.62
446.687	96.62
446.908	103.62
447.129	82.62
447.35	83.62
447.571	84.62
447.792	95.62
448.013	95.62
448.234	100.62
448.455	90.62
448.675	90.62
448.896	116.62
449.117	86.62
449.338	89.62
449.559	105.62
449.779	132.62
450	84.62
450.221	91.62
450.442	76.62
450.662	90.62
450.883	96.62
451.104	101.62
451.324	85.62
451.545	85.62
451.766	84.62
451.986	73.62
452.207	88.62
452.428	100.62
452.648	95.62
452.869	101.62
453.089	110.62
453.31	110.62
453.53	99.62
453.751	89.62
453.971	106.62
454.192	103.62
454.412	78.62
454.633	89.62
454.853	96.62
455.073	88.62
455.294	96.62
455.514	93.62
455.734	74.62
455.955	91.62
456.175	80.62
456.395	82.62
456.616	79.62
456.836	81.62
457.056	88.62
457.276	76.62
457.497	76.62
457.717	85.62
457.937	95.62
458.157	76.62
458.377	89.62
458.598	88.62
458.818	129.62
459.038	158.62
459.258	108.62
459.478	90.62
459.698	87.62
459.918	85.62
460.138	87.62
460.358	100.62
460.578	72.62
460.798	80.62
461.018	83.62
461.238	70.62
461.458	79.62
461.678	83.62
461.898	93.62
462.118	66.62
462.338	87.62
462.558	86.62
462.777	84.62
462.997	93.62
463.217	82.62
463.437	102.62
463.657	92.62
463.876	81.62
464.096	98.62
464.316	97.62
464.536	94.62
464.755	86.62
464.975	108.62
465.195	152.62
465.414	140.62
465.634	97.62
465.854	84.62
466.073	97.62
466.293	79.62
466.512	85.62
466.732	82.62
466.951	93.62
467.171	87.62
467.391	105.62
467.61	92.62
467.829	86.62
468.049	78.62
468.268	91.62
468.488	84.62
468.707	79.62
468.927	76.62
469.146	92.62
469.365	76.62
469.585	91.62
469.804	87.62
470.023	84.62
470.243	86.62
470.462	103.62
470.681	100.62
470.901	102.62
471.12	82.62
471.339	88.62
471.558	84.62
471.777	91.62
471.997	96.62
472.216	96.62
472.435	100.62
472.654	83.62
472.873	84.62
473.092	90.62
473.311	89.62
473.53	67.62
473.749	79.62
473.968	81.62
474.187	100.62
474.406	92.62
474.625	85.62
474.844	95.62
475.063	74.62
475.282	85.62
475.501	72.62
475.72	74.62
475.939	84.62
476.158	87.62
476.377	94.62
476.596	88.62
476.814	102.62
477.033	87.62
477.252	82.62
477.471	82.62
477.69	104.62
477.908	87.62
478.127	91.62
478.346	97.62
478.564	91.62
478.783	90.62
479.002	94.62
479.22	85.62
479.439	108.62
479.658	103.62
479.876	83.62
480.095	87.62
480.313	85.62
480.532	96.62
480.751	91.62
480.969	85.62
481.188	94.62
481.406	97.62
481.624	85.62
481.843	86.62
482.061	74.62
482.28	82.62
482.498	81.62
482.717	78.62
482.935	78.62
483.153	89.62
483.372	100.62
483.59	87.62
483.808	88.62
484.027	103.62
484.245	89.62
484.463	73.62
484.681	107.62
484.9	96.62
485.118	79.62
485.336	74.62
485.554	87.62
485.772	99.62
485.99	103.62
486.209	97.62
486.427	101.62
486.645	105.62
486.863	102.62
487.081	86.62
487.299	99.62
487.517	90.62
487.735	88.62
487.953	79.62
488.171	85.62
488.389	101.62
488.607	93.62
488.825	86.62
489.043	78.62
489.261	77.62
489.479	79.62
489.696	94.62
489.914	94.62
490.132	80.62
490.35	89.62
490.568	88.62
490.786	85.62
491.003	93.62
491.221	85.62
491.439	87.62
491.657	82.62
491.874	98.62
492.092	93.62
492.31	89.62
492.527	80.62
492.745	80.62
492.963	83.62
493.18	88.62
493.398	86.62
493.615	102.62
493.833	94.62
494.05	78.62
494.268	84.62
494.485	94.62
494.703	74.62
494.92	96.62
495.138	98.62
495.355	86.62
495.573	87.62
495.79	80.62
496.008	88.62
496.225	89.62
496.442	78.62
496.66	81.62
496.877	89.62
497.094	99.62
497.312	89.62
497.529	89.62
497.746	90.62
497.963	93.62
498.181	77.62
498.398	99.62
498.615	84.62
498.832	91.62
499.049	83.62
499.267	86.62
499.484	88.62
499.701	79.62
499.918	93.62
500.135	85.62
500.352	93.62
500.569	86.62
500.786	93.62
501.003	98.62
501.22	81.62
501.437	97.62
501.654	97.62
501.871	102.62
502.088	85.62
502.305	83.62
502.522	87.62
502.739	92.62
502.956	77.62
503.172	80.62
503.389	81.62
503.606	93.62
503.823	99.62
504.04	95.62
504.256	96.62
504.473	101.62
504.69	89.62
504.907	93.62
505.123	97.62
505.34	88.62
505.557	91.62
505.773	96.62
505.99	89.62
506.207	85.62
506.423	90.62
506.64	97.62
506.856	98.62
507.073	89.62
507.289	88.62
507.506	81.62
507.722	96.62
507.939	104.62
508.155	95.62
508.372	95.62
508.588	90.62
508.805	90.62
509.021	104.62
509.238	85.62
509.454	101.62
509.67	97.62
509.887	88.62
510.103	108.62
510.319	183.62
510.536	721.62
510.752	2144.62
510.968	592.62
511.184	153.62
511.401	108.62
511.617	95.62
511.833	90.62
512.049	94.62
512.265	81.62
512.481	102.62
512.698	105.62
512.914	99.62
513.13	96.62
513.346	84.62
513.562	101.62
513.778	104.62
513.994	90.62
514.21	100.62
514.426	108.62
514.642	136.62
514.858	114.62
515.074	156.62
515.29	427.62
515.506	1315.62
515.721	500.62
515.937	148.62
516.153	117.62
516.369	100.62
516.585	96.62
516.801	98.62
