Data from Uncirc_2001_H10_HRD10591_00075.txt Node
Date: Wed Jan 03 10:44:11 EST 2024
User: Yrep
Spectrometer: HR+D1059
Trigger mode: 1
Integration Time (sec): 1.000000E-1
Scans to average: 1
Electric dark correction enabled: true
Nonlinearity correction enabled: false
Boxcar width: 0
XAxis mode: Wavelengths
Number of Pixels in Spectrum: 2048
>>>>>Begin Spectral Data<<<<<
223.165	-26.62
223.4	-26.62
223.635	-26.62
223.869	-16.62
224.104	-26.62
224.338	-23.62
224.573	-14.62
224.808	-15.62
225.042	-12.62
225.277	-8.62
225.511	0.38
225.746	22.38
225.98	13.38
226.215	17.38
226.449	16.38
226.683	26.38
226.918	21.38
227.152	27.38
227.387	54.38
227.621	32.38
227.856	53.38
228.09	52.38
228.324	59.38
228.559	63.38
228.793	60.38
229.027	51.38
229.262	74.38
229.496	81.38
229.73	74.38
229.964	85.38
230.199	73.38
230.433	79.38
230.667	78.38
230.901	74.38
231.136	73.38
231.37	81.38
231.604	81.38
231.838	75.38
232.072	85.38
232.306	80.38
232.541	85.38
232.775	87.38
233.009	87.38
233.243	90.38
233.477	66.38
233.711	83.38
233.945	83.38
234.179	88.38
234.413	86.38
234.647	81.38
234.881	65.38
235.115	84.38
235.349	90.38
235.583	88.38
235.817	86.38
236.051	91.38
236.285	84.38
236.519	73.38
236.753	86.38
236.987	85.38
237.221	84.38
237.455	94.38
237.689	87.38
237.922	79.38
238.156	77.38
238.39	77.38
238.624	73.38
238.858	73.38
239.091	90.38
239.325	79.38
239.559	74.38
239.793	84.38
240.027	79.38
240.26	76.38
240.494	85.38
240.728	84.38
240.961	79.38
241.195	78.38
241.429	65.38
241.662	81.38
241.896	78.38
242.13	74.38
242.363	82.38
242.597	81.38
242.83	73.38
243.064	82.38
243.298	75.38
243.531	70.38
243.765	86.38
243.998	77.38
244.232	84.38
244.465	80.38
244.699	88.38
244.932	76.38
245.166	74.38
245.399	86.38
245.633	79.38
245.866	81.38
246.099	88.38
246.333	85.38
246.566	77.38
246.8	75.38
247.033	81.38
247.266	78.38
247.5	89.38
247.733	75.38
247.966	80.38
248.2	76.38
248.433	84.38
248.666	71.38
248.899	95.38
249.133	84.38
249.366	96.38
249.599	105.38
249.832	77.38
250.066	79.38
250.299	82.38
250.532	68.38
250.765	71.38
250.998	83.38
251.231	79.38
251.465	73.38
251.698	83.38
251.931	81.38
252.164	77.38
252.397	81.38
252.63	81.38
252.863	71.38
253.096	77.38
253.329	63.38
253.562	62.38
253.795	76.38
254.028	82.38
254.261	83.38
254.494	81.38
254.727	94.38
254.96	86.38
255.193	73.38
255.426	73.38
255.659	78.38
255.892	83.38
256.124	73.38
256.357	78.38
256.59	79.38
256.823	73.38
257.056	73.38
257.289	83.38
257.521	79.38
257.754	83.38
257.987	83.38
258.22	92.38
258.452	90.38
258.685	82.38
258.918	75.38
259.151	93.38
259.383	78.38
259.616	83.38
259.849	67.38
260.081	87.38
260.314	77.38
260.547	93.38
260.779	85.38
261.012	79.38
261.244	79.38
261.477	81.38
261.71	87.38
261.942	98.38
262.175	107.38
262.407	91.38
262.64	88.38
262.872	79.38
263.105	92.38
263.337	74.38
263.57	86.38
263.802	86.38
264.035	86.38
264.267	79.38
264.499	91.38
264.732	89.38
264.964	94.38
265.197	75.38
265.429	90.38
265.661	97.38
265.894	75.38
266.126	99.38
266.358	86.38
266.591	75.38
266.823	98.38
267.055	87.38
267.287	86.38
267.52	85.38
267.752	90.38
267.984	86.38
268.216	87.38
268.448	90.38
268.681	77.38
268.913	93.38
269.145	87.38
269.377	85.38
269.609	89.38
269.841	85.38
270.073	82.38
270.306	84.38
270.538	80.38
270.77	81.38
271.002	87.38
271.234	94.38
271.466	86.38
271.698	93.38
271.93	82.38
272.162	102.38
272.394	83.38
272.626	95.38
272.858	90.38
273.09	87.38
273.322	92.38
273.553	101.38
273.785	94.38
274.017	91.38
274.249	95.38
274.481	91.38
274.713	87.38
274.945	96.38
275.176	97.38
275.408	83.38
275.64	91.38
275.872	82.38
276.104	86.38
276.335	110.38
276.567	111.38
276.799	108.38
277.031	91.38
277.262	92.38
277.494	62.38
277.726	91.38
277.957	83.38
278.189	77.38
278.421	79.38
278.652	81.38
278.884	95.38
279.115	94.38
279.347	83.38
279.579	86.38
279.81	75.38
280.042	82.38
280.273	90.38
280.505	90.38
280.736	76.38
280.968	87.38
281.199	86.38
281.431	84.38
281.662	87.38
281.894	79.38
282.125	98.38
282.356	117.38
282.588	132.38
282.819	116.38
283.051	85.38
283.282	95.38
283.513	101.38
283.745	89.38
283.976	75.38
284.207	90.38
284.439	82.38
284.67	82.38
284.901	93.38
285.132	94.38
285.364	89.38
285.595	97.38
285.826	84.38
286.057	100.38
286.288	93.38
286.52	88.38
286.751	87.38
286.982	82.38
287.213	94.38
287.444	89.38
287.675	84.38
287.906	92.38
288.138	92.38
288.369	97.38
288.6	104.38
288.831	96.38
289.062	91.38
289.293	87.38
289.524	79.38
289.755	97.38
289.986	90.38
290.217	85.38
290.448	65.38
290.679	87.38
290.91	93.38
291.141	103.38
291.371	93.38
291.602	83.38
291.833	85.38
292.064	87.38
292.295	100.38
292.526	90.38
292.757	81.38
292.987	87.38
293.218	79.38
293.449	101.38
293.68	98.38
293.91	90.38
294.141	80.38
294.372	88.38
294.603	100.38
294.833	86.38
295.064	92.38
295.295	90.38
295.525	87.38
295.756	116.38
295.987	118.38
296.217	135.38
296.448	125.38
296.679	99.38
296.909	76.38
297.14	90.38
297.37	101.38
297.601	79.38
297.831	86.38
298.062	76.38
298.292	93.38
298.523	98.38
298.753	92.38
298.984	84.38
299.214	94.38
299.445	104.38
299.675	93.38
299.905	83.38
300.136	99.38
300.366	87.38
300.597	93.38
300.827	88.38
301.057	107.38
301.288	112.38
301.518	90.38
301.748	71.38
301.979	112.38
302.209	106.38
302.439	106.38
302.669	92.38
302.9	92.38
303.13	91.38
303.36	95.38
303.59	98.38
303.82	99.38
304.051	94.38
304.281	95.38
304.511	98.38
304.741	80.38
304.971	87.38
305.201	88.38
305.431	108.38
305.661	95.38
305.891	93.38
306.121	82.38
306.352	99.38
306.582	100.38
306.812	91.38
307.042	84.38
307.272	88.38
307.502	108.38
307.731	86.38
307.961	102.38
308.191	91.38
308.421	97.38
308.651	82.38
308.881	83.38
309.111	92.38
309.341	94.38
309.571	94.38
309.8	94.38
310.03	90.38
310.26	102.38
310.49	101.38
310.72	112.38
310.949	94.38
311.179	96.38
311.409	105.38
311.639	107.38
311.868	103.38
312.098	98.38
312.328	94.38
312.557	110.38
312.787	111.38
313.017	107.38
313.246	106.38
313.476	94.38
313.706	75.38
313.935	90.38
314.165	102.38
314.394	109.38
314.624	89.38
314.853	89.38
315.083	92.38
315.312	82.38
315.542	86.38
315.771	93.38
316.001	85.38
316.23	104.38
316.46	87.38
316.689	89.38
316.919	97.38
317.148	103.38
317.377	100.38
317.607	93.38
317.836	93.38
318.065	87.38
318.295	81.38
318.524	98.38
318.753	91.38
318.983	97.38
319.212	100.38
319.441	107.38
319.67	109.38
319.9	92.38
320.129	102.38
320.358	100.38
320.587	94.38
320.816	79.38
321.046	91.38
321.275	105.38
321.504	97.38
321.733	118.38
321.962	84.38
322.191	102.38
322.42	106.38
322.649	109.38
322.878	107.38
323.108	106.38
323.337	119.38
323.566	146.38
323.795	151.38
324.024	197.38
324.253	381.38
324.482	785.38
324.71	1575.38
324.939	1963.38
325.168	725.38
325.397	235.38
325.626	152.38
325.855	142.38
326.084	116.38
326.313	117.38
326.542	159.38
326.77	220.38
326.999	439.38
327.228	847.38
327.457	1497.38
327.686	1165.38
327.914	332.38
328.143	190.38
328.372	151.38
328.6	113.38
328.829	119.38
329.058	111.38
329.287	121.38
329.515	111.38
329.744	103.38
329.972	103.38
330.201	112.38
330.43	106.38
330.658	133.38
330.887	149.38
331.115	142.38
331.344	111.38
331.572	102.38
331.801	118.38
332.03	109.38
332.258	92.38
332.486	91.38
332.715	91.38
332.943	85.38
333.172	109.38
333.4	96.38
333.629	91.38
333.857	110.38
334.085	98.38
334.314	106.38
334.542	109.38
334.771	95.38
334.999	89.38
335.227	111.38
335.455	85.38
335.684	96.38
335.912	94.38
336.14	101.38
336.369	92.38
336.597	94.38
336.825	102.38
337.053	97.38
337.281	98.38
337.51	89.38
337.738	104.38
337.966	96.38
338.194	111.38
338.422	98.38
338.65	101.38
338.878	88.38
339.106	99.38
339.334	97.38
339.562	82.38
339.79	106.38
340.018	103.38
340.246	91.38
340.474	96.38
340.702	90.38
340.93	100.38
341.158	99.38
341.386	104.38
341.614	100.38
341.842	78.38
342.07	93.38
342.298	86.38
342.526	91.38
342.754	99.38
342.981	85.38
343.209	76.38
343.437	119.38
343.665	94.38
343.893	100.38
344.12	102.38
344.348	94.38
344.576	103.38
344.804	99.38
345.031	106.38
345.259	112.38
345.487	79.38
345.714	88.38
345.942	86.38
346.17	91.38
346.397	94.38
346.625	90.38
346.853	100.38
347.08	75.38
347.308	99.38
347.535	95.38
347.763	99.38
347.99	107.38
348.218	91.38
348.445	97.38
348.673	89.38
348.9	94.38
349.128	101.38
349.355	93.38
349.583	95.38
349.81	85.38
350.037	85.38
350.265	96.38
350.492	94.38
350.72	100.38
350.947	108.38
351.174	125.38
351.402	101.38
351.629	118.38
351.856	100.38
352.083	108.38
352.311	107.38
352.538	109.38
352.765	111.38
352.992	122.38
353.22	124.38
353.447	95.38
353.674	94.38
353.901	100.38
354.128	101.38
354.355	98.38
354.583	86.38
354.81	97.38
355.037	102.38
355.264	90.38
355.491	95.38
355.718	90.38
355.945	90.38
356.172	104.38
356.399	101.38
356.626	79.38
356.853	91.38
357.08	98.38
357.307	101.38
357.534	87.38
357.761	100.38
357.988	91.38
358.215	115.38
358.441	69.38
358.668	95.38
358.895	92.38
359.122	84.38
359.349	103.38
359.576	95.38
359.802	103.38
360.029	118.38
360.256	106.38
360.483	94.38
360.709	103.38
360.936	98.38
361.163	98.38
361.39	80.38
361.616	93.38
361.843	106.38
362.07	102.38
362.296	94.38
362.523	93.38
362.749	102.38
362.976	100.38
363.203	94.38
363.429	88.38
363.656	99.38
363.882	84.38
364.109	97.38
364.335	109.38
364.562	100.38
364.788	96.38
365.015	94.38
365.241	83.38
365.468	105.38
365.694	115.38
365.92	105.38
366.147	98.38
366.373	114.38
366.599	77.38
366.826	89.38
367.052	87.38
367.278	102.38
367.505	86.38
367.731	95.38
367.957	103.38
368.184	95.38
368.41	86.38
368.636	112.38
368.862	122.38
369.089	100.38
369.315	102.38
369.541	93.38
369.767	82.38
369.993	91.38
370.219	87.38
370.445	98.38
370.672	92.38
370.898	83.38
371.124	80.38
371.35	94.38
371.576	113.38
371.802	93.38
372.028	99.38
372.254	77.38
372.48	97.38
372.706	94.38
372.932	82.38
373.158	92.38
373.384	81.38
373.61	95.38
373.835	92.38
374.061	83.38
374.287	101.38
374.513	98.38
374.739	91.38
374.965	87.38
375.191	103.38
375.416	76.38
375.642	106.38
375.868	99.38
376.094	101.38
376.319	86.38
376.545	100.38
376.771	92.38
376.997	103.38
377.222	92.38
377.448	108.38
377.674	84.38
377.899	87.38
378.125	95.38
378.35	95.38
378.576	101.38
378.802	96.38
379.027	89.38
379.253	102.38
379.478	88.38
379.704	90.38
379.929	92.38
380.155	98.38
380.38	102.38
380.606	95.38
380.831	106.38
381.057	100.38
381.282	92.38
381.507	101.38
381.733	88.38
381.958	102.38
382.184	102.38
382.409	115.38
382.634	108.38
382.86	97.38
383.085	92.38
383.31	93.38
383.535	98.38
383.761	103.38
383.986	91.38
384.211	99.38
384.436	110.38
384.662	110.38
384.887	110.38
385.112	95.38
385.337	98.38
385.562	105.38
385.787	104.38
386.013	101.38
386.238	122.38
386.463	113.38
386.688	98.38
386.913	107.38
387.138	111.38
387.363	88.38
387.588	113.38
387.813	95.38
388.038	96.38
388.263	107.38
388.488	98.38
388.713	91.38
388.938	91.38
389.163	99.38
389.387	98.38
389.612	87.38
389.837	86.38
390.062	88.38
390.287	92.38
390.512	98.38
390.736	93.38
390.961	85.38
391.186	100.38
391.411	88.38
391.636	94.38
391.86	108.38
392.085	93.38
392.31	96.38
392.534	86.38
392.759	79.38
392.984	101.38
393.208	101.38
393.433	92.38
393.658	102.38
393.882	94.38
394.107	94.38
394.331	85.38
394.556	77.38
394.78	79.38
395.005	92.38
395.229	88.38
395.454	88.38
395.678	98.38
395.903	90.38
396.127	83.38
396.352	87.38
396.576	81.38
396.801	99.38
397.025	105.38
397.249	83.38
397.474	102.38
397.698	103.38
397.922	82.38
398.147	95.38
398.371	97.38
398.595	92.38
398.82	92.38
399.044	86.38
399.268	83.38
399.492	94.38
399.717	99.38
399.941	86.38
400.165	90.38
400.389	96.38
400.613	89.38
400.837	90.38
401.062	92.38
401.286	95.38
401.51	102.38
401.734	92.38
401.958	99.38
402.182	133.38
402.406	153.38
402.63	121.38
402.854	92.38
403.078	83.38
403.302	90.38
403.526	93.38
403.75	89.38
403.974	90.38
404.198	74.38
404.422	82.38
404.645	100.38
404.869	97.38
405.093	99.38
405.317	94.38
405.541	111.38
405.765	109.38
405.988	134.38
406.212	184.38
406.436	243.38
406.66	146.38
406.883	85.38
407.107	100.38
407.331	97.38
407.555	93.38
407.778	92.38
408.002	86.38
408.226	98.38
408.449	93.38
408.673	100.38
408.896	98.38
409.12	88.38
409.344	86.38
409.567	103.38
409.791	102.38
410.014	106.38
410.238	100.38
410.461	115.38
410.685	97.38
410.908	91.38
411.132	114.38
411.355	105.38
411.578	91.38
411.802	93.38
412.025	87.38
412.249	81.38
412.472	108.38
412.695	93.38
412.919	89.38
413.142	93.38
413.365	93.38
413.589	98.38
413.812	87.38
414.035	87.38
414.258	97.38
414.482	103.38
414.705	98.38
414.928	91.38
415.151	87.38
415.374	102.38
415.597	78.38
415.821	83.38
416.044	81.38
416.267	99.38
416.49	79.38
416.713	91.38
416.936	94.38
417.159	92.38
417.382	97.38
417.605	98.38
417.828	99.38
418.051	91.38
418.274	99.38
418.497	104.38
418.72	88.38
418.943	86.38
419.166	90.38
419.389	103.38
419.611	92.38
419.834	89.38
420.057	91.38
420.28	85.38
420.503	98.38
420.726	100.38
420.948	86.38
421.171	88.38
421.394	91.38
421.617	97.38
421.839	85.38
422.062	93.38
422.285	104.38
422.507	92.38
422.73	106.38
422.953	92.38
423.175	89.38
423.398	80.38
423.621	104.38
423.843	93.38
424.066	79.38
424.288	97.38
424.511	98.38
424.733	102.38
424.956	101.38
425.178	102.38
425.401	105.38
425.623	86.38
425.846	85.38
426.068	88.38
426.291	88.38
426.513	88.38
426.735	97.38
426.958	102.38
427.18	116.38
427.402	148.38
427.625	171.38
427.847	134.38
428.069	97.38
428.292	89.38
428.514	81.38
428.736	93.38
428.958	98.38
429.181	86.38
429.403	96.38
429.625	86.38
429.847	95.38
430.069	91.38
430.292	94.38
430.514	93.38
430.736	87.38
430.958	78.38
431.18	85.38
431.402	94.38
431.624	95.38
431.846	80.38
432.068	74.38
432.29	105.38
432.512	90.38
432.734	90.38
432.956	95.38
433.178	94.38
433.4	99.38
433.622	91.38
433.844	94.38
434.066	105.38
434.287	95.38
434.509	83.38
434.731	99.38
434.953	95.38
435.175	97.38
435.397	93.38
435.618	91.38
435.84	102.38
436.062	133.38
436.284	120.38
436.505	107.38
436.727	109.38
436.949	86.38
437.17	89.38
437.392	91.38
437.614	108.38
437.835	104.38
438.057	120.38
438.278	124.38
438.5	103.38
438.721	111.38
438.943	113.38
439.165	77.38
439.386	94.38
439.608	95.38
439.829	113.38
440.05	113.38
440.272	138.38
440.493	92.38
440.715	89.38
440.936	98.38
441.158	86.38
441.379	94.38
441.6	99.38
441.822	84.38
442.043	77.38
442.264	108.38
442.486	104.38
442.707	93.38
442.928	103.38
443.149	148.38
443.371	136.38
443.592	101.38
443.813	115.38
444.034	102.38
444.255	89.38
444.476	75.38
444.698	95.38
444.919	102.38
445.14	130.38
445.361	131.38
445.582	107.38
445.803	154.38
446.024	138.38
446.245	131.38
446.466	97.38
446.687	83.38
446.908	100.38
447.129	89.38
447.35	97.38
447.571	112.38
447.792	86.38
448.013	90.38
448.234	115.38
448.455	104.38
448.675	98.38
448.896	103.38
449.117	98.38
449.338	90.38
449.559	132.38
449.779	132.38
450	94.38
450.221	89.38
450.442	97.38
450.662	103.38
450.883	105.38
451.104	105.38
451.324	99.38
451.545	97.38
451.766	97.38
451.986	94.38
452.207	99.38
452.428	101.38
452.648	94.38
452.869	125.38
453.089	125.38
453.31	118.38
453.53	98.38
453.751	79.38
453.971	101.38
454.192	116.38
454.412	106.38
454.633	83.38
454.853	94.38
455.073	93.38
455.294	82.38
455.514	82.38
455.734	92.38
455.955	83.38
456.175	88.38
456.395	90.38
456.616	69.38
456.836	91.38
457.056	80.38
457.276	76.38
457.497	88.38
457.717	96.38
457.937	98.38
458.157	85.38
458.377	99.38
458.598	120.38
458.818	153.38
459.038	155.38
459.258	119.38
459.478	94.38
459.698	79.38
459.918	97.38
460.138	85.38
460.358	81.38
460.578	100.38
460.798	76.38
461.018	95.38
461.238	91.38
461.458	95.38
461.678	96.38
461.898	97.38
462.118	84.38
462.338	94.38
462.558	86.38
462.777	86.38
462.997	98.38
463.217	91.38
463.437	76.38
463.657	93.38
463.876	92.38
464.096	88.38
464.316	92.38
464.536	85.38
464.755	93.38
464.975	106.38
465.195	168.38
465.414	165.38
465.634	107.38
465.854	100.38
466.073	94.38
466.293	68.38
466.512	84.38
466.732	81.38
466.951	94.38
467.171	99.38
467.391	96.38
467.61	93.38
467.829	93.38
468.049	101.38
468.268	72.38
468.488	93.38
468.707	72.38
468.927	75.38
469.146	86.38
469.365	86.38
469.585	82.38
469.804	102.38
470.023	87.38
470.243	104.38
470.462	115.38
470.681	107.38
470.901	93.38
471.12	99.38
471.339	87.38
471.558	92.38
471.777	94.38
471.997	88.38
472.216	94.38
472.435	94.38
472.654	88.38
472.873	89.38
473.092	87.38
473.311	98.38
473.53	79.38
473.749	80.38
473.968	101.38
474.187	110.38
474.406	96.38
474.625	83.38
474.844	91.38
475.063	96.38
475.282	91.38
475.501	82.38
475.72	85.38
475.939	84.38
476.158	94.38
476.377	95.38
476.596	98.38
476.814	95.38
477.033	97.38
477.252	83.38
477.471	101.38
477.69	99.38
477.908	95.38
478.127	86.38
478.346	89.38
478.564	102.38
478.783	78.38
479.002	94.38
479.22	97.38
479.439	109.38
479.658	108.38
479.876	100.38
480.095	91.38
480.313	81.38
480.532	98.38
480.751	105.38
480.969	102.38
481.188	107.38
481.406	91.38
481.624	79.38
481.843	92.38
482.061	99.38
482.28	71.38
482.498	86.38
482.717	96.38
482.935	106.38
483.153	98.38
483.372	94.38
483.59	81.38
483.808	90.38
484.027	93.38
484.245	87.38
484.463	86.38
484.681	90.38
484.9	87.38
485.118	101.38
485.336	91.38
485.554	103.38
485.772	98.38
485.99	99.38
486.209	88.38
486.427	114.38
486.645	95.38
486.863	111.38
487.081	104.38
487.299	95.38
487.517	94.38
487.735	95.38
487.953	92.38
488.171	88.38
488.389	101.38
488.607	84.38
488.825	96.38
489.043	93.38
489.261	81.38
489.479	91.38
489.696	95.38
489.914	96.38
490.132	95.38
490.35	89.38
490.568	111.38
490.786	99.38
491.003	88.38
491.221	107.38
491.439	92.38
491.657	110.38
491.874	82.38
492.092	85.38
492.31	88.38
492.527	98.38
492.745	83.38
492.963	94.38
493.18	93.38
493.398	97.38
493.615	95.38
493.833	98.38
494.05	90.38
494.268	91.38
494.485	90.38
494.703	81.38
494.92	78.38
495.138	80.38
495.355	88.38
495.573	101.38
495.79	103.38
496.008	97.38
496.225	94.38
496.442	100.38
496.66	77.38
496.877	92.38
497.094	91.38
497.312	83.38
497.529	84.38
497.746	91.38
497.963	101.38
498.181	89.38
498.398	98.38
498.615	105.38
498.832	95.38
499.049	84.38
499.267	98.38
499.484	92.38
499.701	92.38
499.918	94.38
500.135	93.38
500.352	95.38
500.569	98.38
500.786	99.38
501.003	93.38
501.22	88.38
501.437	97.38
501.654	90.38
501.871	112.38
502.088	102.38
502.305	93.38
502.522	96.38
502.739	88.38
502.956	82.38
503.172	89.38
503.389	94.38
503.606	99.38
503.823	105.38
504.04	103.38
504.256	87.38
504.473	93.38
504.69	101.38
504.907	93.38
505.123	83.38
505.34	103.38
505.557	87.38
505.773	97.38
505.99	74.38
506.207	99.38
506.423	106.38
506.64	102.38
506.856	87.38
507.073	89.38
507.289	89.38
507.506	89.38
507.722	110.38
507.939	103.38
508.155	90.38
508.372	95.38
508.588	93.38
508.805	103.38
509.021	104.38
509.238	101.38
509.454	99.38
509.67	109.38
509.887	114.38
510.103	130.38
510.319	223.38
510.536	815.38
510.752	2545.38
510.968	694.38
511.184	155.38
511.401	107.38
511.617	91.38
511.833	91.38
512.049	101.38
512.265	97.38
512.481	86.38
512.698	93.38
512.914	91.38
513.13	97.38
513.346	85.38
513.562	91.38
513.778	112.38
513.994	97.38
514.21	106.38
514.426	122.38
514.642	134.38
514.858	111.38
