Data from Uncirc_2001_H10_HRD10591_00030.txt Node
Date: Wed Jan 03 10:44:02 EST 2024
User: Yrep
Spectrometer: HR+D1059
Trigger mode: 1
Integration Time (sec): 1.000000E-1
Scans to average: 1
Electric dark correction enabled: true
Nonlinearity correction enabled: false
Boxcar width: 0
XAxis mode: Wavelengths
Number of Pixels in Spectrum: 2048
>>>>>Begin Spectral Data<<<<<
223.165	-19.69
223.4	-19.69
223.635	-19.69
223.869	-24.69
224.104	-14.69
224.338	-18.69
224.573	-15.69
224.808	-5.69
225.042	-1.69
225.277	-1.69
225.511	13.31
225.746	-0.69
225.98	6.31
226.215	10.31
226.449	4.31
226.683	23.31
226.918	11.31
227.152	34.31
227.387	42.31
227.621	29.31
227.856	39.31
228.09	42.31
228.324	45.31
228.559	43.31
228.793	58.31
229.027	53.31
229.262	67.31
229.496	65.31
229.73	71.31
229.964	88.31
230.199	66.31
230.433	71.31
230.667	78.31
230.901	79.31
231.136	79.31
231.37	90.31
231.604	67.31
231.838	89.31
232.072	71.31
232.306	72.31
232.541	85.31
232.775	87.31
233.009	83.31
233.243	87.31
233.477	71.31
233.711	62.31
233.945	85.31
234.179	69.31
234.413	80.31
234.647	73.31
234.881	82.31
235.115	76.31
235.349	68.31
235.583	77.31
235.817	89.31
236.051	63.31
236.285	73.31
236.519	63.31
236.753	62.31
236.987	76.31
237.221	82.31
237.455	82.31
237.689	84.31
237.922	95.31
238.156	87.31
238.39	70.31
238.624	64.31
238.858	87.31
239.091	81.31
239.325	82.31
239.559	75.31
239.793	87.31
240.027	83.31
240.26	71.31
240.494	90.31
240.728	72.31
240.961	76.31
241.195	86.31
241.429	72.31
241.662	69.31
241.896	60.31
242.13	74.31
242.363	77.31
242.597	78.31
242.83	85.31
243.064	70.31
243.298	65.31
243.531	72.31
243.765	63.31
243.998	78.31
244.232	71.31
244.465	80.31
244.699	88.31
244.932	75.31
245.166	82.31
245.399	70.31
245.633	91.31
245.866	82.31
246.099	89.31
246.333	83.31
246.566	89.31
246.8	66.31
247.033	86.31
247.266	92.31
247.5	79.31
247.733	87.31
247.966	82.31
248.2	80.31
248.433	77.31
248.666	89.31
248.899	82.31
249.133	87.31
249.366	88.31
249.599	81.31
249.832	82.31
250.066	87.31
250.299	83.31
250.532	75.31
250.765	78.31
250.998	81.31
251.231	75.31
251.465	82.31
251.698	80.31
251.931	76.31
252.164	73.31
252.397	80.31
252.63	79.31
252.863	76.31
253.096	92.31
253.329	84.31
253.562	77.31
253.795	63.31
254.028	72.31
254.261	78.31
254.494	82.31
254.727	79.31
254.96	72.31
255.193	64.31
255.426	91.31
255.659	95.31
255.892	88.31
256.124	74.31
256.357	80.31
256.59	70.31
256.823	91.31
257.056	93.31
257.289	82.31
257.521	84.31
257.754	85.31
257.987	81.31
258.22	88.31
258.452	79.31
258.685	87.31
258.918	80.31
259.151	90.31
259.383	77.31
259.616	100.31
259.849	69.31
260.081	75.31
260.314	90.31
260.547	86.31
260.779	70.31
261.012	84.31
261.244	86.31
261.477	98.31
261.71	78.31
261.942	97.31
262.175	112.31
262.407	70.31
262.64	83.31
262.872	77.31
263.105	72.31
263.337	80.31
263.57	83.31
263.802	88.31
264.035	75.31
264.267	78.31
264.499	86.31
264.732	89.31
264.964	82.31
265.197	85.31
265.429	91.31
265.661	98.31
265.894	81.31
266.126	79.31
266.358	97.31
266.591	85.31
266.823	84.31
267.055	79.31
267.287	71.31
267.52	82.31
267.752	78.31
267.984	79.31
268.216	76.31
268.448	80.31
268.681	91.31
268.913	81.31
269.145	84.31
269.377	86.31
269.609	100.31
269.841	83.31
270.073	70.31
270.306	102.31
270.538	87.31
270.77	84.31
271.002	83.31
271.234	95.31
271.466	94.31
271.698	86.31
271.93	78.31
272.162	81.31
272.394	96.31
272.626	102.31
272.858	84.31
273.09	92.31
273.322	83.31
273.553	85.31
273.785	91.31
274.017	76.31
274.249	82.31
274.481	71.31
274.713	91.31
274.945	92.31
275.176	83.31
275.408	99.31
275.64	88.31
275.872	74.31
276.104	75.31
276.335	77.31
276.567	94.31
276.799	100.31
277.031	104.31
277.262	95.31
277.494	83.31
277.726	88.31
277.957	80.31
278.189	71.31
278.421	81.31
278.652	91.31
278.884	74.31
279.115	89.31
279.347	79.31
279.579	84.31
279.81	81.31
280.042	77.31
280.273	77.31
280.505	89.31
280.736	86.31
280.968	82.31
281.199	83.31
281.431	81.31
281.662	76.31
281.894	98.31
282.125	89.31
282.356	114.31
282.588	138.31
282.819	115.31
283.051	85.31
283.282	87.31
283.513	91.31
283.745	85.31
283.976	73.31
284.207	73.31
284.439	87.31
284.67	83.31
284.901	86.31
285.132	90.31
285.364	90.31
285.595	89.31
285.826	74.31
286.057	100.31
286.288	87.31
286.52	84.31
286.751	73.31
286.982	81.31
287.213	90.31
287.444	84.31
287.675	87.31
287.906	84.31
288.138	85.31
288.369	82.31
288.6	73.31
288.831	95.31
289.062	83.31
289.293	97.31
289.524	87.31
289.755	84.31
289.986	89.31
290.217	87.31
290.448	74.31
290.679	87.31
290.91	92.31
291.141	76.31
291.371	89.31
291.602	68.31
291.833	87.31
292.064	73.31
292.295	78.31
292.526	83.31
292.757	89.31
292.987	82.31
293.218	83.31
293.449	89.31
293.68	90.31
293.91	81.31
294.141	81.31
294.372	82.31
294.603	70.31
294.833	79.31
295.064	96.31
295.295	91.31
295.525	96.31
295.756	98.31
295.987	116.31
296.217	119.31
296.448	112.31
296.679	90.31
296.909	94.31
297.14	83.31
297.37	91.31
297.601	90.31
297.831	96.31
298.062	86.31
298.292	91.31
298.523	85.31
298.753	88.31
298.984	90.31
299.214	86.31
299.445	90.31
299.675	78.31
299.905	90.31
300.136	81.31
300.366	86.31
300.597	74.31
300.827	89.31
301.057	82.31
301.288	104.31
301.518	92.31
301.748	95.31
301.979	100.31
302.209	81.31
302.439	82.31
302.669	93.31
302.9	96.31
303.13	83.31
303.36	88.31
303.59	91.31
303.82	88.31
304.051	94.31
304.281	96.31
304.511	87.31
304.741	87.31
304.971	89.31
305.201	93.31
305.431	87.31
305.661	83.31
305.891	91.31
306.121	98.31
306.352	94.31
306.582	102.31
306.812	96.31
307.042	103.31
307.272	80.31
307.502	79.31
307.731	91.31
307.961	92.31
308.191	78.31
308.421	76.31
308.651	98.31
308.881	90.31
309.111	90.31
309.341	92.31
309.571	106.31
309.8	106.31
310.03	87.31
310.26	82.31
310.49	90.31
310.72	93.31
310.949	115.31
311.179	108.31
311.409	95.31
311.639	95.31
311.868	92.31
312.098	86.31
312.328	96.31
312.557	101.31
312.787	102.31
313.017	88.31
313.246	88.31
313.476	84.31
313.706	83.31
313.935	85.31
314.165	93.31
314.394	98.31
314.624	104.31
314.853	95.31
315.083	108.31
315.312	84.31
315.542	98.31
315.771	94.31
316.001	83.31
316.23	89.31
316.46	82.31
316.689	91.31
316.919	89.31
317.148	82.31
317.377	97.31
317.607	97.31
317.836	92.31
318.065	79.31
318.295	86.31
318.524	91.31
318.753	97.31
318.983	83.31
319.212	82.31
319.441	108.31
319.67	103.31
319.9	85.31
320.129	84.31
320.358	98.31
320.587	92.31
320.816	92.31
321.046	92.31
321.275	97.31
321.504	87.31
321.733	98.31
321.962	95.31
322.191	102.31
322.42	103.31
322.649	108.31
322.878	102.31
323.108	103.31
323.337	127.31
323.566	127.31
323.795	155.31
324.024	191.31
324.253	323.31
324.482	707.31
324.71	1378.31
324.939	1745.31
325.168	664.31
325.397	207.31
325.626	138.31
325.855	114.31
326.084	129.31
326.313	119.31
326.542	144.31
326.77	188.31
326.999	374.31
327.228	768.31
327.457	1371.31
327.686	1038.31
327.914	310.31
328.143	180.31
328.372	128.31
328.6	126.31
328.829	108.31
329.058	131.31
329.287	123.31
329.515	97.31
329.744	95.31
329.972	88.31
330.201	95.31
330.43	108.31
330.658	118.31
330.887	139.31
331.115	119.31
331.344	111.31
331.572	92.31
331.801	90.31
332.03	91.31
332.258	94.31
332.486	87.31
332.715	82.31
332.943	92.31
333.172	92.31
333.4	100.31
333.629	108.31
333.857	114.31
334.085	98.31
334.314	106.31
334.542	98.31
334.771	98.31
334.999	100.31
335.227	97.31
335.455	102.31
335.684	108.31
335.912	87.31
336.14	113.31
336.369	105.31
336.597	95.31
336.825	101.31
337.053	90.31
337.281	95.31
337.51	86.31
337.738	89.31
337.966	96.31
338.194	73.31
338.422	88.31
338.65	89.31
338.878	106.31
339.106	89.31
339.334	87.31
339.562	105.31
339.79	90.31
340.018	81.31
340.246	89.31
340.474	87.31
340.702	82.31
340.93	88.31
341.158	88.31
341.386	90.31
341.614	95.31
341.842	94.31
342.07	73.31
342.298	89.31
342.526	92.31
342.754	92.31
342.981	96.31
343.209	84.31
343.437	97.31
343.665	89.31
343.893	94.31
344.12	98.31
344.348	90.31
344.576	87.31
344.804	99.31
345.031	95.31
345.259	104.31
345.487	91.31
345.714	83.31
345.942	91.31
346.17	90.31
346.397	88.31
346.625	99.31
346.853	102.31
347.08	89.31
347.308	96.31
347.535	106.31
347.763	93.31
347.99	100.31
348.218	102.31
348.445	116.31
348.673	112.31
348.9	106.31
349.128	101.31
349.355	83.31
349.583	101.31
349.81	86.31
350.037	88.31
350.265	93.31
350.492	106.31
350.72	97.31
350.947	84.31
351.174	103.31
351.402	123.31
351.629	107.31
351.856	95.31
352.083	94.31
352.311	89.31
352.538	104.31
352.765	96.31
352.992	108.31
353.22	104.31
353.447	103.31
353.674	98.31
353.901	83.31
354.128	87.31
354.355	97.31
354.583	96.31
354.81	106.31
355.037	80.31
355.264	88.31
355.491	88.31
355.718	86.31
355.945	101.31
356.172	88.31
356.399	92.31
356.626	88.31
356.853	95.31
357.08	98.31
357.307	89.31
357.534	86.31
357.761	83.31
357.988	96.31
358.215	91.31
358.441	88.31
358.668	107.31
358.895	90.31
359.122	84.31
359.349	91.31
359.576	91.31
359.802	91.31
360.029	104.31
360.256	112.31
360.483	95.31
360.709	91.31
360.936	97.31
361.163	96.31
361.39	97.31
361.616	87.31
361.843	90.31
362.07	97.31
362.296	84.31
362.523	78.31
362.749	88.31
362.976	84.31
363.203	90.31
363.429	89.31
363.656	81.31
363.882	77.31
364.109	84.31
364.335	102.31
364.562	100.31
364.788	67.31
365.015	95.31
365.241	99.31
365.468	114.31
365.694	109.31
365.92	97.31
366.147	98.31
366.373	72.31
366.599	88.31
366.826	87.31
367.052	84.31
367.278	94.31
367.505	87.31
367.731	74.31
367.957	90.31
368.184	92.31
368.41	102.31
368.636	116.31
368.862	115.31
369.089	102.31
369.315	90.31
369.541	88.31
369.767	76.31
369.993	91.31
370.219	79.31
370.445	99.31
370.672	76.31
370.898	76.31
371.124	89.31
371.35	76.31
371.576	84.31
371.802	88.31
372.028	92.31
372.254	114.31
372.48	90.31
372.706	85.31
372.932	88.31
373.158	82.31
373.384	75.31
373.61	80.31
373.835	93.31
374.061	97.31
374.287	95.31
374.513	92.31
374.739	95.31
374.965	91.31
375.191	65.31
375.416	78.31
375.642	72.31
375.868	87.31
376.094	86.31
376.319	95.31
376.545	75.31
376.771	96.31
376.997	89.31
377.222	100.31
377.448	98.31
377.674	84.31
377.899	90.31
378.125	75.31
378.35	99.31
378.576	76.31
378.802	91.31
379.027	80.31
379.253	92.31
379.478	95.31
379.704	88.31
379.929	87.31
380.155	104.31
380.38	80.31
380.606	91.31
380.831	91.31
381.057	99.31
381.282	89.31
381.507	98.31
381.733	107.31
381.958	87.31
382.184	91.31
382.409	101.31
382.634	91.31
382.86	100.31
383.085	96.31
383.31	100.31
383.535	113.31
383.761	111.31
383.986	104.31
384.211	112.31
384.436	98.31
384.662	109.31
384.887	102.31
385.112	95.31
385.337	99.31
385.562	120.31
385.787	103.31
386.013	96.31
386.238	100.31
386.463	89.31
386.688	104.31
386.913	97.31
387.138	112.31
387.363	76.31
387.588	104.31
387.813	95.31
388.038	104.31
388.263	104.31
388.488	101.31
388.713	87.31
388.938	101.31
389.163	99.31
389.387	97.31
389.612	95.31
389.837	87.31
390.062	99.31
390.287	96.31
390.512	93.31
390.736	87.31
390.961	89.31
391.186	87.31
391.411	82.31
391.636	79.31
391.86	75.31
392.085	71.31
392.31	86.31
392.534	88.31
392.759	99.31
392.984	87.31
393.208	83.31
393.433	110.31
393.658	90.31
393.882	75.31
394.107	97.31
394.331	80.31
394.556	92.31
394.78	79.31
395.005	84.31
395.229	93.31
395.454	80.31
395.678	83.31
395.903	88.31
396.127	82.31
396.352	83.31
396.576	80.31
396.801	92.31
397.025	90.31
397.249	89.31
397.474	77.31
397.698	90.31
397.922	86.31
398.147	80.31
398.371	89.31
398.595	87.31
398.82	88.31
399.044	89.31
399.268	87.31
399.492	72.31
399.717	75.31
399.941	90.31
400.165	99.31
400.389	87.31
400.613	98.31
400.837	79.31
401.062	79.31
401.286	90.31
401.51	91.31
401.734	90.31
401.958	108.31
402.182	127.31
402.406	144.31
402.63	105.31
402.854	99.31
403.078	84.31
403.302	80.31
403.526	95.31
403.75	80.31
403.974	95.31
404.198	87.31
404.422	87.31
404.645	76.31
404.869	81.31
405.093	95.31
405.317	89.31
405.541	89.31
405.765	91.31
405.988	126.31
406.212	160.31
406.436	205.31
406.66	141.31
406.883	111.31
407.107	93.31
407.331	94.31
407.555	104.31
407.778	95.31
408.002	90.31
408.226	83.31
408.449	81.31
408.673	90.31
408.896	85.31
409.12	96.31
409.344	95.31
409.567	85.31
409.791	87.31
410.014	86.31
410.238	93.31
410.461	96.31
410.685	98.31
410.908	86.31
411.132	102.31
411.355	92.31
411.578	100.31
411.802	89.31
412.025	96.31
412.249	83.31
412.472	94.31
412.695	84.31
412.919	90.31
413.142	81.31
413.365	92.31
413.589	86.31
413.812	94.31
414.035	106.31
414.258	96.31
414.482	93.31
414.705	82.31
414.928	92.31
415.151	104.31
415.374	98.31
415.597	96.31
415.821	91.31
416.044	87.31
416.267	73.31
416.49	84.31
416.713	82.31
416.936	90.31
417.159	69.31
417.382	87.31
417.605	81.31
417.828	91.31
418.051	89.31
418.274	78.31
418.497	95.31
418.72	89.31
418.943	86.31
419.166	81.31
419.389	93.31
419.611	77.31
419.834	81.31
420.057	100.31
420.28	75.31
420.503	87.31
420.726	88.31
420.948	87.31
421.171	95.31
421.394	89.31
421.617	100.31
421.839	72.31
422.062	98.31
422.285	71.31
422.507	102.31
422.73	106.31
422.953	91.31
423.175	92.31
423.398	99.31
423.621	75.31
423.843	83.31
424.066	82.31
424.288	86.31
424.511	87.31
424.733	88.31
424.956	102.31
425.178	95.31
425.401	97.31
425.623	93.31
425.846	91.31
426.068	84.31
426.291	74.31
426.513	93.31
426.735	90.31
426.958	82.31
427.18	87.31
427.402	110.31
427.625	149.31
427.847	112.31
428.069	97.31
428.292	86.31
428.514	98.31
428.736	82.31
428.958	71.31
429.181	92.31
429.403	87.31
429.625	83.31
429.847	92.31
430.069	102.31
430.292	85.31
430.514	78.31
430.736	86.31
430.958	88.31
431.18	95.31
431.402	89.31
431.624	87.31
431.846	100.31
432.068	103.31
432.29	85.31
432.512	82.31
432.734	90.31
432.956	91.31
433.178	95.31
433.4	100.31
433.622	82.31
433.844	83.31
434.066	83.31
434.287	87.31
434.509	90.31
434.731	90.31
434.953	72.31
435.175	80.31
435.397	85.31
435.618	79.31
435.84	86.31
436.062	115.31
436.284	110.31
436.505	94.31
436.727	78.31
436.949	98.31
437.17	95.31
437.392	81.31
437.614	85.31
437.835	97.31
438.057	112.31
438.278	105.31
438.5	97.31
438.721	118.31
438.943	94.31
439.165	74.31
439.386	102.31
439.608	101.31
439.829	95.31
440.05	105.31
440.272	138.31
440.493	98.31
440.715	79.31
440.936	83.31
441.158	82.31
441.379	99.31
441.6	102.31
441.822	89.31
442.043	87.31
442.264	105.31
442.486	92.31
442.707	75.31
442.928	102.31
443.149	110.31
443.371	131.31
443.592	107.31
443.813	91.31
444.034	110.31
444.255	96.31
444.476	81.31
444.698	90.31
444.919	83.31
445.14	118.31
445.361	119.31
445.582	102.31
445.803	118.31
446.024	132.31
446.245	124.31
446.466	98.31
446.687	89.31
446.908	92.31
447.129	91.31
447.35	71.31
447.571	92.31
447.792	85.31
448.013	91.31
448.234	111.31
448.455	88.31
448.675	119.31
448.896	104.31
449.117	94.31
449.338	102.31
449.559	111.31
449.779	114.31
450	92.31
450.221	84.31
450.442	84.31
450.662	91.31
450.883	96.31
451.104	102.31
451.324	103.31
451.545	94.31
451.766	97.31
451.986	96.31
452.207	86.31
452.428	87.31
452.648	95.31
452.869	108.31
453.089	105.31
453.31	115.31
453.53	98.31
453.751	95.31
453.971	96.31
454.192	88.31
454.412	97.31
454.633	74.31
454.853	79.31
455.073	80.31
455.294	101.31
455.514	102.31
455.734	76.31
455.955	75.31
456.175	76.31
456.395	60.31
456.616	76.31
456.836	77.31
457.056	84.31
457.276	81.31
457.497	87.31
457.717	105.31
457.937	87.31
458.157	82.31
458.377	104.31
458.598	112.31
458.818	120.31
459.038	139.31
459.258	99.31
459.478	86.31
459.698	89.31
459.918	92.31
460.138	93.31
460.358	63.31
460.578	77.31
460.798	95.31
461.018	81.31
461.238	78.31
461.458	81.31
461.678	75.31
461.898	85.31
462.118	80.31
462.338	78.31
462.558	85.31
462.777	68.31
462.997	83.31
463.217	84.31
463.437	79.31
463.657	86.31
463.876	89.31
464.096	92.31
464.316	78.31
464.536	78.31
464.755	87.31
464.975	100.31
465.195	150.31
465.414	156.31
465.634	103.31
465.854	83.31
466.073	86.31
466.293	86.31
466.512	82.31
466.732	83.31
466.951	85.31
467.171	79.31
467.391	91.31
467.61	108.31
467.829	97.31
468.049	78.31
468.268	79.31
468.488	97.31
468.707	78.31
468.927	77.31
469.146	78.31
469.365	77.31
469.585	101.31
469.804	89.31
470.023	97.31
470.243	92.31
470.462	98.31
470.681	126.31
470.901	95.31
471.12	95.31
471.339	90.31
471.558	87.31
471.777	84.31
471.997	74.31
472.216	81.31
472.435	88.31
472.654	79.31
472.873	79.31
473.092	87.31
473.311	77.31
473.53	85.31
473.749	82.31
473.968	89.31
474.187	81.31
474.406	84.31
474.625	92.31
474.844	79.31
475.063	82.31
475.282	81.31
475.501	87.31
475.72	83.31
475.939	86.31
476.158	86.31
476.377	83.31
476.596	82.31
476.814	98.31
477.033	92.31
477.252	85.31
477.471	74.31
477.69	91.31
477.908	80.31
478.127	75.31
478.346	76.31
478.564	96.31
478.783	84.31
479.002	87.31
479.22	95.31
479.439	106.31
479.658	92.31
479.876	95.31
480.095	95.31
480.313	82.31
480.532	91.31
480.751	85.31
480.969	72.31
481.188	88.31
481.406	99.31
481.624	92.31
481.843	80.31
482.061	84.31
482.28	91.31
482.498	86.31
482.717	84.31
482.935	90.31
483.153	83.31
483.372	80.31
483.59	88.31
483.808	95.31
484.027	86.31
484.245	88.31
484.463	94.31
484.681	93.31
484.9	85.31
485.118	84.31
485.336	81.31
485.554	89.31
485.772	89.31
485.99	103.31
486.209	98.31
486.427	88.31
486.645	107.31
486.863	99.31
487.081	81.31
487.299	104.31
487.517	91.31
487.735	69.31
487.953	88.31
488.171	94.31
488.389	87.31
488.607	101.31
488.825	101.31
489.043	98.31
489.261	79.31
489.479	78.31
489.696	68.31
489.914	86.31
490.132	82.31
490.35	92.31
490.568	80.31
490.786	84.31
491.003	82.31
491.221	94.31
491.439	80.31
491.657	82.31
491.874	94.31
492.092	77.31
492.31	94.31
492.527	96.31
492.745	89.31
492.963	86.31
493.18	92.31
493.398	91.31
493.615	86.31
493.833	98.31
494.05	88.31
494.268	81.31
494.485	97.31
494.703	78.31
494.92	92.31
495.138	83.31
495.355	74.31
495.573	81.31
495.79	90.31
496.008	100.31
496.225	87.31
496.442	98.31
496.66	85.31
496.877	87.31
497.094	103.31
497.312	99.31
497.529	81.31
497.746	81.31
497.963	88.31
498.181	97.31
498.398	98.31
498.615	101.31
498.832	101.31
499.049	87.31
499.267	92.31
499.484	89.31
499.701	89.31
499.918	107.31
500.135	87.31
500.352	84.31
500.569	96.31
500.786	79.31
501.003	94.31
501.22	84.31
501.437	79.31
501.654	80.31
501.871	108.31
502.088	89.31
502.305	90.31
502.522	85.31
502.739	102.31
502.956	95.31
503.172	86.31
503.389	83.31
503.606	106.31
503.823	89.31
504.04	85.31
504.256	86.31
504.473	89.31
504.69	84.31
504.907	101.31
505.123	102.31
505.34	89.31
505.557	84.31
505.773	95.31
505.99	85.31
506.207	93.31
506.423	77.31
506.64	79.31
506.856	86.31
507.073	97.31
507.289	84.31
507.506	94.31
507.722	112.31
507.939	110.31
508.155	91.31
508.372	84.31
508.588	90.31
508.805	107.31
509.021	101.31
509.238	95.31
509.454	78.31
509.67	103.31
509.887	115.31
510.103	131.31
510.319	197.31
510.536	719.31
510.752	2208.31
510.968	611.31
511.184	160.31
511.401	120.31
511.617	96.31
511.833	85.31
512.049	97.31
512.265	94.31
512.481	102.31
512.698	97.31
512.914	94.31
513.13	98.31
513.346	84.31
513.562	84.31
513.778	82.31
513.994	94.31
514.21	96.31
514.426	113.31
514.642	137.31
514.858	111.31
515.074	144.31
515.29	425.31
515.506	1341.31
515.721	495.31
515.937	139.31
516.153	110.31
516.369	110.31
516.585	79.31
