Data from Uncirc_2001_H10_HRD10591_00080.txt Node
Date: Wed Jan 03 10:44:12 EST 2024
User: Yrep
Spectrometer: HR+D1059
Trigger mode: 1
Integration Time (sec): 1.000000E-1
Scans to average: 1
Electric dark correction enabled: true
Nonlinearity correction enabled: false
Boxcar width: 0
XAxis mode: Wavelengths
Number of Pixels in Spectrum: 2048
>>>>>Begin Spectral Data<<<<<
223.165	-14.31
223.4	-14.31
223.635	-14.31
223.869	-21.31
224.104	-15.31
224.338	-10.31
224.573	-5.31
224.808	-13.31
225.042	-2.31
225.277	6.69
225.511	-16.31
225.746	-1.31
225.98	-0.31
226.215	5.69
226.449	15.69
226.683	25.69
226.918	21.69
227.152	24.69
227.387	39.69
227.621	37.69
227.856	52.69
228.09	50.69
228.324	66.69
228.559	56.69
228.793	55.69
229.027	68.69
229.262	67.69
229.496	79.69
229.73	87.69
229.964	78.69
230.199	78.69
230.433	82.69
230.667	85.69
230.901	81.69
231.136	82.69
231.37	85.69
231.604	79.69
231.838	72.69
232.072	83.69
232.306	74.69
232.541	68.69
232.775	98.69
233.009	91.69
233.243	74.69
233.477	86.69
233.711	86.69
233.945	83.69
234.179	81.69
234.413	81.69
234.647	89.69
234.881	73.69
235.115	88.69
235.349	74.69
235.583	89.69
235.817	77.69
236.051	75.69
236.285	77.69
236.519	82.69
236.753	86.69
236.987	77.69
237.221	82.69
237.455	92.69
237.689	89.69
237.922	87.69
238.156	71.69
238.39	75.69
238.624	63.69
238.858	85.69
239.091	76.69
239.325	76.69
239.559	75.69
239.793	82.69
240.027	75.69
240.26	68.69
240.494	87.69
240.728	79.69
240.961	94.69
241.195	87.69
241.429	85.69
241.662	76.69
241.896	76.69
242.13	75.69
242.363	76.69
242.597	81.69
242.83	83.69
243.064	70.69
243.298	81.69
243.531	82.69
243.765	80.69
243.998	88.69
244.232	84.69
244.465	97.69
244.699	81.69
244.932	60.69
245.166	74.69
245.399	80.69
245.633	84.69
245.866	85.69
246.099	68.69
246.333	83.69
246.566	65.69
246.8	91.69
247.033	80.69
247.266	89.69
247.5	77.69
247.733	81.69
247.966	72.69
248.2	67.69
248.433	79.69
248.666	90.69
248.899	76.69
249.133	73.69
249.366	100.69
249.599	95.69
249.832	77.69
250.066	78.69
250.299	92.69
250.532	82.69
250.765	89.69
250.998	83.69
251.231	79.69
251.465	77.69
251.698	75.69
251.931	77.69
252.164	82.69
252.397	75.69
252.63	84.69
252.863	92.69
253.096	86.69
253.329	76.69
253.562	84.69
253.795	81.69
254.028	90.69
254.261	76.69
254.494	80.69
254.727	81.69
254.96	68.69
255.193	80.69
255.426	79.69
255.659	74.69
255.892	81.69
256.124	89.69
256.357	74.69
256.59	84.69
256.823	74.69
257.056	82.69
257.289	72.69
257.521	83.69
257.754	85.69
257.987	74.69
258.22	89.69
258.452	90.69
258.685	88.69
258.918	76.69
259.151	69.69
259.383	82.69
259.616	93.69
259.849	82.69
260.081	75.69
260.314	91.69
260.547	93.69
260.779	77.69
261.012	81.69
261.244	83.69
261.477	88.69
261.71	88.69
261.942	95.69
262.175	116.69
262.407	92.69
262.64	99.69
262.872	81.69
263.105	74.69
263.337	77.69
263.57	95.69
263.802	89.69
264.035	87.69
264.267	81.69
264.499	85.69
264.732	83.69
264.964	86.69
265.197	83.69
265.429	82.69
265.661	98.69
265.894	71.69
266.126	97.69
266.358	78.69
266.591	85.69
266.823	85.69
267.055	94.69
267.287	89.69
267.52	75.69
267.752	94.69
267.984	106.69
268.216	92.69
268.448	83.69
268.681	78.69
268.913	94.69
269.145	84.69
269.377	82.69
269.609	95.69
269.841	87.69
270.073	86.69
270.306	88.69
270.538	86.69
270.77	75.69
271.002	88.69
271.234	86.69
271.466	74.69
271.698	76.69
271.93	93.69
272.162	99.69
272.394	96.69
272.626	80.69
272.858	88.69
273.09	88.69
273.322	93.69
273.553	81.69
273.785	83.69
274.017	110.69
274.249	85.69
274.481	93.69
274.713	85.69
274.945	84.69
275.176	99.69
275.408	93.69
275.64	88.69
275.872	74.69
276.104	86.69
276.335	89.69
276.567	106.69
276.799	104.69
277.031	106.69
277.262	97.69
277.494	89.69
277.726	83.69
277.957	91.69
278.189	88.69
278.421	89.69
278.652	86.69
278.884	85.69
279.115	88.69
279.347	91.69
279.579	80.69
279.81	81.69
280.042	78.69
280.273	85.69
280.505	92.69
280.736	90.69
280.968	81.69
281.199	99.69
281.431	100.69
281.662	91.69
281.894	73.69
282.125	102.69
282.356	113.69
282.588	156.69
282.819	112.69
283.051	93.69
283.282	91.69
283.513	103.69
283.745	79.69
283.976	93.69
284.207	74.69
284.439	71.69
284.67	100.69
284.901	83.69
285.132	98.69
285.364	91.69
285.595	97.69
285.826	82.69
286.057	77.69
286.288	83.69
286.52	99.69
286.751	73.69
286.982	77.69
287.213	79.69
287.444	98.69
287.675	91.69
287.906	83.69
288.138	80.69
288.369	88.69
288.6	73.69
288.831	91.69
289.062	101.69
289.293	96.69
289.524	99.69
289.755	77.69
289.986	82.69
290.217	93.69
290.448	99.69
290.679	82.69
290.91	101.69
291.141	78.69
291.371	90.69
291.602	92.69
291.833	95.69
292.064	71.69
292.295	75.69
292.526	94.69
292.757	94.69
292.987	88.69
293.218	89.69
293.449	94.69
293.68	81.69
293.91	106.69
294.141	96.69
294.372	80.69
294.603	104.69
294.833	100.69
295.064	92.69
295.295	95.69
295.525	108.69
295.756	88.69
295.987	109.69
296.217	131.69
296.448	118.69
296.679	100.69
296.909	106.69
297.14	95.69
297.37	90.69
297.601	90.69
297.831	75.69
298.062	103.69
298.292	90.69
298.523	91.69
298.753	86.69
298.984	94.69
299.214	87.69
299.445	106.69
299.675	102.69
299.905	94.69
300.136	97.69
300.366	84.69
300.597	89.69
300.827	79.69
301.057	103.69
301.288	101.69
301.518	90.69
301.748	92.69
301.979	95.69
302.209	94.69
302.439	95.69
302.669	78.69
302.9	85.69
303.13	97.69
303.36	90.69
303.59	93.69
303.82	87.69
304.051	105.69
304.281	86.69
304.511	93.69
304.741	82.69
304.971	83.69
305.201	103.69
305.431	87.69
305.661	87.69
305.891	81.69
306.121	96.69
306.352	107.69
306.582	99.69
306.812	97.69
307.042	100.69
307.272	97.69
307.502	98.69
307.731	95.69
307.961	95.69
308.191	96.69
308.421	91.69
308.651	95.69
308.881	76.69
309.111	87.69
309.341	91.69
309.571	103.69
309.8	92.69
310.03	93.69
310.26	117.69
310.49	99.69
310.72	102.69
310.949	95.69
311.179	98.69
311.409	102.69
311.639	100.69
311.868	92.69
312.098	95.69
312.328	80.69
312.557	113.69
312.787	114.69
313.017	100.69
313.246	104.69
313.476	89.69
313.706	110.69
313.935	98.69
314.165	101.69
314.394	105.69
314.624	100.69
314.853	100.69
315.083	84.69
315.312	86.69
315.542	86.69
315.771	90.69
316.001	91.69
316.23	98.69
316.46	82.69
316.689	70.69
316.919	91.69
317.148	102.69
317.377	101.69
317.607	96.69
317.836	99.69
318.065	85.69
318.295	86.69
318.524	91.69
318.753	91.69
318.983	90.69
319.212	95.69
319.441	104.69
319.67	89.69
319.9	94.69
320.129	92.69
320.358	96.69
320.587	94.69
320.816	124.69
321.046	106.69
321.275	95.69
321.504	102.69
321.733	106.69
321.962	90.69
322.191	103.69
322.42	116.69
322.649	93.69
322.878	104.69
323.108	99.69
323.337	114.69
323.566	132.69
323.795	145.69
324.024	197.69
324.253	377.69
324.482	762.69
324.71	1509.69
324.939	1918.69
325.168	725.69
325.397	243.69
325.626	153.69
325.855	118.69
326.084	120.69
326.313	126.69
326.542	159.69
326.77	217.69
326.999	414.69
327.228	839.69
327.457	1498.69
327.686	1144.69
327.914	342.69
328.143	177.69
328.372	138.69
328.6	123.69
328.829	117.69
329.058	114.69
329.287	119.69
329.515	115.69
329.744	109.69
329.972	85.69
330.201	97.69
330.43	115.69
330.658	120.69
330.887	153.69
331.115	123.69
331.344	115.69
331.572	100.69
331.801	104.69
332.03	77.69
332.258	89.69
332.486	93.69
332.715	97.69
332.943	103.69
333.172	86.69
333.4	95.69
333.629	110.69
333.857	122.69
334.085	110.69
334.314	102.69
334.542	116.69
334.771	105.69
334.999	98.69
335.227	89.69
335.455	92.69
335.684	99.69
335.912	90.69
336.14	94.69
336.369	106.69
336.597	88.69
336.825	87.69
337.053	100.69
337.281	102.69
337.51	101.69
337.738	83.69
337.966	90.69
338.194	95.69
338.422	91.69
338.65	92.69
338.878	95.69
339.106	101.69
339.334	108.69
339.562	91.69
339.79	94.69
340.018	68.69
340.246	96.69
340.474	82.69
340.702	95.69
340.93	80.69
341.158	100.69
341.386	93.69
341.614	87.69
341.842	83.69
342.07	110.69
342.298	100.69
342.526	91.69
342.754	90.69
342.981	87.69
343.209	99.69
343.437	101.69
343.665	103.69
343.893	105.69
344.12	79.69
344.348	81.69
344.576	83.69
344.804	84.69
345.031	113.69
345.259	105.69
345.487	101.69
345.714	95.69
345.942	103.69
346.17	90.69
346.397	90.69
346.625	103.69
346.853	101.69
347.08	84.69
347.308	105.69
347.535	103.69
347.763	95.69
347.99	95.69
348.218	110.69
348.445	115.69
348.673	99.69
348.9	99.69
349.128	90.69
349.355	92.69
349.583	89.69
349.81	99.69
350.037	95.69
350.265	87.69
350.492	85.69
350.72	94.69
350.947	107.69
351.174	101.69
351.402	95.69
351.629	101.69
351.856	121.69
352.083	115.69
352.311	103.69
352.538	109.69
352.765	116.69
352.992	102.69
353.22	107.69
353.447	107.69
353.674	95.69
353.901	101.69
354.128	96.69
354.355	86.69
354.583	108.69
354.81	100.69
355.037	90.69
355.264	104.69
355.491	101.69
355.718	90.69
355.945	106.69
356.172	85.69
356.399	77.69
356.626	88.69
356.853	96.69
357.08	92.69
357.307	98.69
357.534	103.69
357.761	95.69
357.988	97.69
358.215	100.69
358.441	94.69
358.668	90.69
358.895	88.69
359.122	83.69
359.349	101.69
359.576	101.69
359.802	104.69
360.029	98.69
360.256	120.69
360.483	111.69
360.709	96.69
360.936	101.69
361.163	99.69
361.39	89.69
361.616	96.69
361.843	82.69
362.07	92.69
362.296	86.69
362.523	88.69
362.749	94.69
362.976	95.69
363.203	92.69
363.429	98.69
363.656	89.69
363.882	81.69
364.109	93.69
364.335	107.69
364.562	93.69
364.788	99.69
365.015	95.69
365.241	102.69
365.468	103.69
365.694	99.69
365.92	106.69
366.147	99.69
366.373	101.69
366.599	90.69
366.826	90.69
367.052	101.69
367.278	88.69
367.505	90.69
367.731	92.69
367.957	91.69
368.184	90.69
368.41	86.69
368.636	107.69
368.862	120.69
369.089	111.69
369.315	95.69
369.541	83.69
369.767	100.69
369.993	98.69
370.219	107.69
370.445	106.69
370.672	82.69
370.898	76.69
371.124	79.69
371.35	87.69
371.576	83.69
371.802	88.69
372.028	85.69
372.254	83.69
372.48	86.69
372.706	91.69
372.932	87.69
373.158	90.69
373.384	90.69
373.61	95.69
373.835	90.69
374.061	95.69
374.287	78.69
374.513	88.69
374.739	78.69
374.965	89.69
375.191	89.69
375.416	87.69
375.642	84.69
375.868	98.69
376.094	95.69
376.319	83.69
376.545	91.69
376.771	91.69
376.997	89.69
377.222	107.69
377.448	90.69
377.674	87.69
377.899	67.69
378.125	95.69
378.35	106.69
378.576	89.69
378.802	96.69
379.027	87.69
379.253	87.69
379.478	77.69
379.704	93.69
379.929	85.69
380.155	76.69
380.38	91.69
380.606	101.69
380.831	100.69
381.057	79.69
381.282	102.69
381.507	86.69
381.733	95.69
381.958	88.69
382.184	86.69
382.409	93.69
382.634	94.69
382.86	93.69
383.085	102.69
383.31	97.69
383.535	81.69
383.761	98.69
383.986	101.69
384.211	83.69
384.436	92.69
384.662	94.69
384.887	90.69
385.112	98.69
385.337	94.69
385.562	96.69
385.787	101.69
386.013	119.69
386.238	100.69
386.463	117.69
386.688	112.69
386.913	102.69
387.138	94.69
387.363	92.69
387.588	92.69
387.813	101.69
388.038	93.69
388.263	97.69
388.488	129.69
388.713	95.69
388.938	92.69
389.163	101.69
389.387	96.69
389.612	103.69
389.837	109.69
390.062	85.69
390.287	89.69
390.512	102.69
390.736	113.69
390.961	94.69
391.186	92.69
391.411	94.69
391.636	79.69
391.86	71.69
392.085	87.69
392.31	88.69
392.534	92.69
392.759	78.69
392.984	73.69
393.208	75.69
393.433	77.69
393.658	72.69
393.882	93.69
394.107	81.69
394.331	91.69
394.556	84.69
394.78	94.69
395.005	93.69
395.229	94.69
395.454	91.69
395.678	83.69
395.903	89.69
396.127	84.69
396.352	85.69
396.576	94.69
396.801	78.69
397.025	91.69
397.249	87.69
397.474	88.69
397.698	94.69
397.922	95.69
398.147	91.69
398.371	85.69
398.595	101.69
398.82	88.69
399.044	90.69
399.268	90.69
399.492	82.69
399.717	90.69
399.941	100.69
400.165	107.69
400.389	90.69
400.613	87.69
400.837	95.69
401.062	93.69
401.286	77.69
401.51	107.69
401.734	88.69
401.958	107.69
402.182	125.69
402.406	164.69
402.63	108.69
402.854	104.69
403.078	94.69
403.302	88.69
403.526	76.69
403.75	101.69
403.974	76.69
404.198	78.69
404.422	86.69
404.645	94.69
404.869	102.69
405.093	104.69
405.317	97.69
405.541	100.69
405.765	97.69
405.988	117.69
406.212	171.69
406.436	236.69
406.66	142.69
406.883	102.69
407.107	88.69
407.331	100.69
407.555	91.69
407.778	86.69
408.002	84.69
408.226	100.69
408.449	92.69
408.673	88.69
408.896	89.69
409.12	94.69
409.344	87.69
409.567	89.69
409.791	90.69
410.014	107.69
410.238	93.69
410.461	89.69
410.685	91.69
410.908	88.69
411.132	119.69
411.355	107.69
411.578	86.69
411.802	86.69
412.025	78.69
412.249	98.69
412.472	94.69
412.695	77.69
412.919	89.69
413.142	96.69
413.365	83.69
413.589	90.69
413.812	89.69
414.035	87.69
414.258	103.69
414.482	70.69
414.705	94.69
414.928	81.69
415.151	84.69
415.374	94.69
415.597	110.69
415.821	80.69
416.044	77.69
416.267	95.69
416.49	80.69
416.713	89.69
416.936	103.69
417.159	90.69
417.382	84.69
417.605	85.69
417.828	90.69
418.051	92.69
418.274	89.69
418.497	85.69
418.72	89.69
418.943	90.69
419.166	71.69
419.389	92.69
419.611	86.69
419.834	95.69
420.057	95.69
420.28	85.69
420.503	89.69
420.726	90.69
420.948	95.69
421.171	87.69
421.394	99.69
421.617	97.69
421.839	84.69
422.062	85.69
422.285	99.69
422.507	103.69
422.73	106.69
422.953	91.69
423.175	84.69
423.398	95.69
423.621	82.69
423.843	74.69
424.066	92.69
424.288	101.69
424.511	93.69
424.733	118.69
424.956	107.69
425.178	102.69
425.401	103.69
425.623	97.69
425.846	85.69
426.068	90.69
426.291	88.69
426.513	90.69
426.735	94.69
426.958	91.69
427.18	104.69
427.402	149.69
427.625	154.69
427.847	118.69
428.069	108.69
428.292	89.69
428.514	68.69
428.736	89.69
428.958	86.69
429.181	85.69
429.403	93.69
429.625	96.69
429.847	82.69
430.069	95.69
430.292	88.69
430.514	85.69
430.736	91.69
430.958	91.69
431.18	89.69
431.402	99.69
431.624	86.69
431.846	86.69
432.068	84.69
432.29	85.69
432.512	87.69
432.734	83.69
432.956	86.69
433.178	99.69
433.4	106.69
433.622	87.69
433.844	77.69
434.066	94.69
434.287	80.69
434.509	85.69
434.731	81.69
434.953	86.69
435.175	95.69
435.397	84.69
435.618	102.69
435.84	103.69
436.062	125.69
436.284	107.69
436.505	93.69
436.727	98.69
436.949	98.69
437.17	79.69
437.392	89.69
437.614	102.69
437.835	96.69
438.057	113.69
438.278	116.69
438.5	99.69
438.721	114.69
438.943	96.69
439.165	87.69
439.386	65.69
439.608	73.69
439.829	106.69
440.05	124.69
440.272	136.69
440.493	90.69
440.715	86.69
440.936	101.69
441.158	89.69
441.379	88.69
441.6	103.69
441.822	98.69
442.043	99.69
442.264	91.69
442.486	105.69
442.707	88.69
442.928	105.69
443.149	135.69
443.371	119.69
443.592	106.69
443.813	115.69
444.034	109.69
444.255	94.69
444.476	104.69
444.698	91.69
444.919	87.69
445.14	120.69
445.361	115.69
445.582	118.69
445.803	148.69
446.024	140.69
446.245	136.69
446.466	118.69
446.687	100.69
446.908	92.69
447.129	96.69
447.35	93.69
447.571	86.69
447.792	90.69
448.013	94.69
448.234	88.69
448.455	109.69
448.675	113.69
448.896	117.69
449.117	103.69
449.338	113.69
449.559	125.69
449.779	119.69
450	102.69
450.221	101.69
450.442	85.69
450.662	104.69
450.883	103.69
451.104	118.69
451.324	101.69
451.545	82.69
451.766	93.69
451.986	87.69
452.207	98.69
452.428	84.69
452.648	95.69
452.869	118.69
453.089	110.69
453.31	119.69
453.53	98.69
453.751	90.69
453.971	106.69
454.192	102.69
454.412	86.69
454.633	81.69
454.853	90.69
455.073	82.69
455.294	98.69
455.514	97.69
455.734	98.69
455.955	91.69
456.175	88.69
456.395	85.69
456.616	93.69
456.836	85.69
457.056	85.69
457.276	88.69
457.497	90.69
457.717	94.69
457.937	98.69
458.157	93.69
458.377	85.69
458.598	99.69
458.818	160.69
459.038	166.69
459.258	111.69
459.478	91.69
459.698	78.69
459.918	104.69
460.138	83.69
460.358	79.69
460.578	98.69
460.798	99.69
461.018	88.69
461.238	94.69
461.458	89.69
461.678	92.69
461.898	94.69
462.118	89.69
462.338	71.69
462.558	93.69
462.777	80.69
462.997	93.69
463.217	98.69
463.437	86.69
463.657	91.69
463.876	90.69
464.096	95.69
464.316	94.69
464.536	88.69
464.755	87.69
464.975	112.69
465.195	181.69
465.414	167.69
465.634	101.69
465.854	82.69
466.073	94.69
466.293	78.69
466.512	81.69
466.732	87.69
466.951	83.69
467.171	97.69
467.391	89.69
467.61	99.69
467.829	108.69
468.049	98.69
468.268	98.69
468.488	74.69
468.707	95.69
468.927	81.69
469.146	97.69
469.365	79.69
469.585	91.69
469.804	95.69
470.023	108.69
470.243	94.69
470.462	81.69
470.681	114.69
470.901	88.69
471.12	85.69
471.339	102.69
471.558	87.69
471.777	89.69
471.997	77.69
472.216	78.69
472.435	97.69
472.654	82.69
472.873	78.69
473.092	87.69
473.311	89.69
473.53	93.69
473.749	90.69
473.968	103.69
474.187	110.69
474.406	94.69
474.625	102.69
474.844	86.69
475.063	88.69
475.282	90.69
475.501	86.69
475.72	89.69
475.939	101.69
476.158	84.69
476.377	83.69
476.596	88.69
476.814	97.69
477.033	84.69
477.252	87.69
477.471	92.69
477.69	92.69
477.908	102.69
478.127	97.69
478.346	77.69
478.564	94.69
478.783	95.69
479.002	88.69
479.22	90.69
479.439	95.69
479.658	92.69
479.876	88.69
480.095	109.69
480.313	85.69
480.532	95.69
480.751	75.69
480.969	98.69
481.188	83.69
481.406	95.69
481.624	88.69
481.843	94.69
482.061	88.69
482.28	103.69
482.498	92.69
482.717	96.69
482.935	89.69
483.153	73.69
483.372	93.69
483.59	89.69
483.808	84.69
484.027	99.69
484.245	96.69
484.463	108.69
484.681	101.69
484.9	84.69
485.118	74.69
485.336	93.69
485.554	86.69
485.772	101.69
485.99	114.69
486.209	114.69
486.427	101.69
486.645	100.69
486.863	104.69
487.081	95.69
487.299	92.69
487.517	94.69
487.735	98.69
487.953	88.69
488.171	94.69
488.389	88.69
488.607	108.69
488.825	86.69
489.043	84.69
489.261	93.69
489.479	84.69
489.696	98.69
489.914	88.69
490.132	89.69
490.35	91.69
490.568	87.69
490.786	87.69
491.003	82.69
491.221	75.69
491.439	86.69
491.657	88.69
491.874	89.69
492.092	95.69
492.31	95.69
492.527	93.69
492.745	104.69
492.963	88.69
493.18	90.69
493.398	82.69
493.615	86.69
493.833	103.69
494.05	98.69
494.268	90.69
494.485	100.69
494.703	84.69
494.92	98.69
495.138	94.69
495.355	90.69
495.573	92.69
495.79	94.69
496.008	97.69
496.225	96.69
496.442	96.69
496.66	94.69
496.877	85.69
497.094	90.69
497.312	96.69
497.529	82.69
497.746	91.69
497.963	90.69
498.181	85.69
498.398	101.69
498.615	109.69
498.832	107.69
499.049	87.69
499.267	86.69
499.484	90.69
499.701	94.69
499.918	86.69
500.135	93.69
500.352	97.69
500.569	87.69
500.786	101.69
501.003	76.69
501.22	83.69
501.437	90.69
501.654	102.69
501.871	104.69
502.088	92.69
502.305	98.69
502.522	72.69
502.739	85.69
502.956	93.69
503.172	101.69
503.389	100.69
503.606	119.69
503.823	106.69
504.04	95.69
504.256	99.69
504.473	91.69
504.69	85.69
504.907	99.69
505.123	90.69
505.34	93.69
505.557	88.69
505.773	103.69
505.99	96.69
506.207	88.69
506.423	83.69
506.64	90.69
506.856	90.69
507.073	90.69
507.289	86.69
507.506	107.69
507.722	112.69
507.939	116.69
508.155	94.69
508.372	92.69
508.588	85.69
508.805	92.69
509.021	93.69
509.238	94.69
509.454	105.69
509.67	101.69
509.887	118.69
510.103	118.69
510.319	217.69
510.536	793.69
510.752	2444.69
510.968	673.69
511.184	151.69
511.401	115.69
511.617	101.69
511.833	88.69
512.049	93.69
512.265	94.69
512.481	89.69
512.698	92.69
512.914	108.69
513.13	95.69
513.346	92.69
513.562	96.69
513.778	92.69
513.994	106.69
514.21	105.69
514.426	125.69
514.642	143.69
514.858	122.69
515.074	181.69
515.29	491.69
