Data from Uncirc_2001_H10_HRD10591_00005.txt Node
Date: Wed Jan 03 10:43:57 EST 2024
User: Yrep
Spectrometer: HR+D1059
Trigger mode: 1
Integration Time (sec): 1.000000E-1
Scans to average: 1
Electric dark correction enabled: true
Nonlinearity correction enabled: false
Boxcar width: 0
XAxis mode: Wavelengths
Number of Pixels in Spectrum: 2048
>>>>>Begin Spectral Data<<<<<
223.165	-19.5
223.4	-19.5
223.635	-19.5
223.869	-14.5
224.104	-18.5
224.338	-11.5
224.573	-11.5
224.808	-19.5
225.042	5.5
225.277	-10.5
225.511	-4.5
225.746	-0.5
225.98	14.5
226.215	14.5
226.449	3.5
226.683	20.5
226.918	18.5
227.152	33.5
227.387	46.5
227.621	39.5
227.856	46.5
228.09	44.5
228.324	62.5
228.559	58.5
228.793	54.5
229.027	71.5
229.262	70.5
229.496	70.5
229.73	79.5
229.964	78.5
230.199	73.5
230.433	69.5
230.667	80.5
230.901	81.5
231.136	84.5
231.37	85.5
231.604	81.5
231.838	81.5
232.072	86.5
232.306	70.5
232.541	80.5
232.775	81.5
233.009	77.5
233.243	90.5
233.477	87.5
233.711	89.5
233.945	89.5
234.179	92.5
234.413	79.5
234.647	81.5
234.881	74.5
235.115	91.5
235.349	85.5
235.583	66.5
235.817	82.5
236.051	73.5
236.285	67.5
236.519	76.5
236.753	92.5
236.987	75.5
237.221	63.5
237.455	88.5
237.689	79.5
237.922	92.5
238.156	74.5
238.39	79.5
238.624	68.5
238.858	89.5
239.091	71.5
239.325	75.5
239.559	78.5
239.793	79.5
240.027	72.5
240.26	75.5
240.494	90.5
240.728	74.5
240.961	79.5
241.195	74.5
241.429	70.5
241.662	79.5
241.896	74.5
242.13	83.5
242.363	71.5
242.597	72.5
242.83	79.5
243.064	72.5
243.298	75.5
243.531	68.5
243.765	66.5
243.998	79.5
244.232	71.5
244.465	89.5
244.699	89.5
244.932	80.5
245.166	74.5
245.399	82.5
245.633	79.5
245.866	76.5
246.099	72.5
246.333	75.5
246.566	78.5
246.8	85.5
247.033	65.5
247.266	87.5
247.5	80.5
247.733	73.5
247.966	81.5
248.2	62.5
248.433	75.5
248.666	82.5
248.899	91.5
249.133	100.5
249.366	103.5
249.599	90.5
249.832	80.5
250.066	86.5
250.299	86.5
250.532	87.5
250.765	82.5
250.998	78.5
251.231	81.5
251.465	70.5
251.698	78.5
251.931	74.5
252.164	82.5
252.397	64.5
252.63	82.5
252.863	70.5
253.096	76.5
253.329	88.5
253.562	78.5
253.795	88.5
254.028	89.5
254.261	75.5
254.494	80.5
254.727	78.5
254.96	83.5
255.193	91.5
255.426	85.5
255.659	86.5
255.892	95.5
256.124	82.5
256.357	84.5
256.59	83.5
256.823	91.5
257.056	71.5
257.289	66.5
257.521	82.5
257.754	82.5
257.987	75.5
258.22	71.5
258.452	75.5
258.685	90.5
258.918	74.5
259.151	77.5
259.383	89.5
259.616	81.5
259.849	67.5
260.081	76.5
260.314	71.5
260.547	88.5
260.779	75.5
261.012	75.5
261.244	68.5
261.477	91.5
261.71	97.5
261.942	88.5
262.175	99.5
262.407	81.5
262.64	86.5
262.872	85.5
263.105	94.5
263.337	75.5
263.57	68.5
263.802	84.5
264.035	76.5
264.267	90.5
264.499	88.5
264.732	78.5
264.964	80.5
265.197	86.5
265.429	77.5
265.661	81.5
265.894	83.5
266.126	74.5
266.358	84.5
266.591	75.5
266.823	85.5
267.055	93.5
267.287	87.5
267.52	79.5
267.752	88.5
267.984	88.5
268.216	85.5
268.448	77.5
268.681	79.5
268.913	95.5
269.145	82.5
269.377	76.5
269.609	63.5
269.841	72.5
270.073	82.5
270.306	74.5
270.538	81.5
270.77	73.5
271.002	86.5
271.234	78.5
271.466	91.5
271.698	87.5
271.93	80.5
272.162	83.5
272.394	100.5
272.626	79.5
272.858	85.5
273.09	81.5
273.322	83.5
273.553	83.5
273.785	87.5
274.017	71.5
274.249	69.5
274.481	92.5
274.713	84.5
274.945	78.5
275.176	80.5
275.408	71.5
275.64	85.5
275.872	89.5
276.104	80.5
276.335	80.5
276.567	98.5
276.799	91.5
277.031	83.5
277.262	92.5
277.494	83.5
277.726	68.5
277.957	73.5
278.189	88.5
278.421	88.5
278.652	94.5
278.884	90.5
279.115	81.5
279.347	94.5
279.579	87.5
279.81	89.5
280.042	91.5
280.273	70.5
280.505	73.5
280.736	68.5
280.968	84.5
281.199	76.5
281.431	87.5
281.662	69.5
281.894	94.5
282.125	87.5
282.356	101.5
282.588	110.5
282.819	91.5
283.051	85.5
283.282	93.5
283.513	97.5
283.745	96.5
283.976	77.5
284.207	72.5
284.439	79.5
284.67	89.5
284.901	87.5
285.132	92.5
285.364	78.5
285.595	78.5
285.826	89.5
286.057	90.5
286.288	79.5
286.52	87.5
286.751	83.5
286.982	89.5
287.213	86.5
287.444	86.5
287.675	82.5
287.906	74.5
288.138	63.5
288.369	83.5
288.6	83.5
288.831	83.5
289.062	83.5
289.293	91.5
289.524	86.5
289.755	99.5
289.986	84.5
290.217	88.5
290.448	89.5
290.679	81.5
290.91	90.5
291.141	79.5
291.371	92.5
291.602	90.5
291.833	83.5
292.064	83.5
292.295	82.5
292.526	91.5
292.757	78.5
292.987	83.5
293.218	86.5
293.449	89.5
293.68	81.5
293.91	73.5
294.141	94.5
294.372	73.5
294.603	95.5
294.833	82.5
295.064	87.5
295.295	82.5
295.525	84.5
295.756	85.5
295.987	106.5
296.217	111.5
296.448	109.5
296.679	97.5
296.909	101.5
297.14	96.5
297.37	88.5
297.601	89.5
297.831	84.5
298.062	88.5
298.292	90.5
298.523	92.5
298.753	88.5
298.984	98.5
299.214	93.5
299.445	103.5
299.675	84.5
299.905	95.5
300.136	91.5
300.366	96.5
300.597	99.5
300.827	88.5
301.057	74.5
301.288	92.5
301.518	107.5
301.748	89.5
301.979	113.5
302.209	75.5
302.439	83.5
302.669	86.5
302.9	79.5
303.13	86.5
303.36	79.5
303.59	90.5
303.82	90.5
304.051	98.5
304.281	88.5
304.511	83.5
304.741	95.5
304.971	70.5
305.201	83.5
305.431	96.5
305.661	84.5
305.891	72.5
306.121	96.5
306.352	97.5
306.582	85.5
306.812	80.5
307.042	82.5
307.272	87.5
307.502	89.5
307.731	85.5
307.961	72.5
308.191	98.5
308.421	88.5
308.651	81.5
308.881	89.5
309.111	95.5
309.341	89.5
309.571	87.5
309.8	89.5
310.03	94.5
310.26	102.5
310.49	84.5
310.72	88.5
310.949	98.5
311.179	98.5
311.409	90.5
311.639	89.5
311.868	103.5
312.098	79.5
312.328	87.5
312.557	93.5
312.787	85.5
313.017	100.5
313.246	80.5
313.476	100.5
313.706	98.5
313.935	104.5
314.165	80.5
314.394	104.5
314.624	107.5
314.853	91.5
315.083	99.5
315.312	86.5
315.542	94.5
315.771	94.5
316.001	95.5
316.23	88.5
316.46	88.5
316.689	86.5
316.919	84.5
317.148	88.5
317.377	94.5
317.607	74.5
317.836	98.5
318.065	75.5
318.295	94.5
318.524	90.5
318.753	87.5
318.983	80.5
319.212	102.5
319.441	95.5
319.67	95.5
319.9	100.5
320.129	81.5
320.358	75.5
320.587	95.5
320.816	83.5
321.046	91.5
321.275	90.5
321.504	99.5
321.733	95.5
321.962	100.5
322.191	97.5
322.42	103.5
322.649	111.5
322.878	92.5
323.108	109.5
323.337	106.5
323.566	115.5
323.795	119.5
324.024	168.5
324.253	286.5
324.482	549.5
324.71	1040.5
324.939	1316.5
325.168	532.5
325.397	174.5
325.626	144.5
325.855	124.5
326.084	105.5
326.313	105.5
326.542	118.5
326.77	175.5
326.999	327.5
327.228	633.5
327.457	1096.5
327.686	849.5
327.914	253.5
328.143	152.5
328.372	113.5
328.6	110.5
328.829	109.5
329.058	111.5
329.287	119.5
329.515	106.5
329.744	98.5
329.972	95.5
330.201	94.5
330.43	93.5
330.658	99.5
330.887	100.5
331.115	87.5
331.344	96.5
331.572	83.5
331.801	91.5
332.03	97.5
332.258	85.5
332.486	90.5
332.715	100.5
332.943	93.5
333.172	86.5
333.4	95.5
333.629	99.5
333.857	101.5
334.085	97.5
334.314	88.5
334.542	76.5
334.771	83.5
334.999	97.5
335.227	103.5
335.455	78.5
335.684	94.5
335.912	81.5
336.14	107.5
336.369	89.5
336.597	103.5
336.825	93.5
337.053	87.5
337.281	98.5
337.51	98.5
337.738	89.5
337.966	87.5
338.194	85.5
338.422	90.5
338.65	93.5
338.878	94.5
339.106	84.5
339.334	81.5
339.562	73.5
339.79	90.5
340.018	74.5
340.246	92.5
340.474	92.5
340.702	97.5
340.93	92.5
341.158	91.5
341.386	91.5
341.614	91.5
341.842	85.5
342.07	93.5
342.298	82.5
342.526	101.5
342.754	83.5
342.981	84.5
343.209	86.5
343.437	98.5
343.665	91.5
343.893	82.5
344.12	89.5
344.348	83.5
344.576	89.5
344.804	75.5
345.031	88.5
345.259	89.5
345.487	98.5
345.714	90.5
345.942	91.5
346.17	78.5
346.397	98.5
346.625	95.5
346.853	88.5
347.08	97.5
347.308	95.5
347.535	95.5
347.763	87.5
347.99	101.5
348.218	95.5
348.445	76.5
348.673	97.5
348.9	81.5
349.128	88.5
349.355	82.5
349.583	95.5
349.81	92.5
350.037	84.5
350.265	96.5
350.492	102.5
350.72	98.5
350.947	101.5
351.174	87.5
351.402	99.5
351.629	89.5
351.856	79.5
352.083	83.5
352.311	87.5
352.538	91.5
352.765	92.5
352.992	109.5
353.22	103.5
353.447	98.5
353.674	96.5
353.901	102.5
354.128	99.5
354.355	92.5
354.583	107.5
354.81	99.5
355.037	106.5
355.264	87.5
355.491	83.5
355.718	86.5
355.945	83.5
356.172	94.5
356.399	91.5
356.626	107.5
356.853	84.5
357.08	88.5
357.307	90.5
357.534	100.5
357.761	97.5
357.988	83.5
358.215	92.5
358.441	107.5
358.668	97.5
358.895	92.5
359.122	78.5
359.349	97.5
359.576	88.5
359.802	95.5
360.029	94.5
360.256	89.5
360.483	90.5
360.709	80.5
360.936	81.5
361.163	98.5
361.39	80.5
361.616	112.5
361.843	86.5
362.07	90.5
362.296	103.5
362.523	96.5
362.749	87.5
362.976	88.5
363.203	82.5
363.429	85.5
363.656	76.5
363.882	82.5
364.109	84.5
364.335	82.5
364.562	93.5
364.788	91.5
365.015	81.5
365.241	93.5
365.468	90.5
365.694	94.5
365.92	90.5
366.147	90.5
366.373	80.5
366.599	67.5
366.826	88.5
367.052	80.5
367.278	85.5
367.505	81.5
367.731	91.5
367.957	86.5
368.184	94.5
368.41	99.5
368.636	90.5
368.862	100.5
369.089	94.5
369.315	74.5
369.541	80.5
369.767	87.5
369.993	95.5
370.219	81.5
370.445	89.5
370.672	81.5
370.898	76.5
371.124	87.5
371.35	86.5
371.576	85.5
371.802	72.5
372.028	77.5
372.254	88.5
372.48	76.5
372.706	86.5
372.932	79.5
373.158	97.5
373.384	80.5
373.61	101.5
373.835	99.5
374.061	94.5
374.287	91.5
374.513	103.5
374.739	86.5
374.965	85.5
375.191	89.5
375.416	89.5
375.642	91.5
375.868	92.5
376.094	102.5
376.319	87.5
376.545	97.5
376.771	92.5
376.997	89.5
377.222	98.5
377.448	76.5
377.674	91.5
377.899	94.5
378.125	87.5
378.35	97.5
378.576	89.5
378.802	92.5
379.027	89.5
379.253	109.5
379.478	99.5
379.704	97.5
379.929	80.5
380.155	72.5
380.38	88.5
380.606	107.5
380.831	105.5
381.057	110.5
381.282	91.5
381.507	98.5
381.733	104.5
381.958	106.5
382.184	109.5
382.409	108.5
382.634	104.5
382.86	108.5
383.085	115.5
383.31	109.5
383.535	107.5
383.761	105.5
383.986	118.5
384.211	106.5
384.436	117.5
384.662	116.5
384.887	117.5
385.112	121.5
385.337	120.5
385.562	122.5
385.787	111.5
386.013	131.5
386.238	120.5
386.463	114.5
386.688	113.5
386.913	118.5
387.138	129.5
387.363	118.5
387.588	107.5
387.813	121.5
388.038	130.5
388.263	138.5
388.488	128.5
388.713	98.5
388.938	107.5
389.163	95.5
389.387	96.5
389.612	94.5
389.837	96.5
390.062	92.5
390.287	93.5
390.512	91.5
390.736	89.5
390.961	100.5
391.186	80.5
391.411	74.5
391.636	93.5
391.86	98.5
392.085	83.5
392.31	76.5
392.534	80.5
392.759	86.5
392.984	84.5
393.208	88.5
393.433	94.5
393.658	90.5
393.882	75.5
394.107	81.5
394.331	91.5
394.556	86.5
394.78	88.5
395.005	89.5
395.229	94.5
395.454	82.5
395.678	84.5
395.903	78.5
396.127	78.5
396.352	86.5
396.576	93.5
396.801	82.5
397.025	89.5
397.249	82.5
397.474	85.5
397.698	81.5
397.922	82.5
398.147	72.5
398.371	87.5
398.595	85.5
398.82	78.5
399.044	89.5
399.268	79.5
399.492	66.5
399.717	90.5
399.941	94.5
400.165	98.5
400.389	87.5
400.613	89.5
400.837	70.5
401.062	100.5
401.286	70.5
401.51	101.5
401.734	86.5
401.958	95.5
402.182	112.5
402.406	111.5
402.63	101.5
402.854	82.5
403.078	90.5
403.302	79.5
403.526	79.5
403.75	86.5
403.974	84.5
404.198	84.5
404.422	92.5
404.645	97.5
404.869	98.5
405.093	107.5
405.317	86.5
405.541	84.5
405.765	79.5
405.988	96.5
406.212	117.5
406.436	156.5
406.66	100.5
406.883	83.5
407.107	94.5
407.331	89.5
407.555	83.5
407.778	99.5
408.002	86.5
408.226	70.5
408.449	97.5
408.673	91.5
408.896	96.5
409.12	92.5
409.344	92.5
409.567	106.5
409.791	83.5
410.014	102.5
410.238	83.5
410.461	91.5
410.685	82.5
410.908	107.5
411.132	97.5
411.355	92.5
411.578	96.5
411.802	72.5
412.025	91.5
412.249	99.5
412.472	84.5
412.695	84.5
412.919	83.5
413.142	72.5
413.365	88.5
413.589	90.5
413.812	94.5
414.035	97.5
414.258	89.5
414.482	74.5
414.705	83.5
414.928	96.5
415.151	84.5
415.374	107.5
415.597	91.5
415.821	84.5
416.044	82.5
416.267	78.5
416.49	87.5
416.713	88.5
416.936	96.5
417.159	69.5
417.382	78.5
417.605	105.5
417.828	94.5
418.051	88.5
418.274	83.5
418.497	81.5
418.72	81.5
418.943	96.5
419.166	72.5
419.389	92.5
419.611	96.5
419.834	98.5
420.057	87.5
420.28	96.5
420.503	94.5
420.726	89.5
420.948	97.5
421.171	95.5
421.394	103.5
421.617	92.5
421.839	91.5
422.062	70.5
422.285	94.5
422.507	93.5
422.73	98.5
422.953	106.5
423.175	89.5
423.398	80.5
423.621	84.5
423.843	90.5
424.066	91.5
424.288	90.5
424.511	86.5
424.733	92.5
424.956	98.5
425.178	105.5
425.401	87.5
425.623	105.5
425.846	92.5
426.068	86.5
426.291	92.5
426.513	76.5
426.735	76.5
426.958	91.5
427.18	93.5
427.402	108.5
427.625	137.5
427.847	104.5
428.069	75.5
428.292	78.5
428.514	83.5
428.736	100.5
428.958	92.5
429.181	82.5
429.403	74.5
429.625	94.5
429.847	86.5
430.069	93.5
430.292	89.5
430.514	82.5
430.736	84.5
430.958	76.5
431.18	85.5
431.402	81.5
431.624	83.5
431.846	78.5
432.068	77.5
432.29	87.5
432.512	88.5
432.734	77.5
432.956	81.5
433.178	91.5
433.4	90.5
433.622	95.5
433.844	87.5
434.066	95.5
434.287	78.5
434.509	97.5
434.731	89.5
434.953	99.5
435.175	86.5
435.397	84.5
435.618	91.5
435.84	112.5
436.062	100.5
436.284	100.5
436.505	100.5
436.727	97.5
436.949	81.5
437.17	90.5
437.392	86.5
437.614	89.5
437.835	92.5
438.057	107.5
438.278	96.5
438.5	90.5
438.721	111.5
438.943	95.5
439.165	83.5
439.386	75.5
439.608	92.5
439.829	100.5
440.05	114.5
440.272	112.5
440.493	89.5
440.715	97.5
440.936	87.5
441.158	83.5
441.379	76.5
441.6	84.5
441.822	104.5
442.043	95.5
442.264	92.5
442.486	99.5
442.707	92.5
442.928	96.5
443.149	110.5
443.371	104.5
443.592	94.5
443.813	111.5
444.034	91.5
444.255	104.5
444.476	102.5
444.698	88.5
444.919	89.5
445.14	123.5
445.361	122.5
445.582	120.5
445.803	118.5
446.024	122.5
446.245	111.5
446.466	104.5
446.687	96.5
446.908	91.5
447.129	84.5
447.35	94.5
447.571	90.5
447.792	84.5
448.013	96.5
448.234	99.5
448.455	95.5
448.675	114.5
448.896	108.5
449.117	87.5
449.338	112.5
449.559	93.5
449.779	114.5
450	88.5
450.221	82.5
450.442	103.5
450.662	96.5
450.883	86.5
451.104	84.5
451.324	78.5
451.545	83.5
451.766	91.5
451.986	75.5
452.207	87.5
452.428	75.5
452.648	104.5
452.869	91.5
453.089	78.5
453.31	92.5
453.53	91.5
453.751	96.5
453.971	87.5
454.192	103.5
454.412	98.5
454.633	79.5
454.853	69.5
455.073	79.5
455.294	88.5
455.514	82.5
455.734	94.5
455.955	82.5
456.175	80.5
456.395	89.5
456.616	82.5
456.836	77.5
457.056	83.5
457.276	83.5
457.497	85.5
457.717	97.5
457.937	80.5
458.157	87.5
458.377	84.5
458.598	91.5
458.818	128.5
459.038	117.5
459.258	96.5
459.478	91.5
459.698	82.5
459.918	85.5
460.138	80.5
460.358	84.5
460.578	73.5
460.798	85.5
461.018	88.5
461.238	83.5
461.458	80.5
461.678	80.5
461.898	76.5
462.118	89.5
462.338	76.5
462.558	82.5
462.777	77.5
462.997	74.5
463.217	83.5
463.437	70.5
463.657	90.5
463.876	83.5
464.096	89.5
464.316	90.5
464.536	98.5
464.755	94.5
464.975	88.5
465.195	116.5
465.414	109.5
465.634	92.5
465.854	83.5
466.073	84.5
466.293	105.5
466.512	92.5
466.732	89.5
466.951	104.5
467.171	87.5
467.391	85.5
467.61	82.5
467.829	92.5
468.049	82.5
468.268	79.5
468.488	89.5
468.707	81.5
468.927	92.5
469.146	79.5
469.365	84.5
469.585	77.5
469.804	92.5
470.023	100.5
470.243	86.5
470.462	99.5
470.681	97.5
470.901	95.5
471.12	76.5
471.339	84.5
471.558	87.5
471.777	98.5
471.997	91.5
472.216	80.5
472.435	86.5
472.654	88.5
472.873	93.5
473.092	84.5
473.311	84.5
473.53	83.5
473.749	87.5
473.968	85.5
474.187	99.5
474.406	88.5
474.625	88.5
474.844	88.5
475.063	76.5
475.282	96.5
475.501	89.5
475.72	89.5
475.939	96.5
476.158	75.5
476.377	90.5
476.596	75.5
476.814	80.5
477.033	96.5
477.252	90.5
477.471	91.5
477.69	83.5
477.908	90.5
478.127	80.5
478.346	88.5
478.564	92.5
478.783	82.5
479.002	96.5
479.22	94.5
479.439	91.5
479.658	102.5
479.876	84.5
480.095	96.5
480.313	79.5
480.532	89.5
480.751	87.5
480.969	78.5
481.188	93.5
481.406	97.5
481.624	89.5
481.843	94.5
482.061	100.5
482.28	98.5
482.498	94.5
482.717	90.5
482.935	94.5
483.153	91.5
483.372	94.5
483.59	87.5
483.808	82.5
484.027	92.5
484.245	91.5
484.463	90.5
484.681	90.5
484.9	101.5
485.118	91.5
485.336	100.5
485.554	102.5
485.772	120.5
485.99	114.5
486.209	96.5
486.427	113.5
486.645	114.5
486.863	115.5
487.081	93.5
487.299	96.5
487.517	92.5
487.735	84.5
487.953	97.5
488.171	97.5
488.389	89.5
488.607	91.5
488.825	96.5
489.043	88.5
489.261	84.5
489.479	68.5
489.696	98.5
489.914	76.5
490.132	102.5
490.35	114.5
490.568	87.5
490.786	96.5
491.003	97.5
491.221	98.5
491.439	93.5
491.657	91.5
491.874	82.5
492.092	84.5
492.31	98.5
492.527	99.5
492.745	91.5
492.963	88.5
493.18	83.5
493.398	92.5
493.615	86.5
493.833	91.5
494.05	91.5
494.268	88.5
494.485	91.5
494.703	88.5
494.92	105.5
495.138	91.5
495.355	90.5
495.573	106.5
495.79	91.5
496.008	104.5
496.225	94.5
496.442	86.5
496.66	99.5
496.877	103.5
497.094	83.5
497.312	88.5
497.529	88.5
497.746	108.5
497.963	96.5
498.181	87.5
498.398	93.5
498.615	115.5
498.832	89.5
499.049	100.5
499.267	99.5
499.484	105.5
499.701	95.5
499.918	95.5
500.135	101.5
500.352	95.5
500.569	85.5
500.786	98.5
501.003	85.5
501.22	103.5
501.437	96.5
501.654	76.5
501.871	100.5
502.088	87.5
502.305	85.5
502.522	110.5
502.739	87.5
502.956	88.5
503.172	87.5
503.389	96.5
503.606	95.5
503.823	91.5
504.04	90.5
504.256	79.5
504.473	89.5
504.69	92.5
504.907	80.5
505.123	84.5
505.34	91.5
505.557	96.5
505.773	86.5
505.99	84.5
506.207	99.5
506.423	91.5
506.64	92.5
506.856	95.5
507.073	88.5
507.289	97.5
507.506	98.5
507.722	96.5
507.939	106.5
508.155	87.5
508.372	81.5
508.588	89.5
508.805	103.5
509.021	94.5
509.238	91.5
509.454	96.5
509.67	107.5
509.887	86.5
510.103	116.5
510.319	174.5
510.536	506.5
510.752	1415.5
510.968	406.5
511.184	121.5
511.401	104.5
511.617	86.5
511.833	97.5
512.049	79.5
512.265	93.5
512.481	104.5
512.698	86.5
512.914	93.5
513.13	79.5
513.346	96.5
513.562	89.5
513.778	89.5
513.994	106.5
514.21	100.5
514.426	102.5
514.642	107.5
514.858	115.5
515.074	144.5
515.29	293.5
515.506	840.5
515.721	334.5
515.937	133.5
516.153	96.5
516.369	87.5
516.585	97.5
516.801	97.5
517.016	100.5
517.232	91.5
517.448	99.5
517.664	93.5
517.879	107.5
518.095	96.5
518.311	93.5
518.527	94.5
518.742	108.5
518.958	92.5
519.173	81.5
519.389	95.5
519.605	97.5
519.82	104.5
520.036	99.5
520.251	118.5
520.467	93.5
520.682	109.5
520.898	110.5
521.113	106.5
521.329	109.5
521.544	144.5
521.76	389.5
521.975	1355.5
522.19	817.5
522.406	217.5
522.621	96.5
522.836	92.5
523.052	84.5
523.267	96.5
523.482	88.5
523.698	95.5
523.913	116.5
524.128	97.5
524.343	103.5
524.559	84.5
524.774	83.5
524.989	98.5
525.204	99.5
525.419	94.5
525.634	91.5
525.849	87.5
526.064	78.5
526.28	95.5
526.495	79.5
526.71	94.5
526.925	80.5
527.14	92.5
527.355	97.5
527.57	87.5
527.785	91.5
527.999	96.5
528.214	105.5
528.429	92.5
528.644	83.5
528.859	83.5
529.074	86.5
529.289	100.5
529.503	146.5
529.718	93.5
529.933	87.5
530.148	84.5
530.363	85.5
530.577	103.5
530.792	81.5
531.007	84.5
531.221	82.5
531.436	91.5
531.651	95.5
531.865	87.5
532.08	101.5
532.295	78.5
532.509	106.5
532.724	93.5
532.938	98.5
533.153	101.5
533.367	89.5
533.582	98.5
533.796	96.5
534.011	87.5
534.225	84.5
534.44	82.5
534.654	105.5
534.868	84.5
535.083	103.5
535.297	90.5
535.511	110.5
535.726	111.5
535.94	88.5
536.154	87.5
536.369	97.5
536.583	94.5
536.797	88.5
