Data from Uncirc_2001_H10_HRD10591_00077.txt Node
Date: Wed Jan 03 10:44:12 EST 2024
User: Yrep
Spectrometer: HR+D1059
Trigger mode: 1
Integration Time (sec): 1.000000E-1
Scans to average: 1
Electric dark correction enabled: true
Nonlinearity correction enabled: false
Boxcar width: 0
XAxis mode: Wavelengths
Number of Pixels in Spectrum: 2048
>>>>>Begin Spectral Data<<<<<
223.165	-22.5
223.4	-22.5
223.635	-22.5
223.869	-17.5
224.104	-19.5
224.338	-2.5
224.573	-13.5
224.808	-8.5
225.042	-22.5
225.277	3.5
225.511	-1.5
225.746	-8.5
225.98	12.5
226.215	3.5
226.449	16.5
226.683	12.5
226.918	32.5
227.152	35.5
227.387	37.5
227.621	44.5
227.856	44.5
228.09	47.5
228.324	47.5
228.559	54.5
228.793	57.5
229.027	84.5
229.262	60.5
229.496	80.5
229.73	86.5
229.964	75.5
230.199	81.5
230.433	81.5
230.667	92.5
230.901	71.5
231.136	78.5
231.37	82.5
231.604	81.5
231.838	80.5
232.072	75.5
232.306	91.5
232.541	80.5
232.775	89.5
233.009	75.5
233.243	79.5
233.477	90.5
233.711	77.5
233.945	83.5
234.179	88.5
234.413	81.5
234.647	87.5
234.881	80.5
235.115	83.5
235.349	86.5
235.583	89.5
235.817	71.5
236.051	74.5
236.285	89.5
236.519	88.5
236.753	80.5
236.987	81.5
237.221	88.5
237.455	79.5
237.689	75.5
237.922	64.5
238.156	76.5
238.39	83.5
238.624	79.5
238.858	84.5
239.091	86.5
239.325	94.5
239.559	72.5
239.793	82.5
240.027	87.5
240.26	85.5
240.494	76.5
240.728	77.5
240.961	75.5
241.195	86.5
241.429	83.5
241.662	80.5
241.896	85.5
242.13	78.5
242.363	83.5
242.597	65.5
242.83	71.5
243.064	83.5
243.298	85.5
243.531	78.5
243.765	89.5
243.998	85.5
244.232	72.5
244.465	62.5
244.699	90.5
244.932	77.5
245.166	85.5
245.399	80.5
245.633	89.5
245.866	80.5
246.099	90.5
246.333	77.5
246.566	78.5
246.8	94.5
247.033	85.5
247.266	92.5
247.5	77.5
247.733	90.5
247.966	89.5
248.2	89.5
248.433	92.5
248.666	80.5
248.899	90.5
249.133	75.5
249.366	99.5
249.599	87.5
249.832	85.5
250.066	87.5
250.299	81.5
250.532	96.5
250.765	85.5
250.998	87.5
251.231	75.5
251.465	84.5
251.698	85.5
251.931	82.5
252.164	91.5
252.397	83.5
252.63	72.5
252.863	88.5
253.096	85.5
253.329	77.5
253.562	79.5
253.795	88.5
254.028	96.5
254.261	88.5
254.494	76.5
254.727	72.5
254.96	86.5
255.193	85.5
255.426	83.5
255.659	89.5
255.892	75.5
256.124	78.5
256.357	94.5
256.59	92.5
256.823	94.5
257.056	86.5
257.289	80.5
257.521	94.5
257.754	98.5
257.987	75.5
258.22	96.5
258.452	77.5
258.685	83.5
258.918	83.5
259.151	93.5
259.383	83.5
259.616	86.5
259.849	88.5
260.081	84.5
260.314	93.5
260.547	86.5
260.779	76.5
261.012	78.5
261.244	75.5
261.477	79.5
261.71	91.5
261.942	107.5
262.175	101.5
262.407	97.5
262.64	81.5
262.872	82.5
263.105	81.5
263.337	85.5
263.57	80.5
263.802	92.5
264.035	90.5
264.267	80.5
264.499	74.5
264.732	82.5
264.964	68.5
265.197	91.5
265.429	89.5
265.661	93.5
265.894	87.5
266.126	79.5
266.358	86.5
266.591	85.5
266.823	95.5
267.055	91.5
267.287	95.5
267.52	101.5
267.752	93.5
267.984	85.5
268.216	89.5
268.448	73.5
268.681	81.5
268.913	86.5
269.145	82.5
269.377	84.5
269.609	91.5
269.841	83.5
270.073	83.5
270.306	97.5
270.538	102.5
270.77	77.5
271.002	80.5
271.234	95.5
271.466	64.5
271.698	92.5
271.93	91.5
272.162	80.5
272.394	90.5
272.626	93.5
272.858	90.5
273.09	86.5
273.322	98.5
273.553	89.5
273.785	82.5
274.017	79.5
274.249	91.5
274.481	99.5
274.713	85.5
274.945	81.5
275.176	91.5
275.408	81.5
275.64	87.5
275.872	94.5
276.104	98.5
276.335	85.5
276.567	95.5
276.799	112.5
277.031	104.5
277.262	99.5
277.494	92.5
277.726	75.5
277.957	88.5
278.189	97.5
278.421	96.5
278.652	90.5
278.884	91.5
279.115	93.5
279.347	81.5
279.579	90.5
279.81	89.5
280.042	94.5
280.273	91.5
280.505	94.5
280.736	93.5
280.968	94.5
281.199	84.5
281.431	81.5
281.662	88.5
281.894	102.5
282.125	98.5
282.356	128.5
282.588	133.5
282.819	109.5
283.051	100.5
283.282	71.5
283.513	94.5
283.745	87.5
283.976	95.5
284.207	84.5
284.439	92.5
284.67	90.5
284.901	99.5
285.132	83.5
285.364	78.5
285.595	90.5
285.826	99.5
286.057	84.5
286.288	89.5
286.52	105.5
286.751	89.5
286.982	95.5
287.213	92.5
287.444	94.5
287.675	88.5
287.906	96.5
288.138	90.5
288.369	87.5
288.6	99.5
288.831	109.5
289.062	91.5
289.293	100.5
289.524	90.5
289.755	89.5
289.986	103.5
290.217	80.5
290.448	92.5
290.679	91.5
290.91	87.5
291.141	91.5
291.371	95.5
291.602	89.5
291.833	93.5
292.064	92.5
292.295	97.5
292.526	90.5
292.757	84.5
292.987	93.5
293.218	95.5
293.449	91.5
293.68	92.5
293.91	103.5
294.141	94.5
294.372	90.5
294.603	81.5
294.833	99.5
295.064	93.5
295.295	81.5
295.525	101.5
295.756	92.5
295.987	104.5
296.217	122.5
296.448	119.5
296.679	88.5
296.909	95.5
297.14	89.5
297.37	91.5
297.601	84.5
297.831	90.5
298.062	94.5
298.292	90.5
298.523	106.5
298.753	93.5
298.984	104.5
299.214	104.5
299.445	94.5
299.675	97.5
299.905	98.5
300.136	85.5
300.366	85.5
300.597	94.5
300.827	72.5
301.057	100.5
301.288	96.5
301.518	87.5
301.748	87.5
301.979	109.5
302.209	109.5
302.439	92.5
302.669	87.5
302.9	93.5
303.13	95.5
303.36	99.5
303.59	98.5
303.82	93.5
304.051	95.5
304.281	85.5
304.511	88.5
304.741	90.5
304.971	82.5
305.201	94.5
305.431	94.5
305.661	86.5
305.891	91.5
306.121	94.5
306.352	103.5
306.582	113.5
306.812	93.5
307.042	87.5
307.272	104.5
307.502	92.5
307.731	106.5
307.961	116.5
308.191	95.5
308.421	91.5
308.651	96.5
308.881	94.5
309.111	86.5
309.341	94.5
309.571	103.5
309.8	103.5
310.03	99.5
310.26	102.5
310.49	88.5
310.72	95.5
310.949	112.5
311.179	97.5
311.409	94.5
311.639	104.5
311.868	97.5
312.098	96.5
312.328	93.5
312.557	104.5
312.787	116.5
313.017	101.5
313.246	97.5
313.476	106.5
313.706	91.5
313.935	103.5
314.165	113.5
314.394	99.5
314.624	89.5
314.853	100.5
315.083	97.5
315.312	109.5
315.542	94.5
315.771	107.5
316.001	80.5
316.23	93.5
316.46	87.5
316.689	89.5
316.919	94.5
317.148	93.5
317.377	93.5
317.607	102.5
317.836	97.5
318.065	101.5
318.295	105.5
318.524	83.5
318.753	78.5
318.983	92.5
319.212	93.5
319.441	99.5
319.67	94.5
319.9	93.5
320.129	104.5
320.358	97.5
320.587	87.5
320.816	114.5
321.046	109.5
321.275	101.5
321.504	97.5
321.733	116.5
321.962	79.5
322.191	100.5
322.42	117.5
322.649	101.5
322.878	109.5
323.108	117.5
323.337	123.5
323.566	135.5
323.795	138.5
324.024	200.5
324.253	353.5
324.482	709.5
324.71	1435.5
324.939	1875.5
325.168	694.5
325.397	233.5
325.626	161.5
325.855	122.5
326.084	108.5
326.313	139.5
326.542	138.5
326.77	203.5
326.999	403.5
327.228	803.5
327.457	1423.5
327.686	1085.5
327.914	312.5
328.143	184.5
328.372	148.5
328.6	126.5
328.829	115.5
329.058	140.5
329.287	121.5
329.515	124.5
329.744	111.5
329.972	100.5
330.201	98.5
330.43	114.5
330.658	129.5
330.887	149.5
331.115	128.5
331.344	117.5
331.572	105.5
331.801	104.5
332.03	104.5
332.258	92.5
332.486	89.5
332.715	91.5
332.943	101.5
333.172	105.5
333.4	109.5
333.629	101.5
333.857	105.5
334.085	108.5
334.314	88.5
334.542	88.5
334.771	104.5
334.999	103.5
335.227	94.5
335.455	99.5
335.684	113.5
335.912	93.5
336.14	101.5
336.369	100.5
336.597	121.5
336.825	92.5
337.053	100.5
337.281	96.5
337.51	112.5
337.738	96.5
337.966	83.5
338.194	101.5
338.422	101.5
338.65	100.5
338.878	99.5
339.106	97.5
339.334	106.5
339.562	91.5
339.79	85.5
340.018	80.5
340.246	92.5
340.474	102.5
340.702	105.5
340.93	89.5
341.158	94.5
341.386	85.5
341.614	107.5
341.842	95.5
342.07	97.5
342.298	87.5
342.526	85.5
342.754	78.5
342.981	99.5
343.209	103.5
343.437	111.5
343.665	101.5
343.893	93.5
344.12	110.5
344.348	91.5
344.576	89.5
344.804	92.5
345.031	90.5
345.259	110.5
345.487	83.5
345.714	96.5
345.942	91.5
346.17	97.5
346.397	97.5
346.625	81.5
346.853	89.5
347.08	97.5
347.308	115.5
347.535	103.5
347.763	107.5
347.99	92.5
348.218	104.5
348.445	104.5
348.673	100.5
348.9	96.5
349.128	109.5
349.355	109.5
349.583	105.5
349.81	99.5
350.037	101.5
350.265	96.5
350.492	100.5
350.72	101.5
350.947	97.5
351.174	106.5
351.402	102.5
351.629	113.5
351.856	99.5
352.083	83.5
352.311	97.5
352.538	107.5
352.765	128.5
352.992	121.5
353.22	111.5
353.447	113.5
353.674	108.5
353.901	106.5
354.128	105.5
354.355	95.5
354.583	102.5
354.81	96.5
355.037	103.5
355.264	108.5
355.491	101.5
355.718	92.5
355.945	110.5
356.172	91.5
356.399	102.5
356.626	76.5
356.853	98.5
357.08	92.5
357.307	102.5
357.534	85.5
357.761	100.5
357.988	105.5
358.215	87.5
358.441	91.5
358.668	91.5
358.895	83.5
359.122	100.5
359.349	97.5
359.576	118.5
359.802	115.5
360.029	123.5
360.256	120.5
360.483	101.5
360.709	96.5
360.936	95.5
361.163	91.5
361.39	87.5
361.616	101.5
361.843	90.5
362.07	97.5
362.296	95.5
362.523	97.5
362.749	100.5
362.976	96.5
363.203	85.5
363.429	101.5
363.656	99.5
363.882	98.5
364.109	111.5
364.335	96.5
364.562	88.5
364.788	95.5
365.015	95.5
365.241	94.5
365.468	108.5
365.694	113.5
365.92	87.5
366.147	87.5
366.373	88.5
366.599	93.5
366.826	94.5
367.052	107.5
367.278	81.5
367.505	85.5
367.731	108.5
367.957	94.5
368.184	92.5
368.41	101.5
368.636	109.5
368.862	116.5
369.089	109.5
369.315	101.5
369.541	96.5
369.767	95.5
369.993	85.5
370.219	89.5
370.445	95.5
370.672	102.5
370.898	103.5
371.124	104.5
371.35	93.5
371.576	94.5
371.802	87.5
372.028	83.5
372.254	85.5
372.48	95.5
372.706	79.5
372.932	94.5
373.158	95.5
373.384	95.5
373.61	102.5
373.835	74.5
374.061	92.5
374.287	107.5
374.513	98.5
374.739	83.5
374.965	100.5
375.191	96.5
375.416	84.5
375.642	94.5
375.868	95.5
376.094	100.5
376.319	91.5
376.545	89.5
376.771	96.5
376.997	94.5
377.222	94.5
377.448	92.5
377.674	83.5
377.899	97.5
378.125	95.5
378.35	80.5
378.576	78.5
378.802	90.5
379.027	105.5
379.253	92.5
379.478	91.5
379.704	81.5
379.929	85.5
380.155	81.5
380.38	88.5
380.606	103.5
380.831	97.5
381.057	95.5
381.282	94.5
381.507	92.5
381.733	90.5
381.958	96.5
382.184	109.5
382.409	97.5
382.634	105.5
382.86	103.5
383.085	89.5
383.31	108.5
383.535	101.5
383.761	108.5
383.986	92.5
384.211	101.5
384.436	96.5
384.662	107.5
384.887	98.5
385.112	96.5
385.337	102.5
385.562	108.5
385.787	105.5
386.013	131.5
386.238	116.5
386.463	106.5
386.688	112.5
386.913	89.5
387.138	112.5
387.363	110.5
387.588	96.5
387.813	110.5
388.038	97.5
388.263	103.5
388.488	118.5
388.713	93.5
388.938	92.5
389.163	90.5
389.387	85.5
389.612	90.5
389.837	96.5
390.062	89.5
390.287	100.5
390.512	105.5
390.736	98.5
390.961	94.5
391.186	106.5
391.411	92.5
391.636	85.5
391.86	96.5
392.085	91.5
392.31	90.5
392.534	89.5
392.759	100.5
392.984	107.5
393.208	96.5
393.433	99.5
393.658	99.5
393.882	87.5
394.107	88.5
394.331	87.5
394.556	89.5
394.78	84.5
395.005	84.5
395.229	94.5
395.454	89.5
395.678	73.5
395.903	93.5
396.127	97.5
396.352	95.5
396.576	99.5
396.801	78.5
397.025	103.5
397.249	92.5
397.474	101.5
397.698	95.5
397.922	93.5
398.147	97.5
398.371	111.5
398.595	102.5
398.82	81.5
399.044	79.5
399.268	95.5
399.492	86.5
399.717	107.5
399.941	95.5
400.165	96.5
400.389	94.5
400.613	88.5
400.837	78.5
401.062	82.5
401.286	101.5
401.51	95.5
401.734	83.5
401.958	104.5
402.182	133.5
402.406	165.5
402.63	128.5
402.854	92.5
403.078	83.5
403.302	92.5
403.526	93.5
403.75	87.5
403.974	92.5
404.198	104.5
404.422	99.5
404.645	94.5
404.869	94.5
405.093	86.5
405.317	112.5
405.541	83.5
405.765	108.5
405.988	121.5
406.212	165.5
406.436	220.5
406.66	133.5
406.883	95.5
407.107	102.5
407.331	96.5
407.555	118.5
407.778	109.5
408.002	104.5
408.226	93.5
408.449	97.5
408.673	97.5
408.896	100.5
409.12	90.5
409.344	90.5
409.567	90.5
409.791	87.5
410.014	95.5
410.238	91.5
410.461	96.5
410.685	90.5
410.908	117.5
411.132	118.5
411.355	90.5
411.578	102.5
411.802	85.5
412.025	101.5
412.249	103.5
412.472	93.5
412.695	79.5
412.919	89.5
413.142	85.5
413.365	104.5
413.589	96.5
413.812	89.5
414.035	82.5
414.258	93.5
414.482	99.5
414.705	91.5
414.928	95.5
415.151	101.5
415.374	91.5
415.597	94.5
415.821	91.5
416.044	90.5
416.267	95.5
416.49	103.5
416.713	83.5
416.936	94.5
417.159	89.5
417.382	67.5
417.605	88.5
417.828	97.5
418.051	86.5
418.274	105.5
418.497	82.5
418.72	79.5
418.943	93.5
419.166	96.5
419.389	93.5
419.611	90.5
419.834	103.5
420.057	97.5
420.28	97.5
420.503	95.5
420.726	85.5
420.948	97.5
421.171	88.5
421.394	91.5
421.617	103.5
421.839	89.5
422.062	103.5
422.285	94.5
422.507	110.5
422.73	95.5
422.953	90.5
423.175	69.5
423.398	75.5
423.621	95.5
423.843	87.5
424.066	95.5
424.288	102.5
424.511	108.5
424.733	88.5
424.956	116.5
425.178	94.5
425.401	100.5
425.623	100.5
425.846	100.5
426.068	101.5
426.291	92.5
426.513	103.5
426.735	101.5
426.958	92.5
427.18	96.5
427.402	148.5
427.625	158.5
427.847	133.5
428.069	78.5
428.292	87.5
428.514	99.5
428.736	73.5
428.958	85.5
429.181	68.5
429.403	96.5
429.625	98.5
429.847	81.5
430.069	93.5
430.292	87.5
430.514	93.5
430.736	99.5
430.958	79.5
431.18	98.5
431.402	91.5
431.624	74.5
431.846	86.5
432.068	83.5
432.29	84.5
432.512	87.5
432.734	91.5
432.956	101.5
433.178	95.5
433.4	99.5
433.622	105.5
433.844	86.5
434.066	97.5
434.287	91.5
434.509	98.5
434.731	85.5
434.953	93.5
435.175	99.5
435.397	99.5
435.618	96.5
435.84	84.5
436.062	123.5
436.284	116.5
436.505	96.5
436.727	103.5
436.949	98.5
437.17	85.5
437.392	95.5
437.614	104.5
437.835	110.5
438.057	118.5
438.278	122.5
438.5	94.5
438.721	124.5
438.943	115.5
439.165	91.5
439.386	91.5
439.608	85.5
439.829	115.5
440.05	112.5
440.272	151.5
440.493	111.5
440.715	83.5
440.936	89.5
441.158	79.5
441.379	102.5
441.6	84.5
441.822	107.5
442.043	94.5
442.264	105.5
442.486	112.5
442.707	88.5
442.928	120.5
443.149	134.5
443.371	117.5
443.592	107.5
443.813	104.5
444.034	111.5
444.255	77.5
444.476	88.5
444.698	103.5
444.919	90.5
445.14	131.5
445.361	121.5
445.582	125.5
445.803	152.5
446.024	132.5
446.245	128.5
446.466	125.5
446.687	89.5
446.908	102.5
447.129	106.5
447.35	101.5
447.571	89.5
447.792	93.5
448.013	97.5
448.234	115.5
448.455	98.5
448.675	116.5
448.896	127.5
449.117	111.5
449.338	115.5
449.559	121.5
449.779	134.5
450	106.5
450.221	89.5
450.442	99.5
450.662	84.5
450.883	94.5
451.104	120.5
451.324	110.5
451.545	88.5
451.766	84.5
451.986	78.5
452.207	92.5
452.428	93.5
452.648	100.5
452.869	116.5
453.089	108.5
453.31	118.5
453.53	87.5
453.751	92.5
453.971	91.5
454.192	103.5
454.412	107.5
454.633	99.5
454.853	95.5
455.073	83.5
455.294	85.5
455.514	101.5
455.734	96.5
455.955	91.5
456.175	103.5
456.395	97.5
456.616	101.5
456.836	87.5
457.056	101.5
457.276	85.5
457.497	92.5
457.717	72.5
457.937	77.5
458.157	96.5
458.377	86.5
458.598	98.5
458.818	157.5
459.038	167.5
459.258	114.5
459.478	103.5
459.698	88.5
459.918	76.5
460.138	92.5
460.358	99.5
460.578	85.5
460.798	101.5
461.018	89.5
461.238	79.5
461.458	78.5
461.678	98.5
461.898	95.5
462.118	92.5
462.338	91.5
462.558	91.5
462.777	97.5
462.997	93.5
463.217	86.5
463.437	88.5
463.657	84.5
463.876	99.5
464.096	94.5
464.316	97.5
464.536	95.5
464.755	92.5
464.975	111.5
465.195	165.5
465.414	164.5
465.634	102.5
465.854	95.5
466.073	95.5
466.293	96.5
466.512	81.5
466.732	75.5
466.951	84.5
467.171	116.5
467.391	103.5
467.61	98.5
467.829	95.5
468.049	75.5
468.268	89.5
468.488	77.5
468.707	90.5
468.927	81.5
469.146	86.5
469.365	85.5
469.585	92.5
469.804	105.5
470.023	99.5
470.243	91.5
470.462	102.5
470.681	122.5
470.901	103.5
471.12	77.5
471.339	95.5
471.558	108.5
471.777	106.5
471.997	91.5
472.216	86.5
472.435	88.5
472.654	78.5
472.873	79.5
473.092	96.5
473.311	89.5
473.53	85.5
473.749	88.5
473.968	97.5
474.187	116.5
474.406	87.5
474.625	84.5
474.844	90.5
475.063	93.5
475.282	81.5
475.501	100.5
475.72	97.5
475.939	80.5
476.158	89.5
476.377	107.5
476.596	87.5
476.814	93.5
477.033	103.5
477.252	105.5
477.471	80.5
477.69	91.5
477.908	84.5
478.127	104.5
478.346	86.5
478.564	88.5
478.783	97.5
479.002	90.5
479.22	88.5
479.439	106.5
479.658	105.5
479.876	107.5
480.095	99.5
480.313	98.5
480.532	88.5
480.751	84.5
480.969	95.5
481.188	103.5
481.406	103.5
481.624	105.5
481.843	96.5
482.061	100.5
482.28	87.5
482.498	91.5
482.717	79.5
482.935	93.5
483.153	90.5
483.372	92.5
483.59	98.5
483.808	97.5
484.027	88.5
484.245	80.5
484.463	83.5
484.681	89.5
484.9	111.5
485.118	106.5
485.336	92.5
485.554	92.5
485.772	93.5
485.99	95.5
486.209	90.5
486.427	109.5
486.645	118.5
486.863	103.5
487.081	96.5
487.299	102.5
487.517	102.5
487.735	111.5
487.953	103.5
488.171	100.5
488.389	102.5
488.607	94.5
488.825	83.5
489.043	107.5
489.261	98.5
489.479	83.5
489.696	89.5
489.914	90.5
490.132	94.5
490.35	91.5
490.568	94.5
490.786	99.5
491.003	96.5
491.221	81.5
491.439	87.5
491.657	107.5
491.874	90.5
492.092	72.5
492.31	87.5
492.527	80.5
492.745	94.5
492.963	97.5
493.18	91.5
493.398	89.5
493.615	92.5
493.833	96.5
494.05	91.5
494.268	83.5
494.485	108.5
494.703	89.5
494.92	88.5
495.138	95.5
495.355	96.5
495.573	92.5
495.79	91.5
496.008	90.5
496.225	99.5
496.442	96.5
496.66	95.5
496.877	104.5
497.094	99.5
497.312	84.5
497.529	102.5
497.746	85.5
497.963	101.5
498.181	91.5
498.398	84.5
498.615	99.5
498.832	83.5
499.049	85.5
499.267	87.5
499.484	92.5
499.701	85.5
499.918	100.5
500.135	93.5
500.352	92.5
500.569	89.5
500.786	100.5
501.003	77.5
501.22	84.5
501.437	100.5
501.654	97.5
501.871	104.5
502.088	99.5
502.305	100.5
502.522	90.5
502.739	85.5
502.956	101.5
503.172	88.5
503.389	96.5
503.606	97.5
503.823	97.5
504.04	103.5
504.256	105.5
504.473	93.5
504.69	89.5
504.907	84.5
505.123	86.5
505.34	91.5
505.557	92.5
505.773	105.5
505.99	102.5
506.207	83.5
506.423	98.5
506.64	92.5
506.856	90.5
507.073	86.5
507.289	92.5
507.506	90.5
507.722	116.5
507.939	109.5
508.155	103.5
508.372	103.5
508.588	95.5
508.805	105.5
509.021	100.5
509.238	104.5
509.454	97.5
509.67	95.5
509.887	113.5
510.103	122.5
510.319	205.5
510.536	768.5
510.752	2366.5
510.968	649.5
511.184	153.5
511.401	121.5
511.617	95.5
511.833	105.5
512.049	87.5
512.265	97.5
512.481	97.5
512.698	87.5
512.914	97.5
513.13	104.5
513.346	94.5
513.562	108.5
513.778	103.5
513.994	97.5
514.21	121.5
514.426	124.5
514.642	114.5
514.858	112.5
515.074	177.5
515.29	454.5
515.506	1433.5
515.721	537.5
515.937	160.5
516.153	117.5
516.369	118.5
516.585	88.5
516.801	93.5
517.016	97.5
517.232	103.5
517.448	99.5
517.664	94.5
517.879	89.5
518.095	103.5
518.311	105.5
518.527	105.5
518.742	92.5
518.958	96.5
519.173	90.5
519.389	104.5
519.605	98.5
519.82	97.5
520.036	103.5
520.251	113.5
520.467	108.5
520.682	106.5
520.898	106.5
521.113	124.5
521.329	142.5
521.544	203.5
521.76	576.5
521.975	2409.5
522.19	1435.5
522.406	301.5
522.621	116.5
522.836	123.5
523.052	106.5
523.267	104.5
523.482	82.5
523.698	106.5
523.913	123.5
524.128	117.5
524.343	120.5
524.559	105.5
524.774	101.5
524.989	96.5
525.204	97.5
525.419	96.5
525.634	99.5
525.849	94.5
526.064	116.5
526.28	83.5
526.495	100.5
526.71	97.5
526.925	93.5
527.14	86.5
527.355	93.5
527.57	101.5
527.785	106.5
527.999	95.5
528.214	98.5
528.429	110.5
528.644	88.5
528.859	113.5
529.074	105.5
529.289	120.5
529.503	171.5
529.718	120.5
529.933	90.5
530.148	103.5
530.363	86.5
530.577	92.5
530.792	107.5
531.007	84.5
531.221	92.5
531.436	91.5
531.651	84.5
531.865	93.5
532.08	87.5
532.295	94.5
532.509	85.5
532.724	99.5
532.938	107.5
533.153	109.5
533.367	88.5
533.582	103.5
533.796	99.5
