Data from Uncirc_2001_H10_HRD10591_00024.txt Node
Date: Wed Jan 03 10:44:01 EST 2024
User: Yrep
Spectrometer: HR+D1059
Trigger mode: 1
Integration Time (sec): 1.000000E-1
Scans to average: 1
Electric dark correction enabled: true
Nonlinearity correction enabled: false
Boxcar width: 0
XAxis mode: Wavelengths
Number of Pixels in Spectrum: 2048
>>>>>Begin Spectral Data<<<<<
223.165	-13.31
223.4	-13.31
223.635	-13.31
223.869	-19.31
224.104	-22.31
224.338	-8.31
224.573	-28.31
224.808	-5.31
225.042	-11.31
225.277	-10.31
225.511	-0.31
225.746	1.69
225.98	6.69
226.215	13.69
226.449	19.69
226.683	10.69
226.918	28.69
227.152	37.69
227.387	45.69
227.621	33.69
227.856	45.69
228.09	44.69
228.324	48.69
228.559	40.69
228.793	61.69
229.027	71.69
229.262	73.69
229.496	79.69
229.73	77.69
229.964	102.69
230.199	69.69
230.433	73.69
230.667	73.69
230.901	85.69
231.136	83.69
231.37	65.69
231.604	88.69
231.838	78.69
232.072	83.69
232.306	84.69
232.541	80.69
232.775	87.69
233.009	98.69
233.243	83.69
233.477	79.69
233.711	79.69
233.945	73.69
234.179	75.69
234.413	82.69
234.647	77.69
234.881	81.69
235.115	74.69
235.349	89.69
235.583	90.69
235.817	80.69
236.051	90.69
236.285	79.69
236.519	84.69
236.753	82.69
236.987	83.69
237.221	79.69
237.455	71.69
237.689	86.69
237.922	81.69
238.156	71.69
238.39	79.69
238.624	88.69
238.858	65.69
239.091	86.69
239.325	72.69
239.559	83.69
239.793	83.69
240.027	79.69
240.26	82.69
240.494	75.69
240.728	78.69
240.961	65.69
241.195	87.69
241.429	80.69
241.662	84.69
241.896	96.69
242.13	79.69
242.363	70.69
242.597	73.69
242.83	77.69
243.064	80.69
243.298	80.69
243.531	83.69
243.765	71.69
243.998	68.69
244.232	79.69
244.465	83.69
244.699	93.69
244.932	86.69
245.166	95.69
245.399	88.69
245.633	80.69
245.866	75.69
246.099	70.69
246.333	58.69
246.566	69.69
246.8	86.69
247.033	78.69
247.266	86.69
247.5	87.69
247.733	80.69
247.966	75.69
248.2	85.69
248.433	86.69
248.666	86.69
248.899	78.69
249.133	80.69
249.366	87.69
249.599	101.69
249.832	82.69
250.066	92.69
250.299	81.69
250.532	70.69
250.765	69.69
250.998	91.69
251.231	69.69
251.465	95.69
251.698	72.69
251.931	72.69
252.164	89.69
252.397	90.69
252.63	85.69
252.863	93.69
253.096	65.69
253.329	78.69
253.562	86.69
253.795	72.69
254.028	77.69
254.261	83.69
254.494	73.69
254.727	83.69
254.96	71.69
255.193	83.69
255.426	73.69
255.659	92.69
255.892	100.69
256.124	83.69
256.357	81.69
256.59	86.69
256.823	84.69
257.056	69.69
257.289	97.69
257.521	80.69
257.754	51.69
257.987	70.69
258.22	89.69
258.452	90.69
258.685	87.69
258.918	90.69
259.151	78.69
259.383	81.69
259.616	72.69
259.849	82.69
260.081	75.69
260.314	84.69
260.547	84.69
260.779	75.69
261.012	81.69
261.244	81.69
261.477	81.69
261.71	94.69
261.942	105.69
262.175	107.69
262.407	86.69
262.64	97.69
262.872	76.69
263.105	70.69
263.337	85.69
263.57	80.69
263.802	87.69
264.035	83.69
264.267	92.69
264.499	75.69
264.732	77.69
264.964	94.69
265.197	78.69
265.429	76.69
265.661	76.69
265.894	92.69
266.126	97.69
266.358	87.69
266.591	81.69
266.823	76.69
267.055	82.69
267.287	93.69
267.52	84.69
267.752	81.69
267.984	72.69
268.216	81.69
268.448	101.69
268.681	91.69
268.913	79.69
269.145	90.69
269.377	73.69
269.609	87.69
269.841	77.69
270.073	82.69
270.306	81.69
270.538	84.69
270.77	74.69
271.002	85.69
271.234	76.69
271.466	82.69
271.698	87.69
271.93	86.69
272.162	84.69
272.394	81.69
272.626	79.69
272.858	86.69
273.09	87.69
273.322	81.69
273.553	77.69
273.785	85.69
274.017	87.69
274.249	86.69
274.481	89.69
274.713	97.69
274.945	85.69
275.176	84.69
275.408	86.69
275.64	68.69
275.872	75.69
276.104	80.69
276.335	73.69
276.567	93.69
276.799	92.69
277.031	88.69
277.262	84.69
277.494	100.69
277.726	86.69
277.957	72.69
278.189	83.69
278.421	82.69
278.652	79.69
278.884	83.69
279.115	92.69
279.347	79.69
279.579	75.69
279.81	81.69
280.042	92.69
280.273	83.69
280.505	89.69
280.736	81.69
280.968	82.69
281.199	89.69
281.431	79.69
281.662	96.69
281.894	103.69
282.125	76.69
282.356	109.69
282.588	120.69
282.819	103.69
283.051	93.69
283.282	81.69
283.513	79.69
283.745	74.69
283.976	75.69
284.207	82.69
284.439	79.69
284.67	83.69
284.901	97.69
285.132	95.69
285.364	75.69
285.595	83.69
285.826	106.69
286.057	88.69
286.288	91.69
286.52	92.69
286.751	88.69
286.982	89.69
287.213	70.69
287.444	84.69
287.675	87.69
287.906	92.69
288.138	96.69
288.369	96.69
288.6	75.69
288.831	96.69
289.062	73.69
289.293	90.69
289.524	61.69
289.755	82.69
289.986	86.69
290.217	89.69
290.448	85.69
290.679	89.69
290.91	83.69
291.141	75.69
291.371	88.69
291.602	83.69
291.833	87.69
292.064	76.69
292.295	85.69
292.526	106.69
292.757	84.69
292.987	89.69
293.218	90.69
293.449	83.69
293.68	83.69
293.91	88.69
294.141	76.69
294.372	90.69
294.603	83.69
294.833	79.69
295.064	79.69
295.295	97.69
295.525	94.69
295.756	106.69
295.987	127.69
296.217	131.69
296.448	121.69
296.679	84.69
296.909	97.69
297.14	94.69
297.37	102.69
297.601	88.69
297.831	65.69
298.062	92.69
298.292	89.69
298.523	96.69
298.753	90.69
298.984	71.69
299.214	88.69
299.445	92.69
299.675	98.69
299.905	92.69
300.136	105.69
300.366	103.69
300.597	91.69
300.827	77.69
301.057	85.69
301.288	108.69
301.518	78.69
301.748	69.69
301.979	91.69
302.209	82.69
302.439	96.69
302.669	99.69
302.9	91.69
303.13	72.69
303.36	79.69
303.59	87.69
303.82	104.69
304.051	98.69
304.281	80.69
304.511	93.69
304.741	75.69
304.971	98.69
305.201	88.69
305.431	83.69
305.661	88.69
305.891	90.69
306.121	98.69
306.352	99.69
306.582	93.69
306.812	98.69
307.042	96.69
307.272	91.69
307.502	103.69
307.731	95.69
307.961	93.69
308.191	89.69
308.421	97.69
308.651	82.69
308.881	109.69
309.111	88.69
309.341	93.69
309.571	90.69
309.8	78.69
310.03	85.69
310.26	96.69
310.49	85.69
310.72	104.69
310.949	105.69
311.179	100.69
311.409	85.69
311.639	98.69
311.868	100.69
312.098	80.69
312.328	95.69
312.557	102.69
312.787	90.69
313.017	95.69
313.246	89.69
313.476	98.69
313.706	99.69
313.935	89.69
314.165	99.69
314.394	89.69
314.624	98.69
314.853	86.69
315.083	95.69
315.312	89.69
315.542	97.69
315.771	100.69
316.001	97.69
316.23	101.69
316.46	94.69
316.689	103.69
316.919	85.69
317.148	103.69
317.377	87.69
317.607	92.69
317.836	95.69
318.065	85.69
318.295	96.69
318.524	94.69
318.753	95.69
318.983	76.69
319.212	104.69
319.441	114.69
319.67	119.69
319.9	93.69
320.129	100.69
320.358	100.69
320.587	87.69
320.816	95.69
321.046	87.69
321.275	70.69
321.504	90.69
321.733	100.69
321.962	96.69
322.191	117.69
322.42	88.69
322.649	112.69
322.878	92.69
323.108	103.69
323.337	114.69
323.566	123.69
323.795	130.69
324.024	180.69
324.253	323.69
324.482	657.69
324.71	1262.69
324.939	1611.69
325.168	613.69
325.397	203.69
325.626	123.69
325.855	122.69
326.084	123.69
326.313	130.69
326.542	149.69
326.77	180.69
326.999	372.69
327.228	715.69
327.457	1283.69
327.686	1004.69
327.914	291.69
328.143	167.69
328.372	129.69
328.6	115.69
328.829	116.69
329.058	111.69
329.287	111.69
329.515	99.69
329.744	105.69
329.972	88.69
330.201	104.69
330.43	106.69
330.658	114.69
330.887	124.69
331.115	106.69
331.344	97.69
331.572	102.69
331.801	99.69
332.03	84.69
332.258	93.69
332.486	98.69
332.715	102.69
332.943	97.69
333.172	96.69
333.4	94.69
333.629	113.69
333.857	99.69
334.085	105.69
334.314	87.69
334.542	96.69
334.771	89.69
334.999	78.69
335.227	104.69
335.455	96.69
335.684	96.69
335.912	88.69
336.14	94.69
336.369	89.69
336.597	106.69
336.825	91.69
337.053	98.69
337.281	95.69
337.51	94.69
337.738	92.69
337.966	85.69
338.194	89.69
338.422	89.69
338.65	107.69
338.878	82.69
339.106	96.69
339.334	92.69
339.562	89.69
339.79	92.69
340.018	86.69
340.246	82.69
340.474	100.69
340.702	84.69
340.93	98.69
341.158	87.69
341.386	80.69
341.614	101.69
341.842	92.69
342.07	92.69
342.298	102.69
342.526	98.69
342.754	93.69
342.981	97.69
343.209	73.69
343.437	101.69
343.665	89.69
343.893	98.69
344.12	90.69
344.348	87.69
344.576	96.69
344.804	83.69
345.031	84.69
345.259	111.69
345.487	85.69
345.714	72.69
345.942	96.69
346.17	93.69
346.397	103.69
346.625	87.69
346.853	95.69
347.08	82.69
347.308	100.69
347.535	92.69
347.763	90.69
347.99	103.69
348.218	103.69
348.445	102.69
348.673	106.69
348.9	91.69
349.128	102.69
349.355	94.69
349.583	96.69
349.81	85.69
350.037	97.69
350.265	92.69
350.492	98.69
350.72	83.69
350.947	107.69
351.174	104.69
351.402	108.69
351.629	110.69
351.856	103.69
352.083	89.69
352.311	94.69
352.538	93.69
352.765	112.69
352.992	120.69
353.22	110.69
353.447	109.69
353.674	104.69
353.901	98.69
354.128	84.69
354.355	105.69
354.583	106.69
354.81	81.69
355.037	86.69
355.264	95.69
355.491	79.69
355.718	88.69
355.945	97.69
356.172	97.69
356.399	106.69
356.626	107.69
356.853	91.69
357.08	89.69
357.307	81.69
357.534	89.69
357.761	92.69
357.988	83.69
358.215	100.69
358.441	104.69
358.668	91.69
358.895	97.69
359.122	100.69
359.349	83.69
359.576	84.69
359.802	102.69
360.029	105.69
360.256	111.69
360.483	88.69
360.709	93.69
360.936	95.69
361.163	90.69
361.39	83.69
361.616	104.69
361.843	79.69
362.07	106.69
362.296	89.69
362.523	94.69
362.749	82.69
362.976	88.69
363.203	83.69
363.429	94.69
363.656	104.69
363.882	86.69
364.109	79.69
364.335	101.69
364.562	79.69
364.788	86.69
365.015	85.69
365.241	89.69
365.468	105.69
365.694	107.69
365.92	98.69
366.147	94.69
366.373	91.69
366.599	86.69
366.826	89.69
367.052	91.69
367.278	82.69
367.505	87.69
367.731	97.69
367.957	84.69
368.184	90.69
368.41	97.69
368.636	118.69
368.862	114.69
369.089	105.69
369.315	90.69
369.541	80.69
369.767	81.69
369.993	97.69
370.219	76.69
370.445	88.69
370.672	73.69
370.898	95.69
371.124	89.69
371.35	85.69
371.576	84.69
371.802	93.69
372.028	93.69
372.254	104.69
372.48	86.69
372.706	87.69
372.932	85.69
373.158	88.69
373.384	78.69
373.61	88.69
373.835	92.69
374.061	81.69
374.287	91.69
374.513	79.69
374.739	91.69
374.965	87.69
375.191	86.69
375.416	102.69
375.642	96.69
375.868	84.69
376.094	92.69
376.319	89.69
376.545	90.69
376.771	97.69
376.997	96.69
377.222	91.69
377.448	89.69
377.674	81.69
377.899	89.69
378.125	79.69
378.35	82.69
378.576	82.69
378.802	97.69
379.027	91.69
379.253	93.69
379.478	99.69
379.704	83.69
379.929	91.69
380.155	90.69
380.38	110.69
380.606	97.69
380.831	98.69
381.057	94.69
381.282	101.69
381.507	89.69
381.733	99.69
381.958	98.69
382.184	98.69
382.409	89.69
382.634	91.69
382.86	97.69
383.085	113.69
383.31	102.69
383.535	100.69
383.761	90.69
383.986	92.69
384.211	93.69
384.436	93.69
384.662	88.69
384.887	110.69
385.112	112.69
385.337	102.69
385.562	107.69
385.787	112.69
386.013	111.69
386.238	122.69
386.463	101.69
386.688	99.69
386.913	93.69
387.138	120.69
387.363	103.69
387.588	108.69
387.813	91.69
388.038	104.69
388.263	119.69
388.488	107.69
388.713	86.69
388.938	99.69
389.163	99.69
389.387	93.69
389.612	97.69
389.837	95.69
390.062	95.69
390.287	93.69
390.512	92.69
390.736	102.69
390.961	77.69
391.186	85.69
391.411	97.69
391.636	93.69
391.86	88.69
392.085	84.69
392.31	89.69
392.534	89.69
392.759	84.69
392.984	84.69
393.208	91.69
393.433	100.69
393.658	88.69
393.882	83.69
394.107	86.69
394.331	86.69
394.556	81.69
394.78	80.69
395.005	92.69
395.229	84.69
395.454	82.69
395.678	100.69
395.903	100.69
396.127	95.69
396.352	86.69
396.576	92.69
396.801	89.69
397.025	73.69
397.249	88.69
397.474	87.69
397.698	69.69
397.922	74.69
398.147	80.69
398.371	86.69
398.595	83.69
398.82	89.69
399.044	97.69
399.268	76.69
399.492	76.69
399.717	85.69
399.941	89.69
400.165	91.69
400.389	88.69
400.613	83.69
400.837	81.69
401.062	83.69
401.286	92.69
401.51	105.69
401.734	85.69
401.958	103.69
402.182	128.69
402.406	142.69
402.63	103.69
402.854	79.69
403.078	87.69
403.302	89.69
403.526	88.69
403.75	95.69
403.974	85.69
404.198	85.69
404.422	83.69
404.645	85.69
404.869	89.69
405.093	96.69
405.317	96.69
405.541	85.69
405.765	85.69
405.988	101.69
406.212	148.69
406.436	204.69
406.66	129.69
406.883	97.69
407.107	87.69
407.331	89.69
407.555	84.69
407.778	94.69
408.002	99.69
408.226	84.69
408.449	72.69
408.673	88.69
408.896	91.69
409.12	83.69
409.344	88.69
409.567	92.69
409.791	109.69
410.014	95.69
410.238	86.69
410.461	88.69
410.685	83.69
410.908	106.69
411.132	108.69
411.355	105.69
411.578	97.69
411.802	86.69
412.025	82.69
412.249	77.69
412.472	91.69
412.695	98.69
412.919	87.69
413.142	84.69
413.365	92.69
413.589	83.69
413.812	89.69
414.035	86.69
414.258	88.69
414.482	98.69
414.705	89.69
414.928	99.69
415.151	97.69
415.374	95.69
415.597	82.69
415.821	91.69
416.044	80.69
416.267	85.69
416.49	94.69
416.713	90.69
416.936	83.69
417.159	86.69
417.382	82.69
417.605	98.69
417.828	80.69
418.051	88.69
418.274	84.69
418.497	89.69
418.72	96.69
418.943	94.69
419.166	90.69
419.389	99.69
419.611	77.69
419.834	87.69
420.057	69.69
420.28	85.69
420.503	88.69
420.726	99.69
420.948	85.69
421.171	86.69
421.394	93.69
421.617	90.69
421.839	90.69
422.062	102.69
422.285	85.69
422.507	101.69
422.73	99.69
422.953	85.69
423.175	96.69
423.398	96.69
423.621	97.69
423.843	94.69
424.066	76.69
424.288	85.69
424.511	98.69
424.733	99.69
424.956	86.69
425.178	93.69
425.401	92.69
425.623	97.69
425.846	88.69
426.068	91.69
426.291	93.69
426.513	81.69
426.735	95.69
426.958	96.69
427.18	104.69
427.402	147.69
427.625	149.69
427.847	128.69
428.069	101.69
428.292	99.69
428.514	86.69
428.736	67.69
428.958	93.69
429.181	82.69
429.403	83.69
429.625	81.69
429.847	88.69
430.069	90.69
430.292	103.69
430.514	91.69
430.736	89.69
430.958	89.69
431.18	75.69
431.402	78.69
431.624	78.69
431.846	74.69
432.068	89.69
432.29	92.69
432.512	92.69
432.734	97.69
432.956	88.69
433.178	91.69
433.4	97.69
433.622	74.69
433.844	87.69
434.066	87.69
434.287	84.69
434.509	89.69
434.731	83.69
434.953	88.69
435.175	92.69
435.397	95.69
435.618	78.69
435.84	96.69
436.062	111.69
436.284	106.69
436.505	98.69
436.727	95.69
436.949	89.69
437.17	80.69
437.392	91.69
437.614	91.69
437.835	107.69
438.057	119.69
438.278	107.69
438.5	92.69
438.721	124.69
438.943	100.69
439.165	90.69
439.386	95.69
439.608	94.69
439.829	103.69
440.05	107.69
440.272	123.69
440.493	99.69
440.715	76.69
440.936	79.69
441.158	89.69
441.379	98.69
441.6	103.69
441.822	113.69
442.043	101.69
442.264	86.69
442.486	93.69
442.707	83.69
442.928	109.69
443.149	121.69
443.371	120.69
443.592	119.69
443.813	101.69
444.034	106.69
444.255	102.69
444.476	84.69
444.698	89.69
444.919	87.69
445.14	148.69
445.361	129.69
445.582	90.69
445.803	107.69
446.024	135.69
446.245	117.69
446.466	106.69
446.687	81.69
446.908	88.69
447.129	75.69
447.35	87.69
447.571	102.69
447.792	103.69
448.013	91.69
448.234	99.69
448.455	85.69
448.675	97.69
448.896	114.69
449.117	102.69
449.338	97.69
449.559	119.69
449.779	118.69
450	97.69
450.221	87.69
450.442	99.69
450.662	87.69
450.883	109.69
451.104	102.69
451.324	96.69
451.545	93.69
451.766	112.69
451.986	91.69
452.207	71.69
452.428	97.69
452.648	83.69
452.869	117.69
453.089	123.69
453.31	108.69
453.53	100.69
453.751	107.69
453.971	106.69
454.192	87.69
454.412	96.69
454.633	87.69
454.853	98.69
455.073	90.69
455.294	89.69
455.514	92.69
455.734	103.69
455.955	91.69
456.175	90.69
456.395	79.69
456.616	77.69
456.836	87.69
457.056	96.69
457.276	97.69
457.497	93.69
457.717	81.69
457.937	80.69
458.157	74.69
458.377	94.69
458.598	94.69
458.818	131.69
459.038	131.69
459.258	116.69
459.478	92.69
459.698	90.69
459.918	88.69
460.138	97.69
460.358	81.69
460.578	81.69
460.798	88.69
461.018	93.69
461.238	90.69
461.458	86.69
461.678	87.69
461.898	90.69
462.118	82.69
462.338	75.69
462.558	89.69
462.777	80.69
462.997	89.69
463.217	83.69
463.437	80.69
463.657	87.69
463.876	89.69
464.096	105.69
464.316	100.69
464.536	95.69
464.755	105.69
464.975	110.69
465.195	160.69
465.414	128.69
465.634	76.69
465.854	92.69
466.073	92.69
466.293	87.69
466.512	95.69
466.732	100.69
466.951	89.69
467.171	89.69
467.391	80.69
467.61	101.69
467.829	106.69
468.049	87.69
468.268	87.69
468.488	66.69
468.707	86.69
468.927	88.69
469.146	92.69
469.365	89.69
469.585	103.69
469.804	92.69
470.023	91.69
470.243	93.69
470.462	101.69
470.681	99.69
470.901	85.69
471.12	87.69
471.339	85.69
471.558	98.69
471.777	91.69
471.997	90.69
472.216	98.69
472.435	93.69
472.654	81.69
472.873	81.69
473.092	83.69
473.311	87.69
473.53	91.69
473.749	90.69
473.968	93.69
474.187	99.69
474.406	96.69
474.625	93.69
474.844	76.69
475.063	85.69
475.282	88.69
475.501	87.69
475.72	87.69
475.939	89.69
476.158	87.69
476.377	71.69
476.596	92.69
476.814	77.69
477.033	87.69
477.252	88.69
477.471	89.69
477.69	94.69
477.908	75.69
478.127	81.69
478.346	93.69
478.564	90.69
478.783	90.69
479.002	68.69
479.22	89.69
479.439	102.69
479.658	105.69
479.876	87.69
480.095	89.69
480.313	82.69
480.532	73.69
480.751	95.69
480.969	88.69
481.188	106.69
481.406	95.69
481.624	97.69
481.843	83.69
482.061	85.69
482.28	82.69
482.498	96.69
482.717	97.69
482.935	82.69
483.153	94.69
483.372	96.69
483.59	100.69
483.808	85.69
484.027	88.69
484.245	92.69
484.463	80.69
484.681	102.69
484.9	100.69
485.118	87.69
485.336	91.69
485.554	110.69
485.772	79.69
485.99	112.69
486.209	120.69
486.427	96.69
486.645	120.69
486.863	107.69
487.081	101.69
487.299	111.69
487.517	90.69
487.735	100.69
487.953	95.69
488.171	99.69
488.389	91.69
488.607	97.69
488.825	86.69
489.043	97.69
489.261	90.69
489.479	92.69
489.696	96.69
489.914	102.69
490.132	79.69
490.35	88.69
490.568	97.69
490.786	98.69
491.003	92.69
491.221	98.69
491.439	88.69
491.657	101.69
491.874	105.69
492.092	92.69
492.31	87.69
492.527	73.69
492.745	91.69
492.963	96.69
493.18	101.69
493.398	89.69
493.615	91.69
493.833	94.69
494.05	80.69
494.268	98.69
494.485	95.69
494.703	100.69
494.92	91.69
495.138	96.69
495.355	99.69
495.573	98.69
495.79	102.69
496.008	100.69
496.225	96.69
496.442	105.69
496.66	89.69
496.877	92.69
497.094	116.69
497.312	100.69
497.529	92.69
497.746	82.69
497.963	88.69
498.181	79.69
498.398	91.69
498.615	109.69
498.832	106.69
499.049	107.69
499.267	96.69
499.484	92.69
499.701	84.69
499.918	92.69
500.135	85.69
500.352	88.69
500.569	95.69
500.786	98.69
501.003	102.69
501.22	100.69
501.437	90.69
501.654	81.69
501.871	108.69
502.088	97.69
502.305	99.69
502.522	101.69
502.739	90.69
502.956	93.69
503.172	86.69
503.389	98.69
503.606	92.69
503.823	117.69
504.04	95.69
504.256	89.69
504.473	79.69
504.69	82.69
504.907	96.69
505.123	98.69
505.34	109.69
505.557	75.69
505.773	91.69
505.99	79.69
506.207	93.69
506.423	89.69
506.64	91.69
506.856	84.69
507.073	92.69
507.289	76.69
507.506	91.69
507.722	118.69
507.939	106.69
508.155	92.69
508.372	93.69
508.588	90.69
508.805	103.69
509.021	90.69
509.238	93.69
509.454	90.69
509.67	89.69
509.887	116.69
510.103	136.69
510.319	204.69
510.536	679.69
510.752	2069.69
510.968	590.69
511.184	132.69
511.401	108.69
511.617	104.69
511.833	103.69
512.049	99.69
512.265	85.69
512.481	104.69
512.698	116.69
512.914	99.69
513.13	83.69
513.346	92.69
513.562	109.69
513.778	81.69
513.994	105.69
514.21	91.69
514.426	112.69
514.642	132.69
514.858	100.69
515.074	154.69
515.29	397.69
515.506	1293.69
515.721	466.69
515.937	143.69
