Data from Uncirc_2001_H10_HRD10591_00094.txt Node
Date: Wed Jan 03 10:44:15 EST 2024
User: Yrep
Spectrometer: HR+D1059
Trigger mode: 1
Integration Time (sec): 1.000000E-1
Scans to average: 1
Electric dark correction enabled: true
Nonlinearity correction enabled: false
Boxcar width: 0
XAxis mode: Wavelengths
Number of Pixels in Spectrum: 2048
>>>>>Begin Spectral Data<<<<<
223.165	-21.31
223.4	-21.31
223.635	-21.31
223.869	-17.31
224.104	-23.31
224.338	-23.31
224.573	-12.31
224.808	-17.31
225.042	-4.31
225.277	-5.31
225.511	-3.31
225.746	2.69
225.98	14.69
226.215	4.69
226.449	21.69
226.683	22.69
226.918	23.69
227.152	37.69
227.387	40.69
227.621	46.69
227.856	41.69
228.09	48.69
228.324	40.69
228.559	67.69
228.793	60.69
229.027	70.69
229.262	64.69
229.496	66.69
229.73	67.69
229.964	80.69
230.199	83.69
230.433	79.69
230.667	93.69
230.901	81.69
231.136	75.69
231.37	81.69
231.604	87.69
231.838	90.69
232.072	82.69
232.306	88.69
232.541	82.69
232.775	78.69
233.009	86.69
233.243	84.69
233.477	86.69
233.711	85.69
233.945	84.69
234.179	99.69
234.413	75.69
234.647	76.69
234.881	87.69
235.115	92.69
235.349	80.69
235.583	76.69
235.817	83.69
236.051	70.69
236.285	77.69
236.519	82.69
236.753	83.69
236.987	81.69
237.221	92.69
237.455	86.69
237.689	74.69
237.922	73.69
238.156	67.69
238.39	74.69
238.624	72.69
238.858	77.69
239.091	92.69
239.325	79.69
239.559	88.69
239.793	88.69
240.027	77.69
240.26	74.69
240.494	84.69
240.728	81.69
240.961	84.69
241.195	95.69
241.429	78.69
241.662	76.69
241.896	70.69
242.13	80.69
242.363	72.69
242.597	79.69
242.83	74.69
243.064	72.69
243.298	84.69
243.531	80.69
243.765	75.69
243.998	89.69
244.232	90.69
244.465	80.69
244.699	91.69
244.932	68.69
245.166	76.69
245.399	78.69
245.633	79.69
245.866	86.69
246.099	77.69
246.333	58.69
246.566	71.69
246.8	82.69
247.033	82.69
247.266	68.69
247.5	74.69
247.733	80.69
247.966	73.69
248.2	77.69
248.433	72.69
248.666	65.69
248.899	83.69
249.133	86.69
249.366	97.69
249.599	92.69
249.832	95.69
250.066	70.69
250.299	84.69
250.532	81.69
250.765	78.69
250.998	82.69
251.231	88.69
251.465	65.69
251.698	80.69
251.931	72.69
252.164	75.69
252.397	87.69
252.63	84.69
252.863	85.69
253.096	68.69
253.329	76.69
253.562	61.69
253.795	79.69
254.028	79.69
254.261	87.69
254.494	76.69
254.727	90.69
254.96	84.69
255.193	75.69
255.426	88.69
255.659	73.69
255.892	87.69
256.124	79.69
256.357	73.69
256.59	77.69
256.823	81.69
257.056	99.69
257.289	76.69
257.521	109.69
257.754	76.69
257.987	74.69
258.22	86.69
258.452	77.69
258.685	72.69
258.918	75.69
259.151	78.69
259.383	77.69
259.616	78.69
259.849	87.69
260.081	76.69
260.314	109.69
260.547	80.69
260.779	70.69
261.012	81.69
261.244	90.69
261.477	89.69
261.71	106.69
261.942	97.69
262.175	116.69
262.407	92.69
262.64	81.69
262.872	82.69
263.105	80.69
263.337	88.69
263.57	91.69
263.802	89.69
264.035	101.69
264.267	90.69
264.499	89.69
264.732	87.69
264.964	71.69
265.197	85.69
265.429	86.69
265.661	67.69
265.894	82.69
266.126	88.69
266.358	85.69
266.591	89.69
266.823	72.69
267.055	72.69
267.287	78.69
267.52	86.69
267.752	85.69
267.984	79.69
268.216	85.69
268.448	83.69
268.681	84.69
268.913	104.69
269.145	84.69
269.377	100.69
269.609	67.69
269.841	85.69
270.073	90.69
270.306	99.69
270.538	94.69
270.77	87.69
271.002	74.69
271.234	94.69
271.466	83.69
271.698	71.69
271.93	99.69
272.162	83.69
272.394	85.69
272.626	85.69
272.858	80.69
273.09	98.69
273.322	84.69
273.553	85.69
273.785	86.69
274.017	86.69
274.249	83.69
274.481	88.69
274.713	71.69
274.945	82.69
275.176	83.69
275.408	84.69
275.64	81.69
275.872	77.69
276.104	92.69
276.335	102.69
276.567	84.69
276.799	103.69
277.031	101.69
277.262	81.69
277.494	88.69
277.726	93.69
277.957	85.69
278.189	88.69
278.421	89.69
278.652	99.69
278.884	95.69
279.115	99.69
279.347	89.69
279.579	78.69
279.81	85.69
280.042	85.69
280.273	85.69
280.505	84.69
280.736	98.69
280.968	85.69
281.199	84.69
281.431	84.69
281.662	81.69
281.894	83.69
282.125	100.69
282.356	118.69
282.588	156.69
282.819	113.69
283.051	80.69
283.282	74.69
283.513	88.69
283.745	84.69
283.976	90.69
284.207	89.69
284.439	89.69
284.67	88.69
284.901	85.69
285.132	106.69
285.364	76.69
285.595	87.69
285.826	87.69
286.057	93.69
286.288	89.69
286.52	83.69
286.751	96.69
286.982	85.69
287.213	93.69
287.444	108.69
287.675	89.69
287.906	82.69
288.138	86.69
288.369	86.69
288.6	89.69
288.831	77.69
289.062	91.69
289.293	97.69
289.524	88.69
289.755	84.69
289.986	91.69
290.217	85.69
290.448	85.69
290.679	99.69
290.91	89.69
291.141	82.69
291.371	86.69
291.602	81.69
291.833	75.69
292.064	84.69
292.295	91.69
292.526	100.69
292.757	85.69
292.987	80.69
293.218	77.69
293.449	88.69
293.68	86.69
293.91	97.69
294.141	102.69
294.372	90.69
294.603	96.69
294.833	82.69
295.064	100.69
295.295	84.69
295.525	84.69
295.756	110.69
295.987	112.69
296.217	126.69
296.448	129.69
296.679	79.69
296.909	78.69
297.14	98.69
297.37	80.69
297.601	91.69
297.831	86.69
298.062	77.69
298.292	89.69
298.523	84.69
298.753	89.69
298.984	94.69
299.214	90.69
299.445	93.69
299.675	100.69
299.905	105.69
300.136	83.69
300.366	112.69
300.597	102.69
300.827	90.69
301.057	82.69
301.288	95.69
301.518	101.69
301.748	91.69
301.979	99.69
302.209	100.69
302.439	96.69
302.669	101.69
302.9	93.69
303.13	87.69
303.36	95.69
303.59	99.69
303.82	91.69
304.051	86.69
304.281	104.69
304.511	84.69
304.741	90.69
304.971	89.69
305.201	88.69
305.431	74.69
305.661	101.69
305.891	93.69
306.121	97.69
306.352	94.69
306.582	90.69
306.812	101.69
307.042	84.69
307.272	93.69
307.502	89.69
307.731	88.69
307.961	90.69
308.191	87.69
308.421	92.69
308.651	88.69
308.881	88.69
309.111	104.69
309.341	93.69
309.571	100.69
309.8	97.69
310.03	102.69
310.26	94.69
310.49	98.69
310.72	86.69
310.949	93.69
311.179	88.69
311.409	86.69
311.639	85.69
311.868	117.69
312.098	92.69
312.328	87.69
312.557	109.69
312.787	109.69
313.017	110.69
313.246	91.69
313.476	73.69
313.706	100.69
313.935	108.69
314.165	99.69
314.394	77.69
314.624	107.69
314.853	107.69
315.083	92.69
315.312	85.69
315.542	97.69
315.771	84.69
316.001	93.69
316.23	101.69
316.46	107.69
316.689	81.69
316.919	98.69
317.148	91.69
317.377	97.69
317.607	91.69
317.836	85.69
318.065	99.69
318.295	92.69
318.524	92.69
318.753	90.69
318.983	91.69
319.212	90.69
319.441	93.69
319.67	113.69
319.9	92.69
320.129	99.69
320.358	92.69
320.587	100.69
320.816	100.69
321.046	96.69
321.275	100.69
321.504	89.69
321.733	104.69
321.962	104.69
322.191	100.69
322.42	100.69
322.649	97.69
322.878	111.69
323.108	105.69
323.337	107.69
323.566	137.69
323.795	124.69
324.024	195.69
324.253	366.69
324.482	742.69
324.71	1566.69
324.939	1960.69
325.168	759.69
325.397	234.69
325.626	142.69
325.855	124.69
326.084	131.69
326.313	121.69
326.542	166.69
326.77	231.69
326.999	425.69
327.228	863.69
327.457	1511.69
327.686	1216.69
327.914	338.69
328.143	173.69
328.372	136.69
328.6	118.69
328.829	120.69
329.058	128.69
329.287	121.69
329.515	105.69
329.744	97.69
329.972	98.69
330.201	93.69
330.43	113.69
330.658	128.69
330.887	146.69
331.115	120.69
331.344	101.69
331.572	104.69
331.801	98.69
332.03	104.69
332.258	104.69
332.486	92.69
332.715	92.69
332.943	91.69
333.172	95.69
333.4	83.69
333.629	106.69
333.857	126.69
334.085	111.69
334.314	106.69
334.542	89.69
334.771	97.69
334.999	93.69
335.227	109.69
335.455	86.69
335.684	108.69
335.912	87.69
336.14	94.69
336.369	102.69
336.597	95.69
336.825	106.69
337.053	96.69
337.281	88.69
337.51	94.69
337.738	85.69
337.966	88.69
338.194	89.69
338.422	84.69
338.65	93.69
338.878	87.69
339.106	89.69
339.334	110.69
339.562	96.69
339.79	90.69
340.018	93.69
340.246	91.69
340.474	83.69
340.702	101.69
340.93	100.69
341.158	93.69
341.386	98.69
341.614	91.69
341.842	92.69
342.07	95.69
342.298	94.69
342.526	87.69
342.754	98.69
342.981	90.69
343.209	88.69
343.437	97.69
343.665	92.69
343.893	92.69
344.12	93.69
344.348	96.69
344.576	81.69
344.804	79.69
345.031	93.69
345.259	100.69
345.487	98.69
345.714	88.69
345.942	91.69
346.17	94.69
346.397	93.69
346.625	92.69
346.853	100.69
347.08	90.69
347.308	87.69
347.535	93.69
347.763	108.69
347.99	110.69
348.218	94.69
348.445	105.69
348.673	88.69
348.9	100.69
349.128	96.69
349.355	85.69
349.583	101.69
349.81	104.69
350.037	101.69
350.265	77.69
350.492	78.69
350.72	94.69
350.947	104.69
351.174	108.69
351.402	105.69
351.629	98.69
351.856	93.69
352.083	96.69
352.311	105.69
352.538	107.69
352.765	132.69
352.992	115.69
353.22	98.69
353.447	94.69
353.674	112.69
353.901	101.69
354.128	102.69
354.355	103.69
354.583	101.69
354.81	90.69
355.037	90.69
355.264	82.69
355.491	88.69
355.718	90.69
355.945	92.69
356.172	98.69
356.399	92.69
356.626	98.69
356.853	84.69
357.08	88.69
357.307	92.69
357.534	79.69
357.761	85.69
357.988	98.69
358.215	84.69
358.441	98.69
358.668	87.69
358.895	82.69
359.122	91.69
359.349	101.69
359.576	87.69
359.802	98.69
360.029	111.69
360.256	123.69
360.483	97.69
360.709	85.69
360.936	98.69
361.163	82.69
361.39	87.69
361.616	107.69
361.843	86.69
362.07	100.69
362.296	92.69
362.523	101.69
362.749	78.69
362.976	82.69
363.203	92.69
363.429	93.69
363.656	100.69
363.882	85.69
364.109	94.69
364.335	89.69
364.562	81.69
364.788	90.69
365.015	87.69
365.241	102.69
365.468	101.69
365.694	112.69
365.92	82.69
366.147	95.69
366.373	91.69
366.599	94.69
366.826	78.69
367.052	77.69
367.278	84.69
367.505	94.69
367.731	100.69
367.957	88.69
368.184	91.69
368.41	98.69
368.636	114.69
368.862	106.69
369.089	107.69
369.315	92.69
369.541	90.69
369.767	96.69
369.993	87.69
370.219	78.69
370.445	93.69
370.672	87.69
370.898	91.69
371.124	88.69
371.35	82.69
371.576	91.69
371.802	89.69
372.028	78.69
372.254	81.69
372.48	72.69
372.706	87.69
372.932	85.69
373.158	88.69
373.384	90.69
373.61	102.69
373.835	83.69
374.061	98.69
374.287	72.69
374.513	80.69
374.739	88.69
374.965	92.69
375.191	83.69
375.416	85.69
375.642	86.69
375.868	83.69
376.094	94.69
376.319	79.69
376.545	68.69
376.771	111.69
376.997	95.69
377.222	88.69
377.448	91.69
377.674	92.69
377.899	89.69
378.125	86.69
378.35	103.69
378.576	84.69
378.802	99.69
379.027	98.69
379.253	97.69
379.478	100.69
379.704	94.69
379.929	90.69
380.155	100.69
380.38	101.69
380.606	90.69
380.831	88.69
381.057	90.69
381.282	95.69
381.507	101.69
381.733	85.69
381.958	85.69
382.184	82.69
382.409	99.69
382.634	101.69
382.86	99.69
383.085	94.69
383.31	108.69
383.535	88.69
383.761	107.69
383.986	97.69
384.211	92.69
384.436	108.69
384.662	92.69
384.887	101.69
385.112	105.69
385.337	99.69
385.562	88.69
385.787	103.69
386.013	81.69
386.238	111.69
386.463	99.69
386.688	98.69
386.913	109.69
387.138	110.69
387.363	91.69
387.588	90.69
387.813	94.69
388.038	106.69
388.263	92.69
388.488	89.69
388.713	107.69
388.938	89.69
389.163	87.69
389.387	93.69
389.612	88.69
389.837	98.69
390.062	85.69
390.287	91.69
390.512	107.69
390.736	99.69
390.961	97.69
391.186	88.69
391.411	90.69
391.636	93.69
391.86	91.69
392.085	95.69
392.31	80.69
392.534	96.69
392.759	79.69
392.984	97.69
393.208	100.69
393.433	90.69
393.658	91.69
393.882	86.69
394.107	82.69
394.331	78.69
394.556	84.69
394.78	82.69
395.005	92.69
395.229	81.69
395.454	83.69
395.678	72.69
395.903	85.69
396.127	79.69
396.352	85.69
396.576	86.69
396.801	90.69
397.025	80.69
397.249	80.69
397.474	82.69
397.698	76.69
397.922	96.69
398.147	88.69
398.371	92.69
398.595	75.69
398.82	88.69
399.044	72.69
399.268	75.69
399.492	93.69
399.717	77.69
399.941	80.69
400.165	98.69
400.389	92.69
400.613	90.69
400.837	84.69
401.062	92.69
401.286	88.69
401.51	87.69
401.734	100.69
401.958	89.69
402.182	148.69
402.406	159.69
402.63	120.69
402.854	85.69
403.078	78.69
403.302	88.69
403.526	88.69
403.75	89.69
403.974	80.69
404.198	84.69
404.422	84.69
404.645	94.69
404.869	90.69
405.093	96.69
405.317	97.69
405.541	107.69
405.765	104.69
405.988	112.69
406.212	201.69
406.436	230.69
406.66	142.69
406.883	98.69
407.107	89.69
407.331	97.69
407.555	96.69
407.778	94.69
408.002	80.69
408.226	88.69
408.449	85.69
408.673	82.69
408.896	93.69
409.12	91.69
409.344	93.69
409.567	85.69
409.791	68.69
410.014	85.69
410.238	82.69
410.461	93.69
410.685	93.69
410.908	88.69
411.132	106.69
411.355	99.69
411.578	102.69
411.802	99.69
412.025	93.69
412.249	91.69
412.472	99.69
412.695	86.69
412.919	86.69
413.142	100.69
413.365	89.69
413.589	90.69
413.812	90.69
414.035	92.69
414.258	72.69
414.482	103.69
414.705	93.69
414.928	91.69
415.151	89.69
415.374	85.69
415.597	103.69
415.821	103.69
416.044	94.69
416.267	82.69
416.49	92.69
416.713	90.69
416.936	78.69
417.159	87.69
417.382	92.69
417.605	90.69
417.828	102.69
418.051	92.69
418.274	81.69
418.497	75.69
418.72	76.69
418.943	88.69
419.166	85.69
419.389	86.69
419.611	103.69
419.834	88.69
420.057	90.69
420.28	81.69
420.503	97.69
420.726	92.69
420.948	98.69
421.171	104.69
421.394	100.69
421.617	80.69
421.839	88.69
422.062	92.69
422.285	81.69
422.507	92.69
422.73	111.69
422.953	97.69
423.175	86.69
423.398	90.69
423.621	83.69
423.843	99.69
424.066	73.69
424.288	84.69
424.511	95.69
424.733	107.69
424.956	96.69
425.178	112.69
425.401	105.69
425.623	104.69
425.846	106.69
426.068	96.69
426.291	92.69
426.513	98.69
426.735	102.69
426.958	99.69
427.18	110.69
427.402	147.69
427.625	170.69
427.847	134.69
428.069	108.69
428.292	78.69
428.514	89.69
428.736	91.69
428.958	86.69
429.181	95.69
429.403	80.69
429.625	88.69
429.847	101.69
430.069	94.69
430.292	96.69
430.514	96.69
430.736	92.69
430.958	76.69
431.18	90.69
431.402	96.69
431.624	102.69
431.846	97.69
432.068	88.69
432.29	84.69
432.512	98.69
432.734	81.69
432.956	96.69
433.178	86.69
433.4	113.69
433.622	96.69
433.844	91.69
434.066	101.69
434.287	96.69
434.509	85.69
434.731	94.69
434.953	93.69
435.175	95.69
435.397	93.69
435.618	106.69
435.84	105.69
436.062	125.69
436.284	116.69
436.505	103.69
436.727	104.69
436.949	94.69
437.17	95.69
437.392	86.69
437.614	89.69
437.835	106.69
438.057	115.69
438.278	115.69
438.5	111.69
438.721	117.69
438.943	88.69
439.165	89.69
439.386	74.69
439.608	90.69
439.829	101.69
440.05	114.69
440.272	146.69
440.493	105.69
440.715	79.69
440.936	89.69
441.158	89.69
441.379	89.69
441.6	87.69
441.822	90.69
442.043	107.69
442.264	96.69
442.486	99.69
442.707	100.69
442.928	117.69
443.149	115.69
443.371	132.69
443.592	111.69
443.813	120.69
444.034	115.69
444.255	84.69
444.476	94.69
444.698	89.69
444.919	87.69
445.14	125.69
445.361	116.69
445.582	119.69
445.803	140.69
446.024	123.69
446.245	130.69
446.466	123.69
446.687	68.69
446.908	87.69
447.129	86.69
447.35	94.69
447.571	92.69
447.792	95.69
448.013	91.69
448.234	110.69
448.455	107.69
448.675	109.69
448.896	107.69
449.117	103.69
449.338	100.69
449.559	148.69
449.779	148.69
450	104.69
450.221	93.69
450.442	87.69
450.662	98.69
450.883	119.69
451.104	131.69
451.324	104.69
451.545	87.69
451.766	90.69
451.986	86.69
452.207	87.69
452.428	95.69
452.648	96.69
452.869	104.69
453.089	101.69
453.31	107.69
453.53	87.69
453.751	101.69
453.971	104.69
454.192	105.69
454.412	113.69
454.633	93.69
454.853	88.69
455.073	89.69
455.294	107.69
455.514	105.69
455.734	88.69
455.955	82.69
456.175	89.69
456.395	94.69
456.616	95.69
456.836	86.69
457.056	102.69
457.276	85.69
457.497	75.69
457.717	95.69
457.937	83.69
458.157	89.69
458.377	90.69
458.598	105.69
458.818	146.69
459.038	171.69
459.258	112.69
459.478	92.69
459.698	88.69
459.918	83.69
460.138	99.69
460.358	90.69
460.578	98.69
460.798	93.69
461.018	85.69
461.238	94.69
461.458	65.69
461.678	93.69
461.898	92.69
462.118	90.69
462.338	88.69
462.558	83.69
462.777	86.69
462.997	89.69
463.217	82.69
463.437	88.69
463.657	84.69
463.876	90.69
464.096	89.69
464.316	77.69
464.536	91.69
464.755	92.69
464.975	112.69
465.195	186.69
465.414	155.69
465.634	98.69
465.854	86.69
466.073	95.69
466.293	80.69
466.512	83.69
466.732	74.69
466.951	88.69
467.171	105.69
467.391	95.69
467.61	109.69
467.829	112.69
468.049	98.69
468.268	84.69
468.488	82.69
468.707	76.69
468.927	78.69
469.146	92.69
469.365	93.69
469.585	86.69
469.804	100.69
470.023	96.69
470.243	95.69
470.462	113.69
470.681	101.69
470.901	97.69
471.12	72.69
471.339	96.69
471.558	80.69
471.777	95.69
471.997	80.69
472.216	89.69
472.435	98.69
472.654	88.69
472.873	79.69
473.092	79.69
473.311	89.69
473.53	80.69
473.749	76.69
473.968	102.69
474.187	97.69
474.406	96.69
474.625	92.69
474.844	88.69
475.063	90.69
475.282	90.69
475.501	92.69
475.72	101.69
475.939	90.69
476.158	90.69
476.377	89.69
476.596	81.69
476.814	95.69
477.033	88.69
477.252	93.69
477.471	88.69
477.69	94.69
477.908	96.69
478.127	69.69
478.346	88.69
478.564	92.69
478.783	105.69
479.002	97.69
479.22	97.69
479.439	122.69
479.658	116.69
479.876	89.69
480.095	94.69
480.313	106.69
480.532	89.69
480.751	75.69
480.969	99.69
481.188	104.69
481.406	90.69
481.624	93.69
481.843	91.69
482.061	85.69
482.28	83.69
482.498	97.69
482.717	90.69
482.935	90.69
483.153	86.69
483.372	106.69
483.59	78.69
483.808	91.69
484.027	98.69
484.245	94.69
484.463	94.69
484.681	104.69
484.9	88.69
485.118	76.69
485.336	104.69
485.554	95.69
485.772	94.69
485.99	94.69
486.209	95.69
486.427	84.69
486.645	90.69
486.863	106.69
487.081	92.69
487.299	102.69
487.517	92.69
487.735	83.69
487.953	89.69
488.171	106.69
488.389	94.69
488.607	107.69
488.825	85.69
489.043	90.69
489.261	101.69
489.479	101.69
489.696	106.69
489.914	86.69
490.132	94.69
490.35	96.69
490.568	80.69
490.786	92.69
491.003	89.69
491.221	90.69
491.439	100.69
491.657	95.69
491.874	83.69
492.092	88.69
492.31	79.69
492.527	101.69
492.745	86.69
492.963	74.69
493.18	78.69
493.398	81.69
493.615	104.69
493.833	95.69
494.05	79.69
494.268	74.69
494.485	108.69
494.703	98.69
494.92	83.69
495.138	90.69
495.355	83.69
495.573	60.69
495.79	89.69
496.008	91.69
496.225	86.69
496.442	88.69
496.66	92.69
496.877	98.69
497.094	90.69
497.312	97.69
497.529	104.69
497.746	87.69
497.963	80.69
498.181	106.69
498.398	108.69
498.615	108.69
498.832	108.69
499.049	92.69
499.267	101.69
499.484	94.69
499.701	96.69
499.918	93.69
500.135	88.69
500.352	103.69
500.569	83.69
500.786	96.69
501.003	89.69
501.22	94.69
501.437	89.69
501.654	94.69
501.871	106.69
502.088	98.69
502.305	86.69
502.522	93.69
502.739	89.69
502.956	90.69
503.172	94.69
503.389	84.69
503.606	113.69
503.823	86.69
504.04	96.69
504.256	90.69
504.473	90.69
504.69	81.69
504.907	109.69
505.123	96.69
505.34	92.69
505.557	85.69
505.773	75.69
505.99	96.69
506.207	85.69
506.423	89.69
506.64	99.69
506.856	92.69
507.073	94.69
507.289	98.69
507.506	106.69
507.722	126.69
507.939	124.69
508.155	95.69
508.372	93.69
508.588	88.69
508.805	73.69
509.021	90.69
509.238	90.69
509.454	107.69
509.67	97.69
509.887	114.69
510.103	120.69
510.319	234.69
510.536	771.69
510.752	2475.69
510.968	674.69
511.184	168.69
511.401	113.69
511.617	99.69
511.833	101.69
512.049	87.69
512.265	89.69
512.481	96.69
512.698	101.69
512.914	89.69
513.13	72.69
513.346	103.69
513.562	93.69
513.778	90.69
513.994	79.69
514.21	107.69
514.426	118.69
514.642	139.69
514.858	130.69
515.074	182.69
515.29	501.69
515.506	1607.69
