Data from Uncirc_2001_H10_HRD10591_00095.txt Node
Date: Wed Jan 03 10:44:15 EST 2024
User: Yrep
Spectrometer: HR+D1059
Trigger mode: 1
Integration Time (sec): 1.000000E-1
Scans to average: 1
Electric dark correction enabled: true
Nonlinearity correction enabled: false
Boxcar width: 0
XAxis mode: Wavelengths
Number of Pixels in Spectrum: 2048
>>>>>Begin Spectral Data<<<<<
223.165	-15.19
223.4	-15.19
223.635	-15.19
223.869	-16.19
224.104	-16.19
224.338	-19.19
224.573	-31.19
224.808	-2.19
225.042	-12.19
225.277	-5.19
225.511	-3.19
225.746	14.81
225.98	18.81
226.215	9.81
226.449	8.81
226.683	23.81
226.918	22.81
227.152	21.81
227.387	38.81
227.621	27.81
227.856	52.81
228.09	58.81
228.324	55.81
228.559	65.81
228.793	72.81
229.027	58.81
229.262	63.81
229.496	69.81
229.73	80.81
229.964	81.81
230.199	70.81
230.433	60.81
230.667	71.81
230.901	72.81
231.136	82.81
231.37	78.81
231.604	76.81
231.838	86.81
232.072	75.81
232.306	86.81
232.541	81.81
232.775	81.81
233.009	83.81
233.243	74.81
233.477	63.81
233.711	78.81
233.945	78.81
234.179	94.81
234.413	79.81
234.647	78.81
234.881	62.81
235.115	80.81
235.349	69.81
235.583	82.81
235.817	72.81
236.051	76.81
236.285	80.81
236.519	79.81
236.753	76.81
236.987	84.81
237.221	95.81
237.455	85.81
237.689	88.81
237.922	89.81
238.156	76.81
238.39	81.81
238.624	73.81
238.858	87.81
239.091	78.81
239.325	86.81
239.559	84.81
239.793	89.81
240.027	96.81
240.26	66.81
240.494	69.81
240.728	75.81
240.961	81.81
241.195	73.81
241.429	78.81
241.662	83.81
241.896	65.81
242.13	90.81
242.363	84.81
242.597	85.81
242.83	88.81
243.064	63.81
243.298	79.81
243.531	83.81
243.765	78.81
243.998	74.81
244.232	78.81
244.465	78.81
244.699	83.81
244.932	68.81
245.166	80.81
245.399	68.81
245.633	81.81
245.866	80.81
246.099	79.81
246.333	84.81
246.566	84.81
246.8	87.81
247.033	79.81
247.266	75.81
247.5	71.81
247.733	72.81
247.966	82.81
248.2	78.81
248.433	74.81
248.666	87.81
248.899	78.81
249.133	95.81
249.366	90.81
249.599	98.81
249.832	88.81
250.066	81.81
250.299	69.81
250.532	82.81
250.765	89.81
250.998	70.81
251.231	83.81
251.465	76.81
251.698	61.81
251.931	75.81
252.164	80.81
252.397	72.81
252.63	73.81
252.863	81.81
253.096	89.81
253.329	95.81
253.562	64.81
253.795	69.81
254.028	82.81
254.261	76.81
254.494	74.81
254.727	73.81
254.96	87.81
255.193	77.81
255.426	70.81
255.659	95.81
255.892	82.81
256.124	87.81
256.357	83.81
256.59	86.81
256.823	77.81
257.056	75.81
257.289	78.81
257.521	78.81
257.754	69.81
257.987	83.81
258.22	82.81
258.452	85.81
258.685	68.81
258.918	75.81
259.151	86.81
259.383	84.81
259.616	69.81
259.849	101.81
260.081	79.81
260.314	92.81
260.547	73.81
260.779	77.81
261.012	84.81
261.244	82.81
261.477	94.81
261.71	81.81
261.942	115.81
262.175	121.81
262.407	106.81
262.64	91.81
262.872	89.81
263.105	78.81
263.337	74.81
263.57	71.81
263.802	88.81
264.035	88.81
264.267	87.81
264.499	79.81
264.732	76.81
264.964	89.81
265.197	82.81
265.429	82.81
265.661	87.81
265.894	78.81
266.126	82.81
266.358	83.81
266.591	88.81
266.823	82.81
267.055	83.81
267.287	81.81
267.52	91.81
267.752	88.81
267.984	90.81
268.216	78.81
268.448	86.81
268.681	88.81
268.913	78.81
269.145	92.81
269.377	83.81
269.609	85.81
269.841	79.81
270.073	78.81
270.306	89.81
270.538	92.81
270.77	80.81
271.002	78.81
271.234	88.81
271.466	90.81
271.698	85.81
271.93	72.81
272.162	94.81
272.394	87.81
272.626	82.81
272.858	90.81
273.09	77.81
273.322	92.81
273.553	78.81
273.785	80.81
274.017	86.81
274.249	99.81
274.481	95.81
274.713	86.81
274.945	91.81
275.176	84.81
275.408	88.81
275.64	84.81
275.872	78.81
276.104	75.81
276.335	91.81
276.567	95.81
276.799	110.81
277.031	99.81
277.262	83.81
277.494	103.81
277.726	92.81
277.957	81.81
278.189	90.81
278.421	80.81
278.652	88.81
278.884	92.81
279.115	72.81
279.347	80.81
279.579	81.81
279.81	81.81
280.042	79.81
280.273	76.81
280.505	82.81
280.736	90.81
280.968	90.81
281.199	89.81
281.431	100.81
281.662	87.81
281.894	92.81
282.125	97.81
282.356	115.81
282.588	128.81
282.819	99.81
283.051	83.81
283.282	91.81
283.513	100.81
283.745	89.81
283.976	89.81
284.207	79.81
284.439	89.81
284.67	70.81
284.901	88.81
285.132	78.81
285.364	88.81
285.595	73.81
285.826	80.81
286.057	75.81
286.288	77.81
286.52	82.81
286.751	74.81
286.982	82.81
287.213	79.81
287.444	82.81
287.675	83.81
287.906	82.81
288.138	98.81
288.369	89.81
288.6	87.81
288.831	75.81
289.062	107.81
289.293	79.81
289.524	81.81
289.755	89.81
289.986	88.81
290.217	72.81
290.448	80.81
290.679	92.81
290.91	80.81
291.141	85.81
291.371	84.81
291.602	77.81
291.833	83.81
292.064	91.81
292.295	104.81
292.526	84.81
292.757	85.81
292.987	84.81
293.218	90.81
293.449	91.81
293.68	79.81
293.91	70.81
294.141	79.81
294.372	92.81
294.603	84.81
294.833	87.81
295.064	74.81
295.295	87.81
295.525	105.81
295.756	104.81
295.987	113.81
296.217	138.81
296.448	131.81
296.679	98.81
296.909	89.81
297.14	90.81
297.37	88.81
297.601	83.81
297.831	96.81
298.062	92.81
298.292	87.81
298.523	93.81
298.753	78.81
298.984	71.81
299.214	89.81
299.445	92.81
299.675	88.81
299.905	110.81
300.136	94.81
300.366	106.81
300.597	89.81
300.827	86.81
301.057	95.81
301.288	100.81
301.518	89.81
301.748	86.81
301.979	79.81
302.209	92.81
302.439	73.81
302.669	85.81
302.9	87.81
303.13	109.81
303.36	84.81
303.59	102.81
303.82	100.81
304.051	84.81
304.281	92.81
304.511	89.81
304.741	104.81
304.971	89.81
305.201	93.81
305.431	83.81
305.661	74.81
305.891	96.81
306.121	99.81
306.352	83.81
306.582	89.81
306.812	91.81
307.042	86.81
307.272	91.81
307.502	85.81
307.731	90.81
307.961	95.81
308.191	90.81
308.421	86.81
308.651	87.81
308.881	95.81
309.111	94.81
309.341	87.81
309.571	100.81
309.8	98.81
310.03	95.81
310.26	104.81
310.49	98.81
310.72	98.81
310.949	91.81
311.179	82.81
311.409	72.81
311.639	91.81
311.868	104.81
312.098	82.81
312.328	102.81
312.557	110.81
312.787	103.81
313.017	99.81
313.246	97.81
313.476	87.81
313.706	80.81
313.935	92.81
314.165	84.81
314.394	99.81
314.624	101.81
314.853	102.81
315.083	93.81
315.312	99.81
315.542	79.81
315.771	113.81
316.001	102.81
316.23	83.81
316.46	92.81
316.689	102.81
316.919	86.81
317.148	98.81
317.377	83.81
317.607	95.81
317.836	88.81
318.065	86.81
318.295	89.81
318.524	91.81
318.753	90.81
318.983	88.81
319.212	102.81
319.441	92.81
319.67	109.81
319.9	95.81
320.129	81.81
320.358	98.81
320.587	89.81
320.816	95.81
321.046	98.81
321.275	108.81
321.504	101.81
321.733	92.81
321.962	102.81
322.191	89.81
322.42	87.81
322.649	100.81
322.878	103.81
323.108	111.81
323.337	105.81
323.566	128.81
323.795	143.81
324.024	203.81
324.253	396.81
324.482	770.81
324.71	1527.81
324.939	2009.81
325.168	744.81
325.397	234.81
325.626	127.81
325.855	131.81
326.084	111.81
326.313	128.81
326.542	152.81
326.77	229.81
326.999	443.81
327.228	868.81
327.457	1511.81
327.686	1208.81
327.914	344.81
328.143	182.81
328.372	150.81
328.6	131.81
328.829	109.81
329.058	134.81
329.287	120.81
329.515	107.81
329.744	98.81
329.972	96.81
330.201	100.81
330.43	111.81
330.658	111.81
330.887	122.81
331.115	118.81
331.344	100.81
331.572	106.81
331.801	114.81
332.03	102.81
332.258	93.81
332.486	91.81
332.715	96.81
332.943	96.81
333.172	95.81
333.4	99.81
333.629	99.81
333.857	116.81
334.085	90.81
334.314	104.81
334.542	102.81
334.771	104.81
334.999	90.81
335.227	105.81
335.455	99.81
335.684	102.81
335.912	99.81
336.14	98.81
336.369	85.81
336.597	81.81
336.825	90.81
337.053	90.81
337.281	85.81
337.51	100.81
337.738	87.81
337.966	84.81
338.194	73.81
338.422	86.81
338.65	99.81
338.878	91.81
339.106	79.81
339.334	91.81
339.562	91.81
339.79	105.81
340.018	101.81
340.246	100.81
340.474	96.81
340.702	100.81
340.93	87.81
341.158	89.81
341.386	104.81
341.614	89.81
341.842	88.81
342.07	95.81
342.298	92.81
342.526	96.81
342.754	82.81
342.981	78.81
343.209	99.81
343.437	110.81
343.665	78.81
343.893	96.81
344.12	100.81
344.348	88.81
344.576	85.81
344.804	79.81
345.031	86.81
345.259	94.81
345.487	96.81
345.714	108.81
345.942	95.81
346.17	96.81
346.397	87.81
346.625	88.81
346.853	95.81
347.08	90.81
347.308	78.81
347.535	94.81
347.763	93.81
347.99	115.81
348.218	91.81
348.445	103.81
348.673	100.81
348.9	84.81
349.128	93.81
349.355	84.81
349.583	95.81
349.81	107.81
350.037	110.81
350.265	90.81
350.492	104.81
350.72	106.81
350.947	109.81
351.174	96.81
351.402	103.81
351.629	89.81
351.856	92.81
352.083	103.81
352.311	110.81
352.538	97.81
352.765	123.81
352.992	122.81
353.22	111.81
353.447	113.81
353.674	105.81
353.901	91.81
354.128	91.81
354.355	93.81
354.583	97.81
354.81	84.81
355.037	90.81
355.264	99.81
355.491	94.81
355.718	91.81
355.945	84.81
356.172	87.81
356.399	89.81
356.626	97.81
356.853	96.81
357.08	99.81
357.307	86.81
357.534	91.81
357.761	87.81
357.988	103.81
358.215	99.81
358.441	88.81
358.668	76.81
358.895	84.81
359.122	83.81
359.349	83.81
359.576	85.81
359.802	112.81
360.029	114.81
360.256	106.81
360.483	88.81
360.709	85.81
360.936	93.81
361.163	98.81
361.39	87.81
361.616	80.81
361.843	102.81
362.07	96.81
362.296	92.81
362.523	92.81
362.749	103.81
362.976	89.81
363.203	99.81
363.429	71.81
363.656	84.81
363.882	96.81
364.109	81.81
364.335	70.81
364.562	92.81
364.788	80.81
365.015	101.81
365.241	92.81
365.468	110.81
365.694	107.81
365.92	83.81
366.147	77.81
366.373	87.81
366.599	85.81
366.826	96.81
367.052	72.81
367.278	105.81
367.505	81.81
367.731	91.81
367.957	96.81
368.184	99.81
368.41	91.81
368.636	110.81
368.862	105.81
369.089	109.81
369.315	90.81
369.541	96.81
369.767	93.81
369.993	83.81
370.219	82.81
370.445	79.81
370.672	94.81
370.898	96.81
371.124	84.81
371.35	79.81
371.576	95.81
371.802	85.81
372.028	90.81
372.254	86.81
372.48	87.81
372.706	94.81
372.932	86.81
373.158	87.81
373.384	97.81
373.61	82.81
373.835	82.81
374.061	85.81
374.287	87.81
374.513	87.81
374.739	96.81
374.965	79.81
375.191	101.81
375.416	98.81
375.642	92.81
375.868	76.81
376.094	81.81
376.319	93.81
376.545	83.81
376.771	81.81
376.997	89.81
377.222	88.81
377.448	92.81
377.674	87.81
377.899	98.81
378.125	94.81
378.35	91.81
378.576	86.81
378.802	83.81
379.027	91.81
379.253	98.81
379.478	78.81
379.704	100.81
379.929	78.81
380.155	98.81
380.38	88.81
380.606	103.81
380.831	95.81
381.057	104.81
381.282	91.81
381.507	104.81
381.733	91.81
381.958	103.81
382.184	82.81
382.409	89.81
382.634	105.81
382.86	95.81
383.085	89.81
383.31	101.81
383.535	83.81
383.761	102.81
383.986	88.81
384.211	97.81
384.436	82.81
384.662	97.81
384.887	97.81
385.112	87.81
385.337	105.81
385.562	95.81
385.787	96.81
386.013	108.81
386.238	109.81
386.463	104.81
386.688	98.81
386.913	84.81
387.138	94.81
387.363	92.81
387.588	91.81
387.813	82.81
388.038	104.81
388.263	101.81
388.488	107.81
388.713	111.81
388.938	89.81
389.163	89.81
389.387	100.81
389.612	83.81
389.837	85.81
390.062	90.81
390.287	90.81
390.512	104.81
390.736	103.81
390.961	94.81
391.186	89.81
391.411	88.81
391.636	86.81
391.86	76.81
392.085	88.81
392.31	85.81
392.534	82.81
392.759	102.81
392.984	96.81
393.208	75.81
393.433	83.81
393.658	87.81
393.882	80.81
394.107	92.81
394.331	74.81
394.556	88.81
394.78	96.81
395.005	84.81
395.229	86.81
395.454	92.81
395.678	78.81
395.903	77.81
396.127	92.81
396.352	86.81
396.576	82.81
396.801	82.81
397.025	91.81
397.249	68.81
397.474	86.81
397.698	84.81
397.922	80.81
398.147	83.81
398.371	80.81
398.595	97.81
398.82	92.81
399.044	87.81
399.268	74.81
399.492	88.81
399.717	82.81
399.941	101.81
400.165	99.81
400.389	105.81
400.613	100.81
400.837	89.81
401.062	92.81
401.286	83.81
401.51	82.81
401.734	92.81
401.958	107.81
402.182	123.81
402.406	149.81
402.63	114.81
402.854	92.81
403.078	97.81
403.302	90.81
403.526	91.81
403.75	75.81
403.974	78.81
404.198	75.81
404.422	90.81
404.645	92.81
404.869	83.81
405.093	98.81
405.317	96.81
405.541	93.81
405.765	91.81
405.988	126.81
406.212	166.81
406.436	249.81
406.66	140.81
406.883	97.81
407.107	108.81
407.331	89.81
407.555	101.81
407.778	88.81
408.002	88.81
408.226	79.81
408.449	94.81
408.673	91.81
408.896	95.81
409.12	103.81
409.344	87.81
409.567	85.81
409.791	89.81
410.014	78.81
410.238	96.81
410.461	81.81
410.685	96.81
410.908	83.81
411.132	100.81
411.355	92.81
411.578	80.81
411.802	86.81
412.025	80.81
412.249	97.81
412.472	92.81
412.695	103.81
412.919	90.81
413.142	85.81
413.365	88.81
413.589	97.81
413.812	85.81
414.035	81.81
414.258	94.81
414.482	91.81
414.705	82.81
414.928	84.81
415.151	86.81
415.374	90.81
415.597	79.81
415.821	80.81
416.044	91.81
416.267	80.81
416.49	73.81
416.713	92.81
416.936	85.81
417.159	85.81
417.382	103.81
417.605	75.81
417.828	92.81
418.051	91.81
418.274	90.81
418.497	79.81
418.72	80.81
418.943	80.81
419.166	68.81
419.389	85.81
419.611	86.81
419.834	84.81
420.057	82.81
420.28	99.81
420.503	98.81
420.726	83.81
420.948	83.81
421.171	91.81
421.394	104.81
421.617	107.81
421.839	82.81
422.062	74.81
422.285	99.81
422.507	95.81
422.73	97.81
422.953	86.81
423.175	94.81
423.398	92.81
423.621	90.81
423.843	94.81
424.066	86.81
424.288	74.81
424.511	90.81
424.733	92.81
424.956	114.81
425.178	96.81
425.401	98.81
425.623	99.81
425.846	88.81
426.068	88.81
426.291	93.81
426.513	87.81
426.735	87.81
426.958	97.81
427.18	107.81
427.402	128.81
427.625	182.81
427.847	120.81
428.069	118.81
428.292	91.81
428.514	92.81
428.736	78.81
428.958	84.81
429.181	101.81
429.403	76.81
429.625	98.81
429.847	88.81
430.069	93.81
430.292	90.81
430.514	73.81
430.736	79.81
430.958	87.81
431.18	86.81
431.402	73.81
431.624	87.81
431.846	83.81
432.068	91.81
432.29	85.81
432.512	91.81
432.734	66.81
432.956	73.81
433.178	106.81
433.4	100.81
433.622	86.81
433.844	94.81
434.066	91.81
434.287	98.81
434.509	73.81
434.731	75.81
434.953	90.81
435.175	84.81
435.397	76.81
435.618	86.81
435.84	108.81
436.062	129.81
436.284	103.81
436.505	96.81
436.727	103.81
436.949	95.81
437.17	95.81
437.392	89.81
437.614	90.81
437.835	126.81
438.057	126.81
438.278	99.81
438.5	99.81
438.721	113.81
438.943	104.81
439.165	92.81
439.386	78.81
439.608	87.81
439.829	101.81
440.05	127.81
440.272	131.81
440.493	98.81
440.715	87.81
440.936	74.81
441.158	87.81
441.379	96.81
441.6	84.81
441.822	98.81
442.043	96.81
442.264	92.81
442.486	90.81
442.707	83.81
442.928	108.81
443.149	136.81
443.371	136.81
443.592	106.81
443.813	115.81
444.034	110.81
444.255	100.81
444.476	71.81
444.698	89.81
444.919	78.81
445.14	118.81
445.361	122.81
445.582	108.81
445.803	141.81
446.024	154.81
446.245	132.81
446.466	104.81
446.687	89.81
446.908	106.81
447.129	95.81
447.35	74.81
447.571	72.81
447.792	99.81
448.013	91.81
448.234	104.81
448.455	102.81
448.675	117.81
448.896	123.81
449.117	103.81
449.338	104.81
449.559	137.81
449.779	142.81
450	106.81
450.221	87.81
450.442	81.81
450.662	95.81
450.883	103.81
451.104	113.81
451.324	95.81
451.545	93.81
451.766	100.81
451.986	85.81
452.207	84.81
452.428	82.81
452.648	101.81
452.869	126.81
453.089	123.81
453.31	131.81
453.53	79.81
453.751	96.81
453.971	108.81
454.192	109.81
454.412	95.81
454.633	95.81
454.853	89.81
455.073	93.81
455.294	100.81
455.514	98.81
455.734	91.81
455.955	92.81
456.175	89.81
456.395	92.81
456.616	86.81
456.836	86.81
457.056	82.81
457.276	93.81
457.497	85.81
457.717	88.81
457.937	103.81
458.157	92.81
458.377	89.81
458.598	102.81
458.818	160.81
459.038	164.81
459.258	119.81
459.478	90.81
459.698	83.81
459.918	84.81
460.138	71.81
460.358	91.81
460.578	101.81
460.798	86.81
461.018	98.81
461.238	84.81
461.458	95.81
461.678	92.81
461.898	81.81
462.118	78.81
462.338	90.81
462.558	92.81
462.777	98.81
462.997	83.81
463.217	94.81
463.437	83.81
463.657	86.81
463.876	85.81
464.096	103.81
464.316	92.81
464.536	94.81
464.755	88.81
464.975	113.81
465.195	176.81
465.414	164.81
465.634	117.81
465.854	98.81
466.073	100.81
466.293	87.81
466.512	92.81
466.732	85.81
466.951	86.81
467.171	92.81
467.391	98.81
467.61	95.81
467.829	96.81
468.049	84.81
468.268	86.81
468.488	75.81
468.707	85.81
468.927	84.81
469.146	59.81
469.365	77.81
469.585	96.81
469.804	86.81
470.023	83.81
470.243	89.81
470.462	88.81
470.681	108.81
470.901	85.81
471.12	92.81
471.339	78.81
471.558	86.81
471.777	91.81
471.997	81.81
472.216	98.81
472.435	92.81
472.654	86.81
472.873	88.81
473.092	78.81
473.311	68.81
473.53	89.81
473.749	80.81
473.968	81.81
474.187	114.81
474.406	101.81
474.625	80.81
474.844	80.81
475.063	86.81
475.282	84.81
475.501	98.81
475.72	92.81
475.939	81.81
476.158	89.81
476.377	79.81
476.596	80.81
476.814	83.81
477.033	98.81
477.252	80.81
477.471	88.81
477.69	82.81
477.908	95.81
478.127	84.81
478.346	78.81
478.564	88.81
478.783	87.81
479.002	89.81
479.22	110.81
479.439	115.81
479.658	106.81
479.876	99.81
480.095	91.81
480.313	111.81
480.532	92.81
480.751	96.81
480.969	82.81
481.188	106.81
481.406	94.81
481.624	89.81
481.843	86.81
482.061	92.81
482.28	78.81
482.498	101.81
482.717	83.81
482.935	84.81
483.153	85.81
483.372	100.81
483.59	99.81
483.808	96.81
484.027	105.81
484.245	118.81
484.463	92.81
484.681	100.81
484.9	90.81
485.118	82.81
485.336	91.81
485.554	99.81
485.772	81.81
485.99	85.81
486.209	112.81
486.427	106.81
486.645	110.81
486.863	116.81
487.081	107.81
487.299	100.81
487.517	99.81
487.735	100.81
487.953	102.81
488.171	100.81
488.389	78.81
488.607	109.81
488.825	115.81
489.043	90.81
489.261	86.81
489.479	90.81
489.696	98.81
489.914	81.81
490.132	94.81
490.35	81.81
490.568	87.81
490.786	87.81
491.003	99.81
491.221	110.81
491.439	105.81
491.657	98.81
491.874	96.81
492.092	98.81
492.31	90.81
492.527	90.81
492.745	90.81
492.963	94.81
493.18	84.81
493.398	84.81
493.615	99.81
493.833	85.81
494.05	84.81
494.268	93.81
494.485	91.81
494.703	90.81
494.92	100.81
495.138	84.81
495.355	91.81
495.573	91.81
495.79	92.81
496.008	69.81
496.225	82.81
496.442	89.81
496.66	87.81
496.877	88.81
497.094	77.81
497.312	89.81
497.529	86.81
497.746	97.81
497.963	80.81
498.181	88.81
498.398	88.81
498.615	95.81
498.832	114.81
499.049	86.81
499.267	98.81
499.484	77.81
499.701	92.81
499.918	91.81
500.135	81.81
500.352	87.81
500.569	80.81
500.786	89.81
501.003	72.81
501.22	72.81
501.437	72.81
501.654	89.81
501.871	105.81
502.088	81.81
502.305	90.81
502.522	75.81
502.739	81.81
502.956	79.81
503.172	91.81
503.389	95.81
503.606	103.81
503.823	105.81
504.04	93.81
504.256	99.81
504.473	98.81
504.69	108.81
504.907	82.81
505.123	68.81
505.34	91.81
505.557	75.81
505.773	86.81
505.99	78.81
506.207	82.81
506.423	95.81
506.64	95.81
506.856	82.81
507.073	74.81
507.289	77.81
507.506	92.81
507.722	109.81
507.939	115.81
508.155	95.81
508.372	88.81
508.588	90.81
508.805	105.81
509.021	92.81
509.238	87.81
509.454	98.81
509.67	97.81
509.887	110.81
510.103	133.81
510.319	229.81
510.536	828.81
510.752	2551.81
510.968	690.81
511.184	166.81
511.401	122.81
511.617	95.81
511.833	91.81
512.049	87.81
512.265	85.81
512.481	92.81
512.698	92.81
512.914	95.81
513.13	95.81
513.346	107.81
513.562	101.81
513.778	98.81
513.994	102.81
514.21	104.81
514.426	117.81
514.642	141.81
514.858	133.81
515.074	177.81
515.29	525.81
515.506	1646.81
515.721	593.81
515.937	176.81
