Data from Uncirc_2001_H10_HRD10591_00021.txt Node
Date: Wed Jan 03 10:44:01 EST 2024
User: Yrep
Spectrometer: HR+D1059
Trigger mode: 1
Integration Time (sec): 1.000000E-1
Scans to average: 1
Electric dark correction enabled: true
Nonlinearity correction enabled: false
Boxcar width: 0
XAxis mode: Wavelengths
Number of Pixels in Spectrum: 2048
>>>>>Begin Spectral Data<<<<<
223.165	-16.94
223.4	-16.94
223.635	-16.94
223.869	-22.94
224.104	-22.94
224.338	-10.94
224.573	-11.94
224.808	-11.94
225.042	-3.94
225.277	-5.94
225.511	-1.94
225.746	7.06
225.98	-1.94
226.215	8.06
226.449	15.06
226.683	22.06
226.918	28.06
227.152	31.06
227.387	38.06
227.621	35.06
227.856	36.06
228.09	66.06
228.324	60.06
228.559	60.06
228.793	58.06
229.027	60.06
229.262	71.06
229.496	80.06
229.73	91.06
229.964	91.06
230.199	87.06
230.433	73.06
230.667	82.06
230.901	79.06
231.136	76.06
231.37	77.06
231.604	89.06
231.838	86.06
232.072	81.06
232.306	82.06
232.541	91.06
232.775	79.06
233.009	82.06
233.243	79.06
233.477	82.06
233.711	77.06
233.945	60.06
234.179	77.06
234.413	98.06
234.647	89.06
234.881	77.06
235.115	83.06
235.349	70.06
235.583	72.06
235.817	80.06
236.051	71.06
236.285	83.06
236.519	98.06
236.753	92.06
236.987	84.06
237.221	97.06
237.455	101.06
237.689	69.06
237.922	78.06
238.156	76.06
238.39	73.06
238.624	83.06
238.858	88.06
239.091	81.06
239.325	91.06
239.559	78.06
239.793	81.06
240.027	93.06
240.26	81.06
240.494	79.06
240.728	74.06
240.961	89.06
241.195	94.06
241.429	81.06
241.662	74.06
241.896	83.06
242.13	80.06
242.363	86.06
242.597	82.06
242.83	72.06
243.064	94.06
243.298	82.06
243.531	82.06
243.765	81.06
243.998	90.06
244.232	89.06
244.465	84.06
244.699	90.06
244.932	72.06
245.166	81.06
245.399	83.06
245.633	68.06
245.866	97.06
246.099	75.06
246.333	88.06
246.566	79.06
246.8	89.06
247.033	68.06
247.266	90.06
247.5	89.06
247.733	65.06
247.966	84.06
248.2	88.06
248.433	73.06
248.666	76.06
248.899	82.06
249.133	81.06
249.366	101.06
249.599	83.06
249.832	93.06
250.066	81.06
250.299	86.06
250.532	76.06
250.765	84.06
250.998	76.06
251.231	72.06
251.465	82.06
251.698	77.06
251.931	57.06
252.164	90.06
252.397	84.06
252.63	83.06
252.863	85.06
253.096	79.06
253.329	99.06
253.562	88.06
253.795	78.06
254.028	91.06
254.261	84.06
254.494	85.06
254.727	85.06
254.96	70.06
255.193	88.06
255.426	74.06
255.659	78.06
255.892	70.06
256.124	75.06
256.357	100.06
256.59	81.06
256.823	88.06
257.056	77.06
257.289	86.06
257.521	82.06
257.754	88.06
257.987	79.06
258.22	85.06
258.452	87.06
258.685	72.06
258.918	90.06
259.151	91.06
259.383	101.06
259.616	86.06
259.849	92.06
260.081	86.06
260.314	86.06
260.547	76.06
260.779	90.06
261.012	91.06
261.244	81.06
261.477	94.06
261.71	98.06
261.942	111.06
262.175	111.06
262.407	102.06
262.64	93.06
262.872	98.06
263.105	89.06
263.337	83.06
263.57	86.06
263.802	94.06
264.035	76.06
264.267	89.06
264.499	85.06
264.732	82.06
264.964	94.06
265.197	83.06
265.429	78.06
265.661	78.06
265.894	95.06
266.126	86.06
266.358	89.06
266.591	73.06
266.823	84.06
267.055	82.06
267.287	85.06
267.52	76.06
267.752	81.06
267.984	81.06
268.216	86.06
268.448	78.06
268.681	95.06
268.913	77.06
269.145	91.06
269.377	94.06
269.609	87.06
269.841	75.06
270.073	99.06
270.306	76.06
270.538	84.06
270.77	86.06
271.002	92.06
271.234	83.06
271.466	83.06
271.698	88.06
271.93	80.06
272.162	92.06
272.394	93.06
272.626	86.06
272.858	75.06
273.09	86.06
273.322	93.06
273.553	92.06
273.785	98.06
274.017	92.06
274.249	87.06
274.481	94.06
274.713	93.06
274.945	97.06
275.176	102.06
275.408	86.06
275.64	75.06
275.872	94.06
276.104	96.06
276.335	87.06
276.567	87.06
276.799	97.06
277.031	104.06
277.262	87.06
277.494	88.06
277.726	89.06
277.957	89.06
278.189	87.06
278.421	92.06
278.652	95.06
278.884	83.06
279.115	103.06
279.347	88.06
279.579	86.06
279.81	73.06
280.042	79.06
280.273	90.06
280.505	93.06
280.736	87.06
280.968	88.06
281.199	81.06
281.431	73.06
281.662	93.06
281.894	107.06
282.125	99.06
282.356	109.06
282.588	132.06
282.819	118.06
283.051	91.06
283.282	84.06
283.513	93.06
283.745	72.06
283.976	95.06
284.207	82.06
284.439	95.06
284.67	94.06
284.901	84.06
285.132	90.06
285.364	91.06
285.595	80.06
285.826	98.06
286.057	83.06
286.288	98.06
286.52	88.06
286.751	85.06
286.982	88.06
287.213	85.06
287.444	91.06
287.675	91.06
287.906	85.06
288.138	97.06
288.369	102.06
288.6	98.06
288.831	87.06
289.062	88.06
289.293	94.06
289.524	103.06
289.755	101.06
289.986	75.06
290.217	97.06
290.448	86.06
290.679	83.06
290.91	86.06
291.141	90.06
291.371	75.06
291.602	84.06
291.833	83.06
292.064	92.06
292.295	95.06
292.526	81.06
292.757	73.06
292.987	83.06
293.218	83.06
293.449	85.06
293.68	103.06
293.91	79.06
294.141	85.06
294.372	84.06
294.603	107.06
294.833	81.06
295.064	93.06
295.295	86.06
295.525	99.06
295.756	104.06
295.987	102.06
296.217	122.06
296.448	119.06
296.679	92.06
296.909	96.06
297.14	99.06
297.37	82.06
297.601	90.06
297.831	91.06
298.062	84.06
298.292	108.06
298.523	90.06
298.753	88.06
298.984	85.06
299.214	83.06
299.445	97.06
299.675	98.06
299.905	104.06
300.136	94.06
300.366	89.06
300.597	95.06
300.827	97.06
301.057	80.06
301.288	87.06
301.518	99.06
301.748	100.06
301.979	88.06
302.209	96.06
302.439	92.06
302.669	99.06
302.9	95.06
303.13	93.06
303.36	103.06
303.59	77.06
303.82	90.06
304.051	86.06
304.281	90.06
304.511	98.06
304.741	98.06
304.971	86.06
305.201	97.06
305.431	87.06
305.661	97.06
305.891	92.06
306.121	130.06
306.352	104.06
306.582	110.06
306.812	102.06
307.042	77.06
307.272	102.06
307.502	91.06
307.731	92.06
307.961	83.06
308.191	103.06
308.421	106.06
308.651	102.06
308.881	98.06
309.111	88.06
309.341	115.06
309.571	101.06
309.8	81.06
310.03	110.06
310.26	96.06
310.49	94.06
310.72	98.06
310.949	117.06
311.179	105.06
311.409	79.06
311.639	87.06
311.868	108.06
312.098	94.06
312.328	104.06
312.557	107.06
312.787	103.06
313.017	93.06
313.246	89.06
313.476	101.06
313.706	106.06
313.935	91.06
314.165	103.06
314.394	106.06
314.624	107.06
314.853	94.06
315.083	95.06
315.312	104.06
315.542	83.06
315.771	88.06
316.001	83.06
316.23	83.06
316.46	89.06
316.689	79.06
316.919	98.06
317.148	89.06
317.377	91.06
317.607	81.06
317.836	96.06
318.065	92.06
318.295	92.06
318.524	86.06
318.753	92.06
318.983	92.06
319.212	86.06
319.441	99.06
319.67	102.06
319.9	104.06
320.129	103.06
320.358	89.06
320.587	98.06
320.816	95.06
321.046	83.06
321.275	113.06
321.504	102.06
321.733	96.06
321.962	90.06
322.191	115.06
322.42	105.06
322.649	99.06
322.878	129.06
323.108	113.06
323.337	120.06
323.566	127.06
323.795	158.06
324.024	195.06
324.253	364.06
324.482	727.06
324.71	1482.06
324.939	1861.06
325.168	709.06
325.397	220.06
325.626	144.06
325.855	111.06
326.084	121.06
326.313	120.06
326.542	129.06
326.77	208.06
326.999	444.06
327.228	803.06
327.457	1425.06
327.686	1115.06
327.914	316.06
328.143	181.06
328.372	141.06
328.6	120.06
328.829	114.06
329.058	118.06
329.287	127.06
329.515	106.06
329.744	102.06
329.972	105.06
330.201	88.06
330.43	109.06
330.658	121.06
330.887	123.06
331.115	109.06
331.344	113.06
331.572	97.06
331.801	103.06
332.03	91.06
332.258	94.06
332.486	106.06
332.715	99.06
332.943	100.06
333.172	104.06
333.4	104.06
333.629	95.06
333.857	117.06
334.085	102.06
334.314	95.06
334.542	98.06
334.771	100.06
334.999	107.06
335.227	97.06
335.455	92.06
335.684	94.06
335.912	79.06
336.14	113.06
336.369	89.06
336.597	110.06
336.825	107.06
337.053	93.06
337.281	112.06
337.51	94.06
337.738	87.06
337.966	97.06
338.194	108.06
338.422	86.06
338.65	99.06
338.878	99.06
339.106	102.06
339.334	87.06
339.562	89.06
339.79	95.06
340.018	95.06
340.246	101.06
340.474	88.06
340.702	83.06
340.93	97.06
341.158	91.06
341.386	90.06
341.614	97.06
341.842	87.06
342.07	93.06
342.298	95.06
342.526	101.06
342.754	95.06
342.981	91.06
343.209	86.06
343.437	94.06
343.665	85.06
343.893	98.06
344.12	89.06
344.348	84.06
344.576	85.06
344.804	101.06
345.031	98.06
345.259	90.06
345.487	85.06
345.714	92.06
345.942	86.06
346.17	92.06
346.397	92.06
346.625	100.06
346.853	92.06
347.08	94.06
347.308	92.06
347.535	94.06
347.763	92.06
347.99	92.06
348.218	101.06
348.445	113.06
348.673	91.06
348.9	101.06
349.128	104.06
349.355	94.06
349.583	83.06
349.81	105.06
350.037	86.06
350.265	90.06
350.492	85.06
350.72	100.06
350.947	119.06
351.174	110.06
351.402	115.06
351.629	92.06
351.856	109.06
352.083	120.06
352.311	109.06
352.538	115.06
352.765	124.06
352.992	116.06
353.22	109.06
353.447	121.06
353.674	111.06
353.901	113.06
354.128	101.06
354.355	100.06
354.583	106.06
354.81	108.06
355.037	101.06
355.264	87.06
355.491	85.06
355.718	109.06
355.945	102.06
356.172	88.06
356.399	99.06
356.626	94.06
356.853	100.06
357.08	87.06
357.307	92.06
357.534	105.06
357.761	105.06
357.988	103.06
358.215	89.06
358.441	108.06
358.668	83.06
358.895	80.06
359.122	95.06
359.349	77.06
359.576	102.06
359.802	104.06
360.029	107.06
360.256	107.06
360.483	107.06
360.709	91.06
360.936	91.06
361.163	101.06
361.39	99.06
361.616	95.06
361.843	94.06
362.07	97.06
362.296	96.06
362.523	89.06
362.749	89.06
362.976	92.06
363.203	94.06
363.429	82.06
363.656	93.06
363.882	97.06
364.109	93.06
364.335	99.06
364.562	84.06
364.788	93.06
365.015	93.06
365.241	92.06
365.468	110.06
365.694	101.06
365.92	104.06
366.147	89.06
366.373	91.06
366.599	74.06
366.826	92.06
367.052	87.06
367.278	94.06
367.505	95.06
367.731	101.06
367.957	95.06
368.184	82.06
368.41	93.06
368.636	106.06
368.862	118.06
369.089	99.06
369.315	90.06
369.541	89.06
369.767	99.06
369.993	101.06
370.219	86.06
370.445	85.06
370.672	98.06
370.898	95.06
371.124	89.06
371.35	87.06
371.576	91.06
371.802	101.06
372.028	96.06
372.254	85.06
372.48	104.06
372.706	77.06
372.932	91.06
373.158	93.06
373.384	103.06
373.61	103.06
373.835	76.06
374.061	89.06
374.287	85.06
374.513	78.06
374.739	78.06
374.965	77.06
375.191	83.06
375.416	79.06
375.642	89.06
375.868	94.06
376.094	88.06
376.319	72.06
376.545	84.06
376.771	95.06
376.997	90.06
377.222	81.06
377.448	95.06
377.674	91.06
377.899	87.06
378.125	89.06
378.35	96.06
378.576	105.06
378.802	105.06
379.027	103.06
379.253	91.06
379.478	108.06
379.704	92.06
379.929	89.06
380.155	85.06
380.38	94.06
380.606	102.06
380.831	91.06
381.057	108.06
381.282	94.06
381.507	94.06
381.733	94.06
381.958	96.06
382.184	111.06
382.409	107.06
382.634	113.06
382.86	98.06
383.085	96.06
383.31	101.06
383.535	96.06
383.761	104.06
383.986	102.06
384.211	85.06
384.436	99.06
384.662	96.06
384.887	107.06
385.112	110.06
385.337	113.06
385.562	117.06
385.787	95.06
386.013	107.06
386.238	118.06
386.463	117.06
386.688	111.06
386.913	124.06
387.138	120.06
387.363	99.06
387.588	106.06
387.813	101.06
388.038	103.06
388.263	108.06
388.488	112.06
388.713	102.06
388.938	90.06
389.163	95.06
389.387	98.06
389.612	86.06
389.837	93.06
390.062	89.06
390.287	90.06
390.512	105.06
390.736	106.06
390.961	88.06
391.186	90.06
391.411	97.06
391.636	100.06
391.86	83.06
392.085	86.06
392.31	73.06
392.534	75.06
392.759	98.06
392.984	81.06
393.208	91.06
393.433	101.06
393.658	86.06
393.882	82.06
394.107	82.06
394.331	89.06
394.556	83.06
394.78	86.06
395.005	84.06
395.229	100.06
395.454	97.06
395.678	89.06
395.903	93.06
396.127	87.06
396.352	84.06
396.576	92.06
396.801	97.06
397.025	91.06
397.249	93.06
397.474	96.06
397.698	96.06
397.922	84.06
398.147	89.06
398.371	86.06
398.595	80.06
398.82	80.06
399.044	85.06
399.268	84.06
399.492	95.06
399.717	93.06
399.941	86.06
400.165	87.06
400.389	87.06
400.613	81.06
400.837	78.06
401.062	104.06
401.286	85.06
401.51	90.06
401.734	86.06
401.958	105.06
402.182	111.06
402.406	136.06
402.63	113.06
402.854	89.06
403.078	86.06
403.302	77.06
403.526	77.06
403.75	99.06
403.974	76.06
404.198	81.06
404.422	103.06
404.645	85.06
404.869	95.06
405.093	98.06
405.317	95.06
405.541	92.06
405.765	107.06
405.988	108.06
406.212	163.06
406.436	190.06
406.66	124.06
406.883	102.06
407.107	89.06
407.331	92.06
407.555	107.06
407.778	77.06
408.002	90.06
408.226	85.06
408.449	99.06
408.673	76.06
408.896	89.06
409.12	100.06
409.344	93.06
409.567	79.06
409.791	83.06
410.014	92.06
410.238	98.06
410.461	87.06
410.685	99.06
410.908	88.06
411.132	110.06
411.355	103.06
411.578	86.06
411.802	88.06
412.025	78.06
412.249	75.06
412.472	101.06
412.695	83.06
412.919	81.06
413.142	75.06
413.365	95.06
413.589	83.06
413.812	82.06
414.035	90.06
414.258	87.06
414.482	78.06
414.705	95.06
414.928	102.06
415.151	94.06
415.374	91.06
415.597	102.06
415.821	93.06
416.044	93.06
416.267	94.06
416.49	107.06
416.713	94.06
416.936	86.06
417.159	90.06
417.382	87.06
417.605	93.06
417.828	82.06
418.051	93.06
418.274	103.06
418.497	89.06
418.72	105.06
418.943	90.06
419.166	91.06
419.389	92.06
419.611	86.06
419.834	97.06
420.057	82.06
420.28	95.06
420.503	92.06
420.726	93.06
420.948	82.06
421.171	93.06
421.394	99.06
421.617	79.06
421.839	101.06
422.062	97.06
422.285	87.06
422.507	97.06
422.73	105.06
422.953	95.06
423.175	94.06
423.398	90.06
423.621	92.06
423.843	101.06
424.066	83.06
424.288	96.06
424.511	98.06
424.733	114.06
424.956	106.06
425.178	109.06
425.401	95.06
425.623	99.06
425.846	88.06
426.068	90.06
426.291	99.06
426.513	85.06
426.735	87.06
426.958	100.06
427.18	97.06
427.402	135.06
427.625	153.06
427.847	143.06
428.069	103.06
428.292	98.06
428.514	94.06
428.736	91.06
428.958	71.06
429.181	83.06
429.403	79.06
429.625	88.06
429.847	98.06
430.069	100.06
430.292	97.06
430.514	86.06
430.736	73.06
430.958	92.06
431.18	83.06
431.402	87.06
431.624	93.06
431.846	93.06
432.068	94.06
432.29	91.06
432.512	90.06
432.734	95.06
432.956	90.06
433.178	93.06
433.4	94.06
433.622	98.06
433.844	80.06
434.066	86.06
434.287	71.06
434.509	86.06
434.731	91.06
434.953	81.06
435.175	103.06
435.397	91.06
435.618	95.06
435.84	91.06
436.062	114.06
436.284	112.06
436.505	110.06
436.727	100.06
436.949	97.06
437.17	75.06
437.392	92.06
437.614	86.06
437.835	108.06
438.057	120.06
438.278	117.06
438.5	93.06
438.721	106.06
438.943	97.06
439.165	86.06
439.386	103.06
439.608	95.06
439.829	106.06
440.05	115.06
440.272	130.06
440.493	80.06
440.715	85.06
440.936	93.06
441.158	88.06
441.379	102.06
441.6	95.06
441.822	79.06
442.043	89.06
442.264	109.06
442.486	103.06
442.707	87.06
442.928	106.06
443.149	118.06
443.371	123.06
443.592	109.06
443.813	113.06
444.034	101.06
444.255	82.06
444.476	89.06
444.698	88.06
444.919	97.06
445.14	125.06
445.361	126.06
445.582	107.06
445.803	116.06
446.024	135.06
446.245	125.06
446.466	106.06
446.687	101.06
446.908	81.06
447.129	84.06
447.35	86.06
447.571	76.06
447.792	95.06
448.013	89.06
448.234	118.06
448.455	105.06
448.675	124.06
448.896	112.06
449.117	106.06
449.338	110.06
449.559	133.06
449.779	125.06
450	77.06
450.221	81.06
450.442	95.06
450.662	85.06
450.883	114.06
451.104	109.06
451.324	98.06
451.545	79.06
451.766	93.06
451.986	79.06
452.207	81.06
452.428	97.06
452.648	94.06
452.869	96.06
453.089	123.06
453.31	115.06
453.53	90.06
453.751	88.06
453.971	110.06
454.192	110.06
454.412	91.06
454.633	98.06
454.853	93.06
455.073	91.06
455.294	81.06
455.514	101.06
455.734	100.06
455.955	91.06
456.175	86.06
456.395	76.06
456.616	94.06
456.836	95.06
457.056	101.06
457.276	94.06
457.497	100.06
457.717	97.06
457.937	81.06
458.157	85.06
458.377	89.06
458.598	110.06
458.818	145.06
459.038	152.06
459.258	111.06
459.478	92.06
459.698	83.06
459.918	88.06
460.138	79.06
460.358	83.06
460.578	77.06
460.798	95.06
461.018	99.06
461.238	84.06
461.458	93.06
461.678	77.06
461.898	68.06
462.118	88.06
462.338	91.06
462.558	103.06
462.777	86.06
462.997	87.06
463.217	82.06
463.437	101.06
463.657	93.06
463.876	79.06
464.096	100.06
464.316	93.06
464.536	83.06
464.755	89.06
464.975	111.06
465.195	159.06
465.414	144.06
465.634	102.06
465.854	62.06
466.073	73.06
466.293	87.06
466.512	96.06
466.732	101.06
466.951	92.06
467.171	94.06
467.391	101.06
467.61	104.06
467.829	95.06
468.049	100.06
468.268	94.06
468.488	86.06
468.707	85.06
468.927	81.06
469.146	101.06
469.365	86.06
469.585	92.06
469.804	85.06
470.023	90.06
470.243	96.06
470.462	94.06
470.681	114.06
470.901	85.06
471.12	75.06
471.339	95.06
471.558	84.06
471.777	84.06
471.997	83.06
472.216	90.06
472.435	78.06
472.654	83.06
472.873	93.06
473.092	83.06
473.311	89.06
473.53	83.06
473.749	73.06
473.968	86.06
474.187	100.06
474.406	114.06
474.625	87.06
474.844	96.06
475.063	90.06
475.282	99.06
475.501	88.06
475.72	83.06
475.939	85.06
476.158	81.06
476.377	91.06
476.596	95.06
476.814	87.06
477.033	100.06
477.252	99.06
477.471	90.06
477.69	89.06
477.908	98.06
478.127	76.06
478.346	91.06
478.564	82.06
478.783	104.06
479.002	89.06
479.22	89.06
479.439	104.06
479.658	123.06
479.876	104.06
480.095	83.06
480.313	97.06
480.532	85.06
480.751	83.06
480.969	77.06
481.188	107.06
481.406	112.06
481.624	92.06
481.843	90.06
482.061	90.06
482.28	89.06
482.498	85.06
482.717	85.06
482.935	100.06
483.153	86.06
483.372	89.06
483.59	83.06
483.808	104.06
484.027	81.06
484.245	93.06
484.463	89.06
484.681	99.06
484.9	89.06
485.118	100.06
485.336	99.06
485.554	92.06
485.772	103.06
485.99	89.06
486.209	100.06
486.427	101.06
486.645	97.06
486.863	104.06
487.081	118.06
487.299	93.06
487.517	110.06
487.735	102.06
487.953	102.06
488.171	103.06
488.389	97.06
488.607	100.06
488.825	92.06
489.043	98.06
489.261	90.06
489.479	91.06
489.696	90.06
489.914	107.06
490.132	89.06
490.35	107.06
490.568	86.06
490.786	100.06
491.003	88.06
491.221	94.06
491.439	85.06
491.657	87.06
491.874	93.06
492.092	87.06
492.31	96.06
492.527	104.06
492.745	90.06
492.963	82.06
493.18	82.06
493.398	98.06
493.615	94.06
493.833	91.06
494.05	98.06
494.268	101.06
494.485	93.06
494.703	93.06
494.92	79.06
495.138	87.06
495.355	92.06
495.573	94.06
495.79	93.06
496.008	90.06
496.225	83.06
496.442	90.06
496.66	96.06
496.877	104.06
497.094	92.06
497.312	93.06
497.529	103.06
497.746	101.06
497.963	98.06
498.181	93.06
498.398	101.06
498.615	95.06
498.832	100.06
499.049	94.06
499.267	101.06
499.484	97.06
499.701	86.06
499.918	90.06
500.135	88.06
500.352	92.06
500.569	80.06
500.786	95.06
501.003	91.06
501.22	93.06
501.437	94.06
501.654	88.06
501.871	94.06
502.088	110.06
502.305	88.06
502.522	91.06
502.739	99.06
502.956	90.06
503.172	99.06
503.389	114.06
503.606	106.06
503.823	85.06
504.04	97.06
504.256	90.06
504.473	90.06
504.69	88.06
504.907	97.06
505.123	89.06
505.34	103.06
505.557	89.06
505.773	95.06
505.99	102.06
506.207	77.06
506.423	81.06
506.64	89.06
506.856	94.06
507.073	84.06
507.289	83.06
507.506	110.06
507.722	106.06
507.939	98.06
508.155	97.06
508.372	84.06
508.588	96.06
508.805	104.06
509.021	93.06
509.238	104.06
509.454	99.06
509.67	92.06
509.887	94.06
510.103	131.06
510.319	210.06
510.536	739.06
510.752	2106.06
510.968	593.06
511.184	153.06
511.401	113.06
511.617	99.06
511.833	93.06
512.049	85.06
512.265	104.06
512.481	106.06
512.698	83.06
512.914	100.06
513.13	104.06
513.346	89.06
513.562	111.06
513.778	92.06
513.994	95.06
514.21	97.06
514.426	94.06
514.642	129.06
514.858	126.06
515.074	175.06
