Data from Uncirc_2001_H10_HRD10591_00013.txt Node
Date: Wed Jan 03 10:43:59 EST 2024
User: Yrep
Spectrometer: HR+D1059
Trigger mode: 1
Integration Time (sec): 1.000000E-1
Scans to average: 1
Electric dark correction enabled: true
Nonlinearity correction enabled: false
Boxcar width: 0
XAxis mode: Wavelengths
Number of Pixels in Spectrum: 2048
>>>>>Begin Spectral Data<<<<<
223.165	-15.94
223.4	-15.94
223.635	-15.94
223.869	-20.94
224.104	-34.94
224.338	-13.94
224.573	-17.94
224.808	-21.94
225.042	7.06
225.277	-11.94
225.511	2.06
225.746	1.06
225.98	7.06
226.215	0.06
226.449	19.06
226.683	38.06
226.918	28.06
227.152	35.06
227.387	45.06
227.621	34.06
227.856	43.06
228.09	38.06
228.324	47.06
228.559	57.06
228.793	56.06
229.027	54.06
229.262	77.06
229.496	63.06
229.73	88.06
229.964	77.06
230.199	64.06
230.433	89.06
230.667	105.06
230.901	87.06
231.136	87.06
231.37	87.06
231.604	74.06
231.838	86.06
232.072	95.06
232.306	87.06
232.541	84.06
232.775	98.06
233.009	86.06
233.243	72.06
233.477	91.06
233.711	95.06
233.945	72.06
234.179	77.06
234.413	82.06
234.647	79.06
234.881	86.06
235.115	99.06
235.349	73.06
235.583	80.06
235.817	84.06
236.051	72.06
236.285	71.06
236.519	73.06
236.753	74.06
236.987	77.06
237.221	87.06
237.455	71.06
237.689	72.06
237.922	79.06
238.156	73.06
238.39	80.06
238.624	72.06
238.858	81.06
239.091	77.06
239.325	79.06
239.559	74.06
239.793	73.06
240.027	90.06
240.26	71.06
240.494	71.06
240.728	72.06
240.961	75.06
241.195	85.06
241.429	89.06
241.662	87.06
241.896	70.06
242.13	83.06
242.363	70.06
242.597	74.06
242.83	76.06
243.064	81.06
243.298	79.06
243.531	82.06
243.765	69.06
243.998	62.06
244.232	71.06
244.465	63.06
244.699	73.06
244.932	80.06
245.166	84.06
245.399	78.06
245.633	75.06
245.866	87.06
246.099	75.06
246.333	85.06
246.566	79.06
246.8	78.06
247.033	74.06
247.266	84.06
247.5	74.06
247.733	82.06
247.966	54.06
248.2	71.06
248.433	74.06
248.666	80.06
248.899	86.06
249.133	85.06
249.366	86.06
249.599	92.06
249.832	74.06
250.066	81.06
250.299	74.06
250.532	80.06
250.765	85.06
250.998	79.06
251.231	84.06
251.465	90.06
251.698	81.06
251.931	75.06
252.164	70.06
252.397	71.06
252.63	88.06
252.863	78.06
253.096	69.06
253.329	85.06
253.562	86.06
253.795	79.06
254.028	79.06
254.261	84.06
254.494	75.06
254.727	79.06
254.96	90.06
255.193	72.06
255.426	86.06
255.659	71.06
255.892	76.06
256.124	76.06
256.357	88.06
256.59	82.06
256.823	85.06
257.056	76.06
257.289	80.06
257.521	74.06
257.754	95.06
257.987	93.06
258.22	81.06
258.452	79.06
258.685	72.06
258.918	71.06
259.151	72.06
259.383	66.06
259.616	80.06
259.849	68.06
260.081	76.06
260.314	71.06
260.547	66.06
260.779	89.06
261.012	87.06
261.244	80.06
261.477	86.06
261.71	92.06
261.942	110.06
262.175	110.06
262.407	91.06
262.64	84.06
262.872	88.06
263.105	76.06
263.337	84.06
263.57	95.06
263.802	59.06
264.035	86.06
264.267	79.06
264.499	84.06
264.732	88.06
264.964	85.06
265.197	88.06
265.429	73.06
265.661	96.06
265.894	79.06
266.126	78.06
266.358	86.06
266.591	96.06
266.823	80.06
267.055	90.06
267.287	93.06
267.52	82.06
267.752	85.06
267.984	86.06
268.216	70.06
268.448	71.06
268.681	73.06
268.913	79.06
269.145	89.06
269.377	89.06
269.609	76.06
269.841	71.06
270.073	81.06
270.306	73.06
270.538	84.06
270.77	84.06
271.002	74.06
271.234	94.06
271.466	77.06
271.698	99.06
271.93	90.06
272.162	73.06
272.394	85.06
272.626	80.06
272.858	82.06
273.09	85.06
273.322	78.06
273.553	97.06
273.785	88.06
274.017	104.06
274.249	78.06
274.481	92.06
274.713	91.06
274.945	79.06
275.176	75.06
275.408	79.06
275.64	88.06
275.872	82.06
276.104	83.06
276.335	96.06
276.567	94.06
276.799	91.06
277.031	97.06
277.262	82.06
277.494	95.06
277.726	89.06
277.957	77.06
278.189	74.06
278.421	97.06
278.652	86.06
278.884	83.06
279.115	84.06
279.347	76.06
279.579	82.06
279.81	88.06
280.042	90.06
280.273	74.06
280.505	82.06
280.736	79.06
280.968	95.06
281.199	83.06
281.431	83.06
281.662	83.06
281.894	80.06
282.125	90.06
282.356	107.06
282.588	129.06
282.819	96.06
283.051	76.06
283.282	91.06
283.513	105.06
283.745	92.06
283.976	88.06
284.207	90.06
284.439	95.06
284.67	98.06
284.901	71.06
285.132	78.06
285.364	87.06
285.595	89.06
285.826	84.06
286.057	78.06
286.288	83.06
286.52	78.06
286.751	75.06
286.982	79.06
287.213	93.06
287.444	85.06
287.675	95.06
287.906	108.06
288.138	88.06
288.369	92.06
288.6	81.06
288.831	81.06
289.062	89.06
289.293	100.06
289.524	75.06
289.755	96.06
289.986	90.06
290.217	78.06
290.448	81.06
290.679	83.06
290.91	74.06
291.141	87.06
291.371	103.06
291.602	84.06
291.833	87.06
292.064	78.06
292.295	91.06
292.526	92.06
292.757	86.06
292.987	65.06
293.218	92.06
293.449	83.06
293.68	90.06
293.91	93.06
294.141	98.06
294.372	84.06
294.603	86.06
294.833	95.06
295.064	95.06
295.295	97.06
295.525	85.06
295.756	106.06
295.987	106.06
296.217	116.06
296.448	89.06
296.679	103.06
296.909	96.06
297.14	73.06
297.37	91.06
297.601	89.06
297.831	90.06
298.062	88.06
298.292	87.06
298.523	68.06
298.753	91.06
298.984	85.06
299.214	88.06
299.445	97.06
299.675	90.06
299.905	96.06
300.136	94.06
300.366	92.06
300.597	93.06
300.827	95.06
301.057	95.06
301.288	97.06
301.518	86.06
301.748	94.06
301.979	106.06
302.209	84.06
302.439	81.06
302.669	88.06
302.9	104.06
303.13	91.06
303.36	101.06
303.59	100.06
303.82	107.06
304.051	83.06
304.281	89.06
304.511	107.06
304.741	98.06
304.971	82.06
305.201	85.06
305.431	99.06
305.661	86.06
305.891	93.06
306.121	87.06
306.352	102.06
306.582	91.06
306.812	85.06
307.042	90.06
307.272	94.06
307.502	89.06
307.731	92.06
307.961	100.06
308.191	85.06
308.421	89.06
308.651	92.06
308.881	92.06
309.111	100.06
309.341	96.06
309.571	83.06
309.8	94.06
310.03	95.06
310.26	101.06
310.49	90.06
310.72	85.06
310.949	114.06
311.179	102.06
311.409	99.06
311.639	95.06
311.868	94.06
312.098	85.06
312.328	77.06
312.557	89.06
312.787	104.06
313.017	109.06
313.246	97.06
313.476	110.06
313.706	106.06
313.935	94.06
314.165	96.06
314.394	88.06
314.624	88.06
314.853	95.06
315.083	88.06
315.312	94.06
315.542	83.06
315.771	103.06
316.001	83.06
316.23	86.06
316.46	83.06
316.689	88.06
316.919	83.06
317.148	84.06
317.377	82.06
317.607	85.06
317.836	87.06
318.065	87.06
318.295	95.06
318.524	91.06
318.753	98.06
318.983	90.06
319.212	92.06
319.441	97.06
319.67	82.06
319.9	89.06
320.129	87.06
320.358	92.06
320.587	102.06
320.816	105.06
321.046	86.06
321.275	98.06
321.504	71.06
321.733	95.06
321.962	93.06
322.191	98.06
322.42	94.06
322.649	92.06
322.878	118.06
323.108	120.06
323.337	114.06
323.566	120.06
323.795	130.06
324.024	167.06
324.253	330.06
324.482	672.06
324.71	1309.06
324.939	1643.06
325.168	632.06
325.397	206.06
325.626	119.06
325.855	130.06
326.084	117.06
326.313	122.06
326.542	163.06
326.77	205.06
326.999	379.06
327.228	735.06
327.457	1295.06
327.686	1033.06
327.914	294.06
328.143	153.06
328.372	117.06
328.6	111.06
328.829	115.06
329.058	117.06
329.287	125.06
329.515	105.06
329.744	89.06
329.972	95.06
330.201	119.06
330.43	111.06
330.658	106.06
330.887	126.06
331.115	104.06
331.344	88.06
331.572	101.06
331.801	107.06
332.03	105.06
332.258	94.06
332.486	99.06
332.715	96.06
332.943	91.06
333.172	100.06
333.4	87.06
333.629	109.06
333.857	101.06
334.085	105.06
334.314	101.06
334.542	92.06
334.771	108.06
334.999	92.06
335.227	100.06
335.455	91.06
335.684	108.06
335.912	83.06
336.14	94.06
336.369	81.06
336.597	95.06
336.825	87.06
337.053	95.06
337.281	106.06
337.51	100.06
337.738	90.06
337.966	98.06
338.194	97.06
338.422	91.06
338.65	98.06
338.878	91.06
339.106	92.06
339.334	86.06
339.562	91.06
339.79	86.06
340.018	91.06
340.246	92.06
340.474	81.06
340.702	86.06
340.93	74.06
341.158	87.06
341.386	101.06
341.614	95.06
341.842	89.06
342.07	84.06
342.298	82.06
342.526	83.06
342.754	94.06
342.981	87.06
343.209	86.06
343.437	103.06
343.665	93.06
343.893	100.06
344.12	90.06
344.348	88.06
344.576	87.06
344.804	100.06
345.031	106.06
345.259	98.06
345.487	98.06
345.714	84.06
345.942	98.06
346.17	91.06
346.397	91.06
346.625	106.06
346.853	91.06
347.08	91.06
347.308	89.06
347.535	95.06
347.763	96.06
347.99	89.06
348.218	90.06
348.445	111.06
348.673	102.06
348.9	89.06
349.128	98.06
349.355	112.06
349.583	84.06
349.81	112.06
350.037	102.06
350.265	85.06
350.492	99.06
350.72	89.06
350.947	88.06
351.174	113.06
351.402	125.06
351.629	98.06
351.856	98.06
352.083	111.06
352.311	96.06
352.538	102.06
352.765	106.06
352.992	108.06
353.22	104.06
353.447	106.06
353.674	87.06
353.901	92.06
354.128	94.06
354.355	102.06
354.583	95.06
354.81	112.06
355.037	91.06
355.264	100.06
355.491	99.06
355.718	84.06
355.945	79.06
356.172	82.06
356.399	96.06
356.626	94.06
356.853	110.06
357.08	94.06
357.307	98.06
357.534	98.06
357.761	90.06
357.988	101.06
358.215	101.06
358.441	86.06
358.668	92.06
358.895	109.06
359.122	91.06
359.349	90.06
359.576	99.06
359.802	102.06
360.029	105.06
360.256	105.06
360.483	102.06
360.709	97.06
360.936	103.06
361.163	90.06
361.39	91.06
361.616	83.06
361.843	88.06
362.07	90.06
362.296	91.06
362.523	96.06
362.749	99.06
362.976	99.06
363.203	79.06
363.429	89.06
363.656	82.06
363.882	92.06
364.109	85.06
364.335	97.06
364.562	82.06
364.788	92.06
365.015	105.06
365.241	90.06
365.468	97.06
365.694	91.06
365.92	104.06
366.147	97.06
366.373	95.06
366.599	89.06
366.826	100.06
367.052	98.06
367.278	105.06
367.505	100.06
367.731	84.06
367.957	99.06
368.184	99.06
368.41	80.06
368.636	107.06
368.862	115.06
369.089	113.06
369.315	107.06
369.541	86.06
369.767	95.06
369.993	90.06
370.219	81.06
370.445	87.06
370.672	95.06
370.898	83.06
371.124	100.06
371.35	100.06
371.576	79.06
371.802	82.06
372.028	88.06
372.254	94.06
372.48	85.06
372.706	89.06
372.932	102.06
373.158	78.06
373.384	98.06
373.61	92.06
373.835	98.06
374.061	89.06
374.287	82.06
374.513	86.06
374.739	103.06
374.965	97.06
375.191	81.06
375.416	82.06
375.642	91.06
375.868	84.06
376.094	97.06
376.319	80.06
376.545	74.06
376.771	91.06
376.997	99.06
377.222	99.06
377.448	82.06
377.674	106.06
377.899	80.06
378.125	96.06
378.35	92.06
378.576	100.06
378.802	99.06
379.027	99.06
379.253	92.06
379.478	75.06
379.704	97.06
379.929	99.06
380.155	97.06
380.38	83.06
380.606	92.06
380.831	99.06
381.057	93.06
381.282	93.06
381.507	94.06
381.733	105.06
381.958	84.06
382.184	100.06
382.409	107.06
382.634	110.06
382.86	111.06
383.085	110.06
383.31	99.06
383.535	83.06
383.761	96.06
383.986	94.06
384.211	107.06
384.436	103.06
384.662	104.06
384.887	115.06
385.112	109.06
385.337	106.06
385.562	98.06
385.787	107.06
386.013	114.06
386.238	130.06
386.463	105.06
386.688	112.06
386.913	111.06
387.138	104.06
387.363	95.06
387.588	90.06
387.813	102.06
388.038	115.06
388.263	104.06
388.488	119.06
388.713	89.06
388.938	94.06
389.163	96.06
389.387	105.06
389.612	92.06
389.837	100.06
390.062	83.06
390.287	92.06
390.512	98.06
390.736	96.06
390.961	95.06
391.186	98.06
391.411	78.06
391.636	89.06
391.86	83.06
392.085	86.06
392.31	81.06
392.534	90.06
392.759	81.06
392.984	92.06
393.208	100.06
393.433	129.06
393.658	116.06
393.882	83.06
394.107	87.06
394.331	94.06
394.556	86.06
394.78	106.06
395.005	91.06
395.229	80.06
395.454	92.06
395.678	83.06
395.903	100.06
396.127	92.06
396.352	90.06
396.576	107.06
396.801	101.06
397.025	109.06
397.249	76.06
397.474	88.06
397.698	89.06
397.922	83.06
398.147	86.06
398.371	86.06
398.595	89.06
398.82	87.06
399.044	75.06
399.268	79.06
399.492	88.06
399.717	87.06
399.941	90.06
400.165	98.06
400.389	89.06
400.613	93.06
400.837	87.06
401.062	100.06
401.286	78.06
401.51	97.06
401.734	75.06
401.958	93.06
402.182	120.06
402.406	151.06
402.63	122.06
402.854	102.06
403.078	90.06
403.302	87.06
403.526	91.06
403.75	74.06
403.974	89.06
404.198	97.06
404.422	93.06
404.645	92.06
404.869	88.06
405.093	90.06
405.317	97.06
405.541	104.06
405.765	104.06
405.988	121.06
406.212	164.06
406.436	211.06
406.66	138.06
406.883	80.06
407.107	97.06
407.331	84.06
407.555	98.06
407.778	96.06
408.002	94.06
408.226	97.06
408.449	103.06
408.673	91.06
408.896	93.06
409.12	90.06
409.344	96.06
409.567	96.06
409.791	78.06
410.014	104.06
410.238	80.06
410.461	89.06
410.685	96.06
410.908	83.06
411.132	102.06
411.355	87.06
411.578	99.06
411.802	91.06
412.025	79.06
412.249	87.06
412.472	83.06
412.695	91.06
412.919	85.06
413.142	92.06
413.365	83.06
413.589	92.06
413.812	91.06
414.035	102.06
414.258	102.06
414.482	98.06
414.705	85.06
414.928	81.06
415.151	89.06
415.374	94.06
415.597	87.06
415.821	110.06
416.044	94.06
416.267	79.06
416.49	88.06
416.713	88.06
416.936	95.06
417.159	94.06
417.382	81.06
417.605	84.06
417.828	85.06
418.051	98.06
418.274	83.06
418.497	90.06
418.72	76.06
418.943	94.06
419.166	90.06
419.389	95.06
419.611	84.06
419.834	88.06
420.057	107.06
420.28	98.06
420.503	79.06
420.726	72.06
420.948	90.06
421.171	107.06
421.394	78.06
421.617	91.06
421.839	99.06
422.062	99.06
422.285	95.06
422.507	104.06
422.73	104.06
422.953	99.06
423.175	73.06
423.398	94.06
423.621	94.06
423.843	83.06
424.066	87.06
424.288	92.06
424.511	81.06
424.733	96.06
424.956	91.06
425.178	85.06
425.401	97.06
425.623	114.06
425.846	86.06
426.068	89.06
426.291	92.06
426.513	89.06
426.735	87.06
426.958	100.06
427.18	103.06
427.402	129.06
427.625	146.06
427.847	122.06
428.069	96.06
428.292	81.06
428.514	91.06
428.736	72.06
428.958	89.06
429.181	80.06
429.403	90.06
429.625	92.06
429.847	87.06
430.069	99.06
430.292	96.06
430.514	69.06
430.736	84.06
430.958	85.06
431.18	93.06
431.402	91.06
431.624	101.06
431.846	77.06
432.068	66.06
432.29	78.06
432.512	93.06
432.734	82.06
432.956	92.06
433.178	95.06
433.4	85.06
433.622	94.06
433.844	87.06
434.066	79.06
434.287	88.06
434.509	87.06
434.731	92.06
434.953	85.06
435.175	76.06
435.397	85.06
435.618	82.06
435.84	110.06
436.062	105.06
436.284	92.06
436.505	87.06
436.727	91.06
436.949	91.06
437.17	66.06
437.392	99.06
437.614	91.06
437.835	113.06
438.057	103.06
438.278	112.06
438.5	97.06
438.721	115.06
438.943	93.06
439.165	89.06
439.386	79.06
439.608	96.06
439.829	94.06
440.05	98.06
440.272	116.06
440.493	91.06
440.715	92.06
440.936	80.06
441.158	99.06
441.379	84.06
441.6	87.06
441.822	88.06
442.043	86.06
442.264	90.06
442.486	101.06
442.707	97.06
442.928	89.06
443.149	126.06
443.371	126.06
443.592	97.06
443.813	103.06
444.034	86.06
444.255	78.06
444.476	87.06
444.698	80.06
444.919	79.06
445.14	122.06
445.361	115.06
445.582	106.06
445.803	123.06
446.024	121.06
446.245	118.06
446.466	85.06
446.687	102.06
446.908	95.06
447.129	70.06
447.35	80.06
447.571	86.06
447.792	96.06
448.013	97.06
448.234	83.06
448.455	99.06
448.675	109.06
448.896	99.06
449.117	96.06
449.338	91.06
449.559	113.06
449.779	123.06
450	88.06
450.221	88.06
450.442	85.06
450.662	97.06
450.883	100.06
451.104	107.06
451.324	94.06
451.545	85.06
451.766	96.06
451.986	85.06
452.207	92.06
452.428	81.06
452.648	87.06
452.869	105.06
453.089	126.06
453.31	113.06
453.53	85.06
453.751	85.06
453.971	105.06
454.192	94.06
454.412	92.06
454.633	89.06
454.853	84.06
455.073	74.06
455.294	82.06
455.514	103.06
455.734	94.06
455.955	91.06
456.175	70.06
456.395	75.06
456.616	106.06
456.836	83.06
457.056	73.06
457.276	83.06
457.497	87.06
457.717	100.06
457.937	99.06
458.157	98.06
458.377	95.06
458.598	101.06
458.818	136.06
459.038	131.06
459.258	103.06
459.478	100.06
459.698	103.06
459.918	88.06
460.138	77.06
460.358	82.06
460.578	91.06
460.798	85.06
461.018	80.06
461.238	80.06
461.458	79.06
461.678	94.06
461.898	75.06
462.118	89.06
462.338	88.06
462.558	73.06
462.777	68.06
462.997	79.06
463.217	79.06
463.437	86.06
463.657	91.06
463.876	78.06
464.096	82.06
464.316	90.06
464.536	96.06
464.755	99.06
464.975	86.06
465.195	158.06
465.414	159.06
465.634	90.06
465.854	81.06
466.073	82.06
466.293	81.06
466.512	84.06
466.732	79.06
466.951	82.06
467.171	97.06
467.391	103.06
467.61	95.06
467.829	96.06
468.049	88.06
468.268	89.06
468.488	90.06
468.707	100.06
468.927	90.06
469.146	84.06
469.365	87.06
469.585	87.06
469.804	94.06
470.023	97.06
470.243	74.06
470.462	101.06
470.681	103.06
470.901	84.06
471.12	80.06
471.339	88.06
471.558	86.06
471.777	87.06
471.997	76.06
472.216	92.06
472.435	90.06
472.654	86.06
472.873	100.06
473.092	89.06
473.311	80.06
473.53	74.06
473.749	88.06
473.968	90.06
474.187	105.06
474.406	84.06
474.625	86.06
474.844	82.06
475.063	75.06
475.282	92.06
475.501	80.06
475.72	96.06
475.939	92.06
476.158	97.06
476.377	84.06
476.596	97.06
476.814	96.06
477.033	80.06
477.252	75.06
477.471	87.06
477.69	95.06
477.908	87.06
478.127	98.06
478.346	85.06
478.564	87.06
478.783	99.06
479.002	86.06
479.22	89.06
479.439	103.06
479.658	96.06
479.876	94.06
480.095	86.06
480.313	103.06
480.532	93.06
480.751	92.06
480.969	103.06
481.188	99.06
481.406	98.06
481.624	106.06
481.843	77.06
482.061	97.06
482.28	81.06
482.498	87.06
482.717	88.06
482.935	89.06
483.153	80.06
483.372	84.06
483.59	80.06
483.808	80.06
484.027	87.06
484.245	94.06
484.463	87.06
484.681	100.06
484.9	93.06
485.118	84.06
485.336	105.06
485.554	86.06
485.772	98.06
485.99	92.06
486.209	99.06
486.427	104.06
486.645	106.06
486.863	117.06
487.081	106.06
487.299	82.06
487.517	82.06
487.735	96.06
487.953	96.06
488.171	99.06
488.389	91.06
488.607	91.06
488.825	90.06
489.043	83.06
489.261	86.06
489.479	84.06
489.696	84.06
489.914	96.06
490.132	91.06
490.35	80.06
490.568	86.06
490.786	88.06
491.003	75.06
491.221	89.06
491.439	97.06
491.657	105.06
491.874	105.06
492.092	95.06
492.31	79.06
492.527	89.06
492.745	87.06
492.963	97.06
493.18	87.06
493.398	91.06
493.615	91.06
493.833	91.06
494.05	87.06
494.268	96.06
494.485	88.06
494.703	95.06
494.92	96.06
495.138	80.06
495.355	81.06
495.573	94.06
495.79	85.06
496.008	99.06
496.225	84.06
496.442	86.06
496.66	90.06
496.877	95.06
497.094	78.06
497.312	81.06
497.529	100.06
497.746	76.06
497.963	91.06
498.181	96.06
498.398	95.06
498.615	99.06
498.832	97.06
499.049	91.06
499.267	90.06
499.484	86.06
499.701	67.06
499.918	76.06
500.135	91.06
500.352	97.06
500.569	77.06
500.786	91.06
501.003	90.06
501.22	84.06
501.437	87.06
501.654	108.06
501.871	107.06
502.088	79.06
502.305	95.06
502.522	91.06
502.739	79.06
502.956	89.06
503.172	100.06
503.389	98.06
503.606	103.06
503.823	106.06
504.04	84.06
504.256	94.06
504.473	76.06
504.69	99.06
504.907	96.06
505.123	87.06
505.34	97.06
505.557	102.06
505.773	104.06
505.99	98.06
506.207	102.06
506.423	76.06
506.64	82.06
506.856	88.06
507.073	96.06
507.289	102.06
507.506	82.06
507.722	100.06
507.939	103.06
508.155	99.06
508.372	80.06
508.588	91.06
508.805	105.06
509.021	84.06
509.238	103.06
509.454	98.06
509.67	113.06
509.887	104.06
510.103	113.06
510.319	201.06
510.536	660.06
510.752	2001.06
510.968	583.06
511.184	149.06
511.401	104.06
511.617	100.06
511.833	86.06
512.049	99.06
512.265	78.06
512.481	73.06
512.698	105.06
512.914	103.06
513.13	89.06
513.346	86.06
513.562	93.06
513.778	88.06
513.994	107.06
514.21	106.06
514.426	111.06
514.642	131.06
514.858	105.06
515.074	129.06
515.29	428.06
515.506	1263.06
515.721	460.06
515.937	150.06
516.153	103.06
