Data from Uncirc_2001_H10_HRD10591_00090.txt Node
Date: Wed Jan 03 10:44:14 EST 2024
User: Yrep
Spectrometer: HR+D1059
Trigger mode: 1
Integration Time (sec): 1.000000E-1
Scans to average: 1
Electric dark correction enabled: true
Nonlinearity correction enabled: false
Boxcar width: 0
XAxis mode: Wavelengths
Number of Pixels in Spectrum: 2048
>>>>>Begin Spectral Data<<<<<
223.165	-18.94
223.4	-18.94
223.635	-18.94
223.869	-10.94
224.104	-16.94
224.338	-16.94
224.573	-21.94
224.808	-18.94
225.042	-26.94
225.277	-8.94
225.511	4.06
225.746	-4.94
225.98	17.06
226.215	20.06
226.449	24.06
226.683	14.06
226.918	33.06
227.152	33.06
227.387	19.06
227.621	34.06
227.856	46.06
228.09	46.06
228.324	47.06
228.559	50.06
228.793	51.06
229.027	60.06
229.262	65.06
229.496	58.06
229.73	70.06
229.964	86.06
230.199	82.06
230.433	66.06
230.667	89.06
230.901	75.06
231.136	73.06
231.37	64.06
231.604	75.06
231.838	76.06
232.072	79.06
232.306	73.06
232.541	87.06
232.775	76.06
233.009	83.06
233.243	77.06
233.477	64.06
233.711	93.06
233.945	70.06
234.179	84.06
234.413	76.06
234.647	78.06
234.881	79.06
235.115	71.06
235.349	60.06
235.583	64.06
235.817	82.06
236.051	75.06
236.285	67.06
236.519	72.06
236.753	79.06
236.987	79.06
237.221	100.06
237.455	83.06
237.689	71.06
237.922	77.06
238.156	56.06
238.39	79.06
238.624	72.06
238.858	72.06
239.091	71.06
239.325	73.06
239.559	72.06
239.793	81.06
240.027	80.06
240.26	92.06
240.494	62.06
240.728	80.06
240.961	71.06
241.195	86.06
241.429	58.06
241.662	75.06
241.896	76.06
242.13	74.06
242.363	68.06
242.597	73.06
242.83	87.06
243.064	75.06
243.298	68.06
243.531	65.06
243.765	74.06
243.998	70.06
244.232	84.06
244.465	75.06
244.699	76.06
244.932	74.06
245.166	73.06
245.399	83.06
245.633	82.06
245.866	78.06
246.099	76.06
246.333	78.06
246.566	74.06
246.8	79.06
247.033	80.06
247.266	75.06
247.5	81.06
247.733	82.06
247.966	86.06
248.2	60.06
248.433	74.06
248.666	88.06
248.899	77.06
249.133	80.06
249.366	100.06
249.599	91.06
249.832	79.06
250.066	75.06
250.299	84.06
250.532	74.06
250.765	74.06
250.998	74.06
251.231	64.06
251.465	70.06
251.698	78.06
251.931	85.06
252.164	79.06
252.397	87.06
252.63	82.06
252.863	79.06
253.096	76.06
253.329	83.06
253.562	79.06
253.795	81.06
254.028	79.06
254.261	74.06
254.494	82.06
254.727	93.06
254.96	70.06
255.193	66.06
255.426	81.06
255.659	79.06
255.892	91.06
256.124	68.06
256.357	66.06
256.59	76.06
256.823	78.06
257.056	72.06
257.289	80.06
257.521	90.06
257.754	79.06
257.987	69.06
258.22	94.06
258.452	86.06
258.685	69.06
258.918	90.06
259.151	74.06
259.383	86.06
259.616	77.06
259.849	68.06
260.081	84.06
260.314	77.06
260.547	82.06
260.779	82.06
261.012	86.06
261.244	78.06
261.477	81.06
261.71	99.06
261.942	99.06
262.175	123.06
262.407	91.06
262.64	94.06
262.872	90.06
263.105	82.06
263.337	81.06
263.57	71.06
263.802	81.06
264.035	88.06
264.267	81.06
264.499	70.06
264.732	73.06
264.964	84.06
265.197	85.06
265.429	87.06
265.661	79.06
265.894	75.06
266.126	86.06
266.358	69.06
266.591	86.06
266.823	81.06
267.055	83.06
267.287	89.06
267.52	94.06
267.752	75.06
267.984	70.06
268.216	93.06
268.448	76.06
268.681	89.06
268.913	96.06
269.145	74.06
269.377	66.06
269.609	84.06
269.841	96.06
270.073	78.06
270.306	88.06
270.538	67.06
270.77	79.06
271.002	90.06
271.234	80.06
271.466	74.06
271.698	84.06
271.93	66.06
272.162	87.06
272.394	88.06
272.626	92.06
272.858	82.06
273.09	77.06
273.322	89.06
273.553	76.06
273.785	96.06
274.017	86.06
274.249	92.06
274.481	90.06
274.713	77.06
274.945	81.06
275.176	85.06
275.408	80.06
275.64	85.06
275.872	87.06
276.104	81.06
276.335	73.06
276.567	107.06
276.799	104.06
277.031	95.06
277.262	90.06
277.494	87.06
277.726	79.06
277.957	88.06
278.189	89.06
278.421	89.06
278.652	81.06
278.884	108.06
279.115	98.06
279.347	77.06
279.579	68.06
279.81	70.06
280.042	74.06
280.273	77.06
280.505	69.06
280.736	80.06
280.968	98.06
281.199	86.06
281.431	83.06
281.662	72.06
281.894	75.06
282.125	83.06
282.356	110.06
282.588	158.06
282.819	120.06
283.051	84.06
283.282	73.06
283.513	93.06
283.745	92.06
283.976	95.06
284.207	68.06
284.439	90.06
284.67	76.06
284.901	75.06
285.132	82.06
285.364	88.06
285.595	82.06
285.826	89.06
286.057	80.06
286.288	82.06
286.52	83.06
286.751	87.06
286.982	88.06
287.213	89.06
287.444	90.06
287.675	89.06
287.906	84.06
288.138	86.06
288.369	92.06
288.6	78.06
288.831	93.06
289.062	85.06
289.293	79.06
289.524	79.06
289.755	83.06
289.986	86.06
290.217	71.06
290.448	81.06
290.679	82.06
290.91	98.06
291.141	79.06
291.371	83.06
291.602	80.06
291.833	88.06
292.064	78.06
292.295	69.06
292.526	87.06
292.757	81.06
292.987	87.06
293.218	91.06
293.449	92.06
293.68	90.06
293.91	78.06
294.141	99.06
294.372	98.06
294.603	84.06
294.833	80.06
295.064	81.06
295.295	89.06
295.525	96.06
295.756	102.06
295.987	120.06
296.217	144.06
296.448	131.06
296.679	96.06
296.909	92.06
297.14	104.06
297.37	89.06
297.601	78.06
297.831	79.06
298.062	98.06
298.292	91.06
298.523	86.06
298.753	85.06
298.984	80.06
299.214	103.06
299.445	98.06
299.675	102.06
299.905	113.06
300.136	92.06
300.366	78.06
300.597	86.06
300.827	80.06
301.057	95.06
301.288	102.06
301.518	79.06
301.748	103.06
301.979	113.06
302.209	75.06
302.439	95.06
302.669	81.06
302.9	90.06
303.13	97.06
303.36	92.06
303.59	90.06
303.82	95.06
304.051	83.06
304.281	81.06
304.511	96.06
304.741	87.06
304.971	104.06
305.201	99.06
305.431	104.06
305.661	101.06
305.891	91.06
306.121	98.06
306.352	104.06
306.582	97.06
306.812	86.06
307.042	88.06
307.272	89.06
307.502	98.06
307.731	99.06
307.961	86.06
308.191	91.06
308.421	85.06
308.651	100.06
308.881	94.06
309.111	91.06
309.341	94.06
309.571	96.06
309.8	90.06
310.03	76.06
310.26	95.06
310.49	93.06
310.72	99.06
310.949	96.06
311.179	90.06
311.409	83.06
311.639	86.06
311.868	89.06
312.098	104.06
312.328	98.06
312.557	89.06
312.787	104.06
313.017	111.06
313.246	98.06
313.476	99.06
313.706	86.06
313.935	86.06
314.165	91.06
314.394	92.06
314.624	92.06
314.853	90.06
315.083	89.06
315.312	100.06
315.542	99.06
315.771	96.06
316.001	97.06
316.23	78.06
316.46	80.06
316.689	89.06
316.919	105.06
317.148	100.06
317.377	95.06
317.607	97.06
317.836	91.06
318.065	92.06
318.295	86.06
318.524	81.06
318.753	84.06
318.983	91.06
319.212	97.06
319.441	118.06
319.67	114.06
319.9	91.06
320.129	87.06
320.358	103.06
320.587	101.06
320.816	104.06
321.046	99.06
321.275	87.06
321.504	99.06
321.733	98.06
321.962	97.06
322.191	100.06
322.42	101.06
322.649	103.06
322.878	117.06
323.108	129.06
323.337	132.06
323.566	131.06
323.795	142.06
324.024	174.06
324.253	375.06
324.482	739.06
324.71	1527.06
324.939	1945.06
325.168	747.06
325.397	219.06
325.626	161.06
325.855	121.06
326.084	122.06
326.313	116.06
326.542	151.06
326.77	203.06
326.999	432.06
327.228	846.06
327.457	1502.06
327.686	1185.06
327.914	327.06
328.143	178.06
328.372	146.06
328.6	139.06
328.829	122.06
329.058	131.06
329.287	131.06
329.515	104.06
329.744	105.06
329.972	103.06
330.201	93.06
330.43	120.06
330.658	133.06
330.887	153.06
331.115	120.06
331.344	107.06
331.572	96.06
331.801	97.06
332.03	91.06
332.258	90.06
332.486	89.06
332.715	108.06
332.943	105.06
333.172	100.06
333.4	96.06
333.629	108.06
333.857	100.06
334.085	100.06
334.314	108.06
334.542	98.06
334.771	97.06
334.999	90.06
335.227	93.06
335.455	90.06
335.684	88.06
335.912	81.06
336.14	99.06
336.369	92.06
336.597	102.06
336.825	99.06
337.053	104.06
337.281	87.06
337.51	98.06
337.738	95.06
337.966	78.06
338.194	104.06
338.422	88.06
338.65	90.06
338.878	96.06
339.106	101.06
339.334	88.06
339.562	87.06
339.79	79.06
340.018	89.06
340.246	93.06
340.474	93.06
340.702	104.06
340.93	79.06
341.158	87.06
341.386	110.06
341.614	115.06
341.842	95.06
342.07	90.06
342.298	77.06
342.526	87.06
342.754	86.06
342.981	90.06
343.209	73.06
343.437	91.06
343.665	85.06
343.893	79.06
344.12	102.06
344.348	87.06
344.576	106.06
344.804	86.06
345.031	96.06
345.259	85.06
345.487	100.06
345.714	86.06
345.942	91.06
346.17	110.06
346.397	82.06
346.625	80.06
346.853	107.06
347.08	100.06
347.308	100.06
347.535	111.06
347.763	103.06
347.99	96.06
348.218	103.06
348.445	123.06
348.673	87.06
348.9	102.06
349.128	99.06
349.355	90.06
349.583	86.06
349.81	89.06
350.037	94.06
350.265	84.06
350.492	86.06
350.72	80.06
350.947	101.06
351.174	104.06
351.402	115.06
351.629	100.06
351.856	102.06
352.083	103.06
352.311	106.06
352.538	105.06
352.765	104.06
352.992	111.06
353.22	110.06
353.447	98.06
353.674	101.06
353.901	94.06
354.128	81.06
354.355	99.06
354.583	95.06
354.81	105.06
355.037	103.06
355.264	99.06
355.491	83.06
355.718	109.06
355.945	92.06
356.172	107.06
356.399	96.06
356.626	83.06
356.853	82.06
357.08	99.06
357.307	85.06
357.534	76.06
357.761	81.06
357.988	90.06
358.215	91.06
358.441	95.06
358.668	87.06
358.895	86.06
359.122	91.06
359.349	72.06
359.576	81.06
359.802	84.06
360.029	112.06
360.256	119.06
360.483	99.06
360.709	89.06
360.936	86.06
361.163	101.06
361.39	92.06
361.616	82.06
361.843	88.06
362.07	87.06
362.296	95.06
362.523	94.06
362.749	91.06
362.976	87.06
363.203	89.06
363.429	89.06
363.656	85.06
363.882	99.06
364.109	95.06
364.335	89.06
364.562	88.06
364.788	80.06
365.015	101.06
365.241	99.06
365.468	116.06
365.694	112.06
365.92	84.06
366.147	99.06
366.373	96.06
366.599	103.06
366.826	104.06
367.052	92.06
367.278	78.06
367.505	84.06
367.731	98.06
367.957	106.06
368.184	90.06
368.41	102.06
368.636	113.06
368.862	120.06
369.089	111.06
369.315	94.06
369.541	98.06
369.767	87.06
369.993	107.06
370.219	89.06
370.445	94.06
370.672	84.06
370.898	92.06
371.124	92.06
371.35	87.06
371.576	80.06
371.802	69.06
372.028	75.06
372.254	95.06
372.48	90.06
372.706	92.06
372.932	91.06
373.158	95.06
373.384	103.06
373.61	103.06
373.835	87.06
374.061	92.06
374.287	84.06
374.513	99.06
374.739	75.06
374.965	82.06
375.191	90.06
375.416	87.06
375.642	81.06
375.868	87.06
376.094	81.06
376.319	87.06
376.545	81.06
376.771	81.06
376.997	81.06
377.222	96.06
377.448	91.06
377.674	105.06
377.899	101.06
378.125	89.06
378.35	91.06
378.576	97.06
378.802	88.06
379.027	83.06
379.253	90.06
379.478	74.06
379.704	95.06
379.929	109.06
380.155	96.06
380.38	79.06
380.606	96.06
380.831	94.06
381.057	95.06
381.282	98.06
381.507	104.06
381.733	110.06
381.958	92.06
382.184	83.06
382.409	86.06
382.634	86.06
382.86	107.06
383.085	90.06
383.31	99.06
383.535	92.06
383.761	88.06
383.986	97.06
384.211	96.06
384.436	102.06
384.662	90.06
384.887	90.06
385.112	99.06
385.337	94.06
385.562	98.06
385.787	103.06
386.013	105.06
386.238	111.06
386.463	92.06
386.688	110.06
386.913	104.06
387.138	92.06
387.363	87.06
387.588	110.06
387.813	94.06
388.038	105.06
388.263	107.06
388.488	99.06
388.713	92.06
388.938	99.06
389.163	90.06
389.387	92.06
389.612	102.06
389.837	74.06
390.062	80.06
390.287	98.06
390.512	88.06
390.736	90.06
390.961	87.06
391.186	91.06
391.411	67.06
391.636	89.06
391.86	90.06
392.085	68.06
392.31	97.06
392.534	94.06
392.759	92.06
392.984	85.06
393.208	100.06
393.433	84.06
393.658	81.06
393.882	83.06
394.107	86.06
394.331	86.06
394.556	79.06
394.78	80.06
395.005	100.06
395.229	77.06
395.454	95.06
395.678	100.06
395.903	87.06
396.127	80.06
396.352	80.06
396.576	83.06
396.801	76.06
397.025	90.06
397.249	86.06
397.474	97.06
397.698	82.06
397.922	83.06
398.147	96.06
398.371	89.06
398.595	87.06
398.82	78.06
399.044	76.06
399.268	84.06
399.492	91.06
399.717	86.06
399.941	90.06
400.165	92.06
400.389	85.06
400.613	86.06
400.837	89.06
401.062	101.06
401.286	82.06
401.51	79.06
401.734	91.06
401.958	98.06
402.182	133.06
402.406	168.06
402.63	126.06
402.854	95.06
403.078	82.06
403.302	87.06
403.526	79.06
403.75	97.06
403.974	86.06
404.198	91.06
404.422	72.06
404.645	86.06
404.869	79.06
405.093	98.06
405.317	106.06
405.541	93.06
405.765	106.06
405.988	110.06
406.212	180.06
406.436	238.06
406.66	152.06
406.883	102.06
407.107	90.06
407.331	96.06
407.555	98.06
407.778	94.06
408.002	89.06
408.226	78.06
408.449	59.06
408.673	89.06
408.896	95.06
409.12	95.06
409.344	82.06
409.567	91.06
409.791	94.06
410.014	81.06
410.238	97.06
410.461	83.06
410.685	91.06
410.908	87.06
411.132	95.06
411.355	98.06
411.578	92.06
411.802	87.06
412.025	69.06
412.249	82.06
412.472	78.06
412.695	80.06
412.919	91.06
413.142	73.06
413.365	87.06
413.589	91.06
413.812	84.06
414.035	90.06
414.258	90.06
414.482	105.06
414.705	87.06
414.928	87.06
415.151	91.06
415.374	93.06
415.597	91.06
415.821	86.06
416.044	89.06
416.267	84.06
416.49	85.06
416.713	83.06
416.936	98.06
417.159	89.06
417.382	89.06
417.605	86.06
417.828	82.06
418.051	87.06
418.274	97.06
418.497	99.06
418.72	81.06
418.943	92.06
419.166	86.06
419.389	79.06
419.611	79.06
419.834	81.06
420.057	83.06
420.28	82.06
420.503	82.06
420.726	80.06
420.948	91.06
421.171	87.06
421.394	95.06
421.617	83.06
421.839	97.06
422.062	80.06
422.285	80.06
422.507	99.06
422.73	104.06
422.953	89.06
423.175	94.06
423.398	91.06
423.621	71.06
423.843	82.06
424.066	97.06
424.288	94.06
424.511	94.06
424.733	96.06
424.956	90.06
425.178	99.06
425.401	90.06
425.623	96.06
425.846	78.06
426.068	100.06
426.291	90.06
426.513	94.06
426.735	102.06
426.958	96.06
427.18	120.06
427.402	130.06
427.625	165.06
427.847	132.06
428.069	102.06
428.292	98.06
428.514	98.06
428.736	82.06
428.958	74.06
429.181	87.06
429.403	86.06
429.625	74.06
429.847	89.06
430.069	99.06
430.292	87.06
430.514	94.06
430.736	81.06
430.958	81.06
431.18	99.06
431.402	91.06
431.624	89.06
431.846	92.06
432.068	89.06
432.29	84.06
432.512	82.06
432.734	87.06
432.956	95.06
433.178	86.06
433.4	94.06
433.622	93.06
433.844	101.06
434.066	90.06
434.287	88.06
434.509	81.06
434.731	85.06
434.953	88.06
435.175	90.06
435.397	93.06
435.618	79.06
435.84	104.06
436.062	118.06
436.284	112.06
436.505	107.06
436.727	109.06
436.949	85.06
437.17	80.06
437.392	100.06
437.614	87.06
437.835	102.06
438.057	123.06
438.278	102.06
438.5	106.06
438.721	136.06
438.943	96.06
439.165	94.06
439.386	88.06
439.608	87.06
439.829	97.06
440.05	126.06
440.272	135.06
440.493	108.06
440.715	92.06
440.936	88.06
441.158	75.06
441.379	83.06
441.6	83.06
441.822	96.06
442.043	99.06
442.264	107.06
442.486	103.06
442.707	92.06
442.928	106.06
443.149	115.06
443.371	109.06
443.592	104.06
443.813	121.06
444.034	100.06
444.255	85.06
444.476	95.06
444.698	93.06
444.919	96.06
445.14	130.06
445.361	116.06
445.582	111.06
445.803	129.06
446.024	141.06
446.245	136.06
446.466	116.06
446.687	91.06
446.908	89.06
447.129	93.06
447.35	94.06
447.571	91.06
447.792	92.06
448.013	100.06
448.234	101.06
448.455	88.06
448.675	117.06
448.896	108.06
449.117	92.06
449.338	96.06
449.559	131.06
449.779	126.06
450	99.06
450.221	92.06
450.442	91.06
450.662	103.06
450.883	103.06
451.104	115.06
451.324	93.06
451.545	88.06
451.766	80.06
451.986	89.06
452.207	87.06
452.428	88.06
452.648	102.06
452.869	102.06
453.089	98.06
453.31	116.06
453.53	98.06
453.751	94.06
453.971	107.06
454.192	108.06
454.412	105.06
454.633	81.06
454.853	92.06
455.073	85.06
455.294	79.06
455.514	92.06
455.734	93.06
455.955	73.06
456.175	75.06
456.395	86.06
456.616	80.06
456.836	88.06
457.056	104.06
457.276	88.06
457.497	91.06
457.717	86.06
457.937	75.06
458.157	90.06
458.377	98.06
458.598	95.06
458.818	157.06
459.038	167.06
459.258	126.06
459.478	91.06
459.698	86.06
459.918	97.06
460.138	80.06
460.358	80.06
460.578	89.06
460.798	95.06
461.018	88.06
461.238	90.06
461.458	81.06
461.678	88.06
461.898	88.06
462.118	84.06
462.338	83.06
462.558	89.06
462.777	88.06
462.997	76.06
463.217	79.06
463.437	92.06
463.657	81.06
463.876	75.06
464.096	81.06
464.316	70.06
464.536	92.06
464.755	87.06
464.975	117.06
465.195	162.06
465.414	154.06
465.634	87.06
465.854	95.06
466.073	76.06
466.293	95.06
466.512	93.06
466.732	86.06
466.951	83.06
467.171	88.06
467.391	76.06
467.61	95.06
467.829	89.06
468.049	90.06
468.268	90.06
468.488	85.06
468.707	98.06
468.927	91.06
469.146	84.06
469.365	92.06
469.585	94.06
469.804	90.06
470.023	92.06
470.243	82.06
470.462	87.06
470.681	100.06
470.901	90.06
471.12	72.06
471.339	90.06
471.558	80.06
471.777	82.06
471.997	88.06
472.216	80.06
472.435	94.06
472.654	88.06
472.873	89.06
473.092	92.06
473.311	79.06
473.53	74.06
473.749	88.06
473.968	97.06
474.187	110.06
474.406	96.06
474.625	87.06
474.844	77.06
475.063	84.06
475.282	92.06
475.501	99.06
475.72	96.06
475.939	84.06
476.158	88.06
476.377	84.06
476.596	84.06
476.814	86.06
477.033	95.06
477.252	88.06
477.471	83.06
477.69	91.06
477.908	83.06
478.127	89.06
478.346	89.06
478.564	90.06
478.783	96.06
479.002	88.06
479.22	73.06
479.439	99.06
479.658	111.06
479.876	97.06
480.095	80.06
480.313	100.06
480.532	79.06
480.751	83.06
480.969	96.06
481.188	107.06
481.406	92.06
481.624	99.06
481.843	78.06
482.061	88.06
482.28	90.06
482.498	96.06
482.717	82.06
482.935	72.06
483.153	99.06
483.372	90.06
483.59	83.06
483.808	87.06
484.027	97.06
484.245	82.06
484.463	96.06
484.681	104.06
484.9	90.06
485.118	89.06
485.336	82.06
485.554	84.06
485.772	96.06
485.99	97.06
486.209	101.06
486.427	109.06
486.645	107.06
486.863	102.06
487.081	99.06
487.299	90.06
487.517	92.06
487.735	94.06
487.953	77.06
488.171	91.06
488.389	93.06
488.607	75.06
488.825	90.06
489.043	83.06
489.261	93.06
489.479	86.06
489.696	92.06
489.914	94.06
490.132	92.06
490.35	85.06
490.568	79.06
490.786	80.06
491.003	76.06
491.221	76.06
491.439	101.06
491.657	85.06
491.874	103.06
492.092	96.06
492.31	88.06
492.527	89.06
492.745	96.06
492.963	82.06
493.18	91.06
493.398	92.06
493.615	86.06
493.833	101.06
494.05	88.06
494.268	97.06
494.485	91.06
494.703	85.06
494.92	82.06
495.138	84.06
495.355	87.06
495.573	83.06
495.79	89.06
496.008	81.06
496.225	87.06
496.442	69.06
496.66	80.06
496.877	94.06
497.094	99.06
497.312	83.06
497.529	90.06
497.746	89.06
497.963	87.06
498.181	87.06
498.398	103.06
498.615	101.06
498.832	99.06
499.049	91.06
499.267	91.06
499.484	90.06
499.701	90.06
499.918	98.06
500.135	85.06
500.352	89.06
500.569	87.06
500.786	71.06
501.003	91.06
501.22	91.06
501.437	98.06
501.654	82.06
501.871	117.06
502.088	90.06
502.305	103.06
502.522	96.06
502.739	89.06
502.956	92.06
503.172	84.06
503.389	86.06
503.606	103.06
503.823	86.06
504.04	94.06
504.256	96.06
504.473	88.06
504.69	86.06
504.907	88.06
505.123	94.06
505.34	99.06
505.557	96.06
505.773	75.06
505.99	82.06
506.207	73.06
506.423	87.06
506.64	78.06
506.856	82.06
507.073	94.06
507.289	89.06
507.506	88.06
507.722	113.06
507.939	108.06
508.155	101.06
508.372	91.06
508.588	90.06
508.805	83.06
509.021	99.06
509.238	100.06
509.454	97.06
509.67	107.06
509.887	109.06
510.103	140.06
510.319	218.06
510.536	804.06
510.752	2466.06
510.968	675.06
511.184	161.06
511.401	121.06
511.617	94.06
511.833	100.06
512.049	79.06
512.265	91.06
512.481	101.06
512.698	93.06
512.914	92.06
513.13	81.06
513.346	89.06
513.562	101.06
513.778	97.06
513.994	98.06
514.21	82.06
514.426	116.06
514.642	143.06
514.858	125.06
515.074	188.06
515.29	513.06
515.506	1600.06
515.721	601.06
515.937	174.06
516.153	107.06
