Data from Uncirc_2001_H10_HRD10591_00072.txt Node
Date: Wed Jan 03 10:44:11 EST 2024
User: Yrep
Spectrometer: HR+D1059
Trigger mode: 1
Integration Time (sec): 1.000000E-1
Scans to average: 1
Electric dark correction enabled: true
Nonlinearity correction enabled: false
Boxcar width: 0
XAxis mode: Wavelengths
Number of Pixels in Spectrum: 2048
>>>>>Begin Spectral Data<<<<<
223.165	-13.06
223.4	-13.06
223.635	-13.06
223.869	-18.06
224.104	-22.06
224.338	-20.06
224.573	-15.06
224.808	-12.06
225.042	1.94
225.277	5.94
225.511	2.94
225.746	-0.06
225.98	-1.06
226.215	10.94
226.449	15.94
226.683	28.94
226.918	20.94
227.152	13.94
227.387	25.94
227.621	27.94
227.856	38.94
228.09	36.94
228.324	47.94
228.559	60.94
228.793	67.94
229.027	54.94
229.262	65.94
229.496	70.94
229.73	66.94
229.964	69.94
230.199	63.94
230.433	78.94
230.667	70.94
230.901	79.94
231.136	68.94
231.37	76.94
231.604	82.94
231.838	53.94
232.072	78.94
232.306	87.94
232.541	79.94
232.775	71.94
233.009	79.94
233.243	86.94
233.477	70.94
233.711	85.94
233.945	84.94
234.179	80.94
234.413	74.94
234.647	87.94
234.881	81.94
235.115	86.94
235.349	68.94
235.583	78.94
235.817	70.94
236.051	84.94
236.285	71.94
236.519	75.94
236.753	76.94
236.987	81.94
237.221	71.94
237.455	88.94
237.689	66.94
237.922	70.94
238.156	78.94
238.39	66.94
238.624	75.94
238.858	73.94
239.091	78.94
239.325	81.94
239.559	64.94
239.793	65.94
240.027	78.94
240.26	88.94
240.494	79.94
240.728	66.94
240.961	84.94
241.195	84.94
241.429	67.94
241.662	83.94
241.896	79.94
242.13	82.94
242.363	64.94
242.597	62.94
242.83	60.94
243.064	62.94
243.298	66.94
243.531	71.94
243.765	76.94
243.998	89.94
244.232	78.94
244.465	70.94
244.699	78.94
244.932	71.94
245.166	84.94
245.399	78.94
245.633	74.94
245.866	69.94
246.099	83.94
246.333	91.94
246.566	65.94
246.8	77.94
247.033	71.94
247.266	85.94
247.5	74.94
247.733	83.94
247.966	79.94
248.2	68.94
248.433	86.94
248.666	77.94
248.899	81.94
249.133	61.94
249.366	94.94
249.599	100.94
249.832	86.94
250.066	78.94
250.299	101.94
250.532	69.94
250.765	73.94
250.998	78.94
251.231	71.94
251.465	79.94
251.698	74.94
251.931	69.94
252.164	66.94
252.397	84.94
252.63	78.94
252.863	80.94
253.096	70.94
253.329	75.94
253.562	86.94
253.795	81.94
254.028	88.94
254.261	79.94
254.494	73.94
254.727	89.94
254.96	69.94
255.193	64.94
255.426	79.94
255.659	80.94
255.892	78.94
256.124	70.94
256.357	77.94
256.59	72.94
256.823	82.94
257.056	79.94
257.289	70.94
257.521	80.94
257.754	78.94
257.987	73.94
258.22	88.94
258.452	87.94
258.685	82.94
258.918	73.94
259.151	78.94
259.383	87.94
259.616	76.94
259.849	65.94
260.081	90.94
260.314	74.94
260.547	79.94
260.779	95.94
261.012	90.94
261.244	87.94
261.477	71.94
261.71	82.94
261.942	113.94
262.175	93.94
262.407	92.94
262.64	85.94
262.872	72.94
263.105	81.94
263.337	85.94
263.57	77.94
263.802	67.94
264.035	86.94
264.267	81.94
264.499	72.94
264.732	80.94
264.964	77.94
265.197	74.94
265.429	76.94
265.661	68.94
265.894	76.94
266.126	84.94
266.358	74.94
266.591	86.94
266.823	88.94
267.055	81.94
267.287	80.94
267.52	83.94
267.752	68.94
267.984	87.94
268.216	78.94
268.448	78.94
268.681	73.94
268.913	87.94
269.145	84.94
269.377	79.94
269.609	87.94
269.841	67.94
270.073	72.94
270.306	83.94
270.538	68.94
270.77	79.94
271.002	80.94
271.234	76.94
271.466	87.94
271.698	84.94
271.93	79.94
272.162	88.94
272.394	93.94
272.626	81.94
272.858	70.94
273.09	86.94
273.322	82.94
273.553	85.94
273.785	90.94
274.017	77.94
274.249	70.94
274.481	88.94
274.713	86.94
274.945	88.94
275.176	84.94
275.408	95.94
275.64	76.94
275.872	78.94
276.104	89.94
276.335	97.94
276.567	84.94
276.799	102.94
277.031	78.94
277.262	78.94
277.494	90.94
277.726	83.94
277.957	81.94
278.189	93.94
278.421	74.94
278.652	88.94
278.884	81.94
279.115	82.94
279.347	85.94
279.579	82.94
279.81	72.94
280.042	94.94
280.273	85.94
280.505	71.94
280.736	79.94
280.968	88.94
281.199	79.94
281.431	93.94
281.662	73.94
281.894	90.94
282.125	86.94
282.356	115.94
282.588	144.94
282.819	98.94
283.051	69.94
283.282	81.94
283.513	91.94
283.745	88.94
283.976	93.94
284.207	70.94
284.439	85.94
284.67	73.94
284.901	85.94
285.132	93.94
285.364	83.94
285.595	85.94
285.826	92.94
286.057	67.94
286.288	74.94
286.52	69.94
286.751	90.94
286.982	77.94
287.213	83.94
287.444	98.94
287.675	96.94
287.906	92.94
288.138	95.94
288.369	95.94
288.6	85.94
288.831	91.94
289.062	75.94
289.293	92.94
289.524	90.94
289.755	72.94
289.986	91.94
290.217	81.94
290.448	86.94
290.679	91.94
290.91	92.94
291.141	103.94
291.371	81.94
291.602	86.94
291.833	73.94
292.064	75.94
292.295	87.94
292.526	85.94
292.757	69.94
292.987	91.94
293.218	74.94
293.449	98.94
293.68	90.94
293.91	71.94
294.141	87.94
294.372	86.94
294.603	91.94
294.833	94.94
295.064	86.94
295.295	78.94
295.525	68.94
295.756	101.94
295.987	96.94
296.217	116.94
296.448	126.94
296.679	92.94
296.909	86.94
297.14	78.94
297.37	73.94
297.601	79.94
297.831	84.94
298.062	90.94
298.292	75.94
298.523	94.94
298.753	75.94
298.984	90.94
299.214	87.94
299.445	86.94
299.675	101.94
299.905	82.94
300.136	70.94
300.366	76.94
300.597	83.94
300.827	84.94
301.057	91.94
301.288	115.94
301.518	93.94
301.748	74.94
301.979	108.94
302.209	92.94
302.439	75.94
302.669	95.94
302.9	91.94
303.13	84.94
303.36	101.94
303.59	98.94
303.82	100.94
304.051	93.94
304.281	101.94
304.511	98.94
304.741	91.94
304.971	79.94
305.201	92.94
305.431	90.94
305.661	88.94
305.891	96.94
306.121	108.94
306.352	88.94
306.582	105.94
306.812	87.94
307.042	78.94
307.272	82.94
307.502	102.94
307.731	100.94
307.961	92.94
308.191	79.94
308.421	89.94
308.651	89.94
308.881	83.94
309.111	93.94
309.341	87.94
309.571	93.94
309.8	95.94
310.03	101.94
310.26	77.94
310.49	90.94
310.72	95.94
310.949	92.94
311.179	93.94
311.409	90.94
311.639	68.94
311.868	90.94
312.098	98.94
312.328	101.94
312.557	113.94
312.787	97.94
313.017	90.94
313.246	88.94
313.476	92.94
313.706	73.94
313.935	97.94
314.165	95.94
314.394	96.94
314.624	103.94
314.853	88.94
315.083	68.94
315.312	80.94
315.542	103.94
315.771	91.94
316.001	81.94
316.23	104.94
316.46	87.94
316.689	88.94
316.919	79.94
317.148	93.94
317.377	90.94
317.607	81.94
317.836	87.94
318.065	99.94
318.295	87.94
318.524	88.94
318.753	84.94
318.983	93.94
319.212	90.94
319.441	112.94
319.67	96.94
319.9	82.94
320.129	87.94
320.358	94.94
320.587	78.94
320.816	105.94
321.046	109.94
321.275	97.94
321.504	90.94
321.733	82.94
321.962	86.94
322.191	102.94
322.42	81.94
322.649	89.94
322.878	97.94
323.108	107.94
323.337	107.94
323.566	134.94
323.795	141.94
324.024	172.94
324.253	349.94
324.482	734.94
324.71	1472.94
324.939	1886.94
325.168	705.94
325.397	211.94
325.626	140.94
325.855	113.94
326.084	118.94
326.313	123.94
326.542	148.94
326.77	217.94
326.999	415.94
327.228	829.94
327.457	1428.94
327.686	1113.94
327.914	320.94
328.143	174.94
328.372	126.94
328.6	118.94
328.829	105.94
329.058	116.94
329.287	118.94
329.515	102.94
329.744	103.94
329.972	87.94
330.201	105.94
330.43	105.94
330.658	114.94
330.887	134.94
331.115	117.94
331.344	92.94
331.572	91.94
331.801	94.94
332.03	90.94
332.258	90.94
332.486	90.94
332.715	99.94
332.943	104.94
333.172	89.94
333.4	95.94
333.629	99.94
333.857	108.94
334.085	110.94
334.314	105.94
334.542	97.94
334.771	80.94
334.999	82.94
335.227	97.94
335.455	103.94
335.684	105.94
335.912	92.94
336.14	91.94
336.369	83.94
336.597	89.94
336.825	92.94
337.053	71.94
337.281	98.94
337.51	85.94
337.738	87.94
337.966	81.94
338.194	89.94
338.422	99.94
338.65	88.94
338.878	81.94
339.106	96.94
339.334	67.94
339.562	90.94
339.79	87.94
340.018	102.94
340.246	96.94
340.474	72.94
340.702	86.94
340.93	87.94
341.158	81.94
341.386	89.94
341.614	80.94
341.842	86.94
342.07	94.94
342.298	85.94
342.526	95.94
342.754	83.94
342.981	82.94
343.209	81.94
343.437	95.94
343.665	75.94
343.893	84.94
344.12	97.94
344.348	81.94
344.576	86.94
344.804	88.94
345.031	92.94
345.259	89.94
345.487	103.94
345.714	110.94
345.942	82.94
346.17	68.94
346.397	84.94
346.625	105.94
346.853	91.94
347.08	100.94
347.308	88.94
347.535	89.94
347.763	95.94
347.99	90.94
348.218	106.94
348.445	98.94
348.673	84.94
348.9	95.94
349.128	82.94
349.355	84.94
349.583	96.94
349.81	95.94
350.037	95.94
350.265	100.94
350.492	91.94
350.72	87.94
350.947	94.94
351.174	116.94
351.402	101.94
351.629	94.94
351.856	93.94
352.083	97.94
352.311	104.94
352.538	118.94
352.765	99.94
352.992	106.94
353.22	100.94
353.447	96.94
353.674	102.94
353.901	100.94
354.128	97.94
354.355	101.94
354.583	100.94
354.81	80.94
355.037	77.94
355.264	76.94
355.491	93.94
355.718	88.94
355.945	88.94
356.172	92.94
356.399	89.94
356.626	89.94
356.853	98.94
357.08	76.94
357.307	98.94
357.534	77.94
357.761	95.94
357.988	101.94
358.215	86.94
358.441	102.94
358.668	71.94
358.895	79.94
359.122	73.94
359.349	96.94
359.576	101.94
359.802	98.94
360.029	103.94
360.256	100.94
360.483	101.94
360.709	88.94
360.936	72.94
361.163	73.94
361.39	94.94
361.616	80.94
361.843	94.94
362.07	88.94
362.296	101.94
362.523	85.94
362.749	90.94
362.976	95.94
363.203	93.94
363.429	94.94
363.656	97.94
363.882	78.94
364.109	84.94
364.335	80.94
364.562	78.94
364.788	82.94
365.015	92.94
365.241	81.94
365.468	106.94
365.694	94.94
365.92	95.94
366.147	86.94
366.373	98.94
366.599	79.94
366.826	92.94
367.052	89.94
367.278	92.94
367.505	87.94
367.731	102.94
367.957	68.94
368.184	87.94
368.41	93.94
368.636	105.94
368.862	113.94
369.089	104.94
369.315	102.94
369.541	88.94
369.767	82.94
369.993	82.94
370.219	76.94
370.445	100.94
370.672	87.94
370.898	80.94
371.124	92.94
371.35	84.94
371.576	84.94
371.802	95.94
372.028	87.94
372.254	78.94
372.48	72.94
372.706	78.94
372.932	83.94
373.158	75.94
373.384	82.94
373.61	76.94
373.835	88.94
374.061	96.94
374.287	79.94
374.513	89.94
374.739	90.94
374.965	85.94
375.191	88.94
375.416	98.94
375.642	86.94
375.868	80.94
376.094	84.94
376.319	78.94
376.545	68.94
376.771	77.94
376.997	93.94
377.222	101.94
377.448	102.94
377.674	74.94
377.899	86.94
378.125	82.94
378.35	88.94
378.576	83.94
378.802	81.94
379.027	88.94
379.253	72.94
379.478	77.94
379.704	79.94
379.929	89.94
380.155	96.94
380.38	83.94
380.606	94.94
380.831	100.94
381.057	100.94
381.282	81.94
381.507	79.94
381.733	87.94
381.958	71.94
382.184	84.94
382.409	96.94
382.634	97.94
382.86	92.94
383.085	90.94
383.31	89.94
383.535	100.94
383.761	102.94
383.986	92.94
384.211	100.94
384.436	94.94
384.662	90.94
384.887	81.94
385.112	100.94
385.337	94.94
385.562	102.94
385.787	98.94
386.013	122.94
386.238	123.94
386.463	90.94
386.688	101.94
386.913	93.94
387.138	112.94
387.363	90.94
387.588	99.94
387.813	93.94
388.038	101.94
388.263	94.94
388.488	87.94
388.713	94.94
388.938	86.94
389.163	97.94
389.387	85.94
389.612	80.94
389.837	85.94
390.062	82.94
390.287	76.94
390.512	84.94
390.736	84.94
390.961	82.94
391.186	88.94
391.411	85.94
391.636	94.94
391.86	89.94
392.085	73.94
392.31	83.94
392.534	73.94
392.759	82.94
392.984	85.94
393.208	77.94
393.433	93.94
393.658	86.94
393.882	91.94
394.107	84.94
394.331	83.94
394.556	80.94
394.78	76.94
395.005	82.94
395.229	84.94
395.454	75.94
395.678	93.94
395.903	92.94
396.127	80.94
396.352	75.94
396.576	93.94
396.801	84.94
397.025	96.94
397.249	93.94
397.474	102.94
397.698	100.94
397.922	86.94
398.147	78.94
398.371	83.94
398.595	86.94
398.82	81.94
399.044	79.94
399.268	77.94
399.492	80.94
399.717	88.94
399.941	93.94
400.165	94.94
400.389	85.94
400.613	74.94
400.837	70.94
401.062	68.94
401.286	85.94
401.51	93.94
401.734	93.94
401.958	99.94
402.182	116.94
402.406	166.94
402.63	117.94
402.854	91.94
403.078	83.94
403.302	88.94
403.526	94.94
403.75	82.94
403.974	80.94
404.198	83.94
404.422	86.94
404.645	82.94
404.869	93.94
405.093	87.94
405.317	89.94
405.541	96.94
405.765	104.94
405.988	112.94
406.212	177.94
406.436	222.94
406.66	145.94
406.883	92.94
407.107	92.94
407.331	73.94
407.555	77.94
407.778	84.94
408.002	96.94
408.226	65.94
408.449	85.94
408.673	87.94
408.896	96.94
409.12	86.94
409.344	97.94
409.567	92.94
409.791	76.94
410.014	88.94
410.238	94.94
410.461	77.94
410.685	95.94
410.908	102.94
411.132	90.94
411.355	84.94
411.578	82.94
411.802	75.94
412.025	93.94
412.249	88.94
412.472	85.94
412.695	94.94
412.919	87.94
413.142	85.94
413.365	69.94
413.589	88.94
413.812	88.94
414.035	91.94
414.258	109.94
414.482	86.94
414.705	73.94
414.928	81.94
415.151	79.94
415.374	94.94
415.597	88.94
415.821	88.94
416.044	95.94
416.267	79.94
416.49	97.94
416.713	88.94
416.936	90.94
417.159	76.94
417.382	83.94
417.605	92.94
417.828	76.94
418.051	86.94
418.274	89.94
418.497	78.94
418.72	85.94
418.943	88.94
419.166	79.94
419.389	89.94
419.611	84.94
419.834	81.94
420.057	95.94
420.28	87.94
420.503	74.94
420.726	78.94
420.948	73.94
421.171	97.94
421.394	89.94
421.617	82.94
421.839	92.94
422.062	79.94
422.285	85.94
422.507	95.94
422.73	82.94
422.953	87.94
423.175	81.94
423.398	76.94
423.621	82.94
423.843	82.94
424.066	90.94
424.288	90.94
424.511	91.94
424.733	83.94
424.956	89.94
425.178	114.94
425.401	101.94
425.623	80.94
425.846	94.94
426.068	92.94
426.291	84.94
426.513	106.94
426.735	82.94
426.958	76.94
427.18	89.94
427.402	130.94
427.625	145.94
427.847	123.94
428.069	89.94
428.292	88.94
428.514	81.94
428.736	86.94
428.958	78.94
429.181	78.94
429.403	78.94
429.625	81.94
429.847	94.94
430.069	89.94
430.292	101.94
430.514	76.94
430.736	85.94
430.958	80.94
431.18	72.94
431.402	75.94
431.624	80.94
431.846	86.94
432.068	90.94
432.29	94.94
432.512	102.94
432.734	94.94
432.956	90.94
433.178	89.94
433.4	89.94
433.622	87.94
433.844	79.94
434.066	94.94
434.287	92.94
434.509	91.94
434.731	93.94
434.953	79.94
435.175	78.94
435.397	79.94
435.618	76.94
435.84	89.94
436.062	116.94
436.284	103.94
436.505	80.94
436.727	93.94
436.949	91.94
437.17	90.94
437.392	84.94
437.614	96.94
437.835	99.94
438.057	114.94
438.278	99.94
438.5	108.94
438.721	113.94
438.943	106.94
439.165	76.94
439.386	84.94
439.608	83.94
439.829	92.94
440.05	113.94
440.272	131.94
440.493	86.94
440.715	73.94
440.936	93.94
441.158	84.94
441.379	76.94
441.6	72.94
441.822	78.94
442.043	80.94
442.264	90.94
442.486	88.94
442.707	87.94
442.928	105.94
443.149	113.94
443.371	116.94
443.592	90.94
443.813	96.94
444.034	100.94
444.255	93.94
444.476	84.94
444.698	76.94
444.919	77.94
445.14	119.94
445.361	126.94
445.582	99.94
445.803	126.94
446.024	130.94
446.245	114.94
446.466	104.94
446.687	96.94
446.908	76.94
447.129	85.94
447.35	69.94
447.571	91.94
447.792	78.94
448.013	89.94
448.234	113.94
448.455	105.94
448.675	109.94
448.896	105.94
449.117	99.94
449.338	105.94
449.559	114.94
449.779	103.94
450	87.94
450.221	75.94
450.442	74.94
450.662	80.94
450.883	97.94
451.104	93.94
451.324	89.94
451.545	60.94
451.766	77.94
451.986	87.94
452.207	82.94
452.428	89.94
452.648	83.94
452.869	98.94
453.089	111.94
453.31	106.94
453.53	89.94
453.751	83.94
453.971	101.94
454.192	92.94
454.412	73.94
454.633	70.94
454.853	87.94
455.073	84.94
455.294	88.94
455.514	90.94
455.734	92.94
455.955	74.94
456.175	96.94
456.395	94.94
456.616	81.94
456.836	75.94
457.056	90.94
457.276	86.94
457.497	82.94
457.717	74.94
457.937	63.94
458.157	70.94
458.377	104.94
458.598	113.94
458.818	144.94
459.038	144.94
459.258	115.94
459.478	83.94
459.698	83.94
459.918	97.94
460.138	78.94
460.358	83.94
460.578	96.94
460.798	78.94
461.018	87.94
461.238	76.94
461.458	88.94
461.678	77.94
461.898	71.94
462.118	89.94
462.338	89.94
462.558	75.94
462.777	75.94
462.997	90.94
463.217	86.94
463.437	77.94
463.657	85.94
463.876	93.94
464.096	84.94
464.316	82.94
464.536	82.94
464.755	84.94
464.975	95.94
465.195	159.94
465.414	150.94
465.634	88.94
465.854	92.94
466.073	83.94
466.293	79.94
466.512	70.94
466.732	73.94
466.951	80.94
467.171	95.94
467.391	89.94
467.61	84.94
467.829	95.94
468.049	87.94
468.268	100.94
468.488	90.94
468.707	77.94
468.927	69.94
469.146	102.94
469.365	105.94
469.585	92.94
469.804	93.94
470.023	100.94
470.243	97.94
470.462	101.94
470.681	113.94
470.901	82.94
471.12	96.94
471.339	78.94
471.558	82.94
471.777	72.94
471.997	69.94
472.216	70.94
472.435	83.94
472.654	81.94
472.873	82.94
473.092	82.94
473.311	79.94
473.53	86.94
473.749	86.94
473.968	94.94
474.187	87.94
474.406	94.94
474.625	86.94
474.844	95.94
475.063	78.94
475.282	81.94
475.501	79.94
475.72	80.94
475.939	87.94
476.158	73.94
476.377	84.94
476.596	80.94
476.814	86.94
477.033	71.94
477.252	81.94
477.471	69.94
477.69	73.94
477.908	84.94
478.127	100.94
478.346	87.94
478.564	80.94
478.783	88.94
479.002	88.94
479.22	80.94
479.439	82.94
479.658	94.94
479.876	96.94
480.095	95.94
480.313	91.94
480.532	95.94
480.751	74.94
480.969	77.94
481.188	106.94
481.406	97.94
481.624	82.94
481.843	82.94
482.061	85.94
482.28	77.94
482.498	78.94
482.717	83.94
482.935	85.94
483.153	92.94
483.372	85.94
483.59	104.94
483.808	94.94
484.027	105.94
484.245	90.94
484.463	90.94
484.681	89.94
484.9	97.94
485.118	76.94
485.336	90.94
485.554	87.94
485.772	101.94
485.99	91.94
486.209	85.94
486.427	107.94
486.645	94.94
486.863	94.94
487.081	106.94
487.299	97.94
487.517	97.94
487.735	83.94
487.953	90.94
488.171	79.94
488.389	88.94
488.607	94.94
488.825	78.94
489.043	81.94
489.261	101.94
489.479	86.94
489.696	81.94
489.914	80.94
490.132	87.94
490.35	105.94
490.568	84.94
490.786	69.94
491.003	82.94
491.221	101.94
491.439	70.94
491.657	94.94
491.874	79.94
492.092	85.94
492.31	87.94
492.527	75.94
492.745	92.94
492.963	83.94
493.18	85.94
493.398	101.94
493.615	94.94
493.833	95.94
494.05	66.94
494.268	81.94
494.485	84.94
494.703	97.94
494.92	79.94
495.138	96.94
495.355	73.94
495.573	86.94
495.79	89.94
496.008	95.94
496.225	82.94
496.442	85.94
496.66	73.94
496.877	72.94
497.094	89.94
497.312	84.94
497.529	96.94
497.746	87.94
497.963	93.94
498.181	88.94
498.398	71.94
498.615	101.94
498.832	99.94
499.049	95.94
499.267	79.94
499.484	65.94
499.701	92.94
499.918	84.94
500.135	85.94
500.352	82.94
500.569	74.94
500.786	83.94
501.003	85.94
501.22	100.94
501.437	83.94
501.654	83.94
501.871	111.94
502.088	85.94
502.305	70.94
502.522	85.94
502.739	82.94
502.956	103.94
503.172	88.94
503.389	84.94
503.606	108.94
503.823	87.94
504.04	95.94
504.256	82.94
504.473	85.94
504.69	101.94
504.907	95.94
505.123	85.94
505.34	78.94
505.557	73.94
505.773	94.94
505.99	92.94
506.207	81.94
506.423	78.94
506.64	73.94
506.856	85.94
507.073	100.94
507.289	92.94
507.506	85.94
507.722	100.94
507.939	112.94
508.155	92.94
508.372	89.94
508.588	77.94
508.805	85.94
509.021	90.94
509.238	95.94
509.454	105.94
509.67	90.94
509.887	99.94
510.103	124.94
510.319	205.94
510.536	769.94
510.752	2370.94
510.968	656.94
511.184	134.94
511.401	104.94
511.617	98.94
511.833	89.94
512.049	84.94
512.265	89.94
512.481	82.94
512.698	90.94
512.914	88.94
513.13	94.94
513.346	84.94
513.562	87.94
513.778	101.94
513.994	101.94
514.21	95.94
514.426	106.94
514.642	133.94
514.858	130.94
515.074	176.94
515.29	475.94
515.506	1510.94
515.721	540.94
515.937	128.94
516.153	88.94
516.369	89.94
516.585	94.94
516.801	89.94
517.016	81.94
