Data from Uncirc_2001_H10_HRD10591_00100.txt Node
Date: Wed Jan 03 10:44:16 EST 2024
User: Yrep
Spectrometer: HR+D1059
Trigger mode: 1
Integration Time (sec): 1.000000E-1
Scans to average: 1
Electric dark correction enabled: true
Nonlinearity correction enabled: false
Boxcar width: 0
XAxis mode: Wavelengths
Number of Pixels in Spectrum: 2048
>>>>>Begin Spectral Data<<<<<
223.165	-11.19
223.4	-11.19
223.635	-11.19
223.869	-20.19
224.104	-20.19
224.338	-9.19
224.573	-29.19
224.808	-14.19
225.042	-3.19
225.277	-8.19
225.511	-2.19
225.746	2.81
225.98	13.81
226.215	10.81
226.449	22.81
226.683	11.81
226.918	24.81
227.152	30.81
227.387	34.81
227.621	39.81
227.856	54.81
228.09	35.81
228.324	50.81
228.559	58.81
228.793	58.81
229.027	54.81
229.262	73.81
229.496	67.81
229.73	80.81
229.964	89.81
230.199	83.81
230.433	74.81
230.667	86.81
230.901	73.81
231.136	77.81
231.37	74.81
231.604	75.81
231.838	90.81
232.072	86.81
232.306	94.81
232.541	79.81
232.775	87.81
233.009	86.81
233.243	73.81
233.477	75.81
233.711	67.81
233.945	74.81
234.179	82.81
234.413	76.81
234.647	71.81
234.881	91.81
235.115	78.81
235.349	86.81
235.583	68.81
235.817	86.81
236.051	74.81
236.285	79.81
236.519	75.81
236.753	74.81
236.987	89.81
237.221	78.81
237.455	68.81
237.689	83.81
237.922	59.81
238.156	73.81
238.39	82.81
238.624	75.81
238.858	64.81
239.091	63.81
239.325	77.81
239.559	69.81
239.793	95.81
240.027	84.81
240.26	73.81
240.494	78.81
240.728	77.81
240.961	77.81
241.195	79.81
241.429	81.81
241.662	80.81
241.896	94.81
242.13	70.81
242.363	71.81
242.597	79.81
242.83	80.81
243.064	83.81
243.298	76.81
243.531	92.81
243.765	66.81
243.998	68.81
244.232	94.81
244.465	85.81
244.699	81.81
244.932	78.81
245.166	69.81
245.399	62.81
245.633	75.81
245.866	80.81
246.099	78.81
246.333	79.81
246.566	59.81
246.8	75.81
247.033	72.81
247.266	76.81
247.5	78.81
247.733	86.81
247.966	83.81
248.2	84.81
248.433	65.81
248.666	76.81
248.899	80.81
249.133	81.81
249.366	96.81
249.599	89.81
249.832	76.81
250.066	80.81
250.299	82.81
250.532	81.81
250.765	78.81
250.998	88.81
251.231	84.81
251.465	80.81
251.698	76.81
251.931	96.81
252.164	79.81
252.397	82.81
252.63	89.81
252.863	79.81
253.096	83.81
253.329	90.81
253.562	80.81
253.795	87.81
254.028	73.81
254.261	75.81
254.494	77.81
254.727	92.81
254.96	87.81
255.193	79.81
255.426	79.81
255.659	80.81
255.892	74.81
256.124	78.81
256.357	84.81
256.59	84.81
256.823	85.81
257.056	71.81
257.289	87.81
257.521	81.81
257.754	82.81
257.987	57.81
258.22	93.81
258.452	78.81
258.685	69.81
258.918	83.81
259.151	76.81
259.383	87.81
259.616	95.81
259.849	93.81
260.081	86.81
260.314	96.81
260.547	78.81
260.779	81.81
261.012	81.81
261.244	88.81
261.477	84.81
261.71	92.81
261.942	101.81
262.175	107.81
262.407	92.81
262.64	92.81
262.872	87.81
263.105	76.81
263.337	92.81
263.57	90.81
263.802	74.81
264.035	87.81
264.267	76.81
264.499	89.81
264.732	80.81
264.964	64.81
265.197	82.81
265.429	80.81
265.661	79.81
265.894	96.81
266.126	88.81
266.358	74.81
266.591	86.81
266.823	87.81
267.055	65.81
267.287	75.81
267.52	70.81
267.752	86.81
267.984	72.81
268.216	74.81
268.448	85.81
268.681	79.81
268.913	90.81
269.145	86.81
269.377	86.81
269.609	87.81
269.841	76.81
270.073	74.81
270.306	92.81
270.538	83.81
270.77	78.81
271.002	81.81
271.234	86.81
271.466	81.81
271.698	92.81
271.93	76.81
272.162	69.81
272.394	68.81
272.626	92.81
272.858	79.81
273.09	89.81
273.322	86.81
273.553	88.81
273.785	95.81
274.017	96.81
274.249	78.81
274.481	75.81
274.713	89.81
274.945	89.81
275.176	84.81
275.408	90.81
275.64	83.81
275.872	85.81
276.104	90.81
276.335	95.81
276.567	103.81
276.799	111.81
277.031	95.81
277.262	87.81
277.494	85.81
277.726	77.81
277.957	81.81
278.189	72.81
278.421	93.81
278.652	85.81
278.884	93.81
279.115	97.81
279.347	85.81
279.579	94.81
279.81	93.81
280.042	73.81
280.273	92.81
280.505	81.81
280.736	84.81
280.968	82.81
281.199	82.81
281.431	96.81
281.662	88.81
281.894	77.81
282.125	107.81
282.356	121.81
282.588	144.81
282.819	130.81
283.051	93.81
283.282	88.81
283.513	76.81
283.745	87.81
283.976	83.81
284.207	86.81
284.439	82.81
284.67	76.81
284.901	76.81
285.132	85.81
285.364	81.81
285.595	80.81
285.826	75.81
286.057	76.81
286.288	69.81
286.52	79.81
286.751	85.81
286.982	98.81
287.213	84.81
287.444	83.81
287.675	85.81
287.906	87.81
288.138	87.81
288.369	77.81
288.6	73.81
288.831	81.81
289.062	81.81
289.293	87.81
289.524	88.81
289.755	84.81
289.986	88.81
290.217	77.81
290.448	80.81
290.679	83.81
290.91	87.81
291.141	87.81
291.371	82.81
291.602	86.81
291.833	83.81
292.064	83.81
292.295	95.81
292.526	81.81
292.757	88.81
292.987	87.81
293.218	78.81
293.449	103.81
293.68	100.81
293.91	90.81
294.141	95.81
294.372	92.81
294.603	88.81
294.833	85.81
295.064	100.81
295.295	89.81
295.525	99.81
295.756	98.81
295.987	110.81
296.217	108.81
296.448	135.81
296.679	88.81
296.909	80.81
297.14	90.81
297.37	92.81
297.601	81.81
297.831	87.81
298.062	84.81
298.292	96.81
298.523	76.81
298.753	74.81
298.984	100.81
299.214	94.81
299.445	84.81
299.675	81.81
299.905	78.81
300.136	82.81
300.366	96.81
300.597	93.81
300.827	96.81
301.057	87.81
301.288	106.81
301.518	91.81
301.748	86.81
301.979	90.81
302.209	99.81
302.439	85.81
302.669	78.81
302.9	81.81
303.13	85.81
303.36	83.81
303.59	109.81
303.82	98.81
304.051	73.81
304.281	88.81
304.511	99.81
304.741	94.81
304.971	85.81
305.201	82.81
305.431	95.81
305.661	78.81
305.891	86.81
306.121	92.81
306.352	99.81
306.582	98.81
306.812	86.81
307.042	90.81
307.272	94.81
307.502	89.81
307.731	83.81
307.961	90.81
308.191	99.81
308.421	91.81
308.651	97.81
308.881	89.81
309.111	89.81
309.341	95.81
309.571	101.81
309.8	94.81
310.03	99.81
310.26	94.81
310.49	104.81
310.72	90.81
310.949	101.81
311.179	104.81
311.409	105.81
311.639	106.81
311.868	90.81
312.098	97.81
312.328	96.81
312.557	104.81
312.787	114.81
313.017	93.81
313.246	104.81
313.476	89.81
313.706	92.81
313.935	85.81
314.165	92.81
314.394	90.81
314.624	96.81
314.853	97.81
315.083	85.81
315.312	94.81
315.542	103.81
315.771	91.81
316.001	92.81
316.23	95.81
316.46	75.81
316.689	84.81
316.919	92.81
317.148	92.81
317.377	84.81
317.607	94.81
317.836	103.81
318.065	93.81
318.295	88.81
318.524	95.81
318.753	85.81
318.983	109.81
319.212	98.81
319.441	107.81
319.67	114.81
319.9	102.81
320.129	91.81
320.358	100.81
320.587	85.81
320.816	90.81
321.046	92.81
321.275	94.81
321.504	101.81
321.733	103.81
321.962	104.81
322.191	104.81
322.42	100.81
322.649	118.81
322.878	132.81
323.108	115.81
323.337	123.81
323.566	132.81
323.795	146.81
324.024	196.81
324.253	376.81
324.482	794.81
324.71	1593.81
324.939	2021.81
325.168	745.81
325.397	230.81
325.626	134.81
325.855	130.81
326.084	117.81
326.313	141.81
326.542	157.81
326.77	241.81
326.999	454.81
327.228	912.81
327.457	1559.81
327.686	1246.81
327.914	338.81
328.143	198.81
328.372	154.81
328.6	120.81
328.829	109.81
329.058	128.81
329.287	150.81
329.515	107.81
329.744	90.81
329.972	98.81
330.201	99.81
330.43	111.81
330.658	134.81
330.887	150.81
331.115	118.81
331.344	96.81
331.572	99.81
331.801	113.81
332.03	116.81
332.258	100.81
332.486	90.81
332.715	90.81
332.943	96.81
333.172	108.81
333.4	92.81
333.629	98.81
333.857	110.81
334.085	88.81
334.314	99.81
334.542	99.81
334.771	114.81
334.999	83.81
335.227	95.81
335.455	97.81
335.684	98.81
335.912	96.81
336.14	97.81
336.369	110.81
336.597	108.81
336.825	95.81
337.053	90.81
337.281	94.81
337.51	94.81
337.738	87.81
337.966	97.81
338.194	107.81
338.422	89.81
338.65	95.81
338.878	96.81
339.106	94.81
339.334	100.81
339.562	95.81
339.79	80.81
340.018	94.81
340.246	80.81
340.474	87.81
340.702	96.81
340.93	86.81
341.158	88.81
341.386	90.81
341.614	86.81
341.842	90.81
342.07	100.81
342.298	90.81
342.526	94.81
342.754	100.81
342.981	87.81
343.209	84.81
343.437	96.81
343.665	92.81
343.893	87.81
344.12	100.81
344.348	89.81
344.576	94.81
344.804	87.81
345.031	100.81
345.259	88.81
345.487	78.81
345.714	102.81
345.942	96.81
346.17	85.81
346.397	91.81
346.625	85.81
346.853	97.81
347.08	90.81
347.308	104.81
347.535	98.81
347.763	104.81
347.99	97.81
348.218	104.81
348.445	97.81
348.673	100.81
348.9	84.81
349.128	90.81
349.355	80.81
349.583	90.81
349.81	91.81
350.037	89.81
350.265	82.81
350.492	103.81
350.72	107.81
350.947	98.81
351.174	108.81
351.402	91.81
351.629	98.81
351.856	106.81
352.083	93.81
352.311	83.81
352.538	110.81
352.765	92.81
352.992	120.81
353.22	114.81
353.447	120.81
353.674	102.81
353.901	100.81
354.128	84.81
354.355	96.81
354.583	111.81
354.81	98.81
355.037	96.81
355.264	86.81
355.491	89.81
355.718	89.81
355.945	107.81
356.172	99.81
356.399	98.81
356.626	91.81
356.853	89.81
357.08	90.81
357.307	96.81
357.534	89.81
357.761	76.81
357.988	90.81
358.215	96.81
358.441	106.81
358.668	88.81
358.895	99.81
359.122	88.81
359.349	79.81
359.576	79.81
359.802	103.81
360.029	111.81
360.256	108.81
360.483	95.81
360.709	91.81
360.936	102.81
361.163	99.81
361.39	95.81
361.616	84.81
361.843	90.81
362.07	100.81
362.296	91.81
362.523	89.81
362.749	97.81
362.976	101.81
363.203	89.81
363.429	88.81
363.656	91.81
363.882	97.81
364.109	94.81
364.335	84.81
364.562	91.81
364.788	80.81
365.015	96.81
365.241	90.81
365.468	109.81
365.694	93.81
365.92	73.81
366.147	91.81
366.373	92.81
366.599	97.81
366.826	78.81
367.052	83.81
367.278	86.81
367.505	92.81
367.731	86.81
367.957	87.81
368.184	86.81
368.41	107.81
368.636	107.81
368.862	102.81
369.089	110.81
369.315	91.81
369.541	75.81
369.767	105.81
369.993	102.81
370.219	89.81
370.445	84.81
370.672	83.81
370.898	87.81
371.124	73.81
371.35	105.81
371.576	77.81
371.802	78.81
372.028	97.81
372.254	87.81
372.48	82.81
372.706	74.81
372.932	94.81
373.158	87.81
373.384	77.81
373.61	92.81
373.835	92.81
374.061	95.81
374.287	104.81
374.513	85.81
374.739	90.81
374.965	85.81
375.191	95.81
375.416	90.81
375.642	86.81
375.868	88.81
376.094	79.81
376.319	109.81
376.545	94.81
376.771	90.81
376.997	97.81
377.222	98.81
377.448	102.81
377.674	98.81
377.899	85.81
378.125	89.81
378.35	95.81
378.576	74.81
378.802	87.81
379.027	95.81
379.253	80.81
379.478	88.81
379.704	91.81
379.929	91.81
380.155	91.81
380.38	91.81
380.606	91.81
380.831	97.81
381.057	97.81
381.282	90.81
381.507	88.81
381.733	91.81
381.958	105.81
382.184	98.81
382.409	99.81
382.634	120.81
382.86	89.81
383.085	95.81
383.31	101.81
383.535	88.81
383.761	100.81
383.986	91.81
384.211	99.81
384.436	98.81
384.662	100.81
384.887	102.81
385.112	107.81
385.337	100.81
385.562	108.81
385.787	108.81
386.013	100.81
386.238	86.81
386.463	107.81
386.688	92.81
386.913	91.81
387.138	95.81
387.363	88.81
387.588	96.81
387.813	111.81
388.038	102.81
388.263	107.81
388.488	106.81
388.713	96.81
388.938	88.81
389.163	92.81
389.387	96.81
389.612	95.81
389.837	83.81
390.062	100.81
390.287	80.81
390.512	70.81
390.736	58.81
390.961	82.81
391.186	85.81
391.411	98.81
391.636	90.81
391.86	86.81
392.085	97.81
392.31	92.81
392.534	103.81
392.759	89.81
392.984	71.81
393.208	88.81
393.433	80.81
393.658	94.81
393.882	84.81
394.107	97.81
394.331	80.81
394.556	85.81
394.78	85.81
395.005	80.81
395.229	84.81
395.454	85.81
395.678	92.81
395.903	88.81
396.127	101.81
396.352	81.81
396.576	78.81
396.801	82.81
397.025	95.81
397.249	83.81
397.474	88.81
397.698	82.81
397.922	90.81
398.147	89.81
398.371	102.81
398.595	100.81
398.82	86.81
399.044	89.81
399.268	83.81
399.492	90.81
399.717	78.81
399.941	92.81
400.165	109.81
400.389	85.81
400.613	80.81
400.837	81.81
401.062	89.81
401.286	89.81
401.51	104.81
401.734	84.81
401.958	121.81
402.182	116.81
402.406	159.81
402.63	114.81
402.854	89.81
403.078	90.81
403.302	88.81
403.526	101.81
403.75	87.81
403.974	88.81
404.198	80.81
404.422	97.81
404.645	105.81
404.869	87.81
405.093	92.81
405.317	96.81
405.541	97.81
405.765	98.81
405.988	116.81
406.212	168.81
406.436	223.81
406.66	138.81
406.883	100.81
407.107	104.81
407.331	93.81
407.555	87.81
407.778	90.81
408.002	88.81
408.226	95.81
408.449	91.81
408.673	88.81
408.896	83.81
409.12	75.81
409.344	93.81
409.567	90.81
409.791	92.81
410.014	91.81
410.238	98.81
410.461	89.81
410.685	100.81
410.908	104.81
411.132	103.81
411.355	83.81
411.578	91.81
411.802	92.81
412.025	87.81
412.249	91.81
412.472	83.81
412.695	95.81
412.919	90.81
413.142	87.81
413.365	97.81
413.589	83.81
413.812	90.81
414.035	86.81
414.258	93.81
414.482	89.81
414.705	79.81
414.928	98.81
415.151	90.81
415.374	99.81
415.597	89.81
415.821	94.81
416.044	100.81
416.267	91.81
416.49	80.81
416.713	84.81
416.936	73.81
417.159	86.81
417.382	93.81
417.605	96.81
417.828	112.81
418.051	97.81
418.274	86.81
418.497	82.81
418.72	84.81
418.943	75.81
419.166	93.81
419.389	83.81
419.611	80.81
419.834	83.81
420.057	104.81
420.28	86.81
420.503	95.81
420.726	83.81
420.948	85.81
421.171	87.81
421.394	93.81
421.617	94.81
421.839	89.81
422.062	94.81
422.285	77.81
422.507	98.81
422.73	91.81
422.953	95.81
423.175	99.81
423.398	106.81
423.621	84.81
423.843	76.81
424.066	92.81
424.288	101.81
424.511	74.81
424.733	102.81
424.956	106.81
425.178	82.81
425.401	82.81
425.623	118.81
425.846	75.81
426.068	98.81
426.291	92.81
426.513	106.81
426.735	96.81
426.958	92.81
427.18	108.81
427.402	131.81
427.625	156.81
427.847	113.81
428.069	108.81
428.292	85.81
428.514	82.81
428.736	77.81
428.958	83.81
429.181	88.81
429.403	89.81
429.625	91.81
429.847	98.81
430.069	99.81
430.292	88.81
430.514	85.81
430.736	81.81
430.958	74.81
431.18	75.81
431.402	87.81
431.624	75.81
431.846	68.81
432.068	78.81
432.29	80.81
432.512	91.81
432.734	80.81
432.956	88.81
433.178	92.81
433.4	78.81
433.622	89.81
433.844	79.81
434.066	86.81
434.287	95.81
434.509	87.81
434.731	64.81
434.953	91.81
435.175	80.81
435.397	85.81
435.618	96.81
435.84	90.81
436.062	98.81
436.284	98.81
436.505	96.81
436.727	111.81
436.949	85.81
437.17	95.81
437.392	93.81
437.614	90.81
437.835	117.81
438.057	116.81
438.278	95.81
438.5	119.81
438.721	125.81
438.943	113.81
439.165	96.81
439.386	96.81
439.608	94.81
439.829	99.81
440.05	110.81
440.272	146.81
440.493	104.81
440.715	96.81
440.936	91.81
441.158	82.81
441.379	87.81
441.6	87.81
441.822	91.81
442.043	85.81
442.264	101.81
442.486	98.81
442.707	63.81
442.928	91.81
443.149	132.81
443.371	134.81
443.592	119.81
443.813	94.81
444.034	99.81
444.255	95.81
444.476	81.81
444.698	82.81
444.919	85.81
445.14	122.81
445.361	104.81
445.582	117.81
445.803	130.81
446.024	123.81
446.245	124.81
446.466	104.81
446.687	94.81
446.908	87.81
447.129	92.81
447.35	82.81
447.571	88.81
447.792	94.81
448.013	102.81
448.234	115.81
448.455	127.81
448.675	118.81
448.896	116.81
449.117	100.81
449.338	114.81
449.559	119.81
449.779	131.81
450	97.81
450.221	82.81
450.442	80.81
450.662	76.81
450.883	100.81
451.104	107.81
451.324	87.81
451.545	89.81
451.766	85.81
451.986	91.81
452.207	87.81
452.428	105.81
452.648	109.81
452.869	111.81
453.089	122.81
453.31	116.81
453.53	94.81
453.751	99.81
453.971	95.81
454.192	114.81
454.412	105.81
454.633	95.81
454.853	83.81
455.073	99.81
455.294	86.81
455.514	86.81
455.734	80.81
455.955	86.81
456.175	82.81
456.395	80.81
456.616	97.81
456.836	80.81
457.056	94.81
457.276	78.81
457.497	81.81
457.717	85.81
457.937	86.81
458.157	87.81
458.377	105.81
458.598	124.81
458.818	161.81
459.038	162.81
459.258	124.81
459.478	94.81
459.698	84.81
459.918	90.81
460.138	91.81
460.358	92.81
460.578	78.81
460.798	95.81
461.018	87.81
461.238	90.81
461.458	85.81
461.678	79.81
461.898	70.81
462.118	90.81
462.338	88.81
462.558	90.81
462.777	104.81
462.997	72.81
463.217	87.81
463.437	88.81
463.657	96.81
463.876	92.81
464.096	85.81
464.316	96.81
464.536	98.81
464.755	95.81
464.975	114.81
465.195	176.81
465.414	157.81
465.634	97.81
465.854	80.81
466.073	76.81
466.293	88.81
466.512	84.81
466.732	88.81
466.951	88.81
467.171	103.81
467.391	97.81
467.61	96.81
467.829	90.81
468.049	96.81
468.268	73.81
468.488	70.81
468.707	95.81
468.927	85.81
469.146	84.81
469.365	94.81
469.585	87.81
469.804	102.81
470.023	98.81
470.243	93.81
470.462	96.81
470.681	109.81
470.901	76.81
471.12	86.81
471.339	88.81
471.558	59.81
471.777	90.81
471.997	73.81
472.216	86.81
472.435	92.81
472.654	99.81
472.873	85.81
473.092	82.81
473.311	73.81
473.53	92.81
473.749	83.81
473.968	84.81
474.187	117.81
474.406	90.81
474.625	86.81
474.844	88.81
475.063	80.81
475.282	97.81
475.501	80.81
475.72	94.81
475.939	89.81
476.158	91.81
476.377	87.81
476.596	96.81
476.814	94.81
477.033	93.81
477.252	92.81
477.471	81.81
477.69	88.81
477.908	92.81
478.127	91.81
478.346	75.81
478.564	91.81
478.783	96.81
479.002	98.81
479.22	85.81
479.439	95.81
479.658	83.81
479.876	99.81
480.095	97.81
480.313	85.81
480.532	88.81
480.751	92.81
480.969	86.81
481.188	105.81
481.406	94.81
481.624	74.81
481.843	75.81
482.061	80.81
482.28	99.81
482.498	85.81
482.717	89.81
482.935	91.81
483.153	94.81
483.372	88.81
483.59	103.81
483.808	92.81
484.027	99.81
484.245	81.81
484.463	89.81
484.681	94.81
484.9	84.81
485.118	95.81
485.336	78.81
485.554	87.81
485.772	88.81
485.99	104.81
486.209	108.81
486.427	99.81
486.645	117.81
486.863	111.81
487.081	106.81
487.299	89.81
487.517	98.81
487.735	93.81
487.953	82.81
488.171	90.81
488.389	83.81
488.607	94.81
488.825	99.81
489.043	97.81
489.261	83.81
489.479	92.81
489.696	92.81
489.914	97.81
490.132	74.81
490.35	86.81
490.568	92.81
490.786	102.81
491.003	96.81
491.221	78.81
491.439	90.81
491.657	98.81
491.874	103.81
492.092	90.81
492.31	90.81
492.527	81.81
492.745	100.81
492.963	79.81
493.18	83.81
493.398	87.81
493.615	99.81
493.833	104.81
494.05	82.81
494.268	88.81
494.485	90.81
494.703	95.81
494.92	94.81
495.138	88.81
495.355	94.81
495.573	107.81
495.79	90.81
496.008	93.81
496.225	85.81
496.442	99.81
496.66	83.81
496.877	100.81
497.094	105.81
497.312	99.81
497.529	93.81
497.746	100.81
497.963	82.81
498.181	79.81
498.398	83.81
498.615	102.81
498.832	111.81
499.049	86.81
499.267	90.81
499.484	83.81
499.701	81.81
499.918	97.81
500.135	78.81
500.352	94.81
500.569	81.81
500.786	92.81
501.003	103.81
501.22	89.81
501.437	90.81
501.654	100.81
501.871	93.81
502.088	90.81
502.305	89.81
502.522	92.81
502.739	87.81
502.956	87.81
503.172	105.81
503.389	106.81
503.606	115.81
503.823	107.81
504.04	92.81
504.256	92.81
504.473	83.81
504.69	80.81
504.907	82.81
505.123	96.81
505.34	99.81
505.557	78.81
505.773	92.81
505.99	96.81
506.207	78.81
506.423	79.81
506.64	74.81
506.856	71.81
507.073	86.81
507.289	93.81
507.506	103.81
507.722	118.81
507.939	116.81
508.155	87.81
508.372	79.81
508.588	100.81
508.805	106.81
509.021	104.81
509.238	101.81
509.454	89.81
509.67	103.81
509.887	121.81
510.103	129.81
510.319	225.81
510.536	781.81
510.752	2489.81
510.968	681.81
511.184	151.81
511.401	100.81
511.617	91.81
511.833	89.81
512.049	92.81
512.265	110.81
512.481	87.81
512.698	95.81
512.914	74.81
513.13	99.81
513.346	98.81
513.562	97.81
513.778	99.81
513.994	107.81
514.21	90.81
514.426	117.81
514.642	126.81
514.858	129.81
515.074	175.81
515.29	471.81
515.506	1594.81
515.721	566.81
515.937	161.81
516.153	106.81
