Data from Uncirc_2001_H10_HRD10591_00073.txt Node
Date: Wed Jan 03 10:44:11 EST 2024
User: Yrep
Spectrometer: HR+D1059
Trigger mode: 1
Integration Time (sec): 1.000000E-1
Scans to average: 1
Electric dark correction enabled: true
Nonlinearity correction enabled: false
Boxcar width: 0
XAxis mode: Wavelengths
Number of Pixels in Spectrum: 2048
>>>>>Begin Spectral Data<<<<<
223.165	-18.62
223.4	-18.62
223.635	-18.62
223.869	-10.62
224.104	-23.62
224.338	-25.62
224.573	-5.62
224.808	-10.62
225.042	-21.62
225.277	-2.62
225.511	3.38
225.746	-1.62
225.98	18.38
226.215	8.38
226.449	16.38
226.683	20.38
226.918	16.38
227.152	37.38
227.387	48.38
227.621	32.38
227.856	38.38
228.09	49.38
228.324	37.38
228.559	53.38
228.793	57.38
229.027	68.38
229.262	75.38
229.496	66.38
229.73	82.38
229.964	74.38
230.199	78.38
230.433	77.38
230.667	88.38
230.901	77.38
231.136	77.38
231.37	75.38
231.604	72.38
231.838	92.38
232.072	78.38
232.306	92.38
232.541	93.38
232.775	91.38
233.009	84.38
233.243	88.38
233.477	71.38
233.711	71.38
233.945	90.38
234.179	91.38
234.413	84.38
234.647	88.38
234.881	85.38
235.115	84.38
235.349	76.38
235.583	80.38
235.817	85.38
236.051	81.38
236.285	70.38
236.519	80.38
236.753	77.38
236.987	87.38
237.221	89.38
237.455	80.38
237.689	85.38
237.922	58.38
238.156	81.38
238.39	73.38
238.624	73.38
238.858	80.38
239.091	79.38
239.325	84.38
239.559	72.38
239.793	90.38
240.027	92.38
240.26	86.38
240.494	73.38
240.728	66.38
240.961	83.38
241.195	75.38
241.429	90.38
241.662	73.38
241.896	78.38
242.13	71.38
242.363	79.38
242.597	69.38
242.83	75.38
243.064	76.38
243.298	90.38
243.531	74.38
243.765	80.38
243.998	98.38
244.232	79.38
244.465	83.38
244.699	75.38
244.932	89.38
245.166	90.38
245.399	82.38
245.633	81.38
245.866	82.38
246.099	74.38
246.333	84.38
246.566	94.38
246.8	86.38
247.033	91.38
247.266	85.38
247.5	82.38
247.733	77.38
247.966	84.38
248.2	64.38
248.433	75.38
248.666	77.38
248.899	74.38
249.133	91.38
249.366	80.38
249.599	88.38
249.832	72.38
250.066	80.38
250.299	84.38
250.532	89.38
250.765	85.38
250.998	69.38
251.231	81.38
251.465	85.38
251.698	68.38
251.931	85.38
252.164	77.38
252.397	74.38
252.63	81.38
252.863	69.38
253.096	77.38
253.329	68.38
253.562	81.38
253.795	88.38
254.028	78.38
254.261	69.38
254.494	83.38
254.727	81.38
254.96	71.38
255.193	85.38
255.426	92.38
255.659	78.38
255.892	70.38
256.124	75.38
256.357	66.38
256.59	73.38
256.823	82.38
257.056	85.38
257.289	77.38
257.521	96.38
257.754	75.38
257.987	86.38
258.22	81.38
258.452	81.38
258.685	87.38
258.918	87.38
259.151	80.38
259.383	75.38
259.616	75.38
259.849	85.38
260.081	83.38
260.314	73.38
260.547	75.38
260.779	82.38
261.012	82.38
261.244	83.38
261.477	93.38
261.71	102.38
261.942	117.38
262.175	121.38
262.407	99.38
262.64	80.38
262.872	81.38
263.105	81.38
263.337	84.38
263.57	75.38
263.802	91.38
264.035	85.38
264.267	89.38
264.499	75.38
264.732	78.38
264.964	86.38
265.197	84.38
265.429	83.38
265.661	90.38
265.894	80.38
266.126	80.38
266.358	90.38
266.591	94.38
266.823	94.38
267.055	87.38
267.287	80.38
267.52	78.38
267.752	99.38
267.984	84.38
268.216	70.38
268.448	84.38
268.681	91.38
268.913	89.38
269.145	92.38
269.377	78.38
269.609	84.38
269.841	81.38
270.073	97.38
270.306	93.38
270.538	84.38
270.77	74.38
271.002	78.38
271.234	78.38
271.466	99.38
271.698	85.38
271.93	86.38
272.162	97.38
272.394	86.38
272.626	74.38
272.858	87.38
273.09	93.38
273.322	83.38
273.553	93.38
273.785	81.38
274.017	77.38
274.249	83.38
274.481	80.38
274.713	77.38
274.945	81.38
275.176	86.38
275.408	88.38
275.64	80.38
275.872	94.38
276.104	77.38
276.335	84.38
276.567	98.38
276.799	102.38
277.031	88.38
277.262	85.38
277.494	79.38
277.726	77.38
277.957	88.38
278.189	84.38
278.421	82.38
278.652	97.38
278.884	89.38
279.115	74.38
279.347	92.38
279.579	87.38
279.81	89.38
280.042	90.38
280.273	86.38
280.505	71.38
280.736	73.38
280.968	86.38
281.199	93.38
281.431	94.38
281.662	91.38
281.894	102.38
282.125	98.38
282.356	95.38
282.588	120.38
282.819	124.38
283.051	90.38
283.282	87.38
283.513	97.38
283.745	96.38
283.976	88.38
284.207	98.38
284.439	102.38
284.67	72.38
284.901	90.38
285.132	86.38
285.364	89.38
285.595	83.38
285.826	92.38
286.057	89.38
286.288	80.38
286.52	86.38
286.751	94.38
286.982	100.38
287.213	95.38
287.444	79.38
287.675	89.38
287.906	86.38
288.138	110.38
288.369	88.38
288.6	102.38
288.831	87.38
289.062	101.38
289.293	83.38
289.524	91.38
289.755	90.38
289.986	95.38
290.217	94.38
290.448	92.38
290.679	76.38
290.91	86.38
291.141	98.38
291.371	91.38
291.602	90.38
291.833	77.38
292.064	98.38
292.295	90.38
292.526	85.38
292.757	78.38
292.987	85.38
293.218	90.38
293.449	91.38
293.68	80.38
293.91	81.38
294.141	90.38
294.372	71.38
294.603	86.38
294.833	92.38
295.064	80.38
295.295	76.38
295.525	91.38
295.756	108.38
295.987	109.38
296.217	136.38
296.448	119.38
296.679	89.38
296.909	92.38
297.14	76.38
297.37	90.38
297.601	96.38
297.831	88.38
298.062	89.38
298.292	95.38
298.523	107.38
298.753	88.38
298.984	84.38
299.214	73.38
299.445	96.38
299.675	88.38
299.905	95.38
300.136	84.38
300.366	70.38
300.597	94.38
300.827	91.38
301.057	93.38
301.288	96.38
301.518	106.38
301.748	83.38
301.979	101.38
302.209	92.38
302.439	96.38
302.669	83.38
302.9	90.38
303.13	98.38
303.36	86.38
303.59	101.38
303.82	113.38
304.051	93.38
304.281	89.38
304.511	80.38
304.741	100.38
304.971	93.38
305.201	113.38
305.431	83.38
305.661	111.38
305.891	105.38
306.121	106.38
306.352	109.38
306.582	106.38
306.812	106.38
307.042	93.38
307.272	86.38
307.502	88.38
307.731	91.38
307.961	74.38
308.191	94.38
308.421	97.38
308.651	87.38
308.881	85.38
309.111	88.38
309.341	87.38
309.571	87.38
309.8	97.38
310.03	110.38
310.26	112.38
310.49	98.38
310.72	100.38
310.949	103.38
311.179	80.38
311.409	89.38
311.639	98.38
311.868	93.38
312.098	113.38
312.328	91.38
312.557	104.38
312.787	104.38
313.017	92.38
313.246	101.38
313.476	89.38
313.706	79.38
313.935	102.38
314.165	107.38
314.394	94.38
314.624	90.38
314.853	100.38
315.083	86.38
315.312	93.38
315.542	87.38
315.771	105.38
316.001	102.38
316.23	82.38
316.46	83.38
316.689	91.38
316.919	101.38
317.148	97.38
317.377	109.38
317.607	84.38
317.836	106.38
318.065	86.38
318.295	87.38
318.524	74.38
318.753	93.38
318.983	107.38
319.212	106.38
319.441	111.38
319.67	108.38
319.9	90.38
320.129	102.38
320.358	93.38
320.587	103.38
320.816	100.38
321.046	100.38
321.275	106.38
321.504	100.38
321.733	102.38
321.962	105.38
322.191	106.38
322.42	111.38
322.649	111.38
322.878	107.38
323.108	110.38
323.337	122.38
323.566	129.38
323.795	143.38
324.024	182.38
324.253	354.38
324.482	719.38
324.71	1412.38
324.939	1770.38
325.168	685.38
325.397	219.38
325.626	125.38
325.855	128.38
326.084	125.38
326.313	110.38
326.542	156.38
326.77	222.38
326.999	380.38
327.228	801.38
327.457	1412.38
327.686	1141.38
327.914	323.38
328.143	173.38
328.372	150.38
328.6	105.38
328.829	112.38
329.058	123.38
329.287	129.38
329.515	108.38
329.744	90.38
329.972	95.38
330.201	100.38
330.43	120.38
330.658	99.38
330.887	134.38
331.115	113.38
331.344	105.38
331.572	103.38
331.801	104.38
332.03	105.38
332.258	87.38
332.486	89.38
332.715	99.38
332.943	97.38
333.172	93.38
333.4	106.38
333.629	108.38
333.857	116.38
334.085	93.38
334.314	101.38
334.542	101.38
334.771	96.38
334.999	99.38
335.227	90.38
335.455	98.38
335.684	97.38
335.912	100.38
336.14	108.38
336.369	103.38
336.597	90.38
336.825	88.38
337.053	94.38
337.281	93.38
337.51	85.38
337.738	89.38
337.966	100.38
338.194	105.38
338.422	90.38
338.65	96.38
338.878	109.38
339.106	104.38
339.334	80.38
339.562	106.38
339.79	93.38
340.018	84.38
340.246	93.38
340.474	94.38
340.702	91.38
340.93	91.38
341.158	99.38
341.386	98.38
341.614	108.38
341.842	100.38
342.07	101.38
342.298	78.38
342.526	93.38
342.754	87.38
342.981	85.38
343.209	103.38
343.437	93.38
343.665	85.38
343.893	86.38
344.12	94.38
344.348	93.38
344.576	91.38
344.804	99.38
345.031	98.38
345.259	85.38
345.487	95.38
345.714	85.38
345.942	100.38
346.17	97.38
346.397	81.38
346.625	92.38
346.853	101.38
347.08	97.38
347.308	92.38
347.535	86.38
347.763	85.38
347.99	90.38
348.218	95.38
348.445	104.38
348.673	100.38
348.9	110.38
349.128	90.38
349.355	99.38
349.583	96.38
349.81	89.38
350.037	88.38
350.265	86.38
350.492	106.38
350.72	88.38
350.947	96.38
351.174	102.38
351.402	103.38
351.629	105.38
351.856	100.38
352.083	109.38
352.311	103.38
352.538	108.38
352.765	108.38
352.992	134.38
353.22	117.38
353.447	98.38
353.674	116.38
353.901	97.38
354.128	90.38
354.355	104.38
354.583	108.38
354.81	106.38
355.037	100.38
355.264	101.38
355.491	84.38
355.718	85.38
355.945	98.38
356.172	81.38
356.399	91.38
356.626	98.38
356.853	105.38
357.08	90.38
357.307	93.38
357.534	87.38
357.761	80.38
357.988	91.38
358.215	94.38
358.441	103.38
358.668	91.38
358.895	84.38
359.122	88.38
359.349	86.38
359.576	79.38
359.802	82.38
360.029	115.38
360.256	106.38
360.483	89.38
360.709	77.38
360.936	87.38
361.163	100.38
361.39	94.38
361.616	93.38
361.843	90.38
362.07	104.38
362.296	104.38
362.523	115.38
362.749	92.38
362.976	88.38
363.203	94.38
363.429	88.38
363.656	96.38
363.882	80.38
364.109	89.38
364.335	85.38
364.562	93.38
364.788	79.38
365.015	107.38
365.241	103.38
365.468	96.38
365.694	103.38
365.92	80.38
366.147	95.38
366.373	81.38
366.599	76.38
366.826	91.38
367.052	102.38
367.278	97.38
367.505	98.38
367.731	80.38
367.957	98.38
368.184	94.38
368.41	96.38
368.636	126.38
368.862	131.38
369.089	102.38
369.315	96.38
369.541	92.38
369.767	89.38
369.993	112.38
370.219	91.38
370.445	100.38
370.672	94.38
370.898	89.38
371.124	81.38
371.35	82.38
371.576	85.38
371.802	84.38
372.028	74.38
372.254	105.38
372.48	93.38
372.706	86.38
372.932	95.38
373.158	96.38
373.384	94.38
373.61	91.38
373.835	83.38
374.061	84.38
374.287	93.38
374.513	85.38
374.739	100.38
374.965	94.38
375.191	88.38
375.416	82.38
375.642	84.38
375.868	91.38
376.094	82.38
376.319	94.38
376.545	93.38
376.771	86.38
376.997	82.38
377.222	96.38
377.448	94.38
377.674	95.38
377.899	90.38
378.125	102.38
378.35	105.38
378.576	98.38
378.802	94.38
379.027	108.38
379.253	86.38
379.478	97.38
379.704	81.38
379.929	88.38
380.155	99.38
380.38	96.38
380.606	106.38
380.831	101.38
381.057	92.38
381.282	84.38
381.507	101.38
381.733	94.38
381.958	89.38
382.184	100.38
382.409	101.38
382.634	105.38
382.86	110.38
383.085	96.38
383.31	106.38
383.535	102.38
383.761	106.38
383.986	91.38
384.211	91.38
384.436	108.38
384.662	105.38
384.887	115.38
385.112	100.38
385.337	107.38
385.562	108.38
385.787	107.38
386.013	92.38
386.238	109.38
386.463	102.38
386.688	118.38
386.913	107.38
387.138	91.38
387.363	90.38
387.588	112.38
387.813	93.38
388.038	97.38
388.263	106.38
388.488	91.38
388.713	102.38
388.938	108.38
389.163	108.38
389.387	89.38
389.612	100.38
389.837	98.38
390.062	85.38
390.287	96.38
390.512	92.38
390.736	90.38
390.961	93.38
391.186	95.38
391.411	103.38
391.636	98.38
391.86	87.38
392.085	98.38
392.31	84.38
392.534	84.38
392.759	92.38
392.984	90.38
393.208	88.38
393.433	92.38
393.658	81.38
393.882	95.38
394.107	89.38
394.331	87.38
394.556	90.38
394.78	83.38
395.005	88.38
395.229	89.38
395.454	91.38
395.678	86.38
395.903	87.38
396.127	81.38
396.352	95.38
396.576	87.38
396.801	84.38
397.025	78.38
397.249	75.38
397.474	89.38
397.698	81.38
397.922	74.38
398.147	81.38
398.371	80.38
398.595	85.38
398.82	75.38
399.044	84.38
399.268	90.38
399.492	83.38
399.717	81.38
399.941	81.38
400.165	90.38
400.389	92.38
400.613	86.38
400.837	84.38
401.062	81.38
401.286	86.38
401.51	81.38
401.734	94.38
401.958	98.38
402.182	131.38
402.406	161.38
402.63	118.38
402.854	98.38
403.078	72.38
403.302	87.38
403.526	83.38
403.75	95.38
403.974	88.38
404.198	92.38
404.422	81.38
404.645	89.38
404.869	91.38
405.093	95.38
405.317	103.38
405.541	81.38
405.765	92.38
405.988	120.38
406.212	166.38
406.436	220.38
406.66	154.38
406.883	94.38
407.107	88.38
407.331	99.38
407.555	101.38
407.778	97.38
408.002	91.38
408.226	88.38
408.449	72.38
408.673	92.38
408.896	83.38
409.12	87.38
409.344	81.38
409.567	78.38
409.791	85.38
410.014	86.38
410.238	108.38
410.461	80.38
410.685	82.38
410.908	102.38
411.132	114.38
411.355	106.38
411.578	97.38
411.802	91.38
412.025	84.38
412.249	92.38
412.472	78.38
412.695	79.38
412.919	81.38
413.142	84.38
413.365	80.38
413.589	82.38
413.812	87.38
414.035	101.38
414.258	91.38
414.482	101.38
414.705	100.38
414.928	101.38
415.151	83.38
415.374	89.38
415.597	93.38
415.821	77.38
416.044	73.38
416.267	75.38
416.49	70.38
416.713	64.38
416.936	90.38
417.159	80.38
417.382	93.38
417.605	92.38
417.828	100.38
418.051	91.38
418.274	93.38
418.497	97.38
418.72	109.38
418.943	88.38
419.166	90.38
419.389	93.38
419.611	90.38
419.834	77.38
420.057	89.38
420.28	85.38
420.503	86.38
420.726	88.38
420.948	94.38
421.171	85.38
421.394	93.38
421.617	86.38
421.839	90.38
422.062	84.38
422.285	99.38
422.507	98.38
422.73	101.38
422.953	90.38
423.175	96.38
423.398	97.38
423.621	96.38
423.843	85.38
424.066	81.38
424.288	82.38
424.511	92.38
424.733	106.38
424.956	98.38
425.178	99.38
425.401	113.38
425.623	104.38
425.846	89.38
426.068	91.38
426.291	80.38
426.513	85.38
426.735	108.38
426.958	86.38
427.18	97.38
427.402	129.38
427.625	156.38
427.847	110.38
428.069	102.38
428.292	93.38
428.514	92.38
428.736	87.38
428.958	100.38
429.181	83.38
429.403	89.38
429.625	89.38
429.847	97.38
430.069	97.38
430.292	85.38
430.514	79.38
430.736	93.38
430.958	82.38
431.18	84.38
431.402	86.38
431.624	78.38
431.846	89.38
432.068	77.38
432.29	92.38
432.512	98.38
432.734	93.38
432.956	101.38
433.178	90.38
433.4	97.38
433.622	93.38
433.844	92.38
434.066	85.38
434.287	78.38
434.509	93.38
434.731	96.38
434.953	94.38
435.175	92.38
435.397	105.38
435.618	94.38
435.84	106.38
436.062	111.38
436.284	108.38
436.505	98.38
436.727	107.38
436.949	92.38
437.17	85.38
437.392	99.38
437.614	93.38
437.835	99.38
438.057	111.38
438.278	96.38
438.5	98.38
438.721	102.38
438.943	98.38
439.165	88.38
439.386	99.38
439.608	93.38
439.829	102.38
440.05	118.38
440.272	152.38
440.493	101.38
440.715	89.38
440.936	77.38
441.158	77.38
441.379	90.38
441.6	88.38
441.822	94.38
442.043	81.38
442.264	109.38
442.486	110.38
442.707	77.38
442.928	106.38
443.149	129.38
443.371	120.38
443.592	102.38
443.813	94.38
444.034	89.38
444.255	99.38
444.476	96.38
444.698	87.38
444.919	81.38
445.14	131.38
445.361	131.38
445.582	113.38
445.803	146.38
446.024	132.38
446.245	122.38
446.466	110.38
446.687	90.38
446.908	92.38
447.129	88.38
447.35	87.38
447.571	90.38
447.792	94.38
448.013	104.38
448.234	93.38
448.455	81.38
448.675	121.38
448.896	120.38
449.117	97.38
449.338	94.38
449.559	122.38
449.779	124.38
450	91.38
450.221	93.38
450.442	95.38
450.662	90.38
450.883	111.38
451.104	112.38
451.324	100.38
451.545	89.38
451.766	87.38
451.986	91.38
452.207	83.38
452.428	99.38
452.648	107.38
452.869	116.38
453.089	129.38
453.31	119.38
453.53	84.38
453.751	91.38
453.971	101.38
454.192	113.38
454.412	89.38
454.633	92.38
454.853	86.38
455.073	94.38
455.294	83.38
455.514	86.38
455.734	91.38
455.955	85.38
456.175	94.38
456.395	86.38
456.616	82.38
456.836	92.38
457.056	92.38
457.276	74.38
457.497	84.38
457.717	80.38
457.937	102.38
458.157	85.38
458.377	94.38
458.598	117.38
458.818	147.38
459.038	157.38
459.258	116.38
459.478	88.38
459.698	92.38
459.918	92.38
460.138	84.38
460.358	91.38
460.578	89.38
460.798	82.38
461.018	71.38
461.238	88.38
461.458	93.38
461.678	84.38
461.898	89.38
462.118	96.38
462.338	72.38
462.558	88.38
462.777	82.38
462.997	86.38
463.217	92.38
463.437	83.38
463.657	77.38
463.876	76.38
464.096	97.38
464.316	97.38
464.536	97.38
464.755	87.38
464.975	100.38
465.195	147.38
465.414	153.38
465.634	99.38
465.854	86.38
466.073	74.38
466.293	89.38
466.512	94.38
466.732	84.38
466.951	93.38
467.171	99.38
467.391	93.38
467.61	104.38
467.829	97.38
468.049	79.38
468.268	86.38
468.488	84.38
468.707	69.38
468.927	88.38
469.146	83.38
469.365	80.38
469.585	75.38
469.804	93.38
470.023	102.38
470.243	93.38
470.462	93.38
470.681	114.38
470.901	90.38
471.12	94.38
471.339	82.38
471.558	99.38
471.777	92.38
471.997	85.38
472.216	79.38
472.435	93.38
472.654	85.38
472.873	74.38
473.092	90.38
473.311	77.38
473.53	73.38
473.749	90.38
473.968	95.38
474.187	110.38
474.406	92.38
474.625	82.38
474.844	91.38
475.063	95.38
475.282	78.38
475.501	94.38
475.72	76.38
475.939	102.38
476.158	76.38
476.377	88.38
476.596	99.38
476.814	92.38
477.033	104.38
477.252	90.38
477.471	91.38
477.69	89.38
477.908	84.38
478.127	82.38
478.346	75.38
478.564	85.38
478.783	88.38
479.002	92.38
479.22	100.38
479.439	92.38
479.658	107.38
479.876	98.38
480.095	96.38
480.313	97.38
480.532	85.38
480.751	92.38
480.969	92.38
481.188	99.38
481.406	91.38
481.624	83.38
481.843	108.38
482.061	89.38
482.28	86.38
482.498	91.38
482.717	88.38
482.935	80.38
483.153	84.38
483.372	93.38
483.59	93.38
483.808	88.38
484.027	92.38
484.245	85.38
484.463	92.38
484.681	96.38
484.9	101.38
485.118	88.38
485.336	101.38
485.554	86.38
485.772	86.38
485.99	97.38
486.209	92.38
486.427	98.38
486.645	113.38
486.863	101.38
487.081	102.38
487.299	89.38
487.517	106.38
487.735	89.38
487.953	87.38
488.171	98.38
488.389	98.38
488.607	89.38
488.825	83.38
489.043	80.38
489.261	99.38
489.479	75.38
489.696	88.38
489.914	77.38
490.132	85.38
490.35	97.38
490.568	93.38
490.786	89.38
491.003	80.38
491.221	90.38
491.439	76.38
491.657	75.38
491.874	97.38
492.092	91.38
492.31	74.38
492.527	90.38
492.745	89.38
492.963	98.38
493.18	93.38
493.398	81.38
493.615	87.38
493.833	89.38
494.05	81.38
494.268	86.38
494.485	94.38
494.703	81.38
494.92	94.38
495.138	87.38
495.355	94.38
495.573	87.38
495.79	88.38
496.008	85.38
496.225	104.38
496.442	82.38
496.66	80.38
496.877	77.38
497.094	100.38
497.312	106.38
497.529	72.38
497.746	103.38
497.963	100.38
498.181	84.38
498.398	105.38
498.615	104.38
498.832	81.38
499.049	81.38
499.267	109.38
499.484	99.38
499.701	88.38
499.918	93.38
500.135	87.38
500.352	87.38
500.569	102.38
500.786	108.38
501.003	85.38
501.22	81.38
501.437	93.38
501.654	91.38
501.871	105.38
502.088	82.38
502.305	78.38
502.522	83.38
502.739	93.38
502.956	97.38
503.172	93.38
503.389	97.38
503.606	109.38
503.823	102.38
504.04	88.38
504.256	83.38
504.473	85.38
504.69	94.38
504.907	98.38
505.123	102.38
505.34	87.38
505.557	89.38
505.773	89.38
505.99	90.38
506.207	92.38
506.423	84.38
506.64	87.38
506.856	86.38
507.073	91.38
507.289	80.38
507.506	99.38
507.722	108.38
507.939	108.38
508.155	94.38
508.372	85.38
508.588	84.38
508.805	99.38
509.021	87.38
509.238	84.38
509.454	89.38
509.67	99.38
509.887	112.38
510.103	125.38
510.319	218.38
510.536	786.38
510.752	2392.38
510.968	647.38
511.184	157.38
511.401	107.38
511.617	89.38
511.833	101.38
512.049	87.38
512.265	91.38
512.481	100.38
512.698	107.38
512.914	107.38
513.13	100.38
513.346	96.38
513.562	93.38
513.778	90.38
513.994	85.38
514.21	100.38
514.426	138.38
514.642	144.38
514.858	120.38
515.074	152.38
515.29	463.38
515.506	1513.38
