Data from Uncirc_2001_H10_HRD10591_00035.txt Node
Date: Wed Jan 03 10:44:03 EST 2024
User: Yrep
Spectrometer: HR+D1059
Trigger mode: 1
Integration Time (sec): 1.000000E-1
Scans to average: 1
Electric dark correction enabled: true
Nonlinearity correction enabled: false
Boxcar width: 0
XAxis mode: Wavelengths
Number of Pixels in Spectrum: 2048
>>>>>Begin Spectral Data<<<<<
223.165	-18.62
223.4	-18.62
223.635	-18.62
223.869	-14.62
224.104	-13.62
224.338	-6.62
224.573	-21.62
224.808	-19.62
225.042	-20.62
225.277	-1.62
225.511	-11.62
225.746	7.38
225.98	-2.62
226.215	15.38
226.449	14.38
226.683	22.38
226.918	39.38
227.152	32.38
227.387	35.38
227.621	51.38
227.856	42.38
228.09	37.38
228.324	51.38
228.559	65.38
228.793	55.38
229.027	69.38
229.262	67.38
229.496	73.38
229.73	77.38
229.964	83.38
230.199	85.38
230.433	76.38
230.667	73.38
230.901	81.38
231.136	80.38
231.37	83.38
231.604	71.38
231.838	101.38
232.072	99.38
232.306	79.38
232.541	102.38
232.775	77.38
233.009	75.38
233.243	81.38
233.477	83.38
233.711	90.38
233.945	95.38
234.179	77.38
234.413	90.38
234.647	91.38
234.881	77.38
235.115	57.38
235.349	81.38
235.583	72.38
235.817	77.38
236.051	92.38
236.285	79.38
236.519	71.38
236.753	74.38
236.987	70.38
237.221	93.38
237.455	97.38
237.689	95.38
237.922	82.38
238.156	72.38
238.39	82.38
238.624	83.38
238.858	71.38
239.091	100.38
239.325	84.38
239.559	66.38
239.793	68.38
240.027	73.38
240.26	78.38
240.494	78.38
240.728	78.38
240.961	72.38
241.195	73.38
241.429	79.38
241.662	70.38
241.896	77.38
242.13	78.38
242.363	86.38
242.597	74.38
242.83	89.38
243.064	85.38
243.298	84.38
243.531	98.38
243.765	71.38
243.998	87.38
244.232	87.38
244.465	77.38
244.699	77.38
244.932	76.38
245.166	90.38
245.399	79.38
245.633	83.38
245.866	71.38
246.099	90.38
246.333	98.38
246.566	92.38
246.8	90.38
247.033	103.38
247.266	76.38
247.5	62.38
247.733	65.38
247.966	92.38
248.2	94.38
248.433	82.38
248.666	79.38
248.899	79.38
249.133	94.38
249.366	102.38
249.599	85.38
249.832	82.38
250.066	97.38
250.299	87.38
250.532	79.38
250.765	82.38
250.998	98.38
251.231	92.38
251.465	83.38
251.698	89.38
251.931	85.38
252.164	86.38
252.397	92.38
252.63	88.38
252.863	79.38
253.096	86.38
253.329	78.38
253.562	85.38
253.795	90.38
254.028	83.38
254.261	80.38
254.494	101.38
254.727	82.38
254.96	72.38
255.193	71.38
255.426	75.38
255.659	74.38
255.892	92.38
256.124	91.38
256.357	81.38
256.59	81.38
256.823	74.38
257.056	86.38
257.289	74.38
257.521	95.38
257.754	73.38
257.987	82.38
258.22	85.38
258.452	74.38
258.685	81.38
258.918	78.38
259.151	75.38
259.383	82.38
259.616	88.38
259.849	75.38
260.081	89.38
260.314	92.38
260.547	71.38
260.779	88.38
261.012	80.38
261.244	95.38
261.477	92.38
261.71	86.38
261.942	109.38
262.175	117.38
262.407	93.38
262.64	84.38
262.872	89.38
263.105	87.38
263.337	83.38
263.57	89.38
263.802	77.38
264.035	84.38
264.267	68.38
264.499	96.38
264.732	94.38
264.964	90.38
265.197	84.38
265.429	75.38
265.661	86.38
265.894	79.38
266.126	81.38
266.358	74.38
266.591	94.38
266.823	86.38
267.055	76.38
267.287	89.38
267.52	100.38
267.752	92.38
267.984	92.38
268.216	82.38
268.448	92.38
268.681	74.38
268.913	79.38
269.145	87.38
269.377	94.38
269.609	88.38
269.841	83.38
270.073	99.38
270.306	85.38
270.538	86.38
270.77	78.38
271.002	83.38
271.234	97.38
271.466	87.38
271.698	92.38
271.93	90.38
272.162	94.38
272.394	93.38
272.626	96.38
272.858	90.38
273.09	92.38
273.322	86.38
273.553	97.38
273.785	85.38
274.017	94.38
274.249	90.38
274.481	93.38
274.713	96.38
274.945	82.38
275.176	95.38
275.408	88.38
275.64	95.38
275.872	92.38
276.104	94.38
276.335	93.38
276.567	99.38
276.799	116.38
277.031	105.38
277.262	82.38
277.494	95.38
277.726	85.38
277.957	91.38
278.189	80.38
278.421	99.38
278.652	98.38
278.884	83.38
279.115	89.38
279.347	85.38
279.579	89.38
279.81	81.38
280.042	100.38
280.273	88.38
280.505	86.38
280.736	85.38
280.968	89.38
281.199	93.38
281.431	88.38
281.662	90.38
281.894	90.38
282.125	111.38
282.356	116.38
282.588	138.38
282.819	120.38
283.051	95.38
283.282	88.38
283.513	83.38
283.745	103.38
283.976	91.38
284.207	91.38
284.439	90.38
284.67	87.38
284.901	91.38
285.132	100.38
285.364	82.38
285.595	76.38
285.826	90.38
286.057	99.38
286.288	88.38
286.52	90.38
286.751	90.38
286.982	91.38
287.213	72.38
287.444	93.38
287.675	71.38
287.906	90.38
288.138	95.38
288.369	103.38
288.6	95.38
288.831	93.38
289.062	84.38
289.293	97.38
289.524	95.38
289.755	91.38
289.986	87.38
290.217	96.38
290.448	90.38
290.679	93.38
290.91	86.38
291.141	99.38
291.371	87.38
291.602	76.38
291.833	89.38
292.064	90.38
292.295	77.38
292.526	99.38
292.757	85.38
292.987	95.38
293.218	103.38
293.449	101.38
293.68	94.38
293.91	93.38
294.141	90.38
294.372	95.38
294.603	93.38
294.833	95.38
295.064	83.38
295.295	63.38
295.525	87.38
295.756	126.38
295.987	112.38
296.217	135.38
296.448	115.38
296.679	99.38
296.909	108.38
297.14	101.38
297.37	96.38
297.601	82.38
297.831	98.38
298.062	101.38
298.292	104.38
298.523	91.38
298.753	83.38
298.984	79.38
299.214	91.38
299.445	94.38
299.675	82.38
299.905	95.38
300.136	91.38
300.366	82.38
300.597	93.38
300.827	104.38
301.057	95.38
301.288	113.38
301.518	94.38
301.748	79.38
301.979	94.38
302.209	99.38
302.439	94.38
302.669	86.38
302.9	96.38
303.13	92.38
303.36	92.38
303.59	90.38
303.82	105.38
304.051	97.38
304.281	108.38
304.511	93.38
304.741	94.38
304.971	81.38
305.201	91.38
305.431	88.38
305.661	83.38
305.891	94.38
306.121	85.38
306.352	85.38
306.582	94.38
306.812	93.38
307.042	84.38
307.272	74.38
307.502	104.38
307.731	89.38
307.961	85.38
308.191	83.38
308.421	117.38
308.651	98.38
308.881	88.38
309.111	111.38
309.341	87.38
309.571	71.38
309.8	95.38
310.03	97.38
310.26	96.38
310.49	98.38
310.72	98.38
310.949	104.38
311.179	102.38
311.409	99.38
311.639	102.38
311.868	94.38
312.098	89.38
312.328	94.38
312.557	101.38
312.787	103.38
313.017	102.38
313.246	96.38
313.476	91.38
313.706	104.38
313.935	104.38
314.165	113.38
314.394	109.38
314.624	110.38
314.853	108.38
315.083	91.38
315.312	96.38
315.542	90.38
315.771	84.38
316.001	84.38
316.23	94.38
316.46	88.38
316.689	84.38
316.919	90.38
317.148	93.38
317.377	84.38
317.607	96.38
317.836	87.38
318.065	95.38
318.295	92.38
318.524	87.38
318.753	97.38
318.983	92.38
319.212	109.38
319.441	110.38
319.67	109.38
319.9	95.38
320.129	97.38
320.358	101.38
320.587	103.38
320.816	101.38
321.046	106.38
321.275	98.38
321.504	94.38
321.733	93.38
321.962	95.38
322.191	102.38
322.42	103.38
322.649	114.38
322.878	118.38
323.108	108.38
323.337	116.38
323.566	129.38
323.795	145.38
324.024	203.38
324.253	369.38
324.482	783.38
324.71	1485.38
324.939	1913.38
325.168	727.38
325.397	223.38
325.626	149.38
325.855	134.38
326.084	105.38
326.313	127.38
326.542	154.38
326.77	215.38
326.999	430.38
327.228	866.38
327.457	1458.38
327.686	1137.38
327.914	326.38
328.143	196.38
328.372	133.38
328.6	122.38
328.829	121.38
329.058	123.38
329.287	135.38
329.515	111.38
329.744	107.38
329.972	109.38
330.201	118.38
330.43	116.38
330.658	129.38
330.887	149.38
331.115	125.38
331.344	99.38
331.572	102.38
331.801	99.38
332.03	99.38
332.258	99.38
332.486	94.38
332.715	95.38
332.943	94.38
333.172	106.38
333.4	97.38
333.629	91.38
333.857	104.38
334.085	109.38
334.314	96.38
334.542	85.38
334.771	104.38
334.999	95.38
335.227	97.38
335.455	102.38
335.684	110.38
335.912	85.38
336.14	89.38
336.369	101.38
336.597	115.38
336.825	94.38
337.053	91.38
337.281	97.38
337.51	86.38
337.738	99.38
337.966	104.38
338.194	101.38
338.422	102.38
338.65	83.38
338.878	105.38
339.106	106.38
339.334	89.38
339.562	90.38
339.79	90.38
340.018	86.38
340.246	92.38
340.474	85.38
340.702	100.38
340.93	103.38
341.158	98.38
341.386	79.38
341.614	111.38
341.842	94.38
342.07	102.38
342.298	108.38
342.526	82.38
342.754	92.38
342.981	67.38
343.209	80.38
343.437	99.38
343.665	82.38
343.893	93.38
344.12	89.38
344.348	94.38
344.576	93.38
344.804	100.38
345.031	99.38
345.259	99.38
345.487	90.38
345.714	113.38
345.942	90.38
346.17	86.38
346.397	89.38
346.625	98.38
346.853	94.38
347.08	88.38
347.308	92.38
347.535	99.38
347.763	103.38
347.99	102.38
348.218	115.38
348.445	96.38
348.673	100.38
348.9	93.38
349.128	96.38
349.355	105.38
349.583	86.38
349.81	88.38
350.037	90.38
350.265	92.38
350.492	95.38
350.72	99.38
350.947	102.38
351.174	113.38
351.402	108.38
351.629	110.38
351.856	111.38
352.083	118.38
352.311	119.38
352.538	105.38
352.765	91.38
352.992	126.38
353.22	109.38
353.447	109.38
353.674	99.38
353.901	106.38
354.128	87.38
354.355	87.38
354.583	113.38
354.81	92.38
355.037	96.38
355.264	93.38
355.491	93.38
355.718	96.38
355.945	99.38
356.172	89.38
356.399	93.38
356.626	104.38
356.853	102.38
357.08	109.38
357.307	89.38
357.534	77.38
357.761	91.38
357.988	90.38
358.215	84.38
358.441	98.38
358.668	105.38
358.895	109.38
359.122	81.38
359.349	85.38
359.576	85.38
359.802	100.38
360.029	106.38
360.256	104.38
360.483	98.38
360.709	95.38
360.936	100.38
361.163	100.38
361.39	106.38
361.616	103.38
361.843	89.38
362.07	111.38
362.296	103.38
362.523	98.38
362.749	99.38
362.976	84.38
363.203	96.38
363.429	89.38
363.656	90.38
363.882	110.38
364.109	106.38
364.335	97.38
364.562	75.38
364.788	97.38
365.015	79.38
365.241	87.38
365.468	99.38
365.694	89.38
365.92	93.38
366.147	99.38
366.373	92.38
366.599	89.38
366.826	92.38
367.052	97.38
367.278	98.38
367.505	91.38
367.731	85.38
367.957	99.38
368.184	96.38
368.41	95.38
368.636	111.38
368.862	122.38
369.089	120.38
369.315	84.38
369.541	88.38
369.767	93.38
369.993	76.38
370.219	98.38
370.445	101.38
370.672	96.38
370.898	82.38
371.124	86.38
371.35	83.38
371.576	97.38
371.802	85.38
372.028	81.38
372.254	91.38
372.48	74.38
372.706	72.38
372.932	102.38
373.158	90.38
373.384	84.38
373.61	116.38
373.835	82.38
374.061	91.38
374.287	89.38
374.513	80.38
374.739	89.38
374.965	76.38
375.191	97.38
375.416	77.38
375.642	101.38
375.868	93.38
376.094	105.38
376.319	94.38
376.545	92.38
376.771	97.38
376.997	100.38
377.222	86.38
377.448	85.38
377.674	78.38
377.899	88.38
378.125	95.38
378.35	91.38
378.576	90.38
378.802	91.38
379.027	89.38
379.253	90.38
379.478	99.38
379.704	105.38
379.929	91.38
380.155	99.38
380.38	112.38
380.606	92.38
380.831	90.38
381.057	92.38
381.282	89.38
381.507	101.38
381.733	89.38
381.958	88.38
382.184	109.38
382.409	86.38
382.634	98.38
382.86	115.38
383.085	99.38
383.31	100.38
383.535	106.38
383.761	100.38
383.986	101.38
384.211	108.38
384.436	97.38
384.662	108.38
384.887	108.38
385.112	95.38
385.337	108.38
385.562	94.38
385.787	117.38
386.013	113.38
386.238	117.38
386.463	98.38
386.688	94.38
386.913	93.38
387.138	108.38
387.363	118.38
387.588	91.38
387.813	102.38
388.038	94.38
388.263	115.38
388.488	105.38
388.713	110.38
388.938	91.38
389.163	79.38
389.387	84.38
389.612	81.38
389.837	95.38
390.062	95.38
390.287	93.38
390.512	95.38
390.736	84.38
390.961	97.38
391.186	78.38
391.411	95.38
391.636	85.38
391.86	100.38
392.085	90.38
392.31	86.38
392.534	88.38
392.759	93.38
392.984	88.38
393.208	90.38
393.433	108.38
393.658	99.38
393.882	90.38
394.107	98.38
394.331	90.38
394.556	90.38
394.78	75.38
395.005	94.38
395.229	74.38
395.454	87.38
395.678	94.38
395.903	96.38
396.127	89.38
396.352	81.38
396.576	74.38
396.801	86.38
397.025	97.38
397.249	94.38
397.474	83.38
397.698	77.38
397.922	98.38
398.147	97.38
398.371	85.38
398.595	86.38
398.82	90.38
399.044	89.38
399.268	96.38
399.492	95.38
399.717	77.38
399.941	77.38
400.165	87.38
400.389	95.38
400.613	103.38
400.837	89.38
401.062	86.38
401.286	88.38
401.51	74.38
401.734	95.38
401.958	95.38
402.182	120.38
402.406	163.38
402.63	113.38
402.854	105.38
403.078	81.38
403.302	86.38
403.526	89.38
403.75	93.38
403.974	86.38
404.198	69.38
404.422	86.38
404.645	84.38
404.869	81.38
405.093	112.38
405.317	114.38
405.541	100.38
405.765	99.38
405.988	115.38
406.212	169.38
406.436	233.38
406.66	150.38
406.883	109.38
407.107	73.38
407.331	94.38
407.555	99.38
407.778	101.38
408.002	88.38
408.226	87.38
408.449	86.38
408.673	85.38
408.896	93.38
409.12	113.38
409.344	103.38
409.567	93.38
409.791	93.38
410.014	91.38
410.238	78.38
410.461	91.38
410.685	99.38
410.908	109.38
411.132	108.38
411.355	114.38
411.578	95.38
411.802	89.38
412.025	83.38
412.249	97.38
412.472	87.38
412.695	91.38
412.919	101.38
413.142	88.38
413.365	83.38
413.589	90.38
413.812	85.38
414.035	99.38
414.258	83.38
414.482	78.38
414.705	98.38
414.928	98.38
415.151	84.38
415.374	92.38
415.597	86.38
415.821	84.38
416.044	103.38
416.267	90.38
416.49	80.38
416.713	85.38
416.936	81.38
417.159	93.38
417.382	88.38
417.605	93.38
417.828	106.38
418.051	90.38
418.274	88.38
418.497	81.38
418.72	89.38
418.943	93.38
419.166	90.38
419.389	86.38
419.611	90.38
419.834	82.38
420.057	85.38
420.28	70.38
420.503	89.38
420.726	82.38
420.948	85.38
421.171	99.38
421.394	83.38
421.617	87.38
421.839	93.38
422.062	87.38
422.285	106.38
422.507	100.38
422.73	96.38
422.953	85.38
423.175	94.38
423.398	95.38
423.621	87.38
423.843	83.38
424.066	88.38
424.288	95.38
424.511	78.38
424.733	91.38
424.956	99.38
425.178	110.38
425.401	91.38
425.623	89.38
425.846	105.38
426.068	93.38
426.291	92.38
426.513	114.38
426.735	101.38
426.958	102.38
427.18	94.38
427.402	139.38
427.625	156.38
427.847	125.38
428.069	98.38
428.292	95.38
428.514	99.38
428.736	95.38
428.958	88.38
429.181	88.38
429.403	96.38
429.625	85.38
429.847	95.38
430.069	108.38
430.292	74.38
430.514	80.38
430.736	98.38
430.958	100.38
431.18	92.38
431.402	86.38
431.624	87.38
431.846	81.38
432.068	78.38
432.29	90.38
432.512	89.38
432.734	93.38
432.956	86.38
433.178	97.38
433.4	94.38
433.622	93.38
433.844	97.38
434.066	92.38
434.287	104.38
434.509	90.38
434.731	89.38
434.953	85.38
435.175	81.38
435.397	77.38
435.618	101.38
435.84	99.38
436.062	125.38
436.284	111.38
436.505	103.38
436.727	101.38
436.949	92.38
437.17	93.38
437.392	92.38
437.614	97.38
437.835	113.38
438.057	125.38
438.278	115.38
438.5	99.38
438.721	114.38
438.943	105.38
439.165	81.38
439.386	94.38
439.608	99.38
439.829	94.38
440.05	120.38
440.272	146.38
440.493	98.38
440.715	76.38
440.936	89.38
441.158	83.38
441.379	87.38
441.6	85.38
441.822	90.38
442.043	93.38
442.264	83.38
442.486	106.38
442.707	94.38
442.928	103.38
443.149	126.38
443.371	121.38
443.592	120.38
443.813	117.38
444.034	104.38
444.255	94.38
444.476	95.38
444.698	82.38
444.919	87.38
445.14	115.38
445.361	116.38
445.582	118.38
445.803	127.38
446.024	149.38
446.245	129.38
446.466	101.38
446.687	97.38
446.908	86.38
447.129	91.38
447.35	91.38
447.571	105.38
447.792	74.38
448.013	89.38
448.234	116.38
448.455	110.38
448.675	108.38
448.896	121.38
449.117	96.38
449.338	103.38
449.559	130.38
449.779	122.38
450	79.38
450.221	100.38
450.442	87.38
450.662	99.38
450.883	113.38
451.104	114.38
451.324	106.38
451.545	92.38
451.766	84.38
451.986	83.38
452.207	78.38
452.428	82.38
452.648	101.38
452.869	113.38
453.089	114.38
453.31	135.38
453.53	100.38
453.751	97.38
453.971	105.38
454.192	122.38
454.412	94.38
454.633	102.38
454.853	100.38
455.073	79.38
455.294	86.38
455.514	105.38
455.734	95.38
455.955	83.38
456.175	81.38
456.395	80.38
456.616	80.38
456.836	90.38
457.056	85.38
457.276	87.38
457.497	94.38
457.717	98.38
457.937	85.38
458.157	87.38
458.377	97.38
458.598	112.38
458.818	143.38
459.038	147.38
459.258	113.38
459.478	99.38
459.698	92.38
459.918	91.38
460.138	91.38
460.358	83.38
460.578	101.38
460.798	93.38
461.018	96.38
461.238	81.38
461.458	90.38
461.678	76.38
461.898	89.38
462.118	90.38
462.338	77.38
462.558	90.38
462.777	80.38
462.997	87.38
463.217	89.38
463.437	81.38
463.657	78.38
463.876	84.38
464.096	71.38
464.316	94.38
464.536	103.38
464.755	99.38
464.975	111.38
465.195	182.38
465.414	164.38
465.634	103.38
465.854	81.38
466.073	82.38
466.293	83.38
466.512	79.38
466.732	95.38
466.951	83.38
467.171	91.38
467.391	87.38
467.61	107.38
467.829	100.38
468.049	111.38
468.268	103.38
468.488	89.38
468.707	92.38
468.927	90.38
469.146	102.38
469.365	88.38
469.585	100.38
469.804	99.38
470.023	93.38
470.243	109.38
470.462	103.38
470.681	109.38
470.901	95.38
471.12	89.38
471.339	93.38
471.558	82.38
471.777	98.38
471.997	93.38
472.216	87.38
472.435	100.38
472.654	90.38
472.873	86.38
473.092	89.38
473.311	94.38
473.53	78.38
473.749	89.38
473.968	86.38
474.187	117.38
474.406	96.38
474.625	87.38
474.844	75.38
475.063	89.38
475.282	86.38
475.501	101.38
475.72	94.38
475.939	83.38
476.158	88.38
476.377	78.38
476.596	88.38
476.814	99.38
477.033	92.38
477.252	91.38
477.471	86.38
477.69	87.38
477.908	95.38
478.127	90.38
478.346	95.38
478.564	91.38
478.783	106.38
479.002	95.38
479.22	95.38
479.439	94.38
479.658	109.38
479.876	103.38
480.095	85.38
480.313	97.38
480.532	98.38
480.751	93.38
480.969	87.38
481.188	90.38
481.406	94.38
481.624	110.38
481.843	95.38
482.061	71.38
482.28	100.38
482.498	94.38
482.717	81.38
482.935	88.38
483.153	87.38
483.372	89.38
483.59	78.38
483.808	85.38
484.027	84.38
484.245	85.38
484.463	90.38
484.681	101.38
484.9	104.38
485.118	98.38
485.336	94.38
485.554	113.38
485.772	97.38
485.99	106.38
486.209	106.38
486.427	88.38
486.645	104.38
486.863	100.38
487.081	102.38
487.299	98.38
487.517	102.38
487.735	88.38
487.953	96.38
488.171	103.38
488.389	100.38
488.607	85.38
488.825	94.38
489.043	87.38
489.261	102.38
489.479	87.38
489.696	97.38
489.914	85.38
490.132	85.38
490.35	73.38
490.568	89.38
490.786	91.38
491.003	85.38
491.221	84.38
491.439	101.38
491.657	92.38
491.874	96.38
492.092	101.38
492.31	90.38
492.527	90.38
492.745	86.38
492.963	86.38
493.18	100.38
493.398	97.38
493.615	94.38
493.833	90.38
494.05	84.38
494.268	93.38
494.485	101.38
494.703	86.38
494.92	82.38
495.138	89.38
495.355	98.38
495.573	98.38
495.79	83.38
496.008	86.38
496.225	91.38
496.442	88.38
496.66	86.38
496.877	107.38
497.094	87.38
497.312	85.38
497.529	89.38
497.746	100.38
497.963	108.38
498.181	98.38
498.398	85.38
498.615	112.38
498.832	86.38
499.049	100.38
499.267	95.38
499.484	91.38
499.701	88.38
499.918	91.38
500.135	79.38
500.352	88.38
500.569	84.38
500.786	94.38
501.003	85.38
501.22	109.38
501.437	102.38
501.654	100.38
501.871	108.38
502.088	95.38
502.305	91.38
502.522	99.38
502.739	98.38
502.956	94.38
503.172	98.38
503.389	103.38
503.606	104.38
503.823	85.38
504.04	99.38
504.256	89.38
504.473	80.38
504.69	90.38
504.907	99.38
505.123	89.38
505.34	89.38
505.557	94.38
505.773	86.38
505.99	81.38
506.207	84.38
506.423	80.38
506.64	83.38
506.856	89.38
507.073	97.38
507.289	85.38
507.506	92.38
507.722	124.38
507.939	112.38
508.155	105.38
508.372	97.38
508.588	100.38
508.805	92.38
509.021	89.38
509.238	102.38
509.454	101.38
509.67	102.38
509.887	107.38
510.103	145.38
510.319	221.38
510.536	773.38
510.752	2455.38
510.968	670.38
511.184	157.38
511.401	117.38
511.617	115.38
511.833	95.38
512.049	102.38
512.265	92.38
512.481	96.38
512.698	96.38
512.914	84.38
513.13	92.38
513.346	78.38
513.562	102.38
513.778	102.38
513.994	97.38
514.21	113.38
514.426	120.38
514.642	142.38
514.858	142.38
515.074	173.38
