Data from Uncirc_2001_H10_HRD10591_00047.txt Node
Date: Wed Jan 03 10:44:06 EST 2024
User: Yrep
Spectrometer: HR+D1059
Trigger mode: 1
Integration Time (sec): 1.000000E-1
Scans to average: 1
Electric dark correction enabled: true
Nonlinearity correction enabled: false
Boxcar width: 0
XAxis mode: Wavelengths
Number of Pixels in Spectrum: 2048
>>>>>Begin Spectral Data<<<<<
223.165	-15.12
223.4	-15.12
223.635	-15.12
223.869	-27.12
224.104	-22.12
224.338	-18.12
224.573	-12.12
224.808	-13.12
225.042	1.88
225.277	-8.12
225.511	3.88
225.746	1.88
225.98	4.88
226.215	-3.12
226.449	28.88
226.683	22.88
226.918	20.88
227.152	33.88
227.387	41.88
227.621	39.88
227.856	40.88
228.09	47.88
228.324	61.88
228.559	63.88
228.793	48.88
229.027	63.88
229.262	73.88
229.496	71.88
229.73	78.88
229.964	77.88
230.199	73.88
230.433	61.88
230.667	70.88
230.901	74.88
231.136	53.88
231.37	73.88
231.604	69.88
231.838	87.88
232.072	92.88
232.306	78.88
232.541	82.88
232.775	77.88
233.009	74.88
233.243	77.88
233.477	72.88
233.711	71.88
233.945	69.88
234.179	78.88
234.413	90.88
234.647	85.88
234.881	77.88
235.115	73.88
235.349	75.88
235.583	69.88
235.817	88.88
236.051	76.88
236.285	81.88
236.519	73.88
236.753	77.88
236.987	78.88
237.221	69.88
237.455	72.88
237.689	75.88
237.922	78.88
238.156	84.88
238.39	70.88
238.624	66.88
238.858	63.88
239.091	77.88
239.325	69.88
239.559	70.88
239.793	74.88
240.027	76.88
240.26	70.88
240.494	75.88
240.728	89.88
240.961	86.88
241.195	66.88
241.429	81.88
241.662	75.88
241.896	67.88
242.13	72.88
242.363	79.88
242.597	80.88
242.83	67.88
243.064	74.88
243.298	72.88
243.531	78.88
243.765	82.88
243.998	86.88
244.232	84.88
244.465	69.88
244.699	91.88
244.932	72.88
245.166	81.88
245.399	71.88
245.633	77.88
245.866	72.88
246.099	86.88
246.333	68.88
246.566	83.88
246.8	77.88
247.033	79.88
247.266	83.88
247.5	74.88
247.733	70.88
247.966	80.88
248.2	80.88
248.433	91.88
248.666	85.88
248.899	74.88
249.133	95.88
249.366	101.88
249.599	94.88
249.832	81.88
250.066	89.88
250.299	82.88
250.532	84.88
250.765	93.88
250.998	86.88
251.231	80.88
251.465	80.88
251.698	76.88
251.931	77.88
252.164	67.88
252.397	82.88
252.63	74.88
252.863	71.88
253.096	75.88
253.329	79.88
253.562	94.88
253.795	78.88
254.028	81.88
254.261	72.88
254.494	76.88
254.727	65.88
254.96	98.88
255.193	75.88
255.426	93.88
255.659	62.88
255.892	90.88
256.124	81.88
256.357	75.88
256.59	85.88
256.823	76.88
257.056	66.88
257.289	84.88
257.521	67.88
257.754	69.88
257.987	89.88
258.22	89.88
258.452	78.88
258.685	89.88
258.918	87.88
259.151	83.88
259.383	84.88
259.616	81.88
259.849	80.88
260.081	70.88
260.314	94.88
260.547	76.88
260.779	87.88
261.012	79.88
261.244	76.88
261.477	87.88
261.71	85.88
261.942	113.88
262.175	127.88
262.407	98.88
262.64	88.88
262.872	89.88
263.105	85.88
263.337	94.88
263.57	81.88
263.802	66.88
264.035	78.88
264.267	70.88
264.499	80.88
264.732	79.88
264.964	93.88
265.197	96.88
265.429	88.88
265.661	86.88
265.894	71.88
266.126	80.88
266.358	87.88
266.591	81.88
266.823	75.88
267.055	79.88
267.287	71.88
267.52	78.88
267.752	82.88
267.984	74.88
268.216	94.88
268.448	109.88
268.681	87.88
268.913	88.88
269.145	87.88
269.377	78.88
269.609	87.88
269.841	77.88
270.073	84.88
270.306	87.88
270.538	84.88
270.77	69.88
271.002	79.88
271.234	71.88
271.466	79.88
271.698	92.88
271.93	85.88
272.162	87.88
272.394	90.88
272.626	85.88
272.858	94.88
273.09	73.88
273.322	74.88
273.553	88.88
273.785	81.88
274.017	79.88
274.249	87.88
274.481	73.88
274.713	86.88
274.945	85.88
275.176	82.88
275.408	77.88
275.64	84.88
275.872	89.88
276.104	88.88
276.335	74.88
276.567	96.88
276.799	107.88
277.031	93.88
277.262	69.88
277.494	87.88
277.726	80.88
277.957	77.88
278.189	96.88
278.421	76.88
278.652	80.88
278.884	83.88
279.115	89.88
279.347	80.88
279.579	69.88
279.81	93.88
280.042	85.88
280.273	78.88
280.505	91.88
280.736	101.88
280.968	89.88
281.199	90.88
281.431	84.88
281.662	79.88
281.894	95.88
282.125	90.88
282.356	108.88
282.588	148.88
282.819	108.88
283.051	86.88
283.282	86.88
283.513	73.88
283.745	84.88
283.976	90.88
284.207	101.88
284.439	91.88
284.67	99.88
284.901	79.88
285.132	94.88
285.364	72.88
285.595	91.88
285.826	58.88
286.057	95.88
286.288	80.88
286.52	71.88
286.751	79.88
286.982	74.88
287.213	69.88
287.444	97.88
287.675	93.88
287.906	79.88
288.138	95.88
288.369	91.88
288.6	81.88
288.831	86.88
289.062	84.88
289.293	87.88
289.524	75.88
289.755	77.88
289.986	81.88
290.217	99.88
290.448	77.88
290.679	75.88
290.91	91.88
291.141	82.88
291.371	79.88
291.602	102.88
291.833	81.88
292.064	90.88
292.295	91.88
292.526	99.88
292.757	86.88
292.987	85.88
293.218	96.88
293.449	95.88
293.68	90.88
293.91	78.88
294.141	89.88
294.372	91.88
294.603	89.88
294.833	77.88
295.064	91.88
295.295	103.88
295.525	99.88
295.756	87.88
295.987	127.88
296.217	142.88
296.448	122.88
296.679	89.88
296.909	96.88
297.14	104.88
297.37	88.88
297.601	85.88
297.831	79.88
298.062	83.88
298.292	92.88
298.523	83.88
298.753	91.88
298.984	93.88
299.214	95.88
299.445	75.88
299.675	81.88
299.905	83.88
300.136	94.88
300.366	78.88
300.597	77.88
300.827	101.88
301.057	103.88
301.288	93.88
301.518	97.88
301.748	106.88
301.979	101.88
302.209	82.88
302.439	90.88
302.669	100.88
302.9	102.88
303.13	78.88
303.36	87.88
303.59	91.88
303.82	107.88
304.051	105.88
304.281	93.88
304.511	93.88
304.741	76.88
304.971	81.88
305.201	80.88
305.431	73.88
305.661	82.88
305.891	96.88
306.121	94.88
306.352	95.88
306.582	102.88
306.812	90.88
307.042	96.88
307.272	97.88
307.502	84.88
307.731	91.88
307.961	89.88
308.191	82.88
308.421	95.88
308.651	92.88
308.881	99.88
309.111	92.88
309.341	92.88
309.571	103.88
309.8	85.88
310.03	98.88
310.26	89.88
310.49	103.88
310.72	86.88
310.949	101.88
311.179	100.88
311.409	102.88
311.639	92.88
311.868	95.88
312.098	75.88
312.328	93.88
312.557	105.88
312.787	93.88
313.017	91.88
313.246	88.88
313.476	102.88
313.706	96.88
313.935	86.88
314.165	80.88
314.394	89.88
314.624	87.88
314.853	98.88
315.083	94.88
315.312	88.88
315.542	95.88
315.771	81.88
316.001	73.88
316.23	89.88
316.46	99.88
316.689	100.88
316.919	81.88
317.148	89.88
317.377	84.88
317.607	86.88
317.836	98.88
318.065	79.88
318.295	89.88
318.524	94.88
318.753	89.88
318.983	91.88
319.212	91.88
319.441	103.88
319.67	100.88
319.9	79.88
320.129	97.88
320.358	106.88
320.587	91.88
320.816	108.88
321.046	98.88
321.275	105.88
321.504	102.88
321.733	90.88
321.962	80.88
322.191	94.88
322.42	107.88
322.649	115.88
322.878	97.88
323.108	117.88
323.337	102.88
323.566	130.88
323.795	145.88
324.024	194.88
324.253	338.88
324.482	728.88
324.71	1497.88
324.939	1875.88
325.168	722.88
325.397	227.88
325.626	139.88
325.855	125.88
326.084	118.88
326.313	120.88
326.542	138.88
326.77	205.88
326.999	411.88
327.228	831.88
327.457	1483.88
327.686	1155.88
327.914	327.88
328.143	189.88
328.372	149.88
328.6	131.88
328.829	118.88
329.058	129.88
329.287	121.88
329.515	108.88
329.744	114.88
329.972	92.88
330.201	100.88
330.43	110.88
330.658	121.88
330.887	139.88
331.115	112.88
331.344	86.88
331.572	105.88
331.801	116.88
332.03	105.88
332.258	91.88
332.486	89.88
332.715	106.88
332.943	87.88
333.172	85.88
333.4	99.88
333.629	104.88
333.857	110.88
334.085	92.88
334.314	100.88
334.542	89.88
334.771	97.88
334.999	100.88
335.227	100.88
335.455	94.88
335.684	96.88
335.912	91.88
336.14	85.88
336.369	73.88
336.597	92.88
336.825	98.88
337.053	99.88
337.281	95.88
337.51	89.88
337.738	74.88
337.966	82.88
338.194	97.88
338.422	93.88
338.65	95.88
338.878	90.88
339.106	81.88
339.334	96.88
339.562	89.88
339.79	78.88
340.018	86.88
340.246	96.88
340.474	91.88
340.702	90.88
340.93	90.88
341.158	104.88
341.386	89.88
341.614	99.88
341.842	86.88
342.07	86.88
342.298	85.88
342.526	80.88
342.754	82.88
342.981	91.88
343.209	80.88
343.437	104.88
343.665	97.88
343.893	81.88
344.12	93.88
344.348	94.88
344.576	88.88
344.804	82.88
345.031	109.88
345.259	110.88
345.487	91.88
345.714	110.88
345.942	87.88
346.17	91.88
346.397	80.88
346.625	90.88
346.853	106.88
347.08	103.88
347.308	115.88
347.535	99.88
347.763	107.88
347.99	95.88
348.218	79.88
348.445	89.88
348.673	98.88
348.9	93.88
349.128	82.88
349.355	84.88
349.583	91.88
349.81	82.88
350.037	93.88
350.265	95.88
350.492	87.88
350.72	94.88
350.947	97.88
351.174	111.88
351.402	114.88
351.629	80.88
351.856	107.88
352.083	100.88
352.311	113.88
352.538	100.88
352.765	105.88
352.992	110.88
353.22	114.88
353.447	103.88
353.674	103.88
353.901	90.88
354.128	90.88
354.355	95.88
354.583	100.88
354.81	99.88
355.037	90.88
355.264	87.88
355.491	82.88
355.718	94.88
355.945	105.88
356.172	76.88
356.399	79.88
356.626	83.88
356.853	86.88
357.08	82.88
357.307	93.88
357.534	98.88
357.761	79.88
357.988	88.88
358.215	94.88
358.441	96.88
358.668	89.88
358.895	99.88
359.122	87.88
359.349	89.88
359.576	98.88
359.802	93.88
360.029	104.88
360.256	102.88
360.483	101.88
360.709	90.88
360.936	100.88
361.163	91.88
361.39	90.88
361.616	89.88
361.843	92.88
362.07	103.88
362.296	88.88
362.523	88.88
362.749	84.88
362.976	87.88
363.203	78.88
363.429	95.88
363.656	89.88
363.882	85.88
364.109	92.88
364.335	98.88
364.562	87.88
364.788	97.88
365.015	80.88
365.241	87.88
365.468	90.88
365.694	94.88
365.92	84.88
366.147	104.88
366.373	96.88
366.599	87.88
366.826	86.88
367.052	77.88
367.278	80.88
367.505	86.88
367.731	85.88
367.957	91.88
368.184	82.88
368.41	99.88
368.636	108.88
368.862	103.88
369.089	107.88
369.315	96.88
369.541	94.88
369.767	101.88
369.993	84.88
370.219	82.88
370.445	83.88
370.672	95.88
370.898	81.88
371.124	74.88
371.35	87.88
371.576	83.88
371.802	78.88
372.028	82.88
372.254	82.88
372.48	65.88
372.706	79.88
372.932	71.88
373.158	81.88
373.384	105.88
373.61	89.88
373.835	86.88
374.061	94.88
374.287	110.88
374.513	82.88
374.739	97.88
374.965	85.88
375.191	80.88
375.416	90.88
375.642	79.88
375.868	88.88
376.094	84.88
376.319	86.88
376.545	91.88
376.771	92.88
376.997	99.88
377.222	80.88
377.448	90.88
377.674	88.88
377.899	90.88
378.125	89.88
378.35	102.88
378.576	98.88
378.802	75.88
379.027	84.88
379.253	76.88
379.478	86.88
379.704	97.88
379.929	94.88
380.155	85.88
380.38	79.88
380.606	90.88
380.831	91.88
381.057	98.88
381.282	94.88
381.507	93.88
381.733	105.88
381.958	81.88
382.184	88.88
382.409	109.88
382.634	96.88
382.86	91.88
383.085	98.88
383.31	100.88
383.535	92.88
383.761	95.88
383.986	106.88
384.211	103.88
384.436	80.88
384.662	76.88
384.887	98.88
385.112	98.88
385.337	100.88
385.562	92.88
385.787	118.88
386.013	89.88
386.238	102.88
386.463	102.88
386.688	78.88
386.913	89.88
387.138	102.88
387.363	108.88
387.588	116.88
387.813	95.88
388.038	103.88
388.263	119.88
388.488	107.88
388.713	94.88
388.938	88.88
389.163	89.88
389.387	102.88
389.612	82.88
389.837	91.88
390.062	91.88
390.287	102.88
390.512	96.88
390.736	89.88
390.961	79.88
391.186	82.88
391.411	85.88
391.636	86.88
391.86	78.88
392.085	88.88
392.31	81.88
392.534	79.88
392.759	89.88
392.984	83.88
393.208	82.88
393.433	91.88
393.658	105.88
393.882	85.88
394.107	98.88
394.331	94.88
394.556	95.88
394.78	87.88
395.005	90.88
395.229	83.88
395.454	84.88
395.678	83.88
395.903	89.88
396.127	86.88
396.352	80.88
396.576	97.88
396.801	91.88
397.025	70.88
397.249	93.88
397.474	83.88
397.698	92.88
397.922	80.88
398.147	86.88
398.371	91.88
398.595	58.88
398.82	91.88
399.044	86.88
399.268	95.88
399.492	73.88
399.717	93.88
399.941	79.88
400.165	69.88
400.389	79.88
400.613	78.88
400.837	86.88
401.062	81.88
401.286	90.88
401.51	97.88
401.734	96.88
401.958	102.88
402.182	126.88
402.406	153.88
402.63	118.88
402.854	76.88
403.078	86.88
403.302	94.88
403.526	82.88
403.75	91.88
403.974	82.88
404.198	92.88
404.422	101.88
404.645	75.88
404.869	91.88
405.093	92.88
405.317	89.88
405.541	88.88
405.765	109.88
405.988	122.88
406.212	165.88
406.436	226.88
406.66	132.88
406.883	89.88
407.107	94.88
407.331	88.88
407.555	97.88
407.778	95.88
408.002	85.88
408.226	95.88
408.449	83.88
408.673	85.88
408.896	86.88
409.12	74.88
409.344	84.88
409.567	88.88
409.791	111.88
410.014	91.88
410.238	80.88
410.461	89.88
410.685	88.88
410.908	82.88
411.132	95.88
411.355	96.88
411.578	92.88
411.802	96.88
412.025	94.88
412.249	77.88
412.472	86.88
412.695	97.88
412.919	83.88
413.142	84.88
413.365	95.88
413.589	97.88
413.812	100.88
414.035	95.88
414.258	82.88
414.482	96.88
414.705	93.88
414.928	82.88
415.151	93.88
415.374	78.88
415.597	89.88
415.821	93.88
416.044	77.88
416.267	91.88
416.49	88.88
416.713	80.88
416.936	83.88
417.159	87.88
417.382	91.88
417.605	90.88
417.828	84.88
418.051	83.88
418.274	84.88
418.497	77.88
418.72	71.88
418.943	77.88
419.166	81.88
419.389	87.88
419.611	83.88
419.834	95.88
420.057	95.88
420.28	82.88
420.503	79.88
420.726	78.88
420.948	83.88
421.171	89.88
421.394	79.88
421.617	86.88
421.839	78.88
422.062	81.88
422.285	82.88
422.507	121.88
422.73	98.88
422.953	96.88
423.175	89.88
423.398	79.88
423.621	97.88
423.843	67.88
424.066	86.88
424.288	85.88
424.511	83.88
424.733	73.88
424.956	111.88
425.178	105.88
425.401	89.88
425.623	102.88
425.846	82.88
426.068	84.88
426.291	98.88
426.513	85.88
426.735	90.88
426.958	93.88
427.18	86.88
427.402	122.88
427.625	163.88
427.847	112.88
428.069	95.88
428.292	99.88
428.514	94.88
428.736	79.88
428.958	87.88
429.181	74.88
429.403	79.88
429.625	79.88
429.847	79.88
430.069	99.88
430.292	95.88
430.514	92.88
430.736	103.88
430.958	90.88
431.18	78.88
431.402	71.88
431.624	98.88
431.846	87.88
432.068	81.88
432.29	72.88
432.512	71.88
432.734	74.88
432.956	93.88
433.178	96.88
433.4	97.88
433.622	81.88
433.844	91.88
434.066	87.88
434.287	84.88
434.509	85.88
434.731	95.88
434.953	88.88
435.175	75.88
435.397	90.88
435.618	77.88
435.84	84.88
436.062	111.88
436.284	107.88
436.505	97.88
436.727	110.88
436.949	85.88
437.17	95.88
437.392	83.88
437.614	86.88
437.835	95.88
438.057	121.88
438.278	105.88
438.5	94.88
438.721	129.88
438.943	98.88
439.165	86.88
439.386	81.88
439.608	88.88
439.829	106.88
440.05	116.88
440.272	135.88
440.493	105.88
440.715	82.88
440.936	76.88
441.158	85.88
441.379	81.88
441.6	85.88
441.822	91.88
442.043	100.88
442.264	107.88
442.486	79.88
442.707	98.88
442.928	88.88
443.149	109.88
443.371	119.88
443.592	105.88
443.813	108.88
444.034	99.88
444.255	85.88
444.476	80.88
444.698	80.88
444.919	78.88
445.14	139.88
445.361	120.88
445.582	105.88
445.803	130.88
446.024	119.88
446.245	119.88
446.466	106.88
446.687	90.88
446.908	86.88
447.129	87.88
447.35	78.88
447.571	91.88
447.792	90.88
448.013	103.88
448.234	105.88
448.455	107.88
448.675	96.88
448.896	108.88
449.117	89.88
449.338	99.88
449.559	110.88
449.779	126.88
450	91.88
450.221	83.88
450.442	88.88
450.662	98.88
450.883	101.88
451.104	95.88
451.324	95.88
451.545	89.88
451.766	92.88
451.986	84.88
452.207	93.88
452.428	93.88
452.648	98.88
452.869	103.88
453.089	114.88
453.31	107.88
453.53	95.88
453.751	85.88
453.971	95.88
454.192	101.88
454.412	79.88
454.633	88.88
454.853	74.88
455.073	82.88
455.294	76.88
455.514	90.88
455.734	79.88
455.955	77.88
456.175	75.88
456.395	81.88
456.616	75.88
456.836	65.88
457.056	90.88
457.276	78.88
457.497	70.88
457.717	93.88
457.937	94.88
458.157	77.88
458.377	82.88
458.598	99.88
458.818	147.88
459.038	164.88
459.258	121.88
459.478	75.88
459.698	80.88
459.918	83.88
460.138	109.88
460.358	92.88
460.578	91.88
460.798	83.88
461.018	96.88
461.238	86.88
461.458	78.88
461.678	89.88
461.898	92.88
462.118	74.88
462.338	85.88
462.558	78.88
462.777	81.88
462.997	87.88
463.217	83.88
463.437	84.88
463.657	89.88
463.876	82.88
464.096	88.88
464.316	100.88
464.536	91.88
464.755	91.88
464.975	101.88
465.195	155.88
465.414	159.88
465.634	88.88
465.854	101.88
466.073	87.88
466.293	67.88
466.512	69.88
466.732	72.88
466.951	65.88
467.171	86.88
467.391	98.88
467.61	101.88
467.829	102.88
468.049	81.88
468.268	71.88
468.488	89.88
468.707	68.88
468.927	82.88
469.146	75.88
469.365	76.88
469.585	93.88
469.804	93.88
470.023	91.88
470.243	91.88
470.462	94.88
470.681	100.88
470.901	77.88
471.12	84.88
471.339	91.88
471.558	86.88
471.777	87.88
471.997	84.88
472.216	89.88
472.435	78.88
472.654	99.88
472.873	98.88
473.092	78.88
473.311	81.88
473.53	91.88
473.749	89.88
473.968	82.88
474.187	105.88
474.406	91.88
474.625	88.88
474.844	84.88
475.063	87.88
475.282	86.88
475.501	78.88
475.72	82.88
475.939	94.88
476.158	78.88
476.377	88.88
476.596	84.88
476.814	84.88
477.033	85.88
477.252	74.88
477.471	92.88
477.69	82.88
477.908	92.88
478.127	90.88
478.346	93.88
478.564	95.88
478.783	96.88
479.002	81.88
479.22	82.88
479.439	101.88
479.658	102.88
479.876	81.88
480.095	92.88
480.313	85.88
480.532	84.88
480.751	81.88
480.969	80.88
481.188	91.88
481.406	90.88
481.624	85.88
481.843	98.88
482.061	77.88
482.28	79.88
482.498	88.88
482.717	79.88
482.935	78.88
483.153	79.88
483.372	82.88
483.59	79.88
483.808	98.88
484.027	83.88
484.245	92.88
484.463	80.88
484.681	90.88
484.9	77.88
485.118	96.88
485.336	77.88
485.554	86.88
485.772	87.88
485.99	89.88
486.209	112.88
486.427	95.88
486.645	97.88
486.863	110.88
487.081	105.88
487.299	91.88
487.517	96.88
487.735	85.88
487.953	107.88
488.171	85.88
488.389	87.88
488.607	87.88
488.825	91.88
489.043	82.88
489.261	80.88
489.479	86.88
489.696	81.88
489.914	93.88
490.132	94.88
490.35	71.88
490.568	67.88
490.786	82.88
491.003	85.88
491.221	80.88
491.439	82.88
491.657	84.88
491.874	87.88
492.092	80.88
492.31	87.88
492.527	80.88
492.745	82.88
492.963	81.88
493.18	75.88
493.398	89.88
493.615	83.88
493.833	94.88
494.05	81.88
494.268	82.88
494.485	90.88
494.703	90.88
494.92	90.88
495.138	93.88
495.355	83.88
495.573	88.88
495.79	90.88
496.008	102.88
496.225	81.88
496.442	82.88
496.66	87.88
496.877	93.88
497.094	83.88
497.312	88.88
497.529	88.88
497.746	79.88
497.963	90.88
498.181	93.88
498.398	91.88
498.615	99.88
498.832	93.88
499.049	84.88
499.267	87.88
499.484	89.88
499.701	100.88
499.918	98.88
500.135	87.88
500.352	101.88
500.569	81.88
500.786	94.88
501.003	99.88
501.22	87.88
501.437	92.88
501.654	89.88
501.871	102.88
502.088	79.88
502.305	89.88
502.522	82.88
502.739	74.88
502.956	86.88
503.172	94.88
503.389	99.88
503.606	98.88
503.823	105.88
504.04	91.88
504.256	88.88
504.473	82.88
504.69	94.88
504.907	77.88
505.123	106.88
505.34	90.88
505.557	87.88
505.773	85.88
505.99	96.88
506.207	77.88
506.423	80.88
506.64	75.88
506.856	83.88
507.073	98.88
507.289	101.88
507.506	93.88
507.722	104.88
507.939	106.88
508.155	91.88
508.372	90.88
508.588	87.88
508.805	84.88
509.021	84.88
509.238	87.88
509.454	82.88
509.67	92.88
509.887	99.88
510.103	113.88
510.319	217.88
510.536	818.88
510.752	2501.88
510.968	680.88
511.184	161.88
511.401	125.88
511.617	106.88
511.833	92.88
512.049	80.88
512.265	85.88
512.481	100.88
512.698	99.88
512.914	91.88
513.13	81.88
513.346	85.88
513.562	90.88
513.778	80.88
513.994	103.88
514.21	101.88
514.426	113.88
514.642	127.88
514.858	117.88
515.074	166.88
515.29	483.88
515.506	1524.88
515.721	547.88
515.937	148.88
516.153	113.88
516.369	96.88
516.585	89.88
