Data from Uncirc_2001_H10_HRD10591_00020.txt Node
Date: Wed Jan 03 10:44:00 EST 2024
User: Yrep
Spectrometer: HR+D1059
Trigger mode: 1
Integration Time (sec): 1.000000E-1
Scans to average: 1
Electric dark correction enabled: true
Nonlinearity correction enabled: false
Boxcar width: 0
XAxis mode: Wavelengths
Number of Pixels in Spectrum: 2048
>>>>>Begin Spectral Data<<<<<
223.165	-22.12
223.4	-22.12
223.635	-22.12
223.869	-6.12
224.104	-12.12
224.338	-37.12
224.573	-19.12
224.808	-17.12
225.042	-6.12
225.277	7.88
225.511	-4.12
225.746	2.88
225.98	5.88
226.215	11.88
226.449	16.88
226.683	18.88
226.918	16.88
227.152	42.88
227.387	42.88
227.621	43.88
227.856	27.88
228.09	45.88
228.324	49.88
228.559	52.88
228.793	68.88
229.027	64.88
229.262	57.88
229.496	80.88
229.73	77.88
229.964	84.88
230.199	66.88
230.433	68.88
230.667	65.88
230.901	75.88
231.136	74.88
231.37	79.88
231.604	75.88
231.838	83.88
232.072	101.88
232.306	70.88
232.541	73.88
232.775	76.88
233.009	68.88
233.243	80.88
233.477	97.88
233.711	75.88
233.945	85.88
234.179	78.88
234.413	69.88
234.647	88.88
234.881	66.88
235.115	74.88
235.349	90.88
235.583	89.88
235.817	78.88
236.051	69.88
236.285	84.88
236.519	81.88
236.753	76.88
236.987	85.88
237.221	84.88
237.455	75.88
237.689	74.88
237.922	71.88
238.156	89.88
238.39	83.88
238.624	78.88
238.858	70.88
239.091	73.88
239.325	78.88
239.559	87.88
239.793	85.88
240.027	76.88
240.26	73.88
240.494	76.88
240.728	54.88
240.961	85.88
241.195	77.88
241.429	68.88
241.662	79.88
241.896	85.88
242.13	69.88
242.363	69.88
242.597	83.88
242.83	76.88
243.064	85.88
243.298	91.88
243.531	74.88
243.765	85.88
243.998	88.88
244.232	82.88
244.465	89.88
244.699	88.88
244.932	79.88
245.166	74.88
245.399	78.88
245.633	89.88
245.866	80.88
246.099	96.88
246.333	78.88
246.566	83.88
246.8	71.88
247.033	73.88
247.266	77.88
247.5	75.88
247.733	85.88
247.966	85.88
248.2	99.88
248.433	81.88
248.666	75.88
248.899	97.88
249.133	77.88
249.366	98.88
249.599	96.88
249.832	79.88
250.066	78.88
250.299	88.88
250.532	75.88
250.765	65.88
250.998	92.88
251.231	85.88
251.465	80.88
251.698	85.88
251.931	78.88
252.164	69.88
252.397	74.88
252.63	77.88
252.863	84.88
253.096	87.88
253.329	74.88
253.562	83.88
253.795	80.88
254.028	74.88
254.261	78.88
254.494	84.88
254.727	80.88
254.96	73.88
255.193	66.88
255.426	74.88
255.659	81.88
255.892	79.88
256.124	75.88
256.357	80.88
256.59	86.88
256.823	82.88
257.056	70.88
257.289	90.88
257.521	84.88
257.754	94.88
257.987	82.88
258.22	85.88
258.452	78.88
258.685	76.88
258.918	93.88
259.151	93.88
259.383	86.88
259.616	81.88
259.849	86.88
260.081	66.88
260.314	74.88
260.547	82.88
260.779	80.88
261.012	106.88
261.244	90.88
261.477	91.88
261.71	90.88
261.942	112.88
262.175	112.88
262.407	86.88
262.64	81.88
262.872	74.88
263.105	88.88
263.337	88.88
263.57	77.88
263.802	92.88
264.035	88.88
264.267	84.88
264.499	85.88
264.732	83.88
264.964	73.88
265.197	92.88
265.429	84.88
265.661	96.88
265.894	92.88
266.126	84.88
266.358	88.88
266.591	92.88
266.823	77.88
267.055	67.88
267.287	92.88
267.52	81.88
267.752	92.88
267.984	84.88
268.216	88.88
268.448	86.88
268.681	101.88
268.913	86.88
269.145	74.88
269.377	81.88
269.609	73.88
269.841	80.88
270.073	79.88
270.306	81.88
270.538	73.88
270.77	85.88
271.002	77.88
271.234	72.88
271.466	66.88
271.698	81.88
271.93	90.88
272.162	71.88
272.394	77.88
272.626	83.88
272.858	89.88
273.09	75.88
273.322	84.88
273.553	76.88
273.785	86.88
274.017	76.88
274.249	98.88
274.481	83.88
274.713	74.88
274.945	87.88
275.176	84.88
275.408	93.88
275.64	102.88
275.872	97.88
276.104	82.88
276.335	87.88
276.567	84.88
276.799	89.88
277.031	98.88
277.262	88.88
277.494	91.88
277.726	90.88
277.957	94.88
278.189	86.88
278.421	92.88
278.652	91.88
278.884	84.88
279.115	76.88
279.347	85.88
279.579	89.88
279.81	99.88
280.042	74.88
280.273	80.88
280.505	88.88
280.736	80.88
280.968	88.88
281.199	83.88
281.431	91.88
281.662	86.88
281.894	96.88
282.125	91.88
282.356	114.88
282.588	137.88
282.819	117.88
283.051	96.88
283.282	81.88
283.513	91.88
283.745	90.88
283.976	85.88
284.207	79.88
284.439	84.88
284.67	87.88
284.901	87.88
285.132	106.88
285.364	91.88
285.595	98.88
285.826	84.88
286.057	88.88
286.288	83.88
286.52	93.88
286.751	94.88
286.982	91.88
287.213	90.88
287.444	88.88
287.675	90.88
287.906	94.88
288.138	81.88
288.369	91.88
288.6	86.88
288.831	93.88
289.062	99.88
289.293	85.88
289.524	92.88
289.755	92.88
289.986	90.88
290.217	92.88
290.448	90.88
290.679	98.88
290.91	99.88
291.141	89.88
291.371	103.88
291.602	89.88
291.833	92.88
292.064	84.88
292.295	97.88
292.526	92.88
292.757	80.88
292.987	83.88
293.218	89.88
293.449	90.88
293.68	73.88
293.91	84.88
294.141	98.88
294.372	106.88
294.603	82.88
294.833	103.88
295.064	109.88
295.295	100.88
295.525	93.88
295.756	105.88
295.987	117.88
296.217	143.88
296.448	109.88
296.679	108.88
296.909	92.88
297.14	83.88
297.37	84.88
297.601	81.88
297.831	92.88
298.062	96.88
298.292	92.88
298.523	97.88
298.753	89.88
298.984	85.88
299.214	94.88
299.445	74.88
299.675	91.88
299.905	107.88
300.136	91.88
300.366	76.88
300.597	86.88
300.827	85.88
301.057	96.88
301.288	99.88
301.518	98.88
301.748	100.88
301.979	88.88
302.209	90.88
302.439	78.88
302.669	104.88
302.9	87.88
303.13	101.88
303.36	100.88
303.59	98.88
303.82	109.88
304.051	99.88
304.281	102.88
304.511	94.88
304.741	99.88
304.971	92.88
305.201	89.88
305.431	89.88
305.661	85.88
305.891	89.88
306.121	95.88
306.352	102.88
306.582	110.88
306.812	102.88
307.042	87.88
307.272	92.88
307.502	102.88
307.731	88.88
307.961	77.88
308.191	97.88
308.421	101.88
308.651	81.88
308.881	92.88
309.111	101.88
309.341	96.88
309.571	100.88
309.8	97.88
310.03	92.88
310.26	93.88
310.49	89.88
310.72	95.88
310.949	108.88
311.179	92.88
311.409	99.88
311.639	94.88
311.868	98.88
312.098	113.88
312.328	101.88
312.557	109.88
312.787	101.88
313.017	81.88
313.246	86.88
313.476	86.88
313.706	102.88
313.935	104.88
314.165	107.88
314.394	96.88
314.624	104.88
314.853	99.88
315.083	101.88
315.312	99.88
315.542	101.88
315.771	94.88
316.001	87.88
316.23	84.88
316.46	85.88
316.689	92.88
316.919	112.88
317.148	84.88
317.377	88.88
317.607	112.88
317.836	95.88
318.065	86.88
318.295	93.88
318.524	99.88
318.753	82.88
318.983	104.88
319.212	96.88
319.441	108.88
319.67	103.88
319.9	93.88
320.129	85.88
320.358	99.88
320.587	102.88
320.816	92.88
321.046	104.88
321.275	100.88
321.504	98.88
321.733	90.88
321.962	96.88
322.191	107.88
322.42	114.88
322.649	110.88
322.878	91.88
323.108	106.88
323.337	111.88
323.566	136.88
323.795	149.88
324.024	197.88
324.253	380.88
324.482	770.88
324.71	1543.88
324.939	1956.88
325.168	725.88
325.397	222.88
325.626	154.88
325.855	117.88
326.084	139.88
326.313	123.88
326.542	146.88
326.77	228.88
326.999	437.88
327.228	872.88
327.457	1514.88
327.686	1193.88
327.914	336.88
328.143	187.88
328.372	143.88
328.6	126.88
328.829	128.88
329.058	125.88
329.287	124.88
329.515	106.88
329.744	104.88
329.972	96.88
330.201	95.88
330.43	104.88
330.658	118.88
330.887	133.88
331.115	92.88
331.344	89.88
331.572	84.88
331.801	93.88
332.03	118.88
332.258	104.88
332.486	93.88
332.715	100.88
332.943	91.88
333.172	89.88
333.4	90.88
333.629	113.88
333.857	119.88
334.085	115.88
334.314	100.88
334.542	101.88
334.771	110.88
334.999	101.88
335.227	102.88
335.455	92.88
335.684	94.88
335.912	106.88
336.14	94.88
336.369	102.88
336.597	98.88
336.825	90.88
337.053	97.88
337.281	92.88
337.51	96.88
337.738	92.88
337.966	98.88
338.194	94.88
338.422	104.88
338.65	87.88
338.878	97.88
339.106	104.88
339.334	79.88
339.562	97.88
339.79	108.88
340.018	99.88
340.246	100.88
340.474	108.88
340.702	88.88
340.93	84.88
341.158	89.88
341.386	90.88
341.614	90.88
341.842	115.88
342.07	93.88
342.298	91.88
342.526	86.88
342.754	94.88
342.981	91.88
343.209	83.88
343.437	102.88
343.665	77.88
343.893	79.88
344.12	90.88
344.348	86.88
344.576	97.88
344.804	78.88
345.031	99.88
345.259	97.88
345.487	97.88
345.714	105.88
345.942	89.88
346.17	90.88
346.397	96.88
346.625	98.88
346.853	95.88
347.08	112.88
347.308	94.88
347.535	95.88
347.763	99.88
347.99	100.88
348.218	117.88
348.445	94.88
348.673	92.88
348.9	86.88
349.128	80.88
349.355	100.88
349.583	99.88
349.81	84.88
350.037	92.88
350.265	90.88
350.492	105.88
350.72	110.88
350.947	94.88
351.174	105.88
351.402	110.88
351.629	100.88
351.856	99.88
352.083	98.88
352.311	115.88
352.538	107.88
352.765	99.88
352.992	100.88
353.22	117.88
353.447	100.88
353.674	99.88
353.901	94.88
354.128	96.88
354.355	88.88
354.583	91.88
354.81	94.88
355.037	104.88
355.264	92.88
355.491	94.88
355.718	91.88
355.945	88.88
356.172	90.88
356.399	94.88
356.626	102.88
356.853	97.88
357.08	93.88
357.307	101.88
357.534	84.88
357.761	91.88
357.988	100.88
358.215	92.88
358.441	94.88
358.668	94.88
358.895	94.88
359.122	84.88
359.349	89.88
359.576	102.88
359.802	113.88
360.029	113.88
360.256	116.88
360.483	90.88
360.709	89.88
360.936	86.88
361.163	76.88
361.39	83.88
361.616	99.88
361.843	83.88
362.07	102.88
362.296	96.88
362.523	95.88
362.749	88.88
362.976	88.88
363.203	102.88
363.429	100.88
363.656	100.88
363.882	104.88
364.109	98.88
364.335	95.88
364.562	105.88
364.788	94.88
365.015	93.88
365.241	98.88
365.468	124.88
365.694	104.88
365.92	102.88
366.147	82.88
366.373	84.88
366.599	87.88
366.826	84.88
367.052	80.88
367.278	96.88
367.505	102.88
367.731	88.88
367.957	102.88
368.184	96.88
368.41	115.88
368.636	98.88
368.862	123.88
369.089	107.88
369.315	101.88
369.541	99.88
369.767	90.88
369.993	90.88
370.219	102.88
370.445	88.88
370.672	81.88
370.898	89.88
371.124	92.88
371.35	94.88
371.576	100.88
371.802	89.88
372.028	86.88
372.254	92.88
372.48	86.88
372.706	84.88
372.932	90.88
373.158	90.88
373.384	100.88
373.61	97.88
373.835	106.88
374.061	89.88
374.287	82.88
374.513	101.88
374.739	85.88
374.965	91.88
375.191	84.88
375.416	96.88
375.642	80.88
375.868	97.88
376.094	98.88
376.319	94.88
376.545	89.88
376.771	84.88
376.997	81.88
377.222	101.88
377.448	99.88
377.674	99.88
377.899	86.88
378.125	88.88
378.35	97.88
378.576	81.88
378.802	94.88
379.027	104.88
379.253	98.88
379.478	94.88
379.704	82.88
379.929	96.88
380.155	100.88
380.38	87.88
380.606	88.88
380.831	97.88
381.057	84.88
381.282	95.88
381.507	88.88
381.733	108.88
381.958	89.88
382.184	92.88
382.409	90.88
382.634	108.88
382.86	112.88
383.085	97.88
383.31	105.88
383.535	99.88
383.761	111.88
383.986	103.88
384.211	104.88
384.436	106.88
384.662	102.88
384.887	95.88
385.112	114.88
385.337	108.88
385.562	105.88
385.787	102.88
386.013	111.88
386.238	108.88
386.463	107.88
386.688	115.88
386.913	122.88
387.138	113.88
387.363	100.88
387.588	104.88
387.813	107.88
388.038	105.88
388.263	102.88
388.488	126.88
388.713	102.88
388.938	84.88
389.163	104.88
389.387	113.88
389.612	100.88
389.837	104.88
390.062	108.88
390.287	95.88
390.512	103.88
390.736	87.88
390.961	113.88
391.186	93.88
391.411	90.88
391.636	93.88
391.86	96.88
392.085	80.88
392.31	81.88
392.534	82.88
392.759	85.88
392.984	92.88
393.208	94.88
393.433	100.88
393.658	103.88
393.882	90.88
394.107	84.88
394.331	92.88
394.556	100.88
394.78	92.88
395.005	84.88
395.229	86.88
395.454	73.88
395.678	80.88
395.903	75.88
396.127	76.88
396.352	93.88
396.576	81.88
396.801	99.88
397.025	98.88
397.249	100.88
397.474	88.88
397.698	77.88
397.922	76.88
398.147	82.88
398.371	84.88
398.595	83.88
398.82	86.88
399.044	91.88
399.268	92.88
399.492	88.88
399.717	89.88
399.941	80.88
400.165	81.88
400.389	69.88
400.613	73.88
400.837	82.88
401.062	88.88
401.286	90.88
401.51	101.88
401.734	74.88
401.958	108.88
402.182	131.88
402.406	143.88
402.63	120.88
402.854	90.88
403.078	94.88
403.302	89.88
403.526	92.88
403.75	83.88
403.974	96.88
404.198	92.88
404.422	88.88
404.645	91.88
404.869	88.88
405.093	91.88
405.317	88.88
405.541	78.88
405.765	106.88
405.988	112.88
406.212	162.88
406.436	230.88
406.66	167.88
406.883	109.88
407.107	105.88
407.331	113.88
407.555	112.88
407.778	100.88
408.002	103.88
408.226	107.88
408.449	92.88
408.673	89.88
408.896	92.88
409.12	96.88
409.344	88.88
409.567	87.88
409.791	102.88
410.014	93.88
410.238	101.88
410.461	96.88
410.685	102.88
410.908	116.88
411.132	106.88
411.355	93.88
411.578	93.88
411.802	89.88
412.025	90.88
412.249	92.88
412.472	87.88
412.695	81.88
412.919	86.88
413.142	95.88
413.365	94.88
413.589	96.88
413.812	98.88
414.035	88.88
414.258	97.88
414.482	86.88
414.705	89.88
414.928	92.88
415.151	87.88
415.374	90.88
415.597	92.88
415.821	93.88
416.044	86.88
416.267	99.88
416.49	79.88
416.713	91.88
416.936	75.88
417.159	93.88
417.382	85.88
417.605	82.88
417.828	101.88
418.051	94.88
418.274	92.88
418.497	90.88
418.72	81.88
418.943	79.88
419.166	96.88
419.389	87.88
419.611	93.88
419.834	92.88
420.057	87.88
420.28	85.88
420.503	80.88
420.726	96.88
420.948	101.88
421.171	80.88
421.394	103.88
421.617	94.88
421.839	76.88
422.062	82.88
422.285	87.88
422.507	102.88
422.73	103.88
422.953	85.88
423.175	97.88
423.398	87.88
423.621	100.88
423.843	77.88
424.066	89.88
424.288	77.88
424.511	101.88
424.733	105.88
424.956	109.88
425.178	103.88
425.401	93.88
425.623	97.88
425.846	88.88
426.068	86.88
426.291	90.88
426.513	91.88
426.735	104.88
426.958	95.88
427.18	101.88
427.402	137.88
427.625	156.88
427.847	133.88
428.069	105.88
428.292	94.88
428.514	80.88
428.736	73.88
428.958	95.88
429.181	85.88
429.403	89.88
429.625	86.88
429.847	94.88
430.069	108.88
430.292	86.88
430.514	95.88
430.736	73.88
430.958	80.88
431.18	84.88
431.402	97.88
431.624	84.88
431.846	86.88
432.068	81.88
432.29	77.88
432.512	90.88
432.734	88.88
432.956	101.88
433.178	107.88
433.4	90.88
433.622	95.88
433.844	97.88
434.066	82.88
434.287	80.88
434.509	97.88
434.731	101.88
434.953	87.88
435.175	94.88
435.397	92.88
435.618	77.88
435.84	101.88
436.062	113.88
436.284	107.88
436.505	104.88
436.727	97.88
436.949	91.88
437.17	83.88
437.392	80.88
437.614	92.88
437.835	103.88
438.057	113.88
438.278	108.88
438.5	103.88
438.721	102.88
438.943	109.88
439.165	88.88
439.386	96.88
439.608	102.88
439.829	97.88
440.05	105.88
440.272	153.88
440.493	95.88
440.715	82.88
440.936	105.88
441.158	78.88
441.379	94.88
441.6	95.88
441.822	102.88
442.043	100.88
442.264	105.88
442.486	96.88
442.707	99.88
442.928	111.88
443.149	135.88
443.371	134.88
443.592	104.88
443.813	93.88
444.034	93.88
444.255	94.88
444.476	75.88
444.698	72.88
444.919	98.88
445.14	121.88
445.361	129.88
445.582	123.88
445.803	125.88
446.024	131.88
446.245	148.88
446.466	114.88
446.687	107.88
446.908	92.88
447.129	105.88
447.35	92.88
447.571	100.88
447.792	100.88
448.013	82.88
448.234	96.88
448.455	93.88
448.675	114.88
448.896	110.88
449.117	87.88
449.338	88.88
449.559	98.88
449.779	121.88
450	83.88
450.221	77.88
450.442	88.88
450.662	92.88
450.883	98.88
451.104	117.88
451.324	97.88
451.545	99.88
451.766	90.88
451.986	75.88
452.207	90.88
452.428	85.88
452.648	92.88
452.869	112.88
453.089	99.88
453.31	99.88
453.53	112.88
453.751	101.88
453.971	104.88
454.192	110.88
454.412	88.88
454.633	87.88
454.853	100.88
455.073	90.88
455.294	88.88
455.514	104.88
455.734	84.88
455.955	70.88
456.175	81.88
456.395	86.88
456.616	83.88
456.836	87.88
457.056	86.88
457.276	102.88
457.497	88.88
457.717	102.88
457.937	94.88
458.157	85.88
458.377	84.88
458.598	110.88
458.818	138.88
459.038	134.88
459.258	119.88
459.478	87.88
459.698	86.88
459.918	68.88
460.138	80.88
460.358	88.88
460.578	92.88
460.798	97.88
461.018	91.88
461.238	100.88
461.458	92.88
461.678	77.88
461.898	77.88
462.118	86.88
462.338	83.88
462.558	91.88
462.777	80.88
462.997	98.88
463.217	100.88
463.437	91.88
463.657	93.88
463.876	96.88
464.096	77.88
464.316	93.88
464.536	94.88
464.755	84.88
464.975	121.88
465.195	165.88
465.414	155.88
465.634	98.88
465.854	89.88
466.073	100.88
466.293	92.88
466.512	84.88
466.732	94.88
466.951	104.88
467.171	94.88
467.391	100.88
467.61	90.88
467.829	86.88
468.049	81.88
468.268	82.88
468.488	83.88
468.707	78.88
468.927	76.88
469.146	84.88
469.365	83.88
469.585	95.88
469.804	85.88
470.023	106.88
470.243	84.88
470.462	97.88
470.681	99.88
470.901	94.88
471.12	88.88
471.339	81.88
471.558	89.88
471.777	96.88
471.997	92.88
472.216	105.88
472.435	94.88
472.654	96.88
472.873	88.88
473.092	89.88
473.311	100.88
473.53	72.88
473.749	83.88
473.968	93.88
474.187	113.88
474.406	83.88
474.625	94.88
474.844	88.88
475.063	72.88
475.282	78.88
475.501	100.88
475.72	100.88
475.939	93.88
476.158	90.88
476.377	101.88
476.596	96.88
476.814	82.88
477.033	89.88
477.252	92.88
477.471	95.88
477.69	100.88
477.908	95.88
478.127	80.88
478.346	80.88
478.564	85.88
478.783	91.88
479.002	89.88
479.22	88.88
479.439	102.88
479.658	109.88
479.876	86.88
480.095	86.88
480.313	97.88
480.532	84.88
480.751	100.88
480.969	80.88
481.188	92.88
481.406	96.88
481.624	97.88
481.843	102.88
482.061	88.88
482.28	76.88
482.498	76.88
482.717	78.88
482.935	91.88
483.153	72.88
483.372	99.88
483.59	91.88
483.808	92.88
484.027	86.88
484.245	84.88
484.463	95.88
484.681	81.88
484.9	74.88
485.118	94.88
485.336	89.88
485.554	98.88
485.772	95.88
485.99	95.88
486.209	105.88
486.427	98.88
486.645	85.88
486.863	102.88
487.081	107.88
487.299	99.88
487.517	88.88
487.735	90.88
487.953	92.88
488.171	104.88
488.389	76.88
488.607	99.88
488.825	102.88
489.043	117.88
489.261	92.88
489.479	73.88
489.696	92.88
489.914	83.88
490.132	73.88
490.35	100.88
490.568	100.88
490.786	100.88
491.003	92.88
491.221	87.88
491.439	88.88
491.657	80.88
491.874	89.88
492.092	81.88
492.31	84.88
492.527	77.88
492.745	89.88
492.963	104.88
493.18	96.88
493.398	83.88
493.615	98.88
493.833	95.88
494.05	89.88
494.268	83.88
494.485	82.88
494.703	85.88
494.92	91.88
495.138	75.88
495.355	92.88
495.573	103.88
495.79	87.88
496.008	85.88
496.225	90.88
496.442	84.88
496.66	96.88
496.877	85.88
497.094	106.88
497.312	96.88
497.529	87.88
497.746	97.88
497.963	80.88
498.181	85.88
498.398	101.88
498.615	112.88
498.832	96.88
499.049	86.88
499.267	97.88
499.484	82.88
499.701	99.88
499.918	84.88
500.135	81.88
500.352	88.88
500.569	86.88
500.786	97.88
501.003	102.88
501.22	86.88
501.437	87.88
501.654	85.88
501.871	109.88
502.088	82.88
502.305	88.88
502.522	85.88
502.739	82.88
502.956	93.88
503.172	86.88
503.389	95.88
503.606	94.88
503.823	101.88
504.04	89.88
504.256	91.88
504.473	87.88
504.69	82.88
504.907	94.88
505.123	102.88
505.34	69.88
505.557	85.88
505.773	73.88
505.99	86.88
506.207	98.88
506.423	100.88
506.64	89.88
506.856	84.88
507.073	76.88
507.289	101.88
507.506	91.88
507.722	103.88
507.939	115.88
508.155	90.88
508.372	95.88
508.588	89.88
508.805	88.88
509.021	105.88
509.238	94.88
509.454	106.88
509.67	89.88
509.887	104.88
510.103	123.88
510.319	226.88
510.536	769.88
510.752	2356.88
510.968	662.88
511.184	164.88
511.401	106.88
511.617	117.88
511.833	102.88
512.049	114.88
512.265	95.88
512.481	104.88
512.698	89.88
512.914	98.88
513.13	86.88
513.346	93.88
513.562	111.88
513.778	88.88
513.994	101.88
514.21	101.88
514.426	120.88
514.642	124.88
514.858	127.88
515.074	182.88
