Data from Uncirc_2001_H10_HRD10591_00049.txt Node
Date: Wed Jan 03 10:44:06 EST 2024
User: Yrep
Spectrometer: HR+D1059
Trigger mode: 1
Integration Time (sec): 1.000000E-1
Scans to average: 1
Electric dark correction enabled: true
Nonlinearity correction enabled: false
Boxcar width: 0
XAxis mode: Wavelengths
Number of Pixels in Spectrum: 2048
>>>>>Begin Spectral Data<<<<<
223.165	-26.88
223.4	-26.88
223.635	-26.88
223.869	-18.88
224.104	-26.88
224.338	-23.88
224.573	-14.88
224.808	-19.88
225.042	-12.88
225.277	0.12
225.511	-11.88
225.746	-4.88
225.98	19.12
226.215	3.12
226.449	34.12
226.683	36.12
226.918	28.12
227.152	40.12
227.387	38.12
227.621	28.12
227.856	56.12
228.09	41.12
228.324	52.12
228.559	55.12
228.793	61.12
229.027	66.12
229.262	76.12
229.496	75.12
229.73	89.12
229.964	70.12
230.199	70.12
230.433	64.12
230.667	74.12
230.901	70.12
231.136	76.12
231.37	70.12
231.604	83.12
231.838	71.12
232.072	86.12
232.306	77.12
232.541	74.12
232.775	82.12
233.009	81.12
233.243	88.12
233.477	74.12
233.711	73.12
233.945	82.12
234.179	75.12
234.413	82.12
234.647	78.12
234.881	66.12
235.115	77.12
235.349	83.12
235.583	76.12
235.817	90.12
236.051	80.12
236.285	88.12
236.519	79.12
236.753	74.12
236.987	75.12
237.221	88.12
237.455	80.12
237.689	76.12
237.922	75.12
238.156	71.12
238.39	83.12
238.624	83.12
238.858	82.12
239.091	85.12
239.325	83.12
239.559	89.12
239.793	86.12
240.027	84.12
240.26	80.12
240.494	75.12
240.728	73.12
240.961	81.12
241.195	85.12
241.429	77.12
241.662	68.12
241.896	64.12
242.13	69.12
242.363	71.12
242.597	60.12
242.83	70.12
243.064	93.12
243.298	73.12
243.531	67.12
243.765	81.12
243.998	79.12
244.232	81.12
244.465	83.12
244.699	66.12
244.932	71.12
245.166	82.12
245.399	78.12
245.633	75.12
245.866	86.12
246.099	80.12
246.333	82.12
246.566	88.12
246.8	68.12
247.033	84.12
247.266	67.12
247.5	73.12
247.733	66.12
247.966	89.12
248.2	94.12
248.433	94.12
248.666	84.12
248.899	78.12
249.133	87.12
249.366	100.12
249.599	101.12
249.832	94.12
250.066	81.12
250.299	83.12
250.532	83.12
250.765	79.12
250.998	82.12
251.231	87.12
251.465	70.12
251.698	84.12
251.931	66.12
252.164	60.12
252.397	77.12
252.63	83.12
252.863	79.12
253.096	79.12
253.329	82.12
253.562	76.12
253.795	78.12
254.028	82.12
254.261	91.12
254.494	83.12
254.727	87.12
254.96	76.12
255.193	92.12
255.426	91.12
255.659	80.12
255.892	84.12
256.124	86.12
256.357	69.12
256.59	88.12
256.823	89.12
257.056	69.12
257.289	90.12
257.521	81.12
257.754	82.12
257.987	73.12
258.22	75.12
258.452	87.12
258.685	89.12
258.918	90.12
259.151	92.12
259.383	82.12
259.616	98.12
259.849	87.12
260.081	93.12
260.314	75.12
260.547	72.12
260.779	70.12
261.012	79.12
261.244	102.12
261.477	90.12
261.71	85.12
261.942	110.12
262.175	119.12
262.407	84.12
262.64	75.12
262.872	83.12
263.105	92.12
263.337	89.12
263.57	69.12
263.802	80.12
264.035	78.12
264.267	79.12
264.499	80.12
264.732	82.12
264.964	84.12
265.197	97.12
265.429	76.12
265.661	75.12
265.894	87.12
266.126	67.12
266.358	74.12
266.591	73.12
266.823	90.12
267.055	91.12
267.287	75.12
267.52	80.12
267.752	94.12
267.984	87.12
268.216	81.12
268.448	89.12
268.681	86.12
268.913	98.12
269.145	95.12
269.377	85.12
269.609	91.12
269.841	89.12
270.073	91.12
270.306	93.12
270.538	103.12
270.77	88.12
271.002	86.12
271.234	85.12
271.466	81.12
271.698	82.12
271.93	87.12
272.162	102.12
272.394	79.12
272.626	76.12
272.858	94.12
273.09	87.12
273.322	90.12
273.553	85.12
273.785	85.12
274.017	80.12
274.249	82.12
274.481	82.12
274.713	79.12
274.945	89.12
275.176	90.12
275.408	87.12
275.64	83.12
275.872	92.12
276.104	85.12
276.335	86.12
276.567	101.12
276.799	103.12
277.031	96.12
277.262	95.12
277.494	84.12
277.726	82.12
277.957	86.12
278.189	84.12
278.421	92.12
278.652	87.12
278.884	91.12
279.115	90.12
279.347	69.12
279.579	90.12
279.81	84.12
280.042	82.12
280.273	79.12
280.505	71.12
280.736	80.12
280.968	79.12
281.199	90.12
281.431	83.12
281.662	83.12
281.894	85.12
282.125	105.12
282.356	111.12
282.588	128.12
282.819	118.12
283.051	90.12
283.282	81.12
283.513	79.12
283.745	91.12
283.976	80.12
284.207	112.12
284.439	82.12
284.67	92.12
284.901	73.12
285.132	87.12
285.364	81.12
285.595	76.12
285.826	94.12
286.057	87.12
286.288	96.12
286.52	79.12
286.751	82.12
286.982	90.12
287.213	95.12
287.444	82.12
287.675	100.12
287.906	85.12
288.138	78.12
288.369	103.12
288.6	85.12
288.831	91.12
289.062	80.12
289.293	92.12
289.524	77.12
289.755	98.12
289.986	84.12
290.217	93.12
290.448	77.12
290.679	83.12
290.91	84.12
291.141	89.12
291.371	84.12
291.602	86.12
291.833	76.12
292.064	94.12
292.295	96.12
292.526	91.12
292.757	95.12
292.987	88.12
293.218	87.12
293.449	93.12
293.68	96.12
293.91	94.12
294.141	87.12
294.372	78.12
294.603	81.12
294.833	80.12
295.064	89.12
295.295	91.12
295.525	90.12
295.756	102.12
295.987	113.12
296.217	145.12
296.448	117.12
296.679	102.12
296.909	86.12
297.14	91.12
297.37	91.12
297.601	92.12
297.831	90.12
298.062	104.12
298.292	100.12
298.523	91.12
298.753	82.12
298.984	99.12
299.214	80.12
299.445	96.12
299.675	106.12
299.905	104.12
300.136	89.12
300.366	79.12
300.597	86.12
300.827	86.12
301.057	89.12
301.288	105.12
301.518	88.12
301.748	88.12
301.979	103.12
302.209	92.12
302.439	87.12
302.669	83.12
302.9	79.12
303.13	85.12
303.36	91.12
303.59	100.12
303.82	110.12
304.051	88.12
304.281	82.12
304.511	97.12
304.741	108.12
304.971	96.12
305.201	90.12
305.431	89.12
305.661	98.12
305.891	92.12
306.121	90.12
306.352	96.12
306.582	87.12
306.812	89.12
307.042	109.12
307.272	84.12
307.502	90.12
307.731	89.12
307.961	85.12
308.191	89.12
308.421	87.12
308.651	90.12
308.881	96.12
309.111	95.12
309.341	98.12
309.571	104.12
309.8	90.12
310.03	92.12
310.26	98.12
310.49	83.12
310.72	98.12
310.949	96.12
311.179	111.12
311.409	100.12
311.639	100.12
311.868	110.12
312.098	105.12
312.328	100.12
312.557	110.12
312.787	99.12
313.017	87.12
313.246	91.12
313.476	95.12
313.706	97.12
313.935	96.12
314.165	78.12
314.394	97.12
314.624	86.12
314.853	94.12
315.083	94.12
315.312	90.12
315.542	83.12
315.771	83.12
316.001	95.12
316.23	99.12
316.46	90.12
316.689	88.12
316.919	92.12
317.148	88.12
317.377	98.12
317.607	99.12
317.836	90.12
318.065	95.12
318.295	97.12
318.524	86.12
318.753	83.12
318.983	97.12
319.212	110.12
319.441	95.12
319.67	109.12
319.9	104.12
320.129	78.12
320.358	93.12
320.587	102.12
320.816	102.12
321.046	102.12
321.275	98.12
321.504	98.12
321.733	82.12
321.962	83.12
322.191	94.12
322.42	108.12
322.649	97.12
322.878	112.12
323.108	98.12
323.337	127.12
323.566	131.12
323.795	140.12
324.024	166.12
324.253	363.12
324.482	724.12
324.71	1434.12
324.939	1870.12
325.168	694.12
325.397	219.12
325.626	138.12
325.855	123.12
326.084	121.12
326.313	135.12
326.542	150.12
326.77	211.12
326.999	425.12
327.228	811.12
327.457	1434.12
327.686	1123.12
327.914	318.12
328.143	174.12
328.372	134.12
328.6	121.12
328.829	116.12
329.058	117.12
329.287	124.12
329.515	105.12
329.744	106.12
329.972	82.12
330.201	95.12
330.43	92.12
330.658	122.12
330.887	129.12
331.115	129.12
331.344	99.12
331.572	105.12
331.801	88.12
332.03	88.12
332.258	110.12
332.486	92.12
332.715	75.12
332.943	89.12
333.172	83.12
333.4	92.12
333.629	105.12
333.857	114.12
334.085	99.12
334.314	98.12
334.542	104.12
334.771	93.12
334.999	101.12
335.227	104.12
335.455	85.12
335.684	97.12
335.912	92.12
336.14	101.12
336.369	103.12
336.597	83.12
336.825	92.12
337.053	96.12
337.281	91.12
337.51	82.12
337.738	89.12
337.966	88.12
338.194	102.12
338.422	97.12
338.65	97.12
338.878	97.12
339.106	104.12
339.334	91.12
339.562	98.12
339.79	87.12
340.018	92.12
340.246	86.12
340.474	105.12
340.702	91.12
340.93	84.12
341.158	93.12
341.386	92.12
341.614	95.12
341.842	103.12
342.07	88.12
342.298	88.12
342.526	79.12
342.754	89.12
342.981	86.12
343.209	99.12
343.437	93.12
343.665	89.12
343.893	83.12
344.12	86.12
344.348	95.12
344.576	85.12
344.804	87.12
345.031	91.12
345.259	96.12
345.487	105.12
345.714	98.12
345.942	80.12
346.17	96.12
346.397	92.12
346.625	89.12
346.853	98.12
347.08	92.12
347.308	79.12
347.535	102.12
347.763	86.12
347.99	88.12
348.218	96.12
348.445	107.12
348.673	92.12
348.9	99.12
349.128	84.12
349.355	70.12
349.583	75.12
349.81	96.12
350.037	93.12
350.265	98.12
350.492	104.12
350.72	94.12
350.947	100.12
351.174	106.12
351.402	121.12
351.629	101.12
351.856	102.12
352.083	103.12
352.311	97.12
352.538	103.12
352.765	93.12
352.992	119.12
353.22	99.12
353.447	89.12
353.674	88.12
353.901	87.12
354.128	88.12
354.355	88.12
354.583	99.12
354.81	85.12
355.037	89.12
355.264	98.12
355.491	102.12
355.718	86.12
355.945	87.12
356.172	85.12
356.399	102.12
356.626	97.12
356.853	103.12
357.08	92.12
357.307	89.12
357.534	95.12
357.761	89.12
357.988	104.12
358.215	91.12
358.441	97.12
358.668	95.12
358.895	89.12
359.122	88.12
359.349	88.12
359.576	98.12
359.802	99.12
360.029	117.12
360.256	102.12
360.483	100.12
360.709	88.12
360.936	91.12
361.163	110.12
361.39	91.12
361.616	85.12
361.843	106.12
362.07	92.12
362.296	102.12
362.523	98.12
362.749	94.12
362.976	87.12
363.203	88.12
363.429	87.12
363.656	72.12
363.882	85.12
364.109	100.12
364.335	90.12
364.562	82.12
364.788	92.12
365.015	84.12
365.241	88.12
365.468	108.12
365.694	106.12
365.92	106.12
366.147	92.12
366.373	85.12
366.599	103.12
366.826	96.12
367.052	77.12
367.278	86.12
367.505	84.12
367.731	97.12
367.957	92.12
368.184	83.12
368.41	107.12
368.636	104.12
368.862	122.12
369.089	109.12
369.315	98.12
369.541	91.12
369.767	92.12
369.993	92.12
370.219	101.12
370.445	77.12
370.672	93.12
370.898	75.12
371.124	94.12
371.35	82.12
371.576	81.12
371.802	80.12
372.028	104.12
372.254	98.12
372.48	83.12
372.706	69.12
372.932	83.12
373.158	84.12
373.384	92.12
373.61	92.12
373.835	85.12
374.061	82.12
374.287	100.12
374.513	97.12
374.739	91.12
374.965	86.12
375.191	87.12
375.416	83.12
375.642	75.12
375.868	79.12
376.094	75.12
376.319	90.12
376.545	86.12
376.771	83.12
376.997	87.12
377.222	96.12
377.448	87.12
377.674	96.12
377.899	98.12
378.125	76.12
378.35	76.12
378.576	87.12
378.802	93.12
379.027	82.12
379.253	84.12
379.478	86.12
379.704	97.12
379.929	84.12
380.155	95.12
380.38	91.12
380.606	94.12
380.831	100.12
381.057	108.12
381.282	99.12
381.507	92.12
381.733	90.12
381.958	93.12
382.184	93.12
382.409	90.12
382.634	87.12
382.86	94.12
383.085	96.12
383.31	104.12
383.535	101.12
383.761	94.12
383.986	89.12
384.211	97.12
384.436	91.12
384.662	95.12
384.887	103.12
385.112	97.12
385.337	92.12
385.562	84.12
385.787	98.12
386.013	106.12
386.238	96.12
386.463	96.12
386.688	100.12
386.913	107.12
387.138	110.12
387.363	115.12
387.588	108.12
387.813	91.12
388.038	109.12
388.263	110.12
388.488	101.12
388.713	84.12
388.938	104.12
389.163	83.12
389.387	73.12
389.612	83.12
389.837	83.12
390.062	95.12
390.287	93.12
390.512	86.12
390.736	79.12
390.961	87.12
391.186	92.12
391.411	87.12
391.636	101.12
391.86	83.12
392.085	96.12
392.31	95.12
392.534	91.12
392.759	80.12
392.984	77.12
393.208	88.12
393.433	95.12
393.658	98.12
393.882	91.12
394.107	67.12
394.331	87.12
394.556	78.12
394.78	85.12
395.005	90.12
395.229	92.12
395.454	91.12
395.678	91.12
395.903	97.12
396.127	66.12
396.352	91.12
396.576	79.12
396.801	88.12
397.025	87.12
397.249	91.12
397.474	104.12
397.698	91.12
397.922	96.12
398.147	86.12
398.371	89.12
398.595	88.12
398.82	74.12
399.044	75.12
399.268	82.12
399.492	75.12
399.717	104.12
399.941	73.12
400.165	88.12
400.389	84.12
400.613	72.12
400.837	92.12
401.062	88.12
401.286	72.12
401.51	82.12
401.734	99.12
401.958	99.12
402.182	116.12
402.406	149.12
402.63	120.12
402.854	78.12
403.078	85.12
403.302	78.12
403.526	87.12
403.75	88.12
403.974	83.12
404.198	90.12
404.422	75.12
404.645	85.12
404.869	91.12
405.093	99.12
405.317	93.12
405.541	70.12
405.765	94.12
405.988	112.12
406.212	164.12
406.436	210.12
406.66	155.12
406.883	97.12
407.107	87.12
407.331	92.12
407.555	97.12
407.778	86.12
408.002	70.12
408.226	88.12
408.449	84.12
408.673	88.12
408.896	93.12
409.12	92.12
409.344	104.12
409.567	94.12
409.791	109.12
410.014	82.12
410.238	80.12
410.461	89.12
410.685	97.12
410.908	97.12
411.132	103.12
411.355	97.12
411.578	93.12
411.802	84.12
412.025	95.12
412.249	78.12
412.472	86.12
412.695	84.12
412.919	75.12
413.142	87.12
413.365	87.12
413.589	89.12
413.812	83.12
414.035	84.12
414.258	83.12
414.482	82.12
414.705	79.12
414.928	93.12
415.151	83.12
415.374	87.12
415.597	91.12
415.821	86.12
416.044	79.12
416.267	89.12
416.49	90.12
416.713	77.12
416.936	87.12
417.159	81.12
417.382	74.12
417.605	78.12
417.828	85.12
418.051	90.12
418.274	82.12
418.497	88.12
418.72	90.12
418.943	86.12
419.166	87.12
419.389	75.12
419.611	95.12
419.834	85.12
420.057	76.12
420.28	72.12
420.503	83.12
420.726	87.12
420.948	88.12
421.171	98.12
421.394	93.12
421.617	102.12
421.839	99.12
422.062	87.12
422.285	96.12
422.507	86.12
422.73	110.12
422.953	86.12
423.175	91.12
423.398	91.12
423.621	74.12
423.843	91.12
424.066	89.12
424.288	92.12
424.511	88.12
424.733	90.12
424.956	100.12
425.178	90.12
425.401	98.12
425.623	84.12
425.846	91.12
426.068	75.12
426.291	91.12
426.513	78.12
426.735	99.12
426.958	106.12
427.18	111.12
427.402	124.12
427.625	162.12
427.847	119.12
428.069	96.12
428.292	91.12
428.514	100.12
428.736	92.12
428.958	88.12
429.181	84.12
429.403	84.12
429.625	87.12
429.847	85.12
430.069	78.12
430.292	103.12
430.514	87.12
430.736	75.12
430.958	87.12
431.18	104.12
431.402	76.12
431.624	90.12
431.846	85.12
432.068	96.12
432.29	78.12
432.512	90.12
432.734	74.12
432.956	91.12
433.178	106.12
433.4	88.12
433.622	77.12
433.844	92.12
434.066	92.12
434.287	85.12
434.509	80.12
434.731	75.12
434.953	89.12
435.175	87.12
435.397	79.12
435.618	96.12
435.84	92.12
436.062	113.12
436.284	112.12
436.505	105.12
436.727	99.12
436.949	92.12
437.17	76.12
437.392	88.12
437.614	92.12
437.835	110.12
438.057	120.12
438.278	107.12
438.5	98.12
438.721	119.12
438.943	103.12
439.165	80.12
439.386	86.12
439.608	85.12
439.829	97.12
440.05	106.12
440.272	157.12
440.493	82.12
440.715	82.12
440.936	87.12
441.158	84.12
441.379	85.12
441.6	98.12
441.822	89.12
442.043	89.12
442.264	101.12
442.486	98.12
442.707	86.12
442.928	101.12
443.149	129.12
443.371	128.12
443.592	112.12
443.813	106.12
444.034	104.12
444.255	86.12
444.476	77.12
444.698	78.12
444.919	76.12
445.14	113.12
445.361	106.12
445.582	112.12
445.803	118.12
446.024	131.12
446.245	119.12
446.466	118.12
446.687	95.12
446.908	93.12
447.129	80.12
447.35	83.12
447.571	84.12
447.792	85.12
448.013	87.12
448.234	100.12
448.455	94.12
448.675	121.12
448.896	121.12
449.117	88.12
449.338	102.12
449.559	123.12
449.779	118.12
450	89.12
450.221	81.12
450.442	75.12
450.662	103.12
450.883	123.12
451.104	103.12
451.324	83.12
451.545	73.12
451.766	74.12
451.986	75.12
452.207	78.12
452.428	80.12
452.648	63.12
452.869	93.12
453.089	99.12
453.31	92.12
453.53	87.12
453.751	85.12
453.971	91.12
454.192	104.12
454.412	97.12
454.633	80.12
454.853	78.12
455.073	85.12
455.294	92.12
455.514	90.12
455.734	97.12
455.955	91.12
456.175	86.12
456.395	81.12
456.616	99.12
456.836	80.12
457.056	94.12
457.276	96.12
457.497	74.12
457.717	87.12
457.937	91.12
458.157	90.12
458.377	84.12
458.598	109.12
458.818	137.12
459.038	151.12
459.258	105.12
459.478	77.12
459.698	80.12
459.918	89.12
460.138	87.12
460.358	90.12
460.578	91.12
460.798	91.12
461.018	90.12
461.238	94.12
461.458	97.12
461.678	81.12
461.898	74.12
462.118	66.12
462.338	89.12
462.558	81.12
462.777	83.12
462.997	77.12
463.217	81.12
463.437	79.12
463.657	88.12
463.876	81.12
464.096	88.12
464.316	101.12
464.536	91.12
464.755	86.12
464.975	106.12
465.195	175.12
465.414	134.12
465.634	100.12
465.854	89.12
466.073	84.12
466.293	85.12
466.512	68.12
466.732	70.12
466.951	79.12
467.171	95.12
467.391	90.12
467.61	103.12
467.829	87.12
468.049	83.12
468.268	83.12
468.488	87.12
468.707	87.12
468.927	75.12
469.146	78.12
469.365	99.12
469.585	77.12
469.804	110.12
470.023	95.12
470.243	79.12
470.462	98.12
470.681	111.12
470.901	95.12
471.12	90.12
471.339	91.12
471.558	88.12
471.777	96.12
471.997	79.12
472.216	96.12
472.435	87.12
472.654	97.12
472.873	87.12
473.092	85.12
473.311	96.12
473.53	85.12
473.749	88.12
473.968	95.12
474.187	100.12
474.406	106.12
474.625	91.12
474.844	88.12
475.063	83.12
475.282	85.12
475.501	99.12
475.72	93.12
475.939	92.12
476.158	79.12
476.377	97.12
476.596	88.12
476.814	87.12
477.033	90.12
477.252	76.12
477.471	79.12
477.69	93.12
477.908	82.12
478.127	87.12
478.346	87.12
478.564	95.12
478.783	97.12
479.002	112.12
479.22	99.12
479.439	104.12
479.658	105.12
479.876	100.12
480.095	70.12
480.313	83.12
480.532	87.12
480.751	101.12
480.969	93.12
481.188	111.12
481.406	105.12
481.624	97.12
481.843	86.12
482.061	82.12
482.28	82.12
482.498	96.12
482.717	85.12
482.935	80.12
483.153	92.12
483.372	89.12
483.59	81.12
483.808	90.12
484.027	90.12
484.245	95.12
484.463	86.12
484.681	97.12
484.9	99.12
485.118	88.12
485.336	88.12
485.554	100.12
485.772	95.12
485.99	103.12
486.209	92.12
486.427	99.12
486.645	98.12
486.863	111.12
487.081	86.12
487.299	84.12
487.517	77.12
487.735	97.12
487.953	89.12
488.171	101.12
488.389	101.12
488.607	97.12
488.825	90.12
489.043	87.12
489.261	78.12
489.479	87.12
489.696	83.12
489.914	78.12
490.132	84.12
490.35	90.12
490.568	70.12
490.786	98.12
491.003	93.12
491.221	72.12
491.439	85.12
491.657	97.12
491.874	68.12
492.092	89.12
492.31	89.12
492.527	98.12
492.745	86.12
492.963	83.12
493.18	85.12
493.398	87.12
493.615	81.12
493.833	87.12
494.05	75.12
494.268	90.12
494.485	99.12
494.703	91.12
494.92	97.12
495.138	91.12
495.355	86.12
495.573	68.12
495.79	73.12
496.008	91.12
496.225	82.12
496.442	90.12
496.66	84.12
496.877	88.12
497.094	101.12
497.312	81.12
497.529	96.12
497.746	89.12
497.963	82.12
498.181	83.12
498.398	72.12
498.615	95.12
498.832	116.12
499.049	90.12
499.267	83.12
499.484	87.12
499.701	85.12
499.918	86.12
500.135	87.12
500.352	83.12
500.569	84.12
500.786	89.12
501.003	96.12
501.22	91.12
501.437	86.12
501.654	89.12
501.871	98.12
502.088	95.12
502.305	92.12
502.522	83.12
502.739	108.12
502.956	88.12
503.172	92.12
503.389	84.12
503.606	100.12
503.823	112.12
504.04	90.12
504.256	83.12
504.473	87.12
504.69	85.12
504.907	92.12
505.123	93.12
505.34	92.12
505.557	80.12
505.773	85.12
505.99	82.12
506.207	78.12
506.423	84.12
506.64	92.12
506.856	104.12
507.073	94.12
507.289	92.12
507.506	84.12
507.722	94.12
507.939	101.12
508.155	91.12
508.372	89.12
508.588	97.12
508.805	96.12
509.021	112.12
509.238	99.12
509.454	97.12
509.67	114.12
509.887	122.12
510.103	124.12
510.319	217.12
510.536	716.12
510.752	2264.12
510.968	645.12
511.184	142.12
511.401	102.12
511.617	91.12
511.833	87.12
512.049	86.12
512.265	94.12
512.481	81.12
512.698	105.12
512.914	88.12
513.13	83.12
513.346	82.12
513.562	98.12
513.778	89.12
513.994	106.12
514.21	107.12
514.426	111.12
514.642	129.12
514.858	134.12
515.074	168.12
515.29	449.12
515.506	1402.12
515.721	530.12
515.937	151.12
516.153	118.12
516.369	105.12
