Data from Uncirc_2001_H10_HRD10591_00050.txt Node
Date: Wed Jan 03 10:44:06 EST 2024
User: Yrep
Spectrometer: HR+D1059
Trigger mode: 1
Integration Time (sec): 1.000000E-1
Scans to average: 1
Electric dark correction enabled: true
Nonlinearity correction enabled: false
Boxcar width: 0
XAxis mode: Wavelengths
Number of Pixels in Spectrum: 2048
>>>>>Begin Spectral Data<<<<<
223.165	-9.94
223.4	-9.94
223.635	-9.94
223.869	-18.94
224.104	-16.94
224.338	-9.94
224.573	-4.94
224.808	-8.94
225.042	3.06
225.277	-12.94
225.511	-0.94
225.746	-6.94
225.98	6.06
226.215	4.06
226.449	10.06
226.683	16.06
226.918	18.06
227.152	33.06
227.387	47.06
227.621	32.06
227.856	50.06
228.09	43.06
228.324	41.06
228.559	58.06
228.793	54.06
229.027	54.06
229.262	71.06
229.496	70.06
229.73	91.06
229.964	95.06
230.199	64.06
230.433	88.06
230.667	85.06
230.901	73.06
231.136	79.06
231.37	79.06
231.604	85.06
231.838	75.06
232.072	82.06
232.306	74.06
232.541	78.06
232.775	81.06
233.009	76.06
233.243	87.06
233.477	76.06
233.711	76.06
233.945	76.06
234.179	66.06
234.413	74.06
234.647	73.06
234.881	86.06
235.115	78.06
235.349	79.06
235.583	67.06
235.817	83.06
236.051	87.06
236.285	78.06
236.519	72.06
236.753	74.06
236.987	91.06
237.221	71.06
237.455	91.06
237.689	67.06
237.922	92.06
238.156	74.06
238.39	76.06
238.624	81.06
238.858	82.06
239.091	76.06
239.325	78.06
239.559	82.06
239.793	71.06
240.027	81.06
240.26	70.06
240.494	71.06
240.728	72.06
240.961	86.06
241.195	82.06
241.429	88.06
241.662	75.06
241.896	76.06
242.13	70.06
242.363	79.06
242.597	78.06
242.83	86.06
243.064	82.06
243.298	64.06
243.531	83.06
243.765	75.06
243.998	73.06
244.232	93.06
244.465	88.06
244.699	84.06
244.932	82.06
245.166	70.06
245.399	76.06
245.633	88.06
245.866	74.06
246.099	85.06
246.333	76.06
246.566	85.06
246.8	63.06
247.033	80.06
247.266	74.06
247.5	66.06
247.733	78.06
247.966	91.06
248.2	74.06
248.433	83.06
248.666	91.06
248.899	93.06
249.133	83.06
249.366	89.06
249.599	88.06
249.832	80.06
250.066	88.06
250.299	91.06
250.532	83.06
250.765	74.06
250.998	76.06
251.231	75.06
251.465	69.06
251.698	73.06
251.931	78.06
252.164	82.06
252.397	79.06
252.63	74.06
252.863	71.06
253.096	90.06
253.329	88.06
253.562	87.06
253.795	92.06
254.028	76.06
254.261	79.06
254.494	83.06
254.727	75.06
254.96	90.06
255.193	74.06
255.426	69.06
255.659	65.06
255.892	73.06
256.124	75.06
256.357	70.06
256.59	67.06
256.823	80.06
257.056	91.06
257.289	85.06
257.521	78.06
257.754	81.06
257.987	81.06
258.22	66.06
258.452	95.06
258.685	69.06
258.918	80.06
259.151	86.06
259.383	90.06
259.616	78.06
259.849	94.06
260.081	86.06
260.314	104.06
260.547	80.06
260.779	77.06
261.012	70.06
261.244	89.06
261.477	80.06
261.71	92.06
261.942	102.06
262.175	115.06
262.407	91.06
262.64	74.06
262.872	81.06
263.105	72.06
263.337	86.06
263.57	82.06
263.802	86.06
264.035	78.06
264.267	88.06
264.499	67.06
264.732	93.06
264.964	70.06
265.197	84.06
265.429	88.06
265.661	86.06
265.894	82.06
266.126	83.06
266.358	82.06
266.591	88.06
266.823	77.06
267.055	89.06
267.287	71.06
267.52	79.06
267.752	97.06
267.984	91.06
268.216	95.06
268.448	89.06
268.681	99.06
268.913	79.06
269.145	68.06
269.377	84.06
269.609	73.06
269.841	74.06
270.073	93.06
270.306	79.06
270.538	80.06
270.77	94.06
271.002	83.06
271.234	81.06
271.466	76.06
271.698	80.06
271.93	75.06
272.162	82.06
272.394	87.06
272.626	78.06
272.858	76.06
273.09	80.06
273.322	95.06
273.553	78.06
273.785	78.06
274.017	74.06
274.249	88.06
274.481	85.06
274.713	74.06
274.945	85.06
275.176	61.06
275.408	99.06
275.64	93.06
275.872	75.06
276.104	79.06
276.335	86.06
276.567	112.06
276.799	106.06
277.031	100.06
277.262	94.06
277.494	79.06
277.726	90.06
277.957	92.06
278.189	75.06
278.421	89.06
278.652	86.06
278.884	73.06
279.115	112.06
279.347	88.06
279.579	89.06
279.81	87.06
280.042	85.06
280.273	77.06
280.505	76.06
280.736	72.06
280.968	78.06
281.199	89.06
281.431	88.06
281.662	93.06
281.894	92.06
282.125	109.06
282.356	123.06
282.588	154.06
282.819	122.06
283.051	91.06
283.282	90.06
283.513	89.06
283.745	74.06
283.976	93.06
284.207	78.06
284.439	79.06
284.67	76.06
284.901	81.06
285.132	78.06
285.364	78.06
285.595	100.06
285.826	90.06
286.057	83.06
286.288	91.06
286.52	79.06
286.751	74.06
286.982	83.06
287.213	88.06
287.444	79.06
287.675	91.06
287.906	93.06
288.138	93.06
288.369	90.06
288.6	97.06
288.831	93.06
289.062	87.06
289.293	92.06
289.524	91.06
289.755	76.06
289.986	72.06
290.217	86.06
290.448	92.06
290.679	77.06
290.91	85.06
291.141	86.06
291.371	92.06
291.602	93.06
291.833	82.06
292.064	89.06
292.295	85.06
292.526	79.06
292.757	92.06
292.987	95.06
293.218	94.06
293.449	78.06
293.68	86.06
293.91	88.06
294.141	83.06
294.372	89.06
294.603	103.06
294.833	85.06
295.064	86.06
295.295	91.06
295.525	83.06
295.756	95.06
295.987	108.06
296.217	142.06
296.448	114.06
296.679	107.06
296.909	96.06
297.14	91.06
297.37	84.06
297.601	80.06
297.831	81.06
298.062	82.06
298.292	83.06
298.523	91.06
298.753	86.06
298.984	99.06
299.214	90.06
299.445	104.06
299.675	91.06
299.905	101.06
300.136	96.06
300.366	98.06
300.597	82.06
300.827	90.06
301.057	90.06
301.288	87.06
301.518	91.06
301.748	94.06
301.979	102.06
302.209	82.06
302.439	84.06
302.669	89.06
302.9	91.06
303.13	104.06
303.36	87.06
303.59	108.06
303.82	98.06
304.051	93.06
304.281	89.06
304.511	87.06
304.741	98.06
304.971	88.06
305.201	102.06
305.431	97.06
305.661	87.06
305.891	86.06
306.121	84.06
306.352	98.06
306.582	84.06
306.812	96.06
307.042	91.06
307.272	92.06
307.502	92.06
307.731	92.06
307.961	101.06
308.191	90.06
308.421	95.06
308.651	96.06
308.881	87.06
309.111	97.06
309.341	93.06
309.571	86.06
309.8	88.06
310.03	87.06
310.26	109.06
310.49	97.06
310.72	92.06
310.949	96.06
311.179	91.06
311.409	102.06
311.639	82.06
311.868	83.06
312.098	88.06
312.328	92.06
312.557	99.06
312.787	106.06
313.017	103.06
313.246	80.06
313.476	80.06
313.706	104.06
313.935	101.06
314.165	88.06
314.394	112.06
314.624	102.06
314.853	87.06
315.083	100.06
315.312	87.06
315.542	91.06
315.771	82.06
316.001	84.06
316.23	81.06
316.46	96.06
316.689	91.06
316.919	98.06
317.148	94.06
317.377	91.06
317.607	92.06
317.836	96.06
318.065	95.06
318.295	102.06
318.524	92.06
318.753	83.06
318.983	100.06
319.212	99.06
319.441	98.06
319.67	104.06
319.9	91.06
320.129	95.06
320.358	95.06
320.587	97.06
320.816	100.06
321.046	86.06
321.275	95.06
321.504	103.06
321.733	90.06
321.962	100.06
322.191	101.06
322.42	95.06
322.649	108.06
322.878	108.06
323.108	107.06
323.337	127.06
323.566	127.06
323.795	137.06
324.024	188.06
324.253	379.06
324.482	777.06
324.71	1562.06
324.939	1952.06
325.168	729.06
325.397	233.06
325.626	148.06
325.855	112.06
326.084	115.06
326.313	122.06
326.542	167.06
326.77	217.06
326.999	433.06
327.228	834.06
327.457	1542.06
327.686	1225.06
327.914	355.06
328.143	192.06
328.372	148.06
328.6	138.06
328.829	114.06
329.058	123.06
329.287	134.06
329.515	114.06
329.744	104.06
329.972	90.06
330.201	91.06
330.43	116.06
330.658	133.06
330.887	140.06
331.115	134.06
331.344	99.06
331.572	97.06
331.801	105.06
332.03	103.06
332.258	95.06
332.486	90.06
332.715	97.06
332.943	92.06
333.172	92.06
333.4	85.06
333.629	98.06
333.857	110.06
334.085	102.06
334.314	89.06
334.542	103.06
334.771	90.06
334.999	106.06
335.227	98.06
335.455	87.06
335.684	95.06
335.912	99.06
336.14	75.06
336.369	107.06
336.597	94.06
336.825	89.06
337.053	86.06
337.281	104.06
337.51	89.06
337.738	98.06
337.966	88.06
338.194	94.06
338.422	90.06
338.65	75.06
338.878	92.06
339.106	90.06
339.334	91.06
339.562	87.06
339.79	83.06
340.018	95.06
340.246	89.06
340.474	102.06
340.702	98.06
340.93	102.06
341.158	90.06
341.386	83.06
341.614	111.06
341.842	87.06
342.07	97.06
342.298	84.06
342.526	77.06
342.754	72.06
342.981	97.06
343.209	100.06
343.437	87.06
343.665	92.06
343.893	86.06
344.12	89.06
344.348	79.06
344.576	100.06
344.804	95.06
345.031	110.06
345.259	94.06
345.487	100.06
345.714	90.06
345.942	95.06
346.17	80.06
346.397	86.06
346.625	84.06
346.853	86.06
347.08	93.06
347.308	92.06
347.535	86.06
347.763	105.06
347.99	108.06
348.218	111.06
348.445	92.06
348.673	103.06
348.9	88.06
349.128	90.06
349.355	99.06
349.583	113.06
349.81	97.06
350.037	99.06
350.265	99.06
350.492	88.06
350.72	101.06
350.947	104.06
351.174	104.06
351.402	98.06
351.629	88.06
351.856	99.06
352.083	107.06
352.311	91.06
352.538	106.06
352.765	101.06
352.992	135.06
353.22	113.06
353.447	111.06
353.674	99.06
353.901	104.06
354.128	99.06
354.355	86.06
354.583	101.06
354.81	90.06
355.037	100.06
355.264	92.06
355.491	96.06
355.718	95.06
355.945	92.06
356.172	76.06
356.399	87.06
356.626	91.06
356.853	94.06
357.08	91.06
357.307	100.06
357.534	82.06
357.761	96.06
357.988	91.06
358.215	83.06
358.441	87.06
358.668	112.06
358.895	106.06
359.122	72.06
359.349	96.06
359.576	96.06
359.802	99.06
360.029	120.06
360.256	103.06
360.483	100.06
360.709	82.06
360.936	87.06
361.163	90.06
361.39	91.06
361.616	98.06
361.843	82.06
362.07	83.06
362.296	87.06
362.523	90.06
362.749	98.06
362.976	85.06
363.203	88.06
363.429	94.06
363.656	88.06
363.882	81.06
364.109	88.06
364.335	83.06
364.562	97.06
364.788	91.06
365.015	95.06
365.241	100.06
365.468	114.06
365.694	105.06
365.92	86.06
366.147	83.06
366.373	87.06
366.599	98.06
366.826	79.06
367.052	89.06
367.278	95.06
367.505	95.06
367.731	87.06
367.957	94.06
368.184	98.06
368.41	99.06
368.636	127.06
368.862	113.06
369.089	113.06
369.315	104.06
369.541	93.06
369.767	97.06
369.993	84.06
370.219	90.06
370.445	82.06
370.672	91.06
370.898	80.06
371.124	93.06
371.35	100.06
371.576	100.06
371.802	70.06
372.028	92.06
372.254	87.06
372.48	93.06
372.706	74.06
372.932	86.06
373.158	75.06
373.384	82.06
373.61	110.06
373.835	91.06
374.061	74.06
374.287	88.06
374.513	90.06
374.739	85.06
374.965	98.06
375.191	75.06
375.416	77.06
375.642	99.06
375.868	84.06
376.094	78.06
376.319	95.06
376.545	96.06
376.771	91.06
376.997	100.06
377.222	79.06
377.448	88.06
377.674	93.06
377.899	83.06
378.125	84.06
378.35	98.06
378.576	94.06
378.802	97.06
379.027	89.06
379.253	83.06
379.478	87.06
379.704	80.06
379.929	88.06
380.155	90.06
380.38	97.06
380.606	92.06
380.831	97.06
381.057	102.06
381.282	99.06
381.507	90.06
381.733	80.06
381.958	85.06
382.184	81.06
382.409	99.06
382.634	103.06
382.86	94.06
383.085	105.06
383.31	92.06
383.535	92.06
383.761	85.06
383.986	96.06
384.211	84.06
384.436	96.06
384.662	92.06
384.887	92.06
385.112	90.06
385.337	102.06
385.562	97.06
385.787	107.06
386.013	99.06
386.238	115.06
386.463	111.06
386.688	94.06
386.913	83.06
387.138	98.06
387.363	96.06
387.588	111.06
387.813	96.06
388.038	99.06
388.263	99.06
388.488	107.06
388.713	84.06
388.938	83.06
389.163	86.06
389.387	97.06
389.612	83.06
389.837	85.06
390.062	87.06
390.287	94.06
390.512	87.06
390.736	83.06
390.961	91.06
391.186	84.06
391.411	89.06
391.636	86.06
391.86	90.06
392.085	91.06
392.31	79.06
392.534	90.06
392.759	79.06
392.984	83.06
393.208	88.06
393.433	89.06
393.658	80.06
393.882	84.06
394.107	73.06
394.331	88.06
394.556	89.06
394.78	87.06
395.005	82.06
395.229	87.06
395.454	90.06
395.678	76.06
395.903	92.06
396.127	70.06
396.352	88.06
396.576	79.06
396.801	90.06
397.025	89.06
397.249	83.06
397.474	96.06
397.698	78.06
397.922	93.06
398.147	88.06
398.371	87.06
398.595	88.06
398.82	91.06
399.044	97.06
399.268	82.06
399.492	87.06
399.717	88.06
399.941	92.06
400.165	99.06
400.389	90.06
400.613	80.06
400.837	78.06
401.062	89.06
401.286	74.06
401.51	84.06
401.734	92.06
401.958	82.06
402.182	123.06
402.406	172.06
402.63	111.06
402.854	92.06
403.078	92.06
403.302	85.06
403.526	85.06
403.75	89.06
403.974	80.06
404.198	82.06
404.422	67.06
404.645	84.06
404.869	95.06
405.093	87.06
405.317	102.06
405.541	111.06
405.765	91.06
405.988	112.06
406.212	162.06
406.436	222.06
406.66	132.06
406.883	93.06
407.107	89.06
407.331	83.06
407.555	96.06
407.778	99.06
408.002	88.06
408.226	78.06
408.449	97.06
408.673	90.06
408.896	97.06
409.12	96.06
409.344	104.06
409.567	98.06
409.791	89.06
410.014	94.06
410.238	97.06
410.461	87.06
410.685	92.06
410.908	99.06
411.132	78.06
411.355	84.06
411.578	94.06
411.802	78.06
412.025	90.06
412.249	89.06
412.472	81.06
412.695	80.06
412.919	87.06
413.142	92.06
413.365	95.06
413.589	96.06
413.812	84.06
414.035	97.06
414.258	70.06
414.482	90.06
414.705	103.06
414.928	89.06
415.151	96.06
415.374	89.06
415.597	79.06
415.821	81.06
416.044	92.06
416.267	80.06
416.49	82.06
416.713	104.06
416.936	96.06
417.159	87.06
417.382	81.06
417.605	94.06
417.828	87.06
418.051	99.06
418.274	87.06
418.497	73.06
418.72	78.06
418.943	79.06
419.166	93.06
419.389	86.06
419.611	86.06
419.834	100.06
420.057	84.06
420.28	88.06
420.503	92.06
420.726	82.06
420.948	103.06
421.171	102.06
421.394	88.06
421.617	80.06
421.839	83.06
422.062	93.06
422.285	86.06
422.507	87.06
422.73	115.06
422.953	101.06
423.175	91.06
423.398	101.06
423.621	90.06
423.843	98.06
424.066	85.06
424.288	67.06
424.511	79.06
424.733	105.06
424.956	115.06
425.178	75.06
425.401	110.06
425.623	97.06
425.846	77.06
426.068	87.06
426.291	98.06
426.513	81.06
426.735	85.06
426.958	95.06
427.18	103.06
427.402	125.06
427.625	158.06
427.847	110.06
428.069	92.06
428.292	84.06
428.514	88.06
428.736	90.06
428.958	99.06
429.181	88.06
429.403	96.06
429.625	88.06
429.847	87.06
430.069	103.06
430.292	96.06
430.514	84.06
430.736	74.06
430.958	82.06
431.18	80.06
431.402	91.06
431.624	81.06
431.846	84.06
432.068	92.06
432.29	85.06
432.512	84.06
432.734	91.06
432.956	98.06
433.178	112.06
433.4	89.06
433.622	80.06
433.844	102.06
434.066	94.06
434.287	85.06
434.509	88.06
434.731	84.06
434.953	78.06
435.175	75.06
435.397	73.06
435.618	96.06
435.84	102.06
436.062	114.06
436.284	107.06
436.505	85.06
436.727	79.06
436.949	82.06
437.17	86.06
437.392	74.06
437.614	74.06
437.835	105.06
438.057	114.06
438.278	105.06
438.5	114.06
438.721	118.06
438.943	95.06
439.165	89.06
439.386	89.06
439.608	80.06
439.829	94.06
440.05	115.06
440.272	143.06
440.493	112.06
440.715	89.06
440.936	90.06
441.158	76.06
441.379	80.06
441.6	107.06
441.822	87.06
442.043	96.06
442.264	103.06
442.486	97.06
442.707	98.06
442.928	94.06
443.149	115.06
443.371	133.06
443.592	110.06
443.813	111.06
444.034	107.06
444.255	83.06
444.476	95.06
444.698	72.06
444.919	85.06
445.14	129.06
445.361	108.06
445.582	105.06
445.803	140.06
446.024	119.06
446.245	134.06
446.466	113.06
446.687	84.06
446.908	89.06
447.129	85.06
447.35	88.06
447.571	85.06
447.792	91.06
448.013	114.06
448.234	101.06
448.455	90.06
448.675	109.06
448.896	103.06
449.117	104.06
449.338	106.06
449.559	130.06
449.779	131.06
450	90.06
450.221	80.06
450.442	87.06
450.662	94.06
450.883	98.06
451.104	110.06
451.324	103.06
451.545	84.06
451.766	94.06
451.986	77.06
452.207	81.06
452.428	91.06
452.648	103.06
452.869	97.06
453.089	103.06
453.31	108.06
453.53	90.06
453.751	84.06
453.971	105.06
454.192	127.06
454.412	98.06
454.633	90.06
454.853	88.06
455.073	81.06
455.294	78.06
455.514	105.06
455.734	86.06
455.955	109.06
456.175	88.06
456.395	87.06
456.616	96.06
456.836	79.06
457.056	77.06
457.276	78.06
457.497	86.06
457.717	86.06
457.937	81.06
458.157	73.06
458.377	85.06
458.598	114.06
458.818	158.06
459.038	171.06
459.258	123.06
459.478	106.06
459.698	80.06
459.918	83.06
460.138	100.06
460.358	83.06
460.578	78.06
460.798	91.06
461.018	89.06
461.238	68.06
461.458	89.06
461.678	90.06
461.898	83.06
462.118	85.06
462.338	78.06
462.558	86.06
462.777	84.06
462.997	67.06
463.217	85.06
463.437	88.06
463.657	82.06
463.876	78.06
464.096	89.06
464.316	92.06
464.536	89.06
464.755	83.06
464.975	92.06
465.195	172.06
465.414	162.06
465.634	95.06
465.854	81.06
466.073	83.06
466.293	76.06
466.512	81.06
466.732	83.06
466.951	77.06
467.171	89.06
467.391	96.06
467.61	92.06
467.829	95.06
468.049	94.06
468.268	88.06
468.488	97.06
468.707	84.06
468.927	88.06
469.146	100.06
469.365	88.06
469.585	99.06
469.804	90.06
470.023	87.06
470.243	84.06
470.462	101.06
470.681	108.06
470.901	72.06
471.12	91.06
471.339	71.06
471.558	88.06
471.777	74.06
471.997	86.06
472.216	85.06
472.435	89.06
472.654	83.06
472.873	93.06
473.092	78.06
473.311	77.06
473.53	76.06
473.749	90.06
473.968	84.06
474.187	102.06
474.406	96.06
474.625	103.06
474.844	89.06
475.063	94.06
475.282	71.06
475.501	86.06
475.72	87.06
475.939	80.06
476.158	73.06
476.377	82.06
476.596	89.06
476.814	89.06
477.033	95.06
477.252	86.06
477.471	98.06
477.69	89.06
477.908	100.06
478.127	80.06
478.346	77.06
478.564	90.06
478.783	86.06
479.002	91.06
479.22	88.06
479.439	102.06
479.658	96.06
479.876	87.06
480.095	92.06
480.313	82.06
480.532	105.06
480.751	96.06
480.969	93.06
481.188	96.06
481.406	90.06
481.624	83.06
481.843	80.06
482.061	81.06
482.28	75.06
482.498	92.06
482.717	99.06
482.935	90.06
483.153	76.06
483.372	79.06
483.59	76.06
483.808	80.06
484.027	75.06
484.245	96.06
484.463	95.06
484.681	89.06
484.9	82.06
485.118	91.06
485.336	100.06
485.554	95.06
485.772	102.06
485.99	89.06
486.209	100.06
486.427	117.06
486.645	109.06
486.863	103.06
487.081	90.06
487.299	95.06
487.517	102.06
487.735	106.06
487.953	87.06
488.171	86.06
488.389	99.06
488.607	93.06
488.825	72.06
489.043	80.06
489.261	86.06
489.479	89.06
489.696	93.06
489.914	91.06
490.132	81.06
490.35	98.06
490.568	86.06
490.786	96.06
491.003	80.06
491.221	87.06
491.439	80.06
491.657	90.06
491.874	96.06
492.092	97.06
492.31	78.06
492.527	86.06
492.745	92.06
492.963	104.06
493.18	79.06
493.398	92.06
493.615	97.06
493.833	99.06
494.05	82.06
494.268	93.06
494.485	94.06
494.703	100.06
494.92	88.06
495.138	75.06
495.355	82.06
495.573	82.06
495.79	98.06
496.008	94.06
496.225	80.06
496.442	94.06
496.66	87.06
496.877	82.06
497.094	92.06
497.312	98.06
497.529	97.06
497.746	103.06
497.963	86.06
498.181	91.06
498.398	87.06
498.615	114.06
498.832	101.06
499.049	75.06
499.267	91.06
499.484	88.06
499.701	103.06
499.918	87.06
500.135	92.06
500.352	78.06
500.569	76.06
500.786	92.06
501.003	90.06
501.22	92.06
501.437	90.06
501.654	96.06
501.871	92.06
502.088	89.06
502.305	78.06
502.522	83.06
502.739	83.06
502.956	95.06
503.172	91.06
503.389	88.06
503.606	111.06
503.823	97.06
504.04	96.06
504.256	88.06
504.473	86.06
504.69	83.06
504.907	81.06
505.123	96.06
505.34	81.06
505.557	90.06
505.773	91.06
505.99	84.06
506.207	88.06
506.423	90.06
506.64	77.06
506.856	92.06
507.073	80.06
507.289	96.06
507.506	89.06
507.722	122.06
507.939	114.06
508.155	100.06
508.372	99.06
508.588	92.06
508.805	92.06
509.021	97.06
509.238	103.06
509.454	100.06
509.67	89.06
509.887	114.06
510.103	143.06
510.319	230.06
510.536	827.06
510.752	2510.06
510.968	668.06
511.184	146.06
511.401	110.06
511.617	102.06
511.833	100.06
512.049	100.06
512.265	83.06
512.481	97.06
512.698	85.06
512.914	95.06
513.13	91.06
513.346	88.06
513.562	97.06
513.778	87.06
513.994	98.06
514.21	96.06
514.426	136.06
514.642	138.06
514.858	128.06
515.074	175.06
515.29	494.06
515.506	1668.06
515.721	591.06
515.937	162.06
516.153	103.06
516.369	86.06
