Data from Dirtheat3_HRD10591_00018.txt Node
Date: Fri Dec 27 15:16:30 EST 2024
User: Yrep
Spectrometer: HR+D1059
Trigger mode: 1
Integration Time (sec): 1.000000E-1
Scans to average: 1
Electric dark correction enabled: true
Nonlinearity correction enabled: false
Boxcar width: 0
XAxis mode: Wavelengths
Number of Pixels in Spectrum: 2048
>>>>>Begin Spectral Data<<<<<
223.165	-1.12
223.4	-1.12
223.635	-1.12
223.869	-27.12
224.104	-12.12
224.338	-11.12
224.573	-17.12
224.808	-10.12
225.042	-14.12
225.277	-8.12
225.511	-10.12
225.746	-6.12
225.98	0.88
226.215	12.88
226.449	21.88
226.683	24.88
226.918	26.88
227.152	29.88
227.387	39.88
227.621	37.88
227.856	62.88
228.09	42.88
228.324	54.88
228.559	54.88
228.793	63.88
229.027	55.88
229.262	63.88
229.496	58.88
229.73	75.88
229.964	88.88
230.199	76.88
230.433	73.88
230.667	75.88
230.901	64.88
231.136	76.88
231.37	80.88
231.604	78.88
231.838	77.88
232.072	72.88
232.306	85.88
232.541	81.88
232.775	77.88
233.009	77.88
233.243	79.88
233.477	84.88
233.711	81.88
233.945	86.88
234.179	70.88
234.413	74.88
234.647	78.88
234.881	82.88
235.115	74.88
235.349	76.88
235.583	84.88
235.817	60.88
236.051	83.88
236.285	89.88
236.519	80.88
236.753	75.88
236.987	71.88
237.221	73.88
237.455	71.88
237.689	53.88
237.922	69.88
238.156	62.88
238.39	77.88
238.624	73.88
238.858	83.88
239.091	82.88
239.325	62.88
239.559	67.88
239.793	73.88
240.027	80.88
240.26	79.88
240.494	75.88
240.728	91.88
240.961	65.88
241.195	87.88
241.429	84.88
241.662	73.88
241.896	76.88
242.13	68.88
242.363	75.88
242.597	66.88
242.83	69.88
243.064	76.88
243.298	83.88
243.531	66.88
243.765	81.88
243.998	83.88
244.232	81.88
244.465	65.88
244.699	68.88
244.932	66.88
245.166	79.88
245.399	76.88
245.633	77.88
245.866	75.88
246.099	74.88
246.333	67.88
246.566	70.88
246.8	81.88
247.033	72.88
247.266	65.88
247.5	77.88
247.733	64.88
247.966	86.88
248.2	74.88
248.433	77.88
248.666	75.88
248.899	62.88
249.133	74.88
249.366	81.88
249.599	78.88
249.832	71.88
250.066	78.88
250.299	79.88
250.532	70.88
250.765	78.88
250.998	75.88
251.231	77.88
251.465	68.88
251.698	64.88
251.931	77.88
252.164	63.88
252.397	71.88
252.63	80.88
252.863	81.88
253.096	80.88
253.329	79.88
253.562	74.88
253.795	85.88
254.028	90.88
254.261	78.88
254.494	69.88
254.727	80.88
254.96	79.88
255.193	83.88
255.426	65.88
255.659	65.88
255.892	78.88
256.124	83.88
256.357	95.88
256.59	78.88
256.823	63.88
257.056	76.88
257.289	67.88
257.521	69.88
257.754	78.88
257.987	64.88
258.22	74.88
258.452	83.88
258.685	69.88
258.918	85.88
259.151	75.88
259.383	72.88
259.616	77.88
259.849	87.88
260.081	69.88
260.314	85.88
260.547	90.88
260.779	88.88
261.012	79.88
261.244	73.88
261.477	81.88
261.71	63.88
261.942	72.88
262.175	89.88
262.407	68.88
262.64	71.88
262.872	71.88
263.105	69.88
263.337	79.88
263.57	88.88
263.802	87.88
264.035	78.88
264.267	70.88
264.499	80.88
264.732	86.88
264.964	82.88
265.197	84.88
265.429	69.88
265.661	55.88
265.894	80.88
266.126	75.88
266.358	81.88
266.591	73.88
266.823	76.88
267.055	73.88
267.287	77.88
267.52	72.88
267.752	64.88
267.984	93.88
268.216	72.88
268.448	81.88
268.681	81.88
268.913	85.88
269.145	86.88
269.377	73.88
269.609	86.88
269.841	72.88
270.073	69.88
270.306	83.88
270.538	88.88
270.77	72.88
271.002	83.88
271.234	83.88
271.466	72.88
271.698	57.88
271.93	88.88
272.162	75.88
272.394	89.88
272.626	62.88
272.858	93.88
273.09	70.88
273.322	75.88
273.553	76.88
273.785	72.88
274.017	81.88
274.249	79.88
274.481	76.88
274.713	70.88
274.945	88.88
275.176	82.88
275.408	77.88
275.64	72.88
275.872	75.88
276.104	96.88
276.335	78.88
276.567	71.88
276.799	89.88
277.031	71.88
277.262	92.88
277.494	77.88
277.726	74.88
277.957	72.88
278.189	95.88
278.421	75.88
278.652	69.88
278.884	82.88
279.115	86.88
279.347	84.88
279.579	73.88
279.81	62.88
280.042	71.88
280.273	78.88
280.505	69.88
280.736	77.88
280.968	88.88
281.199	91.88
281.431	89.88
281.662	86.88
281.894	80.88
282.125	85.88
282.356	75.88
282.588	77.88
282.819	74.88
283.051	90.88
283.282	82.88
283.513	77.88
283.745	81.88
283.976	80.88
284.207	83.88
284.439	92.88
284.67	69.88
284.901	71.88
285.132	83.88
285.364	73.88
285.595	79.88
285.826	57.88
286.057	84.88
286.288	90.88
286.52	65.88
286.751	85.88
286.982	89.88
287.213	83.88
287.444	84.88
287.675	68.88
287.906	80.88
288.138	72.88
288.369	74.88
288.6	76.88
288.831	86.88
289.062	91.88
289.293	77.88
289.524	92.88
289.755	76.88
289.986	74.88
290.217	78.88
290.448	80.88
290.679	77.88
290.91	84.88
291.141	92.88
291.371	90.88
291.602	75.88
291.833	79.88
292.064	76.88
292.295	88.88
292.526	83.88
292.757	79.88
292.987	88.88
293.218	71.88
293.449	75.88
293.68	70.88
293.91	85.88
294.141	73.88
294.372	76.88
294.603	80.88
294.833	82.88
295.064	84.88
295.295	79.88
295.525	68.88
295.756	86.88
295.987	82.88
296.217	81.88
296.448	76.88
296.679	86.88
296.909	72.88
297.14	78.88
297.37	86.88
297.601	75.88
297.831	88.88
298.062	75.88
298.292	82.88
298.523	82.88
298.753	73.88
298.984	80.88
299.214	85.88
299.445	91.88
299.675	98.88
299.905	91.88
300.136	89.88
300.366	58.88
300.597	67.88
300.827	84.88
301.057	78.88
301.288	85.88
301.518	86.88
301.748	77.88
301.979	87.88
302.209	84.88
302.439	79.88
302.669	69.88
302.9	63.88
303.13	71.88
303.36	95.88
303.59	83.88
303.82	82.88
304.051	69.88
304.281	84.88
304.511	80.88
304.741	81.88
304.971	75.88
305.201	83.88
305.431	81.88
305.661	85.88
305.891	73.88
306.121	101.88
306.352	88.88
306.582	72.88
306.812	81.88
307.042	87.88
307.272	87.88
307.502	80.88
307.731	77.88
307.961	79.88
308.191	65.88
308.421	83.88
308.651	89.88
308.881	79.88
309.111	70.88
309.341	89.88
309.571	94.88
309.8	80.88
310.03	79.88
310.26	71.88
310.49	80.88
310.72	78.88
310.949	85.88
311.179	73.88
311.409	89.88
311.639	88.88
311.868	72.88
312.098	94.88
312.328	93.88
312.557	88.88
312.787	80.88
313.017	73.88
313.246	95.88
313.476	93.88
313.706	83.88
313.935	81.88
314.165	89.88
314.394	91.88
314.624	72.88
314.853	76.88
315.083	89.88
315.312	80.88
315.542	86.88
315.771	93.88
316.001	76.88
316.23	78.88
316.46	81.88
316.689	82.88
316.919	70.88
317.148	72.88
317.377	70.88
317.607	85.88
317.836	77.88
318.065	86.88
318.295	83.88
318.524	73.88
318.753	72.88
318.983	84.88
319.212	83.88
319.441	86.88
319.67	79.88
319.9	73.88
320.129	84.88
320.358	89.88
320.587	75.88
320.816	99.88
321.046	87.88
321.275	76.88
321.504	78.88
321.733	83.88
321.962	79.88
322.191	82.88
322.42	77.88
322.649	83.88
322.878	79.88
323.108	78.88
323.337	82.88
323.566	83.88
323.795	95.88
324.024	81.88
324.253	82.88
324.482	82.88
324.71	86.88
324.939	96.88
325.168	72.88
325.397	80.88
325.626	74.88
325.855	76.88
326.084	71.88
326.313	87.88
326.542	82.88
326.77	84.88
326.999	84.88
327.228	74.88
327.457	79.88
327.686	84.88
327.914	79.88
328.143	79.88
328.372	90.88
328.6	87.88
328.829	101.88
329.058	79.88
329.287	83.88
329.515	87.88
329.744	89.88
329.972	79.88
330.201	91.88
330.43	73.88
330.658	73.88
330.887	76.88
331.115	83.88
331.344	75.88
331.572	85.88
331.801	99.88
332.03	78.88
332.258	85.88
332.486	84.88
332.715	82.88
332.943	80.88
333.172	86.88
333.4	77.88
333.629	90.88
333.857	86.88
334.085	91.88
334.314	81.88
334.542	71.88
334.771	66.88
334.999	68.88
335.227	76.88
335.455	80.88
335.684	77.88
335.912	86.88
336.14	89.88
336.369	83.88
336.597	81.88
336.825	83.88
337.053	63.88
337.281	82.88
337.51	83.88
337.738	101.88
337.966	94.88
338.194	86.88
338.422	72.88
338.65	72.88
338.878	94.88
339.106	75.88
339.334	81.88
339.562	65.88
339.79	87.88
340.018	75.88
340.246	85.88
340.474	92.88
340.702	75.88
340.93	74.88
341.158	83.88
341.386	80.88
341.614	85.88
341.842	75.88
342.07	79.88
342.298	79.88
342.526	89.88
342.754	73.88
342.981	91.88
343.209	92.88
343.437	77.88
343.665	75.88
343.893	84.88
344.12	91.88
344.348	78.88
344.576	77.88
344.804	77.88
345.031	81.88
345.259	81.88
345.487	88.88
345.714	65.88
345.942	80.88
346.17	89.88
346.397	102.88
346.625	87.88
346.853	92.88
347.08	68.88
347.308	81.88
347.535	65.88
347.763	86.88
347.99	90.88
348.218	91.88
348.445	76.88
348.673	89.88
348.9	86.88
349.128	79.88
349.355	90.88
349.583	85.88
349.81	64.88
350.037	82.88
350.265	79.88
350.492	75.88
350.72	73.88
350.947	81.88
351.174	88.88
351.402	87.88
351.629	84.88
351.856	89.88
352.083	68.88
352.311	87.88
352.538	88.88
352.765	87.88
352.992	91.88
353.22	87.88
353.447	77.88
353.674	74.88
353.901	75.88
354.128	84.88
354.355	83.88
354.583	77.88
354.81	87.88
355.037	80.88
355.264	75.88
355.491	79.88
355.718	86.88
355.945	75.88
356.172	66.88
356.399	82.88
356.626	86.88
356.853	80.88
357.08	83.88
357.307	90.88
357.534	79.88
357.761	94.88
357.988	96.88
358.215	86.88
358.441	82.88
358.668	65.88
358.895	80.88
359.122	82.88
359.349	86.88
359.576	68.88
359.802	84.88
360.029	71.88
360.256	83.88
360.483	78.88
360.709	83.88
360.936	94.88
361.163	79.88
361.39	79.88
361.616	76.88
361.843	68.88
362.07	85.88
362.296	93.88
362.523	69.88
362.749	76.88
362.976	86.88
363.203	90.88
363.429	95.88
363.656	91.88
363.882	76.88
364.109	71.88
364.335	92.88
364.562	83.88
364.788	81.88
365.015	81.88
365.241	81.88
365.468	94.88
365.694	91.88
365.92	77.88
366.147	77.88
366.373	79.88
366.599	84.88
366.826	87.88
367.052	83.88
367.278	78.88
367.505	93.88
367.731	97.88
367.957	72.88
368.184	82.88
368.41	70.88
368.636	83.88
368.862	64.88
369.089	80.88
369.315	77.88
369.541	77.88
369.767	88.88
369.993	74.88
370.219	78.88
370.445	91.88
370.672	84.88
370.898	77.88
371.124	96.88
371.35	88.88
371.576	81.88
371.802	79.88
372.028	74.88
372.254	75.88
372.48	75.88
372.706	82.88
372.932	85.88
373.158	79.88
373.384	86.88
373.61	82.88
373.835	86.88
374.061	78.88
374.287	86.88
374.513	73.88
374.739	84.88
374.965	87.88
375.191	65.88
375.416	90.88
375.642	74.88
375.868	78.88
376.094	66.88
376.319	62.88
376.545	86.88
376.771	75.88
376.997	102.88
377.222	79.88
377.448	76.88
377.674	79.88
377.899	74.88
378.125	84.88
378.35	75.88
378.576	76.88
378.802	81.88
379.027	76.88
379.253	77.88
379.478	89.88
379.704	92.88
379.929	76.88
380.155	70.88
380.38	81.88
380.606	84.88
380.831	88.88
381.057	91.88
381.282	76.88
381.507	89.88
381.733	87.88
381.958	81.88
382.184	74.88
382.409	84.88
382.634	70.88
382.86	77.88
383.085	88.88
383.31	69.88
383.535	85.88
383.761	71.88
383.986	71.88
384.211	67.88
384.436	92.88
384.662	75.88
384.887	67.88
385.112	72.88
385.337	88.88
385.562	83.88
385.787	80.88
386.013	80.88
386.238	94.88
386.463	75.88
386.688	104.88
386.913	88.88
387.138	85.88
387.363	94.88
387.588	76.88
387.813	90.88
388.038	87.88
388.263	75.88
388.488	79.88
388.713	81.88
388.938	85.88
389.163	77.88
389.387	91.88
389.612	89.88
389.837	77.88
390.062	81.88
390.287	79.88
390.512	94.88
390.736	76.88
390.961	75.88
391.186	84.88
391.411	77.88
391.636	76.88
391.86	88.88
392.085	76.88
392.31	91.88
392.534	87.88
392.759	74.88
392.984	76.88
393.208	99.88
393.433	89.88
393.658	95.88
393.882	81.88
394.107	80.88
394.331	74.88
394.556	84.88
394.78	80.88
395.005	88.88
395.229	75.88
395.454	70.88
395.678	78.88
395.903	82.88
396.127	81.88
396.352	69.88
396.576	87.88
396.801	90.88
397.025	95.88
397.249	91.88
397.474	88.88
397.698	78.88
397.922	86.88
398.147	77.88
398.371	95.88
398.595	81.88
398.82	83.88
399.044	77.88
399.268	80.88
399.492	71.88
399.717	96.88
399.941	73.88
400.165	80.88
400.389	78.88
400.613	81.88
400.837	88.88
401.062	80.88
401.286	76.88
401.51	84.88
401.734	90.88
401.958	73.88
402.182	85.88
402.406	79.88
402.63	84.88
402.854	80.88
403.078	87.88
403.302	89.88
403.526	75.88
403.75	80.88
403.974	69.88
404.198	81.88
404.422	81.88
404.645	79.88
404.869	90.88
405.093	72.88
405.317	78.88
405.541	85.88
405.765	88.88
405.988	77.88
406.212	70.88
406.436	74.88
406.66	84.88
406.883	82.88
407.107	77.88
407.331	78.88
407.555	84.88
407.778	77.88
408.002	78.88
408.226	87.88
408.449	87.88
408.673	75.88
408.896	71.88
409.12	89.88
409.344	94.88
409.567	79.88
409.791	67.88
410.014	89.88
410.238	59.88
410.461	72.88
410.685	74.88
410.908	80.88
411.132	83.88
411.355	81.88
411.578	64.88
411.802	75.88
412.025	90.88
412.249	80.88
412.472	78.88
412.695	76.88
412.919	89.88
413.142	80.88
413.365	74.88
413.589	79.88
413.812	74.88
414.035	96.88
414.258	76.88
414.482	79.88
414.705	88.88
414.928	80.88
415.151	71.88
415.374	76.88
415.597	88.88
415.821	61.88
416.044	74.88
416.267	88.88
416.49	88.88
416.713	97.88
416.936	77.88
417.159	76.88
417.382	67.88
417.605	78.88
417.828	74.88
418.051	74.88
418.274	81.88
418.497	78.88
418.72	62.88
418.943	72.88
419.166	82.88
419.389	82.88
419.611	74.88
419.834	74.88
420.057	82.88
420.28	83.88
420.503	85.88
420.726	86.88
420.948	82.88
421.171	69.88
421.394	78.88
421.617	77.88
421.839	90.88
422.062	91.88
422.285	76.88
422.507	106.88
422.73	89.88
422.953	99.88
423.175	77.88
423.398	60.88
423.621	83.88
423.843	85.88
424.066	83.88
424.288	70.88
424.511	76.88
424.733	72.88
424.956	73.88
425.178	84.88
425.401	75.88
425.623	78.88
425.846	69.88
426.068	78.88
426.291	80.88
426.513	65.88
426.735	69.88
426.958	83.88
427.18	77.88
427.402	83.88
427.625	92.88
427.847	72.88
428.069	84.88
428.292	83.88
428.514	78.88
428.736	88.88
428.958	70.88
429.181	75.88
429.403	77.88
429.625	70.88
429.847	70.88
430.069	95.88
430.292	80.88
430.514	80.88
430.736	77.88
430.958	85.88
431.18	79.88
431.402	79.88
431.624	79.88
431.846	77.88
432.068	94.88
432.29	82.88
432.512	86.88
432.734	71.88
432.956	70.88
433.178	99.88
433.4	75.88
433.622	86.88
433.844	93.88
434.066	87.88
434.287	86.88
434.509	66.88
434.731	75.88
434.953	82.88
435.175	74.88
435.397	101.88
435.618	84.88
435.84	103.88
436.062	79.88
436.284	80.88
436.505	76.88
436.727	88.88
436.949	78.88
437.17	74.88
437.392	83.88
437.614	71.88
437.835	75.88
438.057	92.88
438.278	89.88
438.5	74.88
438.721	79.88
438.943	69.88
439.165	85.88
439.386	77.88
439.608	75.88
439.829	70.88
440.05	79.88
440.272	81.88
440.493	84.88
440.715	76.88
440.936	78.88
441.158	86.88
441.379	82.88
441.6	73.88
441.822	76.88
442.043	86.88
442.264	67.88
442.486	85.88
442.707	74.88
442.928	94.88
443.149	84.88
443.371	80.88
443.592	85.88
443.813	78.88
444.034	84.88
444.255	75.88
444.476	79.88
444.698	70.88
444.919	75.88
445.14	135.88
445.361	112.88
445.582	82.88
445.803	93.88
446.024	74.88
446.245	77.88
446.466	91.88
446.687	69.88
446.908	81.88
447.129	85.88
447.35	71.88
447.571	76.88
447.792	74.88
448.013	88.88
448.234	84.88
448.455	90.88
448.675	71.88
448.896	81.88
449.117	83.88
449.338	72.88
449.559	85.88
449.779	71.88
450	83.88
450.221	73.88
450.442	74.88
450.662	81.88
450.883	80.88
451.104	87.88
451.324	72.88
451.545	84.88
451.766	91.88
451.986	81.88
452.207	78.88
452.428	68.88
452.648	80.88
452.869	83.88
453.089	93.88
453.31	92.88
453.53	82.88
453.751	70.88
453.971	70.88
454.192	85.88
454.412	91.88
454.633	81.88
454.853	75.88
455.073	68.88
455.294	71.88
455.514	72.88
455.734	68.88
455.955	83.88
456.175	69.88
456.395	63.88
456.616	84.88
456.836	83.88
457.056	72.88
457.276	72.88
457.497	83.88
457.717	87.88
457.937	93.88
458.157	90.88
458.377	76.88
458.598	93.88
458.818	71.88
459.038	70.88
459.258	79.88
459.478	82.88
459.698	75.88
459.918	92.88
460.138	64.88
460.358	88.88
460.578	90.88
460.798	92.88
461.018	82.88
461.238	75.88
461.458	79.88
461.678	80.88
461.898	80.88
462.118	81.88
462.338	66.88
462.558	85.88
462.777	79.88
462.997	81.88
463.217	75.88
463.437	86.88
463.657	71.88
463.876	68.88
464.096	77.88
464.316	82.88
464.536	68.88
464.755	74.88
464.975	91.88
465.195	94.88
465.414	61.88
465.634	75.88
465.854	80.88
466.073	75.88
466.293	71.88
466.512	84.88
466.732	77.88
466.951	74.88
467.171	81.88
467.391	69.88
467.61	83.88
467.829	73.88
468.049	65.88
468.268	76.88
468.488	75.88
468.707	79.88
468.927	70.88
469.146	72.88
469.365	81.88
469.585	89.88
469.804	76.88
470.023	79.88
470.243	83.88
470.462	90.88
470.681	67.88
470.901	70.88
471.12	93.88
471.339	81.88
471.558	79.88
471.777	86.88
471.997	75.88
472.216	88.88
472.435	76.88
472.654	70.88
472.873	86.88
473.092	79.88
473.311	90.88
473.53	80.88
473.749	76.88
473.968	81.88
474.187	93.88
474.406	70.88
474.625	91.88
474.844	65.88
475.063	84.88
475.282	74.88
475.501	84.88
475.72	77.88
475.939	85.88
476.158	71.88
476.377	72.88
476.596	74.88
476.814	66.88
477.033	77.88
477.252	80.88
477.471	84.88
477.69	64.88
477.908	85.88
478.127	90.88
478.346	68.88
478.564	73.88
478.783	84.88
479.002	70.88
479.22	79.88
479.439	77.88
479.658	80.88
479.876	71.88
480.095	73.88
480.313	81.88
480.532	89.88
480.751	79.88
480.969	76.88
481.188	92.88
481.406	85.88
481.624	87.88
481.843	73.88
482.061	68.88
482.28	67.88
482.498	80.88
482.717	89.88
482.935	85.88
483.153	74.88
483.372	76.88
483.59	91.88
483.808	80.88
484.027	84.88
484.245	76.88
484.463	70.88
484.681	79.88
484.9	79.88
485.118	84.88
485.336	70.88
485.554	87.88
485.772	82.88
485.99	70.88
486.209	88.88
486.427	85.88
486.645	85.88
486.863	88.88
487.081	65.88
487.299	72.88
487.517	75.88
487.735	75.88
487.953	90.88
488.171	96.88
488.389	94.88
488.607	82.88
488.825	85.88
489.043	89.88
489.261	80.88
489.479	80.88
489.696	90.88
489.914	69.88
490.132	87.88
490.35	73.88
490.568	76.88
490.786	86.88
491.003	78.88
491.221	84.88
491.439	75.88
491.657	74.88
491.874	100.88
492.092	83.88
492.31	88.88
492.527	91.88
492.745	78.88
492.963	93.88
493.18	86.88
493.398	93.88
493.615	78.88
493.833	81.88
494.05	86.88
494.268	79.88
494.485	91.88
494.703	72.88
494.92	86.88
495.138	81.88
495.355	82.88
495.573	77.88
495.79	80.88
496.008	71.88
496.225	85.88
496.442	83.88
496.66	80.88
496.877	85.88
497.094	70.88
497.312	69.88
497.529	88.88
497.746	88.88
497.963	85.88
498.181	89.88
498.398	87.88
498.615	72.88
498.832	92.88
499.049	78.88
499.267	100.88
499.484	70.88
499.701	78.88
499.918	91.88
500.135	68.88
500.352	74.88
500.569	76.88
500.786	74.88
501.003	85.88
501.22	83.88
501.437	93.88
501.654	76.88
501.871	79.88
502.088	83.88
502.305	81.88
502.522	78.88
502.739	94.88
502.956	72.88
503.172	70.88
503.389	77.88
503.606	75.88
503.823	72.88
504.04	78.88
504.256	88.88
504.473	87.88
504.69	95.88
504.907	88.88
505.123	75.88
505.34	78.88
505.557	78.88
505.773	85.88
505.99	73.88
506.207	79.88
506.423	78.88
506.64	85.88
506.856	71.88
507.073	69.88
507.289	80.88
507.506	79.88
507.722	64.88
507.939	66.88
508.155	89.88
508.372	85.88
508.588	80.88
508.805	84.88
509.021	83.88
509.238	81.88
509.454	72.88
509.67	95.88
509.887	83.88
510.103	78.88
510.319	98.88
510.536	73.88
510.752	76.88
510.968	78.88
511.184	93.88
511.401	71.88
511.617	69.88
511.833	81.88
512.049	88.88
512.265	72.88
512.481	70.88
512.698	87.88
512.914	92.88
513.13	86.88
513.346	74.88
513.562	78.88
513.778	98.88
513.994	85.88
514.21	78.88
514.426	78.88
514.642	80.88
514.858	70.88
515.074	79.88
515.29	93.88
515.506	69.88
515.721	78.88
515.937	91.88
516.153	97.88
516.369	77.88
516.585	79.88
516.801	85.88
517.016	83.88
517.232	71.88
517.448	71.88
517.664	80.88
517.879	86.88
518.095	78.88
518.311	75.88
518.527	80.88
518.742	92.88
518.958	103.88
519.173	89.88
519.389	69.88
519.605	86.88
519.82	77.88
520.036	93.88
