Data from Dirtheat3_HRD10591_00015.txt Node
Date: Fri Dec 27 15:16:27 EST 2024
User: Yrep
Spectrometer: HR+D1059
Trigger mode: 1
Integration Time (sec): 1.000000E-1
Scans to average: 1
Electric dark correction enabled: true
Nonlinearity correction enabled: false
Boxcar width: 0
XAxis mode: Wavelengths
Number of Pixels in Spectrum: 2048
>>>>>Begin Spectral Data<<<<<
223.165	-18.94
223.4	-18.94
223.635	-18.94
223.869	-28.94
224.104	-29.94
224.338	0.06
224.573	-9.94
224.808	-6.94
225.042	1.06
225.277	-9.94
225.511	-12.94
225.746	-2.94
225.98	-6.94
226.215	15.06
226.449	8.06
226.683	31.06
226.918	35.06
227.152	37.06
227.387	33.06
227.621	29.06
227.856	41.06
228.09	55.06
228.324	51.06
228.559	43.06
228.793	47.06
229.027	63.06
229.262	53.06
229.496	62.06
229.73	69.06
229.964	83.06
230.199	77.06
230.433	69.06
230.667	78.06
230.901	85.06
231.136	74.06
231.37	72.06
231.604	84.06
231.838	89.06
232.072	59.06
232.306	85.06
232.541	81.06
232.775	86.06
233.009	89.06
233.243	77.06
233.477	77.06
233.711	79.06
233.945	75.06
234.179	73.06
234.413	83.06
234.647	79.06
234.881	90.06
235.115	73.06
235.349	73.06
235.583	83.06
235.817	84.06
236.051	74.06
236.285	79.06
236.519	83.06
236.753	88.06
236.987	67.06
237.221	74.06
237.455	58.06
237.689	66.06
237.922	75.06
238.156	76.06
238.39	84.06
238.624	71.06
238.858	65.06
239.091	77.06
239.325	83.06
239.559	77.06
239.793	77.06
240.027	84.06
240.26	65.06
240.494	74.06
240.728	66.06
240.961	69.06
241.195	76.06
241.429	67.06
241.662	77.06
241.896	60.06
242.13	67.06
242.363	74.06
242.597	77.06
242.83	71.06
243.064	72.06
243.298	72.06
243.531	69.06
243.765	76.06
243.998	71.06
244.232	61.06
244.465	84.06
244.699	69.06
244.932	70.06
245.166	78.06
245.399	82.06
245.633	80.06
245.866	69.06
246.099	85.06
246.333	62.06
246.566	78.06
246.8	74.06
247.033	73.06
247.266	81.06
247.5	85.06
247.733	74.06
247.966	72.06
248.2	81.06
248.433	71.06
248.666	79.06
248.899	79.06
249.133	87.06
249.366	70.06
249.599	78.06
249.832	75.06
250.066	78.06
250.299	80.06
250.532	83.06
250.765	73.06
250.998	79.06
251.231	79.06
251.465	79.06
251.698	77.06
251.931	86.06
252.164	76.06
252.397	69.06
252.63	78.06
252.863	83.06
253.096	74.06
253.329	76.06
253.562	74.06
253.795	62.06
254.028	80.06
254.261	82.06
254.494	72.06
254.727	93.06
254.96	75.06
255.193	71.06
255.426	70.06
255.659	79.06
255.892	76.06
256.124	81.06
256.357	81.06
256.59	81.06
256.823	86.06
257.056	83.06
257.289	72.06
257.521	75.06
257.754	65.06
257.987	90.06
258.22	77.06
258.452	70.06
258.685	86.06
258.918	78.06
259.151	76.06
259.383	68.06
259.616	78.06
259.849	73.06
260.081	83.06
260.314	81.06
260.547	70.06
260.779	82.06
261.012	86.06
261.244	87.06
261.477	74.06
261.71	78.06
261.942	63.06
262.175	90.06
262.407	77.06
262.64	81.06
262.872	77.06
263.105	75.06
263.337	71.06
263.57	79.06
263.802	84.06
264.035	68.06
264.267	70.06
264.499	70.06
264.732	86.06
264.964	88.06
265.197	86.06
265.429	74.06
265.661	69.06
265.894	76.06
266.126	77.06
266.358	79.06
266.591	70.06
266.823	76.06
267.055	77.06
267.287	92.06
267.52	82.06
267.752	79.06
267.984	71.06
268.216	77.06
268.448	85.06
268.681	76.06
268.913	83.06
269.145	80.06
269.377	81.06
269.609	85.06
269.841	74.06
270.073	73.06
270.306	87.06
270.538	81.06
270.77	70.06
271.002	86.06
271.234	76.06
271.466	84.06
271.698	69.06
271.93	73.06
272.162	78.06
272.394	86.06
272.626	82.06
272.858	78.06
273.09	81.06
273.322	83.06
273.553	73.06
273.785	82.06
274.017	78.06
274.249	63.06
274.481	79.06
274.713	74.06
274.945	86.06
275.176	90.06
275.408	81.06
275.64	71.06
275.872	76.06
276.104	79.06
276.335	90.06
276.567	81.06
276.799	78.06
277.031	86.06
277.262	75.06
277.494	75.06
277.726	77.06
277.957	88.06
278.189	79.06
278.421	77.06
278.652	86.06
278.884	93.06
279.115	86.06
279.347	80.06
279.579	86.06
279.81	76.06
280.042	71.06
280.273	91.06
280.505	81.06
280.736	90.06
280.968	86.06
281.199	75.06
281.431	81.06
281.662	72.06
281.894	89.06
282.125	72.06
282.356	100.06
282.588	75.06
282.819	87.06
283.051	73.06
283.282	85.06
283.513	73.06
283.745	81.06
283.976	77.06
284.207	77.06
284.439	73.06
284.67	93.06
284.901	83.06
285.132	75.06
285.364	83.06
285.595	98.06
285.826	77.06
286.057	79.06
286.288	77.06
286.52	92.06
286.751	89.06
286.982	92.06
287.213	87.06
287.444	66.06
287.675	78.06
287.906	83.06
288.138	69.06
288.369	81.06
288.6	78.06
288.831	85.06
289.062	80.06
289.293	73.06
289.524	77.06
289.755	88.06
289.986	81.06
290.217	74.06
290.448	69.06
290.679	73.06
290.91	94.06
291.141	90.06
291.371	76.06
291.602	95.06
291.833	82.06
292.064	83.06
292.295	70.06
292.526	68.06
292.757	93.06
292.987	70.06
293.218	81.06
293.449	77.06
293.68	83.06
293.91	82.06
294.141	82.06
294.372	72.06
294.603	83.06
294.833	91.06
295.064	93.06
295.295	81.06
295.525	81.06
295.756	78.06
295.987	82.06
296.217	79.06
296.448	82.06
296.679	97.06
296.909	91.06
297.14	91.06
297.37	76.06
297.601	82.06
297.831	71.06
298.062	102.06
298.292	92.06
298.523	90.06
298.753	77.06
298.984	86.06
299.214	80.06
299.445	70.06
299.675	75.06
299.905	83.06
300.136	76.06
300.366	81.06
300.597	66.06
300.827	81.06
301.057	95.06
301.288	82.06
301.518	87.06
301.748	76.06
301.979	94.06
302.209	87.06
302.439	84.06
302.669	99.06
302.9	82.06
303.13	70.06
303.36	83.06
303.59	79.06
303.82	81.06
304.051	79.06
304.281	77.06
304.511	78.06
304.741	71.06
304.971	86.06
305.201	84.06
305.431	90.06
305.661	89.06
305.891	83.06
306.121	88.06
306.352	83.06
306.582	73.06
306.812	71.06
307.042	86.06
307.272	71.06
307.502	77.06
307.731	82.06
307.961	85.06
308.191	89.06
308.421	79.06
308.651	89.06
308.881	80.06
309.111	88.06
309.341	95.06
309.571	92.06
309.8	92.06
310.03	79.06
310.26	102.06
310.49	69.06
310.72	91.06
310.949	90.06
311.179	102.06
311.409	81.06
311.639	77.06
311.868	88.06
312.098	75.06
312.328	66.06
312.557	87.06
312.787	91.06
313.017	81.06
313.246	94.06
313.476	79.06
313.706	86.06
313.935	81.06
314.165	72.06
314.394	78.06
314.624	81.06
314.853	79.06
315.083	91.06
315.312	77.06
315.542	86.06
315.771	76.06
316.001	76.06
316.23	79.06
316.46	79.06
316.689	67.06
316.919	88.06
317.148	77.06
317.377	86.06
317.607	73.06
317.836	78.06
318.065	72.06
318.295	73.06
318.524	77.06
318.753	86.06
318.983	91.06
319.212	89.06
319.441	69.06
319.67	80.06
319.9	71.06
320.129	90.06
320.358	68.06
320.587	94.06
320.816	93.06
321.046	92.06
321.275	79.06
321.504	75.06
321.733	69.06
321.962	86.06
322.191	77.06
322.42	86.06
322.649	87.06
322.878	92.06
323.108	91.06
323.337	102.06
323.566	73.06
323.795	92.06
324.024	90.06
324.253	79.06
324.482	82.06
324.71	86.06
324.939	77.06
325.168	92.06
325.397	94.06
325.626	92.06
325.855	72.06
326.084	86.06
326.313	92.06
326.542	92.06
326.77	90.06
326.999	71.06
327.228	78.06
327.457	83.06
327.686	71.06
327.914	83.06
328.143	82.06
328.372	71.06
328.6	71.06
328.829	71.06
329.058	79.06
329.287	72.06
329.515	81.06
329.744	73.06
329.972	92.06
330.201	78.06
330.43	85.06
330.658	70.06
330.887	87.06
331.115	90.06
331.344	82.06
331.572	86.06
331.801	85.06
332.03	86.06
332.258	63.06
332.486	84.06
332.715	90.06
332.943	75.06
333.172	84.06
333.4	87.06
333.629	89.06
333.857	97.06
334.085	91.06
334.314	81.06
334.542	83.06
334.771	82.06
334.999	85.06
335.227	82.06
335.455	85.06
335.684	87.06
335.912	78.06
336.14	81.06
336.369	83.06
336.597	94.06
336.825	81.06
337.053	79.06
337.281	78.06
337.51	79.06
337.738	81.06
337.966	79.06
338.194	81.06
338.422	83.06
338.65	84.06
338.878	92.06
339.106	85.06
339.334	87.06
339.562	87.06
339.79	69.06
340.018	89.06
340.246	81.06
340.474	90.06
340.702	83.06
340.93	84.06
341.158	60.06
341.386	74.06
341.614	79.06
341.842	64.06
342.07	84.06
342.298	90.06
342.526	82.06
342.754	91.06
342.981	76.06
343.209	75.06
343.437	95.06
343.665	79.06
343.893	80.06
344.12	73.06
344.348	90.06
344.576	91.06
344.804	69.06
345.031	83.06
345.259	85.06
345.487	81.06
345.714	80.06
345.942	92.06
346.17	84.06
346.397	78.06
346.625	86.06
346.853	73.06
347.08	77.06
347.308	77.06
347.535	82.06
347.763	66.06
347.99	79.06
348.218	83.06
348.445	75.06
348.673	72.06
348.9	84.06
349.128	70.06
349.355	83.06
349.583	80.06
349.81	80.06
350.037	74.06
350.265	81.06
350.492	90.06
350.72	80.06
350.947	82.06
351.174	84.06
351.402	87.06
351.629	76.06
351.856	67.06
352.083	101.06
352.311	92.06
352.538	87.06
352.765	76.06
352.992	74.06
353.22	87.06
353.447	85.06
353.674	97.06
353.901	84.06
354.128	77.06
354.355	83.06
354.583	78.06
354.81	85.06
355.037	92.06
355.264	84.06
355.491	76.06
355.718	77.06
355.945	81.06
356.172	97.06
356.399	86.06
356.626	73.06
356.853	71.06
357.08	74.06
357.307	73.06
357.534	77.06
357.761	75.06
357.988	90.06
358.215	75.06
358.441	76.06
358.668	82.06
358.895	78.06
359.122	68.06
359.349	82.06
359.576	81.06
359.802	71.06
360.029	86.06
360.256	75.06
360.483	88.06
360.709	85.06
360.936	86.06
361.163	87.06
361.39	87.06
361.616	78.06
361.843	89.06
362.07	75.06
362.296	69.06
362.523	79.06
362.749	91.06
362.976	86.06
363.203	88.06
363.429	67.06
363.656	86.06
363.882	76.06
364.109	83.06
364.335	84.06
364.562	86.06
364.788	83.06
365.015	76.06
365.241	88.06
365.468	77.06
365.694	86.06
365.92	77.06
366.147	80.06
366.373	76.06
366.599	76.06
366.826	75.06
367.052	73.06
367.278	80.06
367.505	84.06
367.731	104.06
367.957	92.06
368.184	91.06
368.41	78.06
368.636	72.06
368.862	86.06
369.089	84.06
369.315	86.06
369.541	73.06
369.767	82.06
369.993	85.06
370.219	78.06
370.445	86.06
370.672	74.06
370.898	80.06
371.124	80.06
371.35	87.06
371.576	69.06
371.802	70.06
372.028	85.06
372.254	71.06
372.48	79.06
372.706	77.06
372.932	89.06
373.158	84.06
373.384	96.06
373.61	81.06
373.835	82.06
374.061	74.06
374.287	82.06
374.513	74.06
374.739	85.06
374.965	78.06
375.191	87.06
375.416	79.06
375.642	86.06
375.868	71.06
376.094	83.06
376.319	82.06
376.545	88.06
376.771	76.06
376.997	78.06
377.222	87.06
377.448	88.06
377.674	86.06
377.899	106.06
378.125	79.06
378.35	89.06
378.576	80.06
378.802	81.06
379.027	69.06
379.253	86.06
379.478	99.06
379.704	85.06
379.929	75.06
380.155	64.06
380.38	75.06
380.606	78.06
380.831	76.06
381.057	94.06
381.282	83.06
381.507	76.06
381.733	82.06
381.958	77.06
382.184	48.06
382.409	82.06
382.634	83.06
382.86	96.06
383.085	86.06
383.31	91.06
383.535	93.06
383.761	91.06
383.986	89.06
384.211	73.06
384.436	75.06
384.662	87.06
384.887	82.06
385.112	63.06
385.337	85.06
385.562	74.06
385.787	99.06
386.013	74.06
386.238	79.06
386.463	91.06
386.688	75.06
386.913	78.06
387.138	80.06
387.363	76.06
387.588	79.06
387.813	105.06
388.038	74.06
388.263	89.06
388.488	84.06
388.713	72.06
388.938	74.06
389.163	82.06
389.387	81.06
389.612	83.06
389.837	76.06
390.062	77.06
390.287	82.06
390.512	81.06
390.736	75.06
390.961	88.06
391.186	88.06
391.411	81.06
391.636	69.06
391.86	70.06
392.085	90.06
392.31	79.06
392.534	67.06
392.759	76.06
392.984	103.06
393.208	76.06
393.433	91.06
393.658	86.06
393.882	79.06
394.107	79.06
394.331	94.06
394.556	86.06
394.78	77.06
395.005	80.06
395.229	47.06
395.454	76.06
395.678	76.06
395.903	87.06
396.127	91.06
396.352	73.06
396.576	86.06
396.801	99.06
397.025	101.06
397.249	69.06
397.474	83.06
397.698	82.06
397.922	85.06
398.147	79.06
398.371	69.06
398.595	76.06
398.82	82.06
399.044	59.06
399.268	79.06
399.492	75.06
399.717	89.06
399.941	79.06
400.165	86.06
400.389	78.06
400.613	85.06
400.837	75.06
401.062	81.06
401.286	85.06
401.51	87.06
401.734	68.06
401.958	83.06
402.182	67.06
402.406	74.06
402.63	83.06
402.854	82.06
403.078	76.06
403.302	75.06
403.526	80.06
403.75	70.06
403.974	77.06
404.198	67.06
404.422	66.06
404.645	86.06
404.869	78.06
405.093	84.06
405.317	79.06
405.541	76.06
405.765	71.06
405.988	66.06
406.212	74.06
406.436	82.06
406.66	81.06
406.883	85.06
407.107	84.06
407.331	68.06
407.555	81.06
407.778	78.06
408.002	74.06
408.226	69.06
408.449	97.06
408.673	66.06
408.896	82.06
409.12	78.06
409.344	80.06
409.567	68.06
409.791	90.06
410.014	88.06
410.238	70.06
410.461	83.06
410.685	84.06
410.908	97.06
411.132	83.06
411.355	77.06
411.578	89.06
411.802	70.06
412.025	75.06
412.249	83.06
412.472	74.06
412.695	81.06
412.919	64.06
413.142	78.06
413.365	83.06
413.589	72.06
413.812	71.06
414.035	73.06
414.258	82.06
414.482	84.06
414.705	75.06
414.928	77.06
415.151	77.06
415.374	73.06
415.597	84.06
415.821	76.06
416.044	87.06
416.267	84.06
416.49	80.06
416.713	94.06
416.936	86.06
417.159	81.06
417.382	77.06
417.605	77.06
417.828	73.06
418.051	79.06
418.274	69.06
418.497	84.06
418.72	65.06
418.943	81.06
419.166	74.06
419.389	87.06
419.611	76.06
419.834	75.06
420.057	86.06
420.28	58.06
420.503	65.06
420.726	91.06
420.948	80.06
421.171	82.06
421.394	64.06
421.617	75.06
421.839	73.06
422.062	85.06
422.285	88.06
422.507	92.06
422.73	93.06
422.953	92.06
423.175	78.06
423.398	66.06
423.621	67.06
423.843	79.06
424.066	77.06
424.288	75.06
424.511	82.06
424.733	84.06
424.956	68.06
425.178	77.06
425.401	83.06
425.623	83.06
425.846	90.06
426.068	86.06
426.291	68.06
426.513	76.06
426.735	82.06
426.958	80.06
427.18	77.06
427.402	70.06
427.625	81.06
427.847	83.06
428.069	77.06
428.292	76.06
428.514	94.06
428.736	85.06
428.958	76.06
429.181	84.06
429.403	74.06
429.625	75.06
429.847	90.06
430.069	85.06
430.292	83.06
430.514	93.06
430.736	84.06
430.958	71.06
431.18	63.06
431.402	78.06
431.624	71.06
431.846	88.06
432.068	74.06
432.29	79.06
432.512	92.06
432.734	77.06
432.956	67.06
433.178	86.06
433.4	85.06
433.622	90.06
433.844	79.06
434.066	75.06
434.287	69.06
434.509	79.06
434.731	79.06
434.953	67.06
435.175	83.06
435.397	80.06
435.618	87.06
435.84	86.06
436.062	88.06
436.284	81.06
436.505	74.06
436.727	90.06
436.949	67.06
437.17	86.06
437.392	92.06
437.614	88.06
437.835	83.06
438.057	68.06
438.278	61.06
438.5	85.06
438.721	77.06
438.943	69.06
439.165	64.06
439.386	75.06
439.608	71.06
439.829	64.06
440.05	77.06
440.272	79.06
440.493	77.06
440.715	83.06
440.936	79.06
441.158	84.06
441.379	80.06
441.6	78.06
441.822	81.06
442.043	73.06
442.264	80.06
442.486	76.06
442.707	63.06
442.928	84.06
443.149	82.06
443.371	78.06
443.592	86.06
443.813	94.06
444.034	87.06
444.255	88.06
444.476	82.06
444.698	75.06
444.919	87.06
445.14	149.06
445.361	115.06
445.582	94.06
445.803	76.06
446.024	85.06
446.245	65.06
446.466	76.06
446.687	72.06
446.908	81.06
447.129	85.06
447.35	84.06
447.571	86.06
447.792	82.06
448.013	76.06
448.234	85.06
448.455	85.06
448.675	90.06
448.896	76.06
449.117	77.06
449.338	79.06
449.559	77.06
449.779	83.06
450	78.06
450.221	85.06
450.442	76.06
450.662	80.06
450.883	69.06
451.104	74.06
451.324	69.06
451.545	67.06
451.766	73.06
451.986	78.06
452.207	69.06
452.428	81.06
452.648	68.06
452.869	77.06
453.089	76.06
453.31	77.06
453.53	86.06
453.751	70.06
453.971	73.06
454.192	92.06
454.412	86.06
454.633	85.06
454.853	79.06
455.073	74.06
455.294	87.06
455.514	83.06
455.734	75.06
455.955	88.06
456.175	78.06
456.395	68.06
456.616	76.06
456.836	79.06
457.056	73.06
457.276	68.06
457.497	82.06
457.717	78.06
457.937	87.06
458.157	73.06
458.377	66.06
458.598	74.06
458.818	79.06
459.038	91.06
459.258	75.06
459.478	64.06
459.698	82.06
459.918	83.06
460.138	86.06
460.358	80.06
460.578	86.06
460.798	87.06
461.018	89.06
461.238	72.06
461.458	82.06
461.678	72.06
461.898	78.06
462.118	102.06
462.338	86.06
462.558	89.06
462.777	78.06
462.997	89.06
463.217	80.06
463.437	80.06
463.657	60.06
463.876	74.06
464.096	74.06
464.316	75.06
464.536	82.06
464.755	93.06
464.975	86.06
465.195	75.06
465.414	74.06
465.634	67.06
465.854	78.06
466.073	84.06
466.293	82.06
466.512	78.06
466.732	86.06
466.951	93.06
467.171	87.06
467.391	69.06
467.61	78.06
467.829	87.06
468.049	67.06
468.268	78.06
468.488	76.06
468.707	77.06
468.927	70.06
469.146	70.06
469.365	101.06
469.585	93.06
469.804	89.06
470.023	80.06
470.243	71.06
470.462	81.06
470.681	83.06
470.901	85.06
471.12	84.06
471.339	87.06
471.558	73.06
471.777	81.06
471.997	97.06
472.216	75.06
472.435	89.06
472.654	78.06
472.873	86.06
473.092	76.06
473.311	76.06
473.53	77.06
473.749	74.06
473.968	101.06
474.187	89.06
474.406	83.06
474.625	97.06
474.844	78.06
475.063	84.06
475.282	83.06
475.501	78.06
475.72	73.06
475.939	69.06
476.158	77.06
476.377	82.06
476.596	68.06
476.814	86.06
477.033	85.06
477.252	87.06
477.471	90.06
477.69	69.06
477.908	65.06
478.127	77.06
478.346	92.06
478.564	78.06
478.783	90.06
479.002	75.06
479.22	82.06
479.439	80.06
479.658	85.06
479.876	75.06
480.095	73.06
480.313	83.06
480.532	94.06
480.751	69.06
480.969	76.06
481.188	65.06
481.406	81.06
481.624	66.06
481.843	77.06
482.061	87.06
482.28	86.06
482.498	62.06
482.717	80.06
482.935	75.06
483.153	75.06
483.372	101.06
483.59	80.06
483.808	75.06
484.027	77.06
484.245	90.06
484.463	74.06
484.681	69.06
484.9	81.06
485.118	76.06
485.336	85.06
485.554	78.06
485.772	80.06
485.99	84.06
486.209	76.06
486.427	81.06
486.645	75.06
486.863	94.06
487.081	86.06
487.299	79.06
487.517	73.06
487.735	74.06
487.953	77.06
488.171	80.06
488.389	76.06
488.607	77.06
488.825	77.06
489.043	76.06
489.261	86.06
489.479	76.06
489.696	100.06
489.914	90.06
490.132	66.06
490.35	83.06
490.568	84.06
490.786	77.06
491.003	72.06
491.221	71.06
491.439	80.06
491.657	82.06
491.874	86.06
492.092	75.06
492.31	80.06
492.527	74.06
492.745	92.06
492.963	77.06
493.18	94.06
493.398	79.06
493.615	89.06
493.833	77.06
494.05	87.06
494.268	69.06
494.485	73.06
494.703	78.06
494.92	87.06
495.138	72.06
495.355	76.06
495.573	79.06
495.79	77.06
496.008	91.06
496.225	60.06
496.442	74.06
496.66	79.06
496.877	79.06
497.094	71.06
497.312	86.06
497.529	89.06
497.746	87.06
497.963	80.06
498.181	87.06
498.398	86.06
498.615	92.06
498.832	80.06
499.049	71.06
499.267	84.06
499.484	74.06
499.701	89.06
499.918	74.06
500.135	75.06
500.352	84.06
500.569	78.06
500.786	82.06
501.003	84.06
501.22	82.06
501.437	76.06
501.654	84.06
501.871	73.06
502.088	84.06
502.305	69.06
502.522	73.06
502.739	79.06
502.956	83.06
503.172	71.06
503.389	80.06
503.606	78.06
503.823	83.06
504.04	83.06
504.256	89.06
504.473	94.06
504.69	102.06
504.907	87.06
505.123	84.06
505.34	69.06
505.557	66.06
505.773	75.06
505.99	80.06
506.207	88.06
506.423	78.06
506.64	76.06
506.856	97.06
507.073	69.06
507.289	77.06
507.506	98.06
507.722	71.06
507.939	89.06
508.155	87.06
508.372	87.06
508.588	79.06
508.805	88.06
509.021	81.06
509.238	83.06
509.454	78.06
509.67	63.06
509.887	77.06
510.103	91.06
510.319	84.06
510.536	73.06
510.752	75.06
510.968	90.06
511.184	79.06
511.401	77.06
511.617	76.06
511.833	92.06
512.049	82.06
512.265	94.06
512.481	84.06
512.698	87.06
512.914	81.06
513.13	92.06
513.346	84.06
513.562	99.06
513.778	91.06
513.994	69.06
514.21	86.06
514.426	82.06
514.642	72.06
514.858	67.06
515.074	85.06
515.29	89.06
515.506	82.06
515.721	68.06
515.937	64.06
516.153	73.06
516.369	78.06
516.585	80.06
516.801	96.06
517.016	93.06
517.232	73.06
517.448	83.06
517.664	67.06
517.879	87.06
518.095	78.06
518.311	78.06
518.527	85.06
518.742	79.06
518.958	82.06
519.173	84.06
519.389	79.06
519.605	76.06
519.82	76.06
520.036	78.06
