Data from Dirtheat3_HRD10591_00013.txt Node
Date: Fri Dec 27 15:16:25 EST 2024
User: Yrep
Spectrometer: HR+D1059
Trigger mode: 1
Integration Time (sec): 1.000000E-1
Scans to average: 1
Electric dark correction enabled: true
Nonlinearity correction enabled: false
Boxcar width: 0
XAxis mode: Wavelengths
Number of Pixels in Spectrum: 2048
>>>>>Begin Spectral Data<<<<<
223.165	-15.88
223.4	-15.88
223.635	-15.88
223.869	-13.88
224.104	-10.88
224.338	-26.88
224.573	-22.88
224.808	-6.88
225.042	-9.88
225.277	-3.88
225.511	-10.88
225.746	4.12
225.98	5.12
226.215	21.12
226.449	25.12
226.683	14.12
226.918	18.12
227.152	34.12
227.387	39.12
227.621	33.12
227.856	43.12
228.09	37.12
228.324	46.12
228.559	54.12
228.793	69.12
229.027	77.12
229.262	66.12
229.496	61.12
229.73	73.12
229.964	71.12
230.199	65.12
230.433	75.12
230.667	73.12
230.901	77.12
231.136	82.12
231.37	70.12
231.604	77.12
231.838	105.12
232.072	88.12
232.306	71.12
232.541	73.12
232.775	88.12
233.009	74.12
233.243	82.12
233.477	96.12
233.711	84.12
233.945	74.12
234.179	81.12
234.413	85.12
234.647	71.12
234.881	64.12
235.115	85.12
235.349	78.12
235.583	71.12
235.817	77.12
236.051	82.12
236.285	77.12
236.519	78.12
236.753	86.12
236.987	75.12
237.221	85.12
237.455	70.12
237.689	81.12
237.922	71.12
238.156	67.12
238.39	74.12
238.624	63.12
238.858	73.12
239.091	73.12
239.325	82.12
239.559	80.12
239.793	81.12
240.027	65.12
240.26	82.12
240.494	72.12
240.728	60.12
240.961	77.12
241.195	73.12
241.429	85.12
241.662	73.12
241.896	70.12
242.13	84.12
242.363	92.12
242.597	67.12
242.83	61.12
243.064	72.12
243.298	75.12
243.531	71.12
243.765	64.12
243.998	72.12
244.232	77.12
244.465	86.12
244.699	79.12
244.932	78.12
245.166	67.12
245.399	78.12
245.633	71.12
245.866	90.12
246.099	79.12
246.333	85.12
246.566	96.12
246.8	81.12
247.033	66.12
247.266	66.12
247.5	66.12
247.733	70.12
247.966	83.12
248.2	86.12
248.433	81.12
248.666	82.12
248.899	72.12
249.133	86.12
249.366	86.12
249.599	81.12
249.832	73.12
250.066	89.12
250.299	76.12
250.532	79.12
250.765	88.12
250.998	80.12
251.231	84.12
251.465	77.12
251.698	74.12
251.931	74.12
252.164	68.12
252.397	90.12
252.63	72.12
252.863	78.12
253.096	62.12
253.329	76.12
253.562	67.12
253.795	86.12
254.028	87.12
254.261	67.12
254.494	75.12
254.727	74.12
254.96	77.12
255.193	74.12
255.426	80.12
255.659	82.12
255.892	79.12
256.124	85.12
256.357	81.12
256.59	75.12
256.823	67.12
257.056	89.12
257.289	74.12
257.521	84.12
257.754	91.12
257.987	79.12
258.22	88.12
258.452	80.12
258.685	73.12
258.918	89.12
259.151	67.12
259.383	75.12
259.616	82.12
259.849	82.12
260.081	85.12
260.314	81.12
260.547	82.12
260.779	81.12
261.012	85.12
261.244	84.12
261.477	80.12
261.71	72.12
261.942	69.12
262.175	93.12
262.407	86.12
262.64	86.12
262.872	82.12
263.105	82.12
263.337	95.12
263.57	84.12
263.802	98.12
264.035	87.12
264.267	69.12
264.499	78.12
264.732	92.12
264.964	87.12
265.197	73.12
265.429	74.12
265.661	88.12
265.894	70.12
266.126	86.12
266.358	83.12
266.591	83.12
266.823	78.12
267.055	79.12
267.287	72.12
267.52	67.12
267.752	77.12
267.984	85.12
268.216	77.12
268.448	85.12
268.681	72.12
268.913	83.12
269.145	85.12
269.377	94.12
269.609	85.12
269.841	92.12
270.073	94.12
270.306	78.12
270.538	75.12
270.77	77.12
271.002	98.12
271.234	82.12
271.466	99.12
271.698	84.12
271.93	75.12
272.162	80.12
272.394	84.12
272.626	89.12
272.858	93.12
273.09	89.12
273.322	91.12
273.553	82.12
273.785	79.12
274.017	77.12
274.249	77.12
274.481	85.12
274.713	81.12
274.945	95.12
275.176	78.12
275.408	85.12
275.64	89.12
275.872	88.12
276.104	93.12
276.335	88.12
276.567	84.12
276.799	85.12
277.031	76.12
277.262	87.12
277.494	93.12
277.726	88.12
277.957	80.12
278.189	93.12
278.421	77.12
278.652	87.12
278.884	95.12
279.115	87.12
279.347	73.12
279.579	92.12
279.81	93.12
280.042	98.12
280.273	90.12
280.505	81.12
280.736	88.12
280.968	92.12
281.199	79.12
281.431	88.12
281.662	88.12
281.894	86.12
282.125	77.12
282.356	77.12
282.588	75.12
282.819	79.12
283.051	88.12
283.282	75.12
283.513	98.12
283.745	85.12
283.976	79.12
284.207	74.12
284.439	81.12
284.67	76.12
284.901	78.12
285.132	68.12
285.364	83.12
285.595	88.12
285.826	80.12
286.057	84.12
286.288	72.12
286.52	79.12
286.751	81.12
286.982	61.12
287.213	70.12
287.444	93.12
287.675	79.12
287.906	102.12
288.138	86.12
288.369	78.12
288.6	81.12
288.831	88.12
289.062	85.12
289.293	75.12
289.524	93.12
289.755	90.12
289.986	74.12
290.217	91.12
290.448	79.12
290.679	86.12
290.91	84.12
291.141	85.12
291.371	84.12
291.602	82.12
291.833	84.12
292.064	81.12
292.295	73.12
292.526	64.12
292.757	73.12
292.987	94.12
293.218	106.12
293.449	81.12
293.68	89.12
293.91	89.12
294.141	86.12
294.372	83.12
294.603	93.12
294.833	80.12
295.064	83.12
295.295	94.12
295.525	96.12
295.756	82.12
295.987	88.12
296.217	85.12
296.448	72.12
296.679	87.12
296.909	94.12
297.14	86.12
297.37	65.12
297.601	91.12
297.831	96.12
298.062	79.12
298.292	90.12
298.523	96.12
298.753	72.12
298.984	88.12
299.214	87.12
299.445	72.12
299.675	94.12
299.905	87.12
300.136	86.12
300.366	82.12
300.597	78.12
300.827	87.12
301.057	83.12
301.288	77.12
301.518	84.12
301.748	98.12
301.979	103.12
302.209	66.12
302.439	73.12
302.669	74.12
302.9	87.12
303.13	79.12
303.36	87.12
303.59	81.12
303.82	70.12
304.051	89.12
304.281	101.12
304.511	106.12
304.741	84.12
304.971	86.12
305.201	112.12
305.431	90.12
305.661	83.12
305.891	88.12
306.121	94.12
306.352	81.12
306.582	73.12
306.812	78.12
307.042	87.12
307.272	79.12
307.502	83.12
307.731	94.12
307.961	75.12
308.191	84.12
308.421	75.12
308.651	89.12
308.881	89.12
309.111	74.12
309.341	86.12
309.571	86.12
309.8	72.12
310.03	80.12
310.26	65.12
310.49	83.12
310.72	82.12
310.949	76.12
311.179	82.12
311.409	80.12
311.639	88.12
311.868	82.12
312.098	85.12
312.328	81.12
312.557	101.12
312.787	77.12
313.017	86.12
313.246	91.12
313.476	84.12
313.706	84.12
313.935	78.12
314.165	83.12
314.394	81.12
314.624	78.12
314.853	90.12
315.083	83.12
315.312	86.12
315.542	77.12
315.771	96.12
316.001	86.12
316.23	75.12
316.46	68.12
316.689	75.12
316.919	81.12
317.148	80.12
317.377	93.12
317.607	83.12
317.836	85.12
318.065	85.12
318.295	89.12
318.524	96.12
318.753	94.12
318.983	74.12
319.212	79.12
319.441	99.12
319.67	81.12
319.9	94.12
320.129	85.12
320.358	89.12
320.587	81.12
320.816	70.12
321.046	77.12
321.275	89.12
321.504	81.12
321.733	74.12
321.962	79.12
322.191	88.12
322.42	90.12
322.649	80.12
322.878	89.12
323.108	68.12
323.337	85.12
323.566	75.12
323.795	88.12
324.024	69.12
324.253	77.12
324.482	93.12
324.71	92.12
324.939	82.12
325.168	80.12
325.397	83.12
325.626	80.12
325.855	98.12
326.084	97.12
326.313	82.12
326.542	87.12
326.77	97.12
326.999	84.12
327.228	85.12
327.457	91.12
327.686	87.12
327.914	75.12
328.143	91.12
328.372	92.12
328.6	94.12
328.829	92.12
329.058	82.12
329.287	88.12
329.515	73.12
329.744	77.12
329.972	78.12
330.201	87.12
330.43	94.12
330.658	82.12
330.887	98.12
331.115	82.12
331.344	86.12
331.572	77.12
331.801	80.12
332.03	83.12
332.258	78.12
332.486	82.12
332.715	85.12
332.943	74.12
333.172	87.12
333.4	84.12
333.629	77.12
333.857	80.12
334.085	82.12
334.314	79.12
334.542	83.12
334.771	95.12
334.999	76.12
335.227	84.12
335.455	86.12
335.684	91.12
335.912	99.12
336.14	85.12
336.369	68.12
336.597	79.12
336.825	74.12
337.053	97.12
337.281	85.12
337.51	79.12
337.738	79.12
337.966	74.12
338.194	74.12
338.422	76.12
338.65	76.12
338.878	96.12
339.106	74.12
339.334	68.12
339.562	86.12
339.79	94.12
340.018	84.12
340.246	69.12
340.474	77.12
340.702	78.12
340.93	95.12
341.158	87.12
341.386	98.12
341.614	73.12
341.842	84.12
342.07	80.12
342.298	90.12
342.526	74.12
342.754	94.12
342.981	81.12
343.209	71.12
343.437	98.12
343.665	76.12
343.893	85.12
344.12	92.12
344.348	79.12
344.576	77.12
344.804	78.12
345.031	88.12
345.259	94.12
345.487	84.12
345.714	72.12
345.942	70.12
346.17	72.12
346.397	75.12
346.625	97.12
346.853	68.12
347.08	77.12
347.308	93.12
347.535	76.12
347.763	98.12
347.99	93.12
348.218	79.12
348.445	71.12
348.673	81.12
348.9	92.12
349.128	92.12
349.355	75.12
349.583	91.12
349.81	78.12
350.037	87.12
350.265	86.12
350.492	87.12
350.72	82.12
350.947	86.12
351.174	86.12
351.402	83.12
351.629	94.12
351.856	91.12
352.083	77.12
352.311	93.12
352.538	88.12
352.765	66.12
352.992	95.12
353.22	75.12
353.447	80.12
353.674	93.12
353.901	86.12
354.128	72.12
354.355	81.12
354.583	65.12
354.81	81.12
355.037	92.12
355.264	77.12
355.491	80.12
355.718	83.12
355.945	85.12
356.172	94.12
356.399	88.12
356.626	86.12
356.853	78.12
357.08	87.12
357.307	87.12
357.534	83.12
357.761	82.12
357.988	82.12
358.215	88.12
358.441	87.12
358.668	89.12
358.895	86.12
359.122	84.12
359.349	87.12
359.576	80.12
359.802	90.12
360.029	76.12
360.256	68.12
360.483	87.12
360.709	83.12
360.936	83.12
361.163	89.12
361.39	81.12
361.616	81.12
361.843	83.12
362.07	86.12
362.296	91.12
362.523	104.12
362.749	68.12
362.976	102.12
363.203	90.12
363.429	88.12
363.656	76.12
363.882	84.12
364.109	71.12
364.335	89.12
364.562	96.12
364.788	94.12
365.015	97.12
365.241	90.12
365.468	92.12
365.694	85.12
365.92	94.12
366.147	88.12
366.373	89.12
366.599	86.12
366.826	81.12
367.052	80.12
367.278	66.12
367.505	74.12
367.731	95.12
367.957	79.12
368.184	89.12
368.41	85.12
368.636	89.12
368.862	80.12
369.089	85.12
369.315	69.12
369.541	82.12
369.767	78.12
369.993	83.12
370.219	81.12
370.445	94.12
370.672	77.12
370.898	93.12
371.124	81.12
371.35	84.12
371.576	89.12
371.802	85.12
372.028	84.12
372.254	91.12
372.48	99.12
372.706	93.12
372.932	79.12
373.158	82.12
373.384	85.12
373.61	82.12
373.835	79.12
374.061	78.12
374.287	86.12
374.513	99.12
374.739	82.12
374.965	80.12
375.191	82.12
375.416	81.12
375.642	68.12
375.868	79.12
376.094	89.12
376.319	89.12
376.545	78.12
376.771	91.12
376.997	92.12
377.222	75.12
377.448	84.12
377.674	74.12
377.899	91.12
378.125	87.12
378.35	82.12
378.576	90.12
378.802	94.12
379.027	89.12
379.253	88.12
379.478	89.12
379.704	90.12
379.929	93.12
380.155	93.12
380.38	85.12
380.606	74.12
380.831	78.12
381.057	94.12
381.282	85.12
381.507	78.12
381.733	80.12
381.958	94.12
382.184	97.12
382.409	71.12
382.634	75.12
382.86	93.12
383.085	81.12
383.31	81.12
383.535	94.12
383.761	87.12
383.986	86.12
384.211	88.12
384.436	74.12
384.662	83.12
384.887	84.12
385.112	80.12
385.337	75.12
385.562	70.12
385.787	73.12
386.013	100.12
386.238	89.12
386.463	71.12
386.688	107.12
386.913	93.12
387.138	90.12
387.363	84.12
387.588	77.12
387.813	77.12
388.038	78.12
388.263	87.12
388.488	83.12
388.713	82.12
388.938	77.12
389.163	81.12
389.387	85.12
389.612	94.12
389.837	78.12
390.062	81.12
390.287	94.12
390.512	81.12
390.736	96.12
390.961	84.12
391.186	77.12
391.411	79.12
391.636	84.12
391.86	93.12
392.085	102.12
392.31	81.12
392.534	86.12
392.759	81.12
392.984	84.12
393.208	105.12
393.433	105.12
393.658	91.12
393.882	82.12
394.107	86.12
394.331	105.12
394.556	74.12
394.78	64.12
395.005	99.12
395.229	93.12
395.454	69.12
395.678	79.12
395.903	103.12
396.127	101.12
396.352	95.12
396.576	92.12
396.801	99.12
397.025	109.12
397.249	84.12
397.474	92.12
397.698	105.12
397.922	96.12
398.147	89.12
398.371	86.12
398.595	90.12
398.82	77.12
399.044	66.12
399.268	66.12
399.492	94.12
399.717	83.12
399.941	93.12
400.165	89.12
400.389	86.12
400.613	92.12
400.837	77.12
401.062	80.12
401.286	87.12
401.51	83.12
401.734	76.12
401.958	80.12
402.182	80.12
402.406	81.12
402.63	82.12
402.854	91.12
403.078	85.12
403.302	89.12
403.526	83.12
403.75	85.12
403.974	78.12
404.198	90.12
404.422	81.12
404.645	90.12
404.869	80.12
405.093	85.12
405.317	83.12
405.541	78.12
405.765	87.12
405.988	71.12
406.212	88.12
406.436	80.12
406.66	89.12
406.883	79.12
407.107	77.12
407.331	92.12
407.555	77.12
407.778	75.12
408.002	92.12
408.226	89.12
408.449	86.12
408.673	77.12
408.896	83.12
409.12	78.12
409.344	102.12
409.567	79.12
409.791	85.12
410.014	83.12
410.238	91.12
410.461	80.12
410.685	74.12
410.908	87.12
411.132	80.12
411.355	79.12
411.578	84.12
411.802	83.12
412.025	86.12
412.249	88.12
412.472	89.12
412.695	74.12
412.919	88.12
413.142	73.12
413.365	85.12
413.589	77.12
413.812	77.12
414.035	85.12
414.258	90.12
414.482	73.12
414.705	65.12
414.928	90.12
415.151	81.12
415.374	73.12
415.597	85.12
415.821	78.12
416.044	85.12
416.267	77.12
416.49	83.12
416.713	85.12
416.936	80.12
417.159	83.12
417.382	86.12
417.605	83.12
417.828	68.12
418.051	98.12
418.274	84.12
418.497	102.12
418.72	78.12
418.943	86.12
419.166	80.12
419.389	74.12
419.611	86.12
419.834	82.12
420.057	83.12
420.28	76.12
420.503	95.12
420.726	94.12
420.948	79.12
421.171	81.12
421.394	98.12
421.617	97.12
421.839	79.12
422.062	94.12
422.285	97.12
422.507	115.12
422.73	111.12
422.953	108.12
423.175	87.12
423.398	78.12
423.621	86.12
423.843	69.12
424.066	69.12
424.288	70.12
424.511	76.12
424.733	98.12
424.956	89.12
425.178	90.12
425.401	78.12
425.623	91.12
425.846	72.12
426.068	63.12
426.291	76.12
426.513	94.12
426.735	73.12
426.958	83.12
427.18	84.12
427.402	85.12
427.625	68.12
427.847	72.12
428.069	79.12
428.292	72.12
428.514	80.12
428.736	75.12
428.958	93.12
429.181	97.12
429.403	95.12
429.625	78.12
429.847	88.12
430.069	95.12
430.292	93.12
430.514	87.12
430.736	85.12
430.958	81.12
431.18	85.12
431.402	79.12
431.624	86.12
431.846	89.12
432.068	82.12
432.29	72.12
432.512	83.12
432.734	68.12
432.956	89.12
433.178	92.12
433.4	65.12
433.622	88.12
433.844	93.12
434.066	80.12
434.287	86.12
434.509	83.12
434.731	88.12
434.953	82.12
435.175	82.12
435.397	95.12
435.618	80.12
435.84	94.12
436.062	81.12
436.284	84.12
436.505	78.12
436.727	79.12
436.949	84.12
437.17	62.12
437.392	75.12
437.614	75.12
437.835	80.12
438.057	85.12
438.278	81.12
438.5	98.12
438.721	82.12
438.943	79.12
439.165	90.12
439.386	71.12
439.608	89.12
439.829	89.12
440.05	94.12
440.272	76.12
440.493	78.12
440.715	84.12
440.936	71.12
441.158	75.12
441.379	91.12
441.6	85.12
441.822	81.12
442.043	79.12
442.264	73.12
442.486	94.12
442.707	93.12
442.928	76.12
443.149	85.12
443.371	105.12
443.592	107.12
443.813	84.12
444.034	91.12
444.255	80.12
444.476	78.12
444.698	65.12
444.919	82.12
445.14	156.12
445.361	127.12
445.582	106.12
445.803	92.12
446.024	80.12
446.245	80.12
446.466	86.12
446.687	91.12
446.908	87.12
447.129	81.12
447.35	74.12
447.571	81.12
447.792	77.12
448.013	72.12
448.234	78.12
448.455	82.12
448.675	82.12
448.896	74.12
449.117	77.12
449.338	82.12
449.559	77.12
449.779	87.12
450	81.12
450.221	73.12
450.442	106.12
450.662	87.12
450.883	89.12
451.104	99.12
451.324	73.12
451.545	71.12
451.766	96.12
451.986	78.12
452.207	80.12
452.428	83.12
452.648	90.12
452.869	85.12
453.089	89.12
453.31	80.12
453.53	79.12
453.751	62.12
453.971	71.12
454.192	77.12
454.412	77.12
454.633	79.12
454.853	88.12
455.073	94.12
455.294	90.12
455.514	92.12
455.734	77.12
455.955	81.12
456.175	86.12
456.395	79.12
456.616	86.12
456.836	86.12
457.056	68.12
457.276	64.12
457.497	72.12
457.717	94.12
457.937	87.12
458.157	94.12
458.377	83.12
458.598	86.12
458.818	90.12
459.038	96.12
459.258	88.12
459.478	86.12
459.698	74.12
459.918	96.12
460.138	75.12
460.358	70.12
460.578	91.12
460.798	94.12
461.018	85.12
461.238	87.12
461.458	73.12
461.678	87.12
461.898	74.12
462.118	69.12
462.338	81.12
462.558	82.12
462.777	84.12
462.997	89.12
463.217	97.12
463.437	83.12
463.657	84.12
463.876	64.12
464.096	87.12
464.316	65.12
464.536	80.12
464.755	83.12
464.975	88.12
465.195	88.12
465.414	93.12
465.634	70.12
465.854	95.12
466.073	90.12
466.293	76.12
466.512	74.12
466.732	68.12
466.951	65.12
467.171	77.12
467.391	84.12
467.61	86.12
467.829	80.12
468.049	77.12
468.268	77.12
468.488	71.12
468.707	83.12
468.927	76.12
469.146	87.12
469.365	83.12
469.585	92.12
469.804	86.12
470.023	80.12
470.243	84.12
470.462	92.12
470.681	82.12
470.901	82.12
471.12	93.12
471.339	80.12
471.558	85.12
471.777	83.12
471.997	86.12
472.216	102.12
472.435	74.12
472.654	80.12
472.873	76.12
473.092	85.12
473.311	79.12
473.53	67.12
473.749	88.12
473.968	101.12
474.187	96.12
474.406	65.12
474.625	84.12
474.844	93.12
475.063	81.12
475.282	81.12
475.501	102.12
475.72	97.12
475.939	75.12
476.158	83.12
476.377	80.12
476.596	81.12
476.814	85.12
477.033	62.12
477.252	91.12
477.471	91.12
477.69	90.12
477.908	82.12
478.127	96.12
478.346	91.12
478.564	77.12
478.783	80.12
479.002	75.12
479.22	90.12
479.439	79.12
479.658	71.12
479.876	84.12
480.095	76.12
480.313	77.12
480.532	88.12
480.751	79.12
480.969	63.12
481.188	72.12
481.406	93.12
481.624	70.12
481.843	85.12
482.061	77.12
482.28	88.12
482.498	89.12
482.717	72.12
482.935	91.12
483.153	73.12
483.372	73.12
483.59	86.12
483.808	75.12
484.027	82.12
484.245	78.12
484.463	89.12
484.681	88.12
484.9	75.12
485.118	86.12
485.336	77.12
485.554	85.12
485.772	90.12
485.99	81.12
486.209	96.12
486.427	83.12
486.645	94.12
486.863	84.12
487.081	81.12
487.299	78.12
487.517	65.12
487.735	77.12
487.953	105.12
488.171	117.12
488.389	71.12
488.607	79.12
488.825	85.12
489.043	75.12
489.261	91.12
489.479	85.12
489.696	88.12
489.914	79.12
490.132	90.12
490.35	73.12
490.568	88.12
490.786	92.12
491.003	74.12
491.221	76.12
491.439	89.12
491.657	89.12
491.874	80.12
492.092	77.12
492.31	87.12
492.527	75.12
492.745	78.12
492.963	80.12
493.18	82.12
493.398	87.12
493.615	90.12
493.833	74.12
494.05	71.12
494.268	88.12
494.485	87.12
494.703	93.12
494.92	65.12
495.138	88.12
495.355	69.12
495.573	69.12
495.79	86.12
496.008	76.12
496.225	78.12
496.442	83.12
496.66	89.12
496.877	94.12
497.094	113.12
497.312	75.12
497.529	96.12
497.746	79.12
497.963	74.12
498.181	80.12
498.398	90.12
498.615	86.12
498.832	79.12
499.049	74.12
499.267	90.12
499.484	94.12
499.701	95.12
499.918	89.12
500.135	82.12
500.352	85.12
500.569	81.12
500.786	81.12
501.003	87.12
501.22	92.12
501.437	89.12
501.654	96.12
501.871	82.12
502.088	89.12
502.305	96.12
502.522	81.12
502.739	76.12
502.956	85.12
503.172	95.12
503.389	87.12
503.606	89.12
503.823	89.12
504.04	88.12
504.256	89.12
504.473	107.12
504.69	82.12
504.907	89.12
505.123	71.12
505.34	89.12
505.557	90.12
505.773	83.12
505.99	86.12
506.207	79.12
506.423	89.12
506.64	80.12
506.856	107.12
507.073	89.12
507.289	82.12
507.506	77.12
507.722	81.12
507.939	94.12
508.155	71.12
508.372	85.12
508.588	84.12
508.805	84.12
509.021	81.12
509.238	78.12
509.454	85.12
509.67	81.12
509.887	79.12
510.103	88.12
510.319	82.12
510.536	72.12
510.752	92.12
510.968	91.12
511.184	89.12
511.401	83.12
511.617	81.12
511.833	80.12
512.049	73.12
512.265	83.12
512.481	73.12
512.698	80.12
512.914	73.12
513.13	86.12
513.346	77.12
513.562	92.12
513.778	87.12
513.994	85.12
514.21	101.12
514.426	92.12
514.642	89.12
514.858	75.12
515.074	91.12
515.29	89.12
515.506	84.12
515.721	80.12
515.937	86.12
516.153	69.12
516.369	81.12
516.585	86.12
516.801	83.12
517.016	94.12
517.232	84.12
517.448	78.12
517.664	98.12
517.879	84.12
518.095	80.12
518.311	90.12
518.527	78.12
518.742	90.12
518.958	90.12
519.173	102.12
519.389	88.12
519.605	95.12
