Data from Dirtheat3_HRD10591_00019.txt Node
Date: Fri Dec 27 15:16:31 EST 2024
User: Yrep
Spectrometer: HR+D1059
Trigger mode: 1
Integration Time (sec): 1.000000E-1
Scans to average: 1
Electric dark correction enabled: true
Nonlinearity correction enabled: false
Boxcar width: 0
XAxis mode: Wavelengths
Number of Pixels in Spectrum: 2048
>>>>>Begin Spectral Data<<<<<
223.165	-7.94
223.4	-7.94
223.635	-7.94
223.869	-5.94
224.104	-19.94
224.338	-14.94
224.573	-11.94
224.808	-24.94
225.042	-13.94
225.277	-0.94
225.511	3.06
225.746	-0.94
225.98	1.06
226.215	28.06
226.449	15.06
226.683	16.06
226.918	18.06
227.152	20.06
227.387	31.06
227.621	50.06
227.856	54.06
228.09	38.06
228.324	55.06
228.559	57.06
228.793	58.06
229.027	74.06
229.262	55.06
229.496	73.06
229.73	63.06
229.964	66.06
230.199	82.06
230.433	73.06
230.667	94.06
230.901	87.06
231.136	74.06
231.37	69.06
231.604	77.06
231.838	84.06
232.072	76.06
232.306	80.06
232.541	78.06
232.775	74.06
233.009	79.06
233.243	89.06
233.477	91.06
233.711	81.06
233.945	76.06
234.179	77.06
234.413	78.06
234.647	80.06
234.881	83.06
235.115	73.06
235.349	89.06
235.583	82.06
235.817	94.06
236.051	75.06
236.285	82.06
236.519	73.06
236.753	77.06
236.987	83.06
237.221	81.06
237.455	80.06
237.689	75.06
237.922	82.06
238.156	71.06
238.39	85.06
238.624	79.06
238.858	76.06
239.091	77.06
239.325	73.06
239.559	70.06
239.793	72.06
240.027	83.06
240.26	73.06
240.494	90.06
240.728	76.06
240.961	65.06
241.195	65.06
241.429	63.06
241.662	80.06
241.896	73.06
242.13	83.06
242.363	61.06
242.597	71.06
242.83	88.06
243.064	69.06
243.298	84.06
243.531	86.06
243.765	62.06
243.998	78.06
244.232	93.06
244.465	78.06
244.699	76.06
244.932	71.06
245.166	67.06
245.399	81.06
245.633	66.06
245.866	72.06
246.099	79.06
246.333	78.06
246.566	81.06
246.8	76.06
247.033	72.06
247.266	67.06
247.5	78.06
247.733	80.06
247.966	76.06
248.2	73.06
248.433	77.06
248.666	73.06
248.899	92.06
249.133	95.06
249.366	85.06
249.599	78.06
249.832	73.06
250.066	87.06
250.299	79.06
250.532	86.06
250.765	74.06
250.998	75.06
251.231	77.06
251.465	83.06
251.698	83.06
251.931	70.06
252.164	74.06
252.397	89.06
252.63	81.06
252.863	74.06
253.096	93.06
253.329	75.06
253.562	82.06
253.795	91.06
254.028	87.06
254.261	93.06
254.494	76.06
254.727	82.06
254.96	81.06
255.193	100.06
255.426	87.06
255.659	93.06
255.892	98.06
256.124	80.06
256.357	76.06
256.59	73.06
256.823	81.06
257.056	81.06
257.289	78.06
257.521	79.06
257.754	101.06
257.987	95.06
258.22	92.06
258.452	70.06
258.685	74.06
258.918	79.06
259.151	72.06
259.383	70.06
259.616	80.06
259.849	80.06
260.081	82.06
260.314	79.06
260.547	76.06
260.779	69.06
261.012	94.06
261.244	71.06
261.477	90.06
261.71	77.06
261.942	87.06
262.175	93.06
262.407	95.06
262.64	86.06
262.872	94.06
263.105	89.06
263.337	80.06
263.57	83.06
263.802	83.06
264.035	88.06
264.267	77.06
264.499	84.06
264.732	108.06
264.964	80.06
265.197	79.06
265.429	70.06
265.661	92.06
265.894	89.06
266.126	87.06
266.358	93.06
266.591	73.06
266.823	89.06
267.055	85.06
267.287	101.06
267.52	95.06
267.752	89.06
267.984	95.06
268.216	84.06
268.448	71.06
268.681	89.06
268.913	93.06
269.145	83.06
269.377	81.06
269.609	77.06
269.841	92.06
270.073	70.06
270.306	70.06
270.538	72.06
270.77	86.06
271.002	80.06
271.234	93.06
271.466	90.06
271.698	87.06
271.93	86.06
272.162	80.06
272.394	88.06
272.626	96.06
272.858	97.06
273.09	84.06
273.322	88.06
273.553	63.06
273.785	92.06
274.017	81.06
274.249	73.06
274.481	78.06
274.713	87.06
274.945	70.06
275.176	80.06
275.408	76.06
275.64	80.06
275.872	88.06
276.104	78.06
276.335	76.06
276.567	81.06
276.799	79.06
277.031	78.06
277.262	82.06
277.494	81.06
277.726	77.06
277.957	83.06
278.189	83.06
278.421	70.06
278.652	67.06
278.884	91.06
279.115	103.06
279.347	95.06
279.579	86.06
279.81	76.06
280.042	78.06
280.273	70.06
280.505	92.06
280.736	92.06
280.968	78.06
281.199	79.06
281.431	78.06
281.662	79.06
281.894	88.06
282.125	93.06
282.356	90.06
282.588	91.06
282.819	87.06
283.051	72.06
283.282	77.06
283.513	98.06
283.745	86.06
283.976	90.06
284.207	84.06
284.439	89.06
284.67	76.06
284.901	93.06
285.132	72.06
285.364	91.06
285.595	94.06
285.826	94.06
286.057	89.06
286.288	96.06
286.52	102.06
286.751	96.06
286.982	84.06
287.213	87.06
287.444	92.06
287.675	77.06
287.906	71.06
288.138	88.06
288.369	82.06
288.6	80.06
288.831	83.06
289.062	94.06
289.293	88.06
289.524	92.06
289.755	78.06
289.986	73.06
290.217	86.06
290.448	79.06
290.679	80.06
290.91	81.06
291.141	77.06
291.371	73.06
291.602	81.06
291.833	78.06
292.064	72.06
292.295	81.06
292.526	83.06
292.757	93.06
292.987	75.06
293.218	81.06
293.449	85.06
293.68	87.06
293.91	89.06
294.141	90.06
294.372	86.06
294.603	88.06
294.833	69.06
295.064	79.06
295.295	84.06
295.525	80.06
295.756	88.06
295.987	76.06
296.217	82.06
296.448	81.06
296.679	74.06
296.909	86.06
297.14	86.06
297.37	90.06
297.601	69.06
297.831	77.06
298.062	81.06
298.292	101.06
298.523	84.06
298.753	92.06
298.984	82.06
299.214	90.06
299.445	89.06
299.675	82.06
299.905	95.06
300.136	85.06
300.366	72.06
300.597	80.06
300.827	97.06
301.057	104.06
301.288	88.06
301.518	75.06
301.748	91.06
301.979	116.06
302.209	96.06
302.439	86.06
302.669	91.06
302.9	80.06
303.13	81.06
303.36	90.06
303.59	72.06
303.82	79.06
304.051	81.06
304.281	89.06
304.511	93.06
304.741	119.06
304.971	95.06
305.201	89.06
305.431	80.06
305.661	80.06
305.891	79.06
306.121	82.06
306.352	81.06
306.582	72.06
306.812	89.06
307.042	100.06
307.272	80.06
307.502	94.06
307.731	96.06
307.961	86.06
308.191	92.06
308.421	86.06
308.651	81.06
308.881	68.06
309.111	78.06
309.341	79.06
309.571	77.06
309.8	78.06
310.03	87.06
310.26	84.06
310.49	92.06
310.72	89.06
310.949	90.06
311.179	83.06
311.409	76.06
311.639	85.06
311.868	83.06
312.098	87.06
312.328	76.06
312.557	84.06
312.787	90.06
313.017	74.06
313.246	77.06
313.476	104.06
313.706	90.06
313.935	82.06
314.165	79.06
314.394	79.06
314.624	78.06
314.853	79.06
315.083	89.06
315.312	85.06
315.542	92.06
315.771	91.06
316.001	100.06
316.23	84.06
316.46	83.06
316.689	64.06
316.919	81.06
317.148	90.06
317.377	81.06
317.607	75.06
317.836	79.06
318.065	79.06
318.295	72.06
318.524	66.06
318.753	72.06
318.983	90.06
319.212	96.06
319.441	77.06
319.67	90.06
319.9	89.06
320.129	102.06
320.358	65.06
320.587	83.06
320.816	85.06
321.046	97.06
321.275	85.06
321.504	92.06
321.733	81.06
321.962	82.06
322.191	79.06
322.42	96.06
322.649	68.06
322.878	89.06
323.108	83.06
323.337	81.06
323.566	84.06
323.795	93.06
324.024	95.06
324.253	92.06
324.482	95.06
324.71	82.06
324.939	95.06
325.168	86.06
325.397	93.06
325.626	85.06
325.855	78.06
326.084	77.06
326.313	74.06
326.542	89.06
326.77	92.06
326.999	71.06
327.228	83.06
327.457	87.06
327.686	85.06
327.914	73.06
328.143	86.06
328.372	94.06
328.6	88.06
328.829	91.06
329.058	80.06
329.287	80.06
329.515	78.06
329.744	80.06
329.972	78.06
330.201	74.06
330.43	66.06
330.658	90.06
330.887	87.06
331.115	82.06
331.344	78.06
331.572	79.06
331.801	83.06
332.03	87.06
332.258	84.06
332.486	81.06
332.715	85.06
332.943	92.06
333.172	96.06
333.4	76.06
333.629	97.06
333.857	94.06
334.085	101.06
334.314	93.06
334.542	87.06
334.771	77.06
334.999	97.06
335.227	77.06
335.455	87.06
335.684	91.06
335.912	81.06
336.14	80.06
336.369	89.06
336.597	86.06
336.825	88.06
337.053	87.06
337.281	93.06
337.51	78.06
337.738	84.06
337.966	81.06
338.194	80.06
338.422	92.06
338.65	94.06
338.878	92.06
339.106	78.06
339.334	95.06
339.562	79.06
339.79	83.06
340.018	82.06
340.246	79.06
340.474	89.06
340.702	76.06
340.93	85.06
341.158	99.06
341.386	79.06
341.614	81.06
341.842	77.06
342.07	71.06
342.298	96.06
342.526	78.06
342.754	83.06
342.981	98.06
343.209	85.06
343.437	93.06
343.665	91.06
343.893	90.06
344.12	93.06
344.348	68.06
344.576	78.06
344.804	88.06
345.031	88.06
345.259	84.06
345.487	88.06
345.714	72.06
345.942	84.06
346.17	93.06
346.397	88.06
346.625	76.06
346.853	73.06
347.08	75.06
347.308	90.06
347.535	74.06
347.763	81.06
347.99	76.06
348.218	92.06
348.445	79.06
348.673	84.06
348.9	90.06
349.128	92.06
349.355	87.06
349.583	89.06
349.81	87.06
350.037	82.06
350.265	84.06
350.492	71.06
350.72	82.06
350.947	85.06
351.174	75.06
351.402	80.06
351.629	86.06
351.856	76.06
352.083	71.06
352.311	86.06
352.538	65.06
352.765	91.06
352.992	90.06
353.22	91.06
353.447	85.06
353.674	80.06
353.901	94.06
354.128	73.06
354.355	91.06
354.583	85.06
354.81	95.06
355.037	83.06
355.264	84.06
355.491	76.06
355.718	77.06
355.945	82.06
356.172	80.06
356.399	90.06
356.626	95.06
356.853	95.06
357.08	92.06
357.307	82.06
357.534	86.06
357.761	80.06
357.988	80.06
358.215	90.06
358.441	86.06
358.668	82.06
358.895	87.06
359.122	98.06
359.349	82.06
359.576	83.06
359.802	90.06
360.029	86.06
360.256	83.06
360.483	79.06
360.709	92.06
360.936	92.06
361.163	86.06
361.39	77.06
361.616	75.06
361.843	74.06
362.07	87.06
362.296	87.06
362.523	83.06
362.749	89.06
362.976	74.06
363.203	90.06
363.429	93.06
363.656	92.06
363.882	84.06
364.109	78.06
364.335	95.06
364.562	70.06
364.788	84.06
365.015	80.06
365.241	89.06
365.468	97.06
365.694	97.06
365.92	83.06
366.147	80.06
366.373	66.06
366.599	76.06
366.826	76.06
367.052	80.06
367.278	84.06
367.505	83.06
367.731	89.06
367.957	93.06
368.184	88.06
368.41	70.06
368.636	94.06
368.862	67.06
369.089	72.06
369.315	86.06
369.541	71.06
369.767	77.06
369.993	70.06
370.219	80.06
370.445	92.06
370.672	85.06
370.898	85.06
371.124	85.06
371.35	76.06
371.576	80.06
371.802	90.06
372.028	82.06
372.254	88.06
372.48	85.06
372.706	85.06
372.932	79.06
373.158	76.06
373.384	94.06
373.61	87.06
373.835	85.06
374.061	87.06
374.287	72.06
374.513	79.06
374.739	74.06
374.965	85.06
375.191	84.06
375.416	92.06
375.642	95.06
375.868	94.06
376.094	74.06
376.319	82.06
376.545	76.06
376.771	92.06
376.997	73.06
377.222	81.06
377.448	88.06
377.674	71.06
377.899	81.06
378.125	71.06
378.35	81.06
378.576	80.06
378.802	77.06
379.027	88.06
379.253	82.06
379.478	88.06
379.704	94.06
379.929	84.06
380.155	72.06
380.38	76.06
380.606	81.06
380.831	86.06
381.057	97.06
381.282	74.06
381.507	79.06
381.733	78.06
381.958	83.06
382.184	76.06
382.409	83.06
382.634	76.06
382.86	81.06
383.085	80.06
383.31	81.06
383.535	72.06
383.761	73.06
383.986	88.06
384.211	93.06
384.436	81.06
384.662	90.06
384.887	86.06
385.112	78.06
385.337	81.06
385.562	90.06
385.787	76.06
386.013	88.06
386.238	72.06
386.463	95.06
386.688	92.06
386.913	72.06
387.138	84.06
387.363	77.06
387.588	78.06
387.813	82.06
388.038	70.06
388.263	84.06
388.488	60.06
388.713	88.06
388.938	78.06
389.163	87.06
389.387	94.06
389.612	79.06
389.837	92.06
390.062	73.06
390.287	92.06
390.512	85.06
390.736	83.06
390.961	81.06
391.186	76.06
391.411	71.06
391.636	83.06
391.86	91.06
392.085	72.06
392.31	80.06
392.534	71.06
392.759	90.06
392.984	91.06
393.208	88.06
393.433	101.06
393.658	86.06
393.882	98.06
394.107	94.06
394.331	82.06
394.556	78.06
394.78	86.06
395.005	93.06
395.229	81.06
395.454	72.06
395.678	95.06
395.903	82.06
396.127	73.06
396.352	80.06
396.576	68.06
396.801	73.06
397.025	75.06
397.249	79.06
397.474	95.06
397.698	82.06
397.922	92.06
398.147	82.06
398.371	82.06
398.595	82.06
398.82	80.06
399.044	82.06
399.268	88.06
399.492	79.06
399.717	66.06
399.941	76.06
400.165	73.06
400.389	78.06
400.613	85.06
400.837	84.06
401.062	77.06
401.286	92.06
401.51	93.06
401.734	73.06
401.958	78.06
402.182	70.06
402.406	77.06
402.63	69.06
402.854	90.06
403.078	94.06
403.302	88.06
403.526	72.06
403.75	84.06
403.974	88.06
404.198	91.06
404.422	81.06
404.645	77.06
404.869	73.06
405.093	87.06
405.317	87.06
405.541	88.06
405.765	87.06
405.988	82.06
406.212	82.06
406.436	77.06
406.66	88.06
406.883	78.06
407.107	73.06
407.331	90.06
407.555	82.06
407.778	84.06
408.002	92.06
408.226	88.06
408.449	77.06
408.673	82.06
408.896	80.06
409.12	72.06
409.344	89.06
409.567	74.06
409.791	90.06
410.014	81.06
410.238	85.06
410.461	70.06
410.685	88.06
410.908	91.06
411.132	89.06
411.355	84.06
411.578	84.06
411.802	81.06
412.025	78.06
412.249	82.06
412.472	79.06
412.695	79.06
412.919	77.06
413.142	78.06
413.365	87.06
413.589	93.06
413.812	85.06
414.035	80.06
414.258	81.06
414.482	76.06
414.705	89.06
414.928	100.06
415.151	80.06
415.374	76.06
415.597	99.06
415.821	76.06
416.044	81.06
416.267	76.06
416.49	84.06
416.713	84.06
416.936	89.06
417.159	77.06
417.382	67.06
417.605	77.06
417.828	71.06
418.051	74.06
418.274	78.06
418.497	72.06
418.72	81.06
418.943	89.06
419.166	84.06
419.389	80.06
419.611	86.06
419.834	86.06
420.057	82.06
420.28	91.06
420.503	76.06
420.726	62.06
420.948	80.06
421.171	80.06
421.394	92.06
421.617	80.06
421.839	93.06
422.062	80.06
422.285	81.06
422.507	91.06
422.73	85.06
422.953	85.06
423.175	90.06
423.398	86.06
423.621	89.06
423.843	104.06
424.066	82.06
424.288	80.06
424.511	93.06
424.733	85.06
424.956	79.06
425.178	92.06
425.401	91.06
425.623	75.06
425.846	91.06
426.068	87.06
426.291	74.06
426.513	71.06
426.735	89.06
426.958	80.06
427.18	92.06
427.402	89.06
427.625	61.06
427.847	81.06
428.069	93.06
428.292	84.06
428.514	84.06
428.736	75.06
428.958	87.06
429.181	102.06
429.403	89.06
429.625	92.06
429.847	69.06
430.069	77.06
430.292	91.06
430.514	81.06
430.736	77.06
430.958	81.06
431.18	81.06
431.402	76.06
431.624	76.06
431.846	81.06
432.068	84.06
432.29	75.06
432.512	68.06
432.734	68.06
432.956	77.06
433.178	84.06
433.4	62.06
433.622	88.06
433.844	86.06
434.066	95.06
434.287	78.06
434.509	73.06
434.731	90.06
434.953	74.06
435.175	85.06
435.397	78.06
435.618	71.06
435.84	88.06
436.062	97.06
436.284	84.06
436.505	91.06
436.727	79.06
436.949	86.06
437.17	74.06
437.392	81.06
437.614	84.06
437.835	73.06
438.057	80.06
438.278	68.06
438.5	85.06
438.721	88.06
438.943	77.06
439.165	94.06
439.386	72.06
439.608	74.06
439.829	86.06
440.05	86.06
440.272	86.06
440.493	79.06
440.715	87.06
440.936	82.06
441.158	80.06
441.379	63.06
441.6	77.06
441.822	85.06
442.043	86.06
442.264	77.06
442.486	78.06
442.707	80.06
442.928	63.06
443.149	80.06
443.371	78.06
443.592	92.06
443.813	80.06
444.034	66.06
444.255	77.06
444.476	90.06
444.698	87.06
444.919	81.06
445.14	152.06
445.361	100.06
445.582	85.06
445.803	78.06
446.024	76.06
446.245	87.06
446.466	71.06
446.687	72.06
446.908	88.06
447.129	79.06
447.35	80.06
447.571	74.06
447.792	66.06
448.013	72.06
448.234	78.06
448.455	77.06
448.675	64.06
448.896	80.06
449.117	67.06
449.338	89.06
449.559	96.06
449.779	74.06
450	83.06
450.221	75.06
450.442	84.06
450.662	86.06
450.883	89.06
451.104	85.06
451.324	74.06
451.545	97.06
451.766	85.06
451.986	73.06
452.207	72.06
452.428	78.06
452.648	84.06
452.869	78.06
453.089	78.06
453.31	72.06
453.53	89.06
453.751	88.06
453.971	86.06
454.192	81.06
454.412	86.06
454.633	74.06
454.853	80.06
455.073	95.06
455.294	86.06
455.514	83.06
455.734	89.06
455.955	95.06
456.175	80.06
456.395	80.06
456.616	72.06
456.836	85.06
457.056	72.06
457.276	75.06
457.497	66.06
457.717	70.06
457.937	71.06
458.157	71.06
458.377	78.06
458.598	64.06
458.818	87.06
459.038	86.06
459.258	70.06
459.478	77.06
459.698	92.06
459.918	80.06
460.138	84.06
460.358	86.06
460.578	91.06
460.798	91.06
461.018	88.06
461.238	78.06
461.458	90.06
461.678	79.06
461.898	86.06
462.118	80.06
462.338	85.06
462.558	65.06
462.777	85.06
462.997	66.06
463.217	76.06
463.437	84.06
463.657	84.06
463.876	76.06
464.096	70.06
464.316	91.06
464.536	59.06
464.755	90.06
464.975	88.06
465.195	80.06
465.414	62.06
465.634	91.06
465.854	71.06
466.073	80.06
466.293	65.06
466.512	78.06
466.732	78.06
466.951	84.06
467.171	72.06
467.391	84.06
467.61	72.06
467.829	85.06
468.049	77.06
468.268	76.06
468.488	84.06
468.707	81.06
468.927	88.06
469.146	76.06
469.365	77.06
469.585	74.06
469.804	86.06
470.023	81.06
470.243	74.06
470.462	96.06
470.681	92.06
470.901	77.06
471.12	75.06
471.339	84.06
471.558	81.06
471.777	65.06
471.997	82.06
472.216	92.06
472.435	87.06
472.654	91.06
472.873	88.06
473.092	83.06
473.311	74.06
473.53	82.06
473.749	84.06
473.968	84.06
474.187	93.06
474.406	92.06
474.625	88.06
474.844	81.06
475.063	78.06
475.282	64.06
475.501	90.06
475.72	96.06
475.939	83.06
476.158	82.06
476.377	86.06
476.596	85.06
476.814	104.06
477.033	73.06
477.252	79.06
477.471	84.06
477.69	79.06
477.908	80.06
478.127	69.06
478.346	74.06
478.564	93.06
478.783	77.06
479.002	88.06
479.22	78.06
479.439	92.06
479.658	89.06
479.876	76.06
480.095	72.06
480.313	74.06
480.532	78.06
480.751	89.06
480.969	72.06
481.188	76.06
481.406	84.06
481.624	86.06
481.843	74.06
482.061	83.06
482.28	93.06
482.498	86.06
482.717	87.06
482.935	97.06
483.153	87.06
483.372	83.06
483.59	80.06
483.808	94.06
484.027	86.06
484.245	78.06
484.463	89.06
484.681	90.06
484.9	88.06
485.118	96.06
485.336	81.06
485.554	100.06
485.772	98.06
485.99	89.06
486.209	80.06
486.427	92.06
486.645	82.06
486.863	81.06
487.081	90.06
487.299	84.06
487.517	84.06
487.735	78.06
487.953	77.06
488.171	87.06
488.389	82.06
488.607	77.06
488.825	68.06
489.043	81.06
489.261	100.06
489.479	76.06
489.696	80.06
489.914	85.06
490.132	81.06
490.35	79.06
490.568	87.06
490.786	92.06
491.003	79.06
491.221	85.06
491.439	83.06
491.657	82.06
491.874	82.06
492.092	85.06
492.31	66.06
492.527	78.06
492.745	83.06
492.963	90.06
493.18	103.06
493.398	85.06
493.615	85.06
493.833	78.06
494.05	81.06
494.268	81.06
494.485	81.06
494.703	98.06
494.92	79.06
495.138	79.06
495.355	90.06
495.573	84.06
495.79	83.06
496.008	90.06
496.225	89.06
496.442	69.06
496.66	87.06
496.877	88.06
497.094	89.06
497.312	95.06
497.529	64.06
497.746	89.06
497.963	72.06
498.181	76.06
498.398	73.06
498.615	72.06
498.832	95.06
499.049	83.06
499.267	96.06
499.484	85.06
499.701	86.06
499.918	74.06
500.135	80.06
500.352	84.06
500.569	79.06
500.786	95.06
501.003	90.06
501.22	71.06
501.437	92.06
501.654	84.06
501.871	88.06
502.088	81.06
502.305	74.06
502.522	70.06
502.739	80.06
502.956	89.06
503.172	85.06
503.389	82.06
503.606	88.06
503.823	76.06
504.04	78.06
504.256	85.06
504.473	89.06
504.69	74.06
504.907	96.06
505.123	63.06
505.34	72.06
505.557	88.06
505.773	80.06
505.99	82.06
506.207	85.06
506.423	84.06
506.64	71.06
506.856	88.06
507.073	80.06
507.289	81.06
507.506	93.06
507.722	86.06
507.939	86.06
508.155	93.06
508.372	89.06
508.588	74.06
508.805	77.06
509.021	79.06
509.238	79.06
509.454	77.06
509.67	81.06
509.887	77.06
510.103	79.06
510.319	103.06
510.536	89.06
510.752	72.06
510.968	79.06
511.184	71.06
511.401	79.06
511.617	80.06
511.833	86.06
512.049	91.06
512.265	84.06
512.481	90.06
512.698	80.06
512.914	88.06
513.13	88.06
513.346	88.06
513.562	81.06
513.778	84.06
513.994	85.06
514.21	78.06
514.426	88.06
514.642	93.06
514.858	82.06
515.074	71.06
515.29	78.06
515.506	81.06
515.721	76.06
515.937	82.06
516.153	94.06
516.369	79.06
516.585	76.06
516.801	59.06
517.016	74.06
517.232	79.06
517.448	81.06
517.664	69.06
517.879	73.06
518.095	71.06
518.311	95.06
518.527	87.06
518.742	87.06
518.958	77.06
519.173	75.06
519.389	94.06
519.605	84.06
519.82	81.06
520.036	84.06
