Data from Dirtheat3_HRD10591_00014.txt Node
Date: Fri Dec 27 15:16:26 EST 2024
User: Yrep
Spectrometer: HR+D1059
Trigger mode: 1
Integration Time (sec): 1.000000E-1
Scans to average: 1
Electric dark correction enabled: true
Nonlinearity correction enabled: false
Boxcar width: 0
XAxis mode: Wavelengths
Number of Pixels in Spectrum: 2048
>>>>>Begin Spectral Data<<<<<
223.165	-22.38
223.4	-22.38
223.635	-22.38
223.869	-43.38
224.104	-8.38
224.338	-13.38
224.573	-12.38
224.808	-20.38
225.042	-3.38
225.277	-2.38
225.511	-7.38
225.746	5.62
225.98	9.62
226.215	17.62
226.449	11.62
226.683	22.62
226.918	32.62
227.152	33.62
227.387	28.62
227.621	29.62
227.856	44.62
228.09	36.62
228.324	48.62
228.559	64.62
228.793	49.62
229.027	54.62
229.262	60.62
229.496	56.62
229.73	67.62
229.964	81.62
230.199	70.62
230.433	68.62
230.667	70.62
230.901	75.62
231.136	72.62
231.37	66.62
231.604	77.62
231.838	80.62
232.072	69.62
232.306	87.62
232.541	77.62
232.775	85.62
233.009	82.62
233.243	74.62
233.477	68.62
233.711	79.62
233.945	69.62
234.179	84.62
234.413	85.62
234.647	76.62
234.881	71.62
235.115	79.62
235.349	76.62
235.583	87.62
235.817	70.62
236.051	74.62
236.285	65.62
236.519	79.62
236.753	72.62
236.987	70.62
237.221	70.62
237.455	76.62
237.689	70.62
237.922	74.62
238.156	71.62
238.39	69.62
238.624	72.62
238.858	72.62
239.091	80.62
239.325	77.62
239.559	68.62
239.793	61.62
240.027	66.62
240.26	50.62
240.494	81.62
240.728	77.62
240.961	84.62
241.195	68.62
241.429	73.62
241.662	56.62
241.896	70.62
242.13	76.62
242.363	70.62
242.597	65.62
242.83	71.62
243.064	84.62
243.298	83.62
243.531	76.62
243.765	71.62
243.998	69.62
244.232	71.62
244.465	73.62
244.699	82.62
244.932	76.62
245.166	75.62
245.399	66.62
245.633	55.62
245.866	61.62
246.099	81.62
246.333	68.62
246.566	81.62
246.8	77.62
247.033	68.62
247.266	70.62
247.5	65.62
247.733	76.62
247.966	71.62
248.2	75.62
248.433	76.62
248.666	82.62
248.899	80.62
249.133	75.62
249.366	77.62
249.599	80.62
249.832	68.62
250.066	89.62
250.299	83.62
250.532	74.62
250.765	71.62
250.998	69.62
251.231	62.62
251.465	78.62
251.698	78.62
251.931	69.62
252.164	75.62
252.397	84.62
252.63	82.62
252.863	77.62
253.096	79.62
253.329	77.62
253.562	74.62
253.795	77.62
254.028	72.62
254.261	66.62
254.494	62.62
254.727	69.62
254.96	80.62
255.193	77.62
255.426	71.62
255.659	78.62
255.892	80.62
256.124	78.62
256.357	66.62
256.59	79.62
256.823	85.62
257.056	83.62
257.289	74.62
257.521	82.62
257.754	84.62
257.987	64.62
258.22	84.62
258.452	81.62
258.685	80.62
258.918	80.62
259.151	85.62
259.383	96.62
259.616	85.62
259.849	74.62
260.081	83.62
260.314	82.62
260.547	75.62
260.779	72.62
261.012	76.62
261.244	82.62
261.477	83.62
261.71	72.62
261.942	74.62
262.175	83.62
262.407	85.62
262.64	69.62
262.872	73.62
263.105	86.62
263.337	77.62
263.57	61.62
263.802	93.62
264.035	71.62
264.267	77.62
264.499	90.62
264.732	97.62
264.964	93.62
265.197	89.62
265.429	69.62
265.661	82.62
265.894	68.62
266.126	72.62
266.358	66.62
266.591	74.62
266.823	84.62
267.055	70.62
267.287	84.62
267.52	88.62
267.752	69.62
267.984	72.62
268.216	63.62
268.448	76.62
268.681	77.62
268.913	75.62
269.145	69.62
269.377	93.62
269.609	89.62
269.841	87.62
270.073	61.62
270.306	76.62
270.538	85.62
270.77	86.62
271.002	76.62
271.234	86.62
271.466	84.62
271.698	83.62
271.93	77.62
272.162	82.62
272.394	86.62
272.626	83.62
272.858	72.62
273.09	75.62
273.322	80.62
273.553	67.62
273.785	79.62
274.017	68.62
274.249	76.62
274.481	87.62
274.713	71.62
274.945	78.62
275.176	92.62
275.408	84.62
275.64	78.62
275.872	77.62
276.104	86.62
276.335	74.62
276.567	66.62
276.799	68.62
277.031	71.62
277.262	71.62
277.494	77.62
277.726	84.62
277.957	80.62
278.189	76.62
278.421	84.62
278.652	85.62
278.884	66.62
279.115	86.62
279.347	85.62
279.579	53.62
279.81	56.62
280.042	70.62
280.273	76.62
280.505	73.62
280.736	72.62
280.968	71.62
281.199	76.62
281.431	72.62
281.662	79.62
281.894	85.62
282.125	76.62
282.356	84.62
282.588	71.62
282.819	83.62
283.051	80.62
283.282	77.62
283.513	90.62
283.745	69.62
283.976	86.62
284.207	77.62
284.439	79.62
284.67	69.62
284.901	72.62
285.132	80.62
285.364	82.62
285.595	81.62
285.826	65.62
286.057	64.62
286.288	70.62
286.52	82.62
286.751	81.62
286.982	80.62
287.213	74.62
287.444	90.62
287.675	77.62
287.906	72.62
288.138	88.62
288.369	91.62
288.6	74.62
288.831	69.62
289.062	77.62
289.293	75.62
289.524	81.62
289.755	86.62
289.986	82.62
290.217	76.62
290.448	65.62
290.679	80.62
290.91	81.62
291.141	81.62
291.371	75.62
291.602	77.62
291.833	75.62
292.064	81.62
292.295	83.62
292.526	90.62
292.757	85.62
292.987	69.62
293.218	80.62
293.449	77.62
293.68	79.62
293.91	82.62
294.141	75.62
294.372	89.62
294.603	80.62
294.833	67.62
295.064	81.62
295.295	88.62
295.525	94.62
295.756	74.62
295.987	75.62
296.217	75.62
296.448	69.62
296.679	83.62
296.909	79.62
297.14	93.62
297.37	84.62
297.601	82.62
297.831	89.62
298.062	87.62
298.292	80.62
298.523	86.62
298.753	75.62
298.984	78.62
299.214	85.62
299.445	79.62
299.675	71.62
299.905	72.62
300.136	81.62
300.366	77.62
300.597	70.62
300.827	85.62
301.057	96.62
301.288	78.62
301.518	90.62
301.748	77.62
301.979	101.62
302.209	72.62
302.439	78.62
302.669	78.62
302.9	85.62
303.13	70.62
303.36	74.62
303.59	88.62
303.82	76.62
304.051	83.62
304.281	78.62
304.511	88.62
304.741	72.62
304.971	93.62
305.201	87.62
305.431	82.62
305.661	77.62
305.891	69.62
306.121	82.62
306.352	78.62
306.582	77.62
306.812	77.62
307.042	60.62
307.272	72.62
307.502	86.62
307.731	78.62
307.961	64.62
308.191	84.62
308.421	72.62
308.651	80.62
308.881	85.62
309.111	80.62
309.341	80.62
309.571	94.62
309.8	89.62
310.03	80.62
310.26	65.62
310.49	82.62
310.72	75.62
310.949	72.62
311.179	73.62
311.409	90.62
311.639	81.62
311.868	90.62
312.098	86.62
312.328	78.62
312.557	72.62
312.787	77.62
313.017	80.62
313.246	84.62
313.476	75.62
313.706	70.62
313.935	73.62
314.165	88.62
314.394	72.62
314.624	75.62
314.853	94.62
315.083	90.62
315.312	91.62
315.542	81.62
315.771	85.62
316.001	81.62
316.23	92.62
316.46	92.62
316.689	68.62
316.919	78.62
317.148	80.62
317.377	68.62
317.607	80.62
317.836	73.62
318.065	81.62
318.295	82.62
318.524	75.62
318.753	85.62
318.983	75.62
319.212	93.62
319.441	71.62
319.67	75.62
319.9	93.62
320.129	78.62
320.358	97.62
320.587	80.62
320.816	84.62
321.046	81.62
321.275	85.62
321.504	74.62
321.733	81.62
321.962	61.62
322.191	65.62
322.42	83.62
322.649	85.62
322.878	84.62
323.108	86.62
323.337	78.62
323.566	84.62
323.795	81.62
324.024	72.62
324.253	88.62
324.482	71.62
324.71	83.62
324.939	83.62
325.168	83.62
325.397	77.62
325.626	70.62
325.855	88.62
326.084	72.62
326.313	70.62
326.542	72.62
326.77	71.62
326.999	98.62
327.228	84.62
327.457	84.62
327.686	77.62
327.914	72.62
328.143	96.62
328.372	74.62
328.6	97.62
328.829	80.62
329.058	76.62
329.287	77.62
329.515	63.62
329.744	91.62
329.972	77.62
330.201	85.62
330.43	86.62
330.658	67.62
330.887	83.62
331.115	78.62
331.344	90.62
331.572	89.62
331.801	73.62
332.03	63.62
332.258	90.62
332.486	81.62
332.715	69.62
332.943	73.62
333.172	85.62
333.4	89.62
333.629	88.62
333.857	84.62
334.085	84.62
334.314	92.62
334.542	81.62
334.771	71.62
334.999	72.62
335.227	73.62
335.455	89.62
335.684	83.62
335.912	84.62
336.14	75.62
336.369	67.62
336.597	83.62
336.825	93.62
337.053	89.62
337.281	86.62
337.51	78.62
337.738	93.62
337.966	82.62
338.194	87.62
338.422	85.62
338.65	88.62
338.878	87.62
339.106	79.62
339.334	89.62
339.562	70.62
339.79	83.62
340.018	73.62
340.246	74.62
340.474	76.62
340.702	86.62
340.93	79.62
341.158	73.62
341.386	83.62
341.614	93.62
341.842	91.62
342.07	90.62
342.298	77.62
342.526	71.62
342.754	70.62
342.981	81.62
343.209	83.62
343.437	80.62
343.665	67.62
343.893	86.62
344.12	77.62
344.348	85.62
344.576	83.62
344.804	88.62
345.031	82.62
345.259	88.62
345.487	79.62
345.714	61.62
345.942	68.62
346.17	70.62
346.397	84.62
346.625	86.62
346.853	73.62
347.08	74.62
347.308	91.62
347.535	85.62
347.763	81.62
347.99	70.62
348.218	85.62
348.445	78.62
348.673	85.62
348.9	85.62
349.128	85.62
349.355	78.62
349.583	78.62
349.81	70.62
350.037	80.62
350.265	88.62
350.492	84.62
350.72	80.62
350.947	86.62
351.174	94.62
351.402	98.62
351.629	76.62
351.856	88.62
352.083	91.62
352.311	59.62
352.538	63.62
352.765	77.62
352.992	85.62
353.22	78.62
353.447	78.62
353.674	81.62
353.901	82.62
354.128	71.62
354.355	76.62
354.583	80.62
354.81	84.62
355.037	78.62
355.264	72.62
355.491	84.62
355.718	73.62
355.945	87.62
356.172	68.62
356.399	81.62
356.626	85.62
356.853	80.62
357.08	81.62
357.307	78.62
357.534	96.62
357.761	85.62
357.988	84.62
358.215	81.62
358.441	72.62
358.668	71.62
358.895	77.62
359.122	65.62
359.349	82.62
359.576	94.62
359.802	77.62
360.029	76.62
360.256	73.62
360.483	81.62
360.709	88.62
360.936	80.62
361.163	80.62
361.39	80.62
361.616	82.62
361.843	87.62
362.07	78.62
362.296	79.62
362.523	78.62
362.749	84.62
362.976	79.62
363.203	82.62
363.429	81.62
363.656	81.62
363.882	88.62
364.109	86.62
364.335	104.62
364.562	81.62
364.788	81.62
365.015	72.62
365.241	68.62
365.468	87.62
365.694	88.62
365.92	84.62
366.147	87.62
366.373	73.62
366.599	68.62
366.826	79.62
367.052	88.62
367.278	75.62
367.505	80.62
367.731	87.62
367.957	69.62
368.184	93.62
368.41	98.62
368.636	86.62
368.862	96.62
369.089	76.62
369.315	82.62
369.541	80.62
369.767	82.62
369.993	59.62
370.219	72.62
370.445	78.62
370.672	93.62
370.898	86.62
371.124	80.62
371.35	67.62
371.576	84.62
371.802	77.62
372.028	77.62
372.254	73.62
372.48	81.62
372.706	79.62
372.932	77.62
373.158	70.62
373.384	90.62
373.61	82.62
373.835	90.62
374.061	89.62
374.287	81.62
374.513	80.62
374.739	75.62
374.965	79.62
375.191	89.62
375.416	85.62
375.642	83.62
375.868	78.62
376.094	92.62
376.319	73.62
376.545	89.62
376.771	94.62
376.997	77.62
377.222	85.62
377.448	81.62
377.674	78.62
377.899	75.62
378.125	74.62
378.35	80.62
378.576	74.62
378.802	84.62
379.027	79.62
379.253	86.62
379.478	83.62
379.704	85.62
379.929	77.62
380.155	82.62
380.38	80.62
380.606	78.62
380.831	79.62
381.057	78.62
381.282	78.62
381.507	80.62
381.733	85.62
381.958	81.62
382.184	69.62
382.409	86.62
382.634	78.62
382.86	75.62
383.085	84.62
383.31	78.62
383.535	78.62
383.761	78.62
383.986	100.62
384.211	74.62
384.436	82.62
384.662	82.62
384.887	68.62
385.112	70.62
385.337	81.62
385.562	80.62
385.787	88.62
386.013	80.62
386.238	82.62
386.463	77.62
386.688	86.62
386.913	70.62
387.138	75.62
387.363	87.62
387.588	87.62
387.813	86.62
388.038	84.62
388.263	70.62
388.488	67.62
388.713	61.62
388.938	67.62
389.163	72.62
389.387	67.62
389.612	90.62
389.837	79.62
390.062	83.62
390.287	86.62
390.512	77.62
390.736	70.62
390.961	83.62
391.186	63.62
391.411	79.62
391.636	67.62
391.86	66.62
392.085	78.62
392.31	86.62
392.534	83.62
392.759	83.62
392.984	82.62
393.208	90.62
393.433	99.62
393.658	80.62
393.882	70.62
394.107	85.62
394.331	92.62
394.556	76.62
394.78	85.62
395.005	76.62
395.229	72.62
395.454	84.62
395.678	94.62
395.903	78.62
396.127	91.62
396.352	88.62
396.576	65.62
396.801	87.62
397.025	84.62
397.249	76.62
397.474	83.62
397.698	84.62
397.922	72.62
398.147	86.62
398.371	70.62
398.595	90.62
398.82	85.62
399.044	70.62
399.268	66.62
399.492	91.62
399.717	98.62
399.941	82.62
400.165	76.62
400.389	85.62
400.613	81.62
400.837	80.62
401.062	85.62
401.286	86.62
401.51	64.62
401.734	63.62
401.958	78.62
402.182	58.62
402.406	60.62
402.63	81.62
402.854	75.62
403.078	74.62
403.302	75.62
403.526	89.62
403.75	71.62
403.974	79.62
404.198	76.62
404.422	97.62
404.645	75.62
404.869	75.62
405.093	81.62
405.317	83.62
405.541	86.62
405.765	78.62
405.988	79.62
406.212	92.62
406.436	89.62
406.66	69.62
406.883	61.62
407.107	74.62
407.331	80.62
407.555	73.62
407.778	77.62
408.002	80.62
408.226	66.62
408.449	79.62
408.673	74.62
408.896	83.62
409.12	89.62
409.344	77.62
409.567	67.62
409.791	80.62
410.014	96.62
410.238	68.62
410.461	70.62
410.685	74.62
410.908	72.62
411.132	90.62
411.355	84.62
411.578	71.62
411.802	63.62
412.025	87.62
412.249	73.62
412.472	73.62
412.695	76.62
412.919	63.62
413.142	77.62
413.365	73.62
413.589	76.62
413.812	69.62
414.035	82.62
414.258	75.62
414.482	84.62
414.705	61.62
414.928	74.62
415.151	71.62
415.374	77.62
415.597	90.62
415.821	86.62
416.044	77.62
416.267	69.62
416.49	74.62
416.713	81.62
416.936	73.62
417.159	74.62
417.382	76.62
417.605	70.62
417.828	92.62
418.051	77.62
418.274	73.62
418.497	85.62
418.72	74.62
418.943	84.62
419.166	87.62
419.389	92.62
419.611	80.62
419.834	76.62
420.057	82.62
420.28	78.62
420.503	78.62
420.726	70.62
420.948	79.62
421.171	77.62
421.394	76.62
421.617	100.62
421.839	91.62
422.062	81.62
422.285	88.62
422.507	94.62
422.73	96.62
422.953	78.62
423.175	91.62
423.398	86.62
423.621	85.62
423.843	81.62
424.066	88.62
424.288	87.62
424.511	71.62
424.733	73.62
424.956	77.62
425.178	81.62
425.401	66.62
425.623	71.62
425.846	71.62
426.068	72.62
426.291	76.62
426.513	73.62
426.735	85.62
426.958	86.62
427.18	79.62
427.402	78.62
427.625	74.62
427.847	71.62
428.069	83.62
428.292	83.62
428.514	88.62
428.736	80.62
428.958	78.62
429.181	93.62
429.403	82.62
429.625	75.62
429.847	84.62
430.069	86.62
430.292	90.62
430.514	83.62
430.736	93.62
430.958	92.62
431.18	68.62
431.402	61.62
431.624	58.62
431.846	75.62
432.068	75.62
432.29	96.62
432.512	78.62
432.734	82.62
432.956	83.62
433.178	79.62
433.4	66.62
433.622	72.62
433.844	77.62
434.066	100.62
434.287	76.62
434.509	81.62
434.731	81.62
434.953	85.62
435.175	77.62
435.397	82.62
435.618	63.62
435.84	81.62
436.062	77.62
436.284	76.62
436.505	78.62
436.727	82.62
436.949	76.62
437.17	75.62
437.392	77.62
437.614	81.62
437.835	75.62
438.057	70.62
438.278	87.62
438.5	86.62
438.721	84.62
438.943	65.62
439.165	84.62
439.386	81.62
439.608	73.62
439.829	92.62
440.05	86.62
440.272	76.62
440.493	91.62
440.715	90.62
440.936	87.62
441.158	94.62
441.379	71.62
441.6	76.62
441.822	73.62
442.043	62.62
442.264	83.62
442.486	80.62
442.707	88.62
442.928	91.62
443.149	83.62
443.371	97.62
443.592	98.62
443.813	92.62
444.034	87.62
444.255	97.62
444.476	73.62
444.698	89.62
444.919	85.62
445.14	160.62
445.361	120.62
445.582	91.62
445.803	82.62
446.024	71.62
446.245	96.62
446.466	83.62
446.687	83.62
446.908	72.62
447.129	91.62
447.35	80.62
447.571	88.62
447.792	74.62
448.013	84.62
448.234	77.62
448.455	87.62
448.675	74.62
448.896	86.62
449.117	78.62
449.338	73.62
449.559	93.62
449.779	79.62
450	72.62
450.221	91.62
450.442	90.62
450.662	80.62
450.883	82.62
451.104	89.62
451.324	81.62
451.545	73.62
451.766	83.62
451.986	75.62
452.207	77.62
452.428	83.62
452.648	76.62
452.869	72.62
453.089	84.62
453.31	79.62
453.53	92.62
453.751	77.62
453.971	77.62
454.192	89.62
454.412	68.62
454.633	75.62
454.853	84.62
455.073	65.62
455.294	76.62
455.514	82.62
455.734	68.62
455.955	75.62
456.175	74.62
456.395	66.62
456.616	74.62
456.836	67.62
457.056	66.62
457.276	76.62
457.497	73.62
457.717	80.62
457.937	70.62
458.157	77.62
458.377	98.62
458.598	93.62
458.818	79.62
459.038	75.62
459.258	75.62
459.478	77.62
459.698	73.62
459.918	77.62
460.138	75.62
460.358	88.62
460.578	72.62
460.798	83.62
461.018	76.62
461.238	84.62
461.458	80.62
461.678	76.62
461.898	76.62
462.118	86.62
462.338	91.62
462.558	72.62
462.777	73.62
462.997	78.62
463.217	71.62
463.437	69.62
463.657	57.62
463.876	70.62
464.096	74.62
464.316	73.62
464.536	83.62
464.755	73.62
464.975	79.62
465.195	87.62
465.414	78.62
465.634	78.62
465.854	76.62
466.073	79.62
466.293	78.62
466.512	101.62
466.732	72.62
466.951	70.62
467.171	67.62
467.391	78.62
467.61	70.62
467.829	86.62
468.049	84.62
468.268	80.62
468.488	76.62
468.707	69.62
468.927	80.62
469.146	65.62
469.365	77.62
469.585	75.62
469.804	80.62
470.023	63.62
470.243	82.62
470.462	91.62
470.681	75.62
470.901	63.62
471.12	81.62
471.339	82.62
471.558	80.62
471.777	84.62
471.997	82.62
472.216	91.62
472.435	88.62
472.654	78.62
472.873	83.62
473.092	86.62
473.311	72.62
473.53	80.62
473.749	68.62
473.968	87.62
474.187	85.62
474.406	77.62
474.625	92.62
474.844	78.62
475.063	71.62
475.282	80.62
475.501	82.62
475.72	78.62
475.939	70.62
476.158	73.62
476.377	83.62
476.596	77.62
476.814	78.62
477.033	86.62
477.252	81.62
477.471	75.62
477.69	78.62
477.908	81.62
478.127	81.62
478.346	76.62
478.564	75.62
478.783	75.62
479.002	73.62
479.22	80.62
479.439	68.62
479.658	81.62
479.876	89.62
480.095	80.62
480.313	78.62
480.532	86.62
480.751	72.62
480.969	81.62
481.188	80.62
481.406	78.62
481.624	69.62
481.843	81.62
482.061	76.62
482.28	78.62
482.498	72.62
482.717	77.62
482.935	92.62
483.153	86.62
483.372	75.62
483.59	88.62
483.808	89.62
484.027	81.62
484.245	84.62
484.463	74.62
484.681	84.62
484.9	81.62
485.118	85.62
485.336	87.62
485.554	91.62
485.772	90.62
485.99	77.62
486.209	87.62
486.427	75.62
486.645	86.62
486.863	74.62
487.081	87.62
487.299	90.62
487.517	83.62
487.735	70.62
487.953	81.62
488.171	70.62
488.389	84.62
488.607	83.62
488.825	78.62
489.043	80.62
489.261	94.62
489.479	83.62
489.696	72.62
489.914	83.62
490.132	73.62
490.35	66.62
490.568	70.62
490.786	80.62
491.003	76.62
491.221	72.62
491.439	81.62
491.657	73.62
491.874	83.62
492.092	76.62
492.31	75.62
492.527	69.62
492.745	72.62
492.963	77.62
493.18	76.62
493.398	75.62
493.615	84.62
493.833	85.62
494.05	72.62
494.268	88.62
494.485	80.62
494.703	83.62
494.92	69.62
495.138	71.62
495.355	82.62
495.573	67.62
495.79	84.62
496.008	85.62
496.225	88.62
496.442	73.62
496.66	85.62
496.877	83.62
497.094	84.62
497.312	82.62
497.529	85.62
497.746	71.62
497.963	76.62
498.181	81.62
498.398	79.62
498.615	84.62
498.832	66.62
499.049	80.62
499.267	65.62
499.484	75.62
499.701	72.62
499.918	87.62
500.135	73.62
500.352	77.62
500.569	85.62
500.786	88.62
501.003	94.62
501.22	80.62
501.437	85.62
501.654	74.62
501.871	92.62
502.088	73.62
502.305	69.62
502.522	75.62
502.739	70.62
502.956	88.62
503.172	85.62
503.389	77.62
503.606	83.62
503.823	82.62
504.04	85.62
504.256	86.62
504.473	70.62
504.69	62.62
504.907	75.62
505.123	76.62
505.34	72.62
505.557	67.62
505.773	87.62
505.99	73.62
506.207	86.62
506.423	78.62
506.64	86.62
506.856	87.62
507.073	60.62
507.289	77.62
507.506	77.62
507.722	60.62
507.939	84.62
508.155	82.62
508.372	77.62
508.588	81.62
508.805	70.62
509.021	73.62
509.238	79.62
509.454	74.62
509.67	80.62
509.887	65.62
510.103	73.62
510.319	92.62
510.536	76.62
510.752	83.62
510.968	85.62
511.184	80.62
511.401	75.62
511.617	90.62
511.833	89.62
512.049	76.62
512.265	73.62
512.481	79.62
512.698	73.62
512.914	90.62
513.13	79.62
513.346	91.62
513.562	83.62
513.778	72.62
513.994	81.62
514.21	75.62
514.426	80.62
514.642	79.62
514.858	82.62
515.074	83.62
515.29	77.62
515.506	88.62
515.721	79.62
515.937	76.62
516.153	79.62
516.369	78.62
516.585	76.62
516.801	63.62
517.016	86.62
517.232	69.62
517.448	77.62
517.664	75.62
517.879	82.62
518.095	82.62
518.311	83.62
518.527	79.62
518.742	74.62
518.958	96.62
519.173	77.62
519.389	82.62
519.605	73.62
519.82	79.62
520.036	98.62
520.251	78.62
