Data from Dirtheat3_HRD10591_00007.txt Node
Date: Fri Dec 27 15:16:19 EST 2024
User: Yrep
Spectrometer: HR+D1059
Trigger mode: 1
Integration Time (sec): 1.000000E-1
Scans to average: 1
Electric dark correction enabled: true
Nonlinearity correction enabled: false
Boxcar width: 0
XAxis mode: Wavelengths
Number of Pixels in Spectrum: 2048
>>>>>Begin Spectral Data<<<<<
223.165	7.62
223.4	7.62
223.635	7.62
223.869	-28.38
224.104	-7.38
224.338	-9.38
224.573	-10.38
224.808	-21.38
225.042	-22.38
225.277	-10.38
225.511	7.62
225.746	8.62
225.98	-2.38
226.215	19.62
226.449	0.62
226.683	11.62
226.918	30.62
227.152	25.62
227.387	48.62
227.621	29.62
227.856	49.62
228.09	31.62
228.324	55.62
228.559	57.62
228.793	56.62
229.027	52.62
229.262	68.62
229.496	51.62
229.73	67.62
229.964	73.62
230.199	86.62
230.433	69.62
230.667	74.62
230.901	91.62
231.136	76.62
231.37	62.62
231.604	70.62
231.838	96.62
232.072	99.62
232.306	94.62
232.541	83.62
232.775	72.62
233.009	71.62
233.243	67.62
233.477	75.62
233.711	83.62
233.945	73.62
234.179	65.62
234.413	85.62
234.647	76.62
234.881	69.62
235.115	80.62
235.349	69.62
235.583	76.62
235.817	63.62
236.051	72.62
236.285	79.62
236.519	71.62
236.753	70.62
236.987	80.62
237.221	81.62
237.455	70.62
237.689	84.62
237.922	62.62
238.156	62.62
238.39	71.62
238.624	72.62
238.858	67.62
239.091	84.62
239.325	69.62
239.559	76.62
239.793	77.62
240.027	70.62
240.26	67.62
240.494	73.62
240.728	79.62
240.961	67.62
241.195	75.62
241.429	77.62
241.662	59.62
241.896	77.62
242.13	68.62
242.363	73.62
242.597	73.62
242.83	77.62
243.064	77.62
243.298	64.62
243.531	63.62
243.765	75.62
243.998	81.62
244.232	69.62
244.465	71.62
244.699	78.62
244.932	79.62
245.166	70.62
245.399	82.62
245.633	82.62
245.866	75.62
246.099	76.62
246.333	69.62
246.566	76.62
246.8	85.62
247.033	53.62
247.266	76.62
247.5	78.62
247.733	72.62
247.966	71.62
248.2	65.62
248.433	82.62
248.666	78.62
248.899	75.62
249.133	85.62
249.366	83.62
249.599	69.62
249.832	63.62
250.066	95.62
250.299	70.62
250.532	77.62
250.765	77.62
250.998	74.62
251.231	79.62
251.465	79.62
251.698	54.62
251.931	78.62
252.164	63.62
252.397	75.62
252.63	70.62
252.863	59.62
253.096	82.62
253.329	82.62
253.562	67.62
253.795	79.62
254.028	72.62
254.261	69.62
254.494	85.62
254.727	86.62
254.96	75.62
255.193	68.62
255.426	76.62
255.659	78.62
255.892	69.62
256.124	76.62
256.357	80.62
256.59	74.62
256.823	75.62
257.056	86.62
257.289	81.62
257.521	82.62
257.754	91.62
257.987	76.62
258.22	78.62
258.452	79.62
258.685	68.62
258.918	81.62
259.151	82.62
259.383	94.62
259.616	81.62
259.849	75.62
260.081	90.62
260.314	83.62
260.547	82.62
260.779	73.62
261.012	79.62
261.244	91.62
261.477	81.62
261.71	80.62
261.942	74.62
262.175	89.62
262.407	82.62
262.64	70.62
262.872	75.62
263.105	77.62
263.337	81.62
263.57	80.62
263.802	75.62
264.035	74.62
264.267	95.62
264.499	75.62
264.732	91.62
264.964	75.62
265.197	82.62
265.429	78.62
265.661	72.62
265.894	83.62
266.126	90.62
266.358	80.62
266.591	83.62
266.823	81.62
267.055	96.62
267.287	85.62
267.52	64.62
267.752	68.62
267.984	68.62
268.216	73.62
268.448	78.62
268.681	73.62
268.913	81.62
269.145	83.62
269.377	81.62
269.609	78.62
269.841	79.62
270.073	66.62
270.306	82.62
270.538	73.62
270.77	82.62
271.002	81.62
271.234	77.62
271.466	82.62
271.698	67.62
271.93	76.62
272.162	99.62
272.394	76.62
272.626	85.62
272.858	78.62
273.09	83.62
273.322	79.62
273.553	72.62
273.785	87.62
274.017	80.62
274.249	67.62
274.481	71.62
274.713	80.62
274.945	84.62
275.176	84.62
275.408	77.62
275.64	78.62
275.872	72.62
276.104	87.62
276.335	99.62
276.567	78.62
276.799	85.62
277.031	86.62
277.262	84.62
277.494	79.62
277.726	73.62
277.957	75.62
278.189	72.62
278.421	77.62
278.652	79.62
278.884	86.62
279.115	71.62
279.347	68.62
279.579	72.62
279.81	85.62
280.042	92.62
280.273	78.62
280.505	77.62
280.736	71.62
280.968	90.62
281.199	76.62
281.431	86.62
281.662	87.62
281.894	75.62
282.125	89.62
282.356	78.62
282.588	86.62
282.819	79.62
283.051	68.62
283.282	78.62
283.513	94.62
283.745	67.62
283.976	83.62
284.207	71.62
284.439	84.62
284.67	86.62
284.901	94.62
285.132	77.62
285.364	84.62
285.595	85.62
285.826	98.62
286.057	73.62
286.288	87.62
286.52	76.62
286.751	75.62
286.982	76.62
287.213	82.62
287.444	85.62
287.675	71.62
287.906	75.62
288.138	87.62
288.369	87.62
288.6	87.62
288.831	78.62
289.062	70.62
289.293	87.62
289.524	87.62
289.755	85.62
289.986	83.62
290.217	73.62
290.448	76.62
290.679	88.62
290.91	74.62
291.141	79.62
291.371	97.62
291.602	82.62
291.833	77.62
292.064	77.62
292.295	73.62
292.526	95.62
292.757	73.62
292.987	76.62
293.218	76.62
293.449	71.62
293.68	83.62
293.91	91.62
294.141	88.62
294.372	71.62
294.603	73.62
294.833	78.62
295.064	82.62
295.295	85.62
295.525	84.62
295.756	89.62
295.987	72.62
296.217	81.62
296.448	91.62
296.679	78.62
296.909	77.62
297.14	88.62
297.37	83.62
297.601	77.62
297.831	85.62
298.062	71.62
298.292	74.62
298.523	84.62
298.753	85.62
298.984	80.62
299.214	83.62
299.445	81.62
299.675	70.62
299.905	86.62
300.136	81.62
300.366	80.62
300.597	69.62
300.827	81.62
301.057	80.62
301.288	72.62
301.518	67.62
301.748	83.62
301.979	95.62
302.209	80.62
302.439	74.62
302.669	84.62
302.9	76.62
303.13	84.62
303.36	88.62
303.59	86.62
303.82	72.62
304.051	84.62
304.281	85.62
304.511	92.62
304.741	77.62
304.971	88.62
305.201	87.62
305.431	66.62
305.661	86.62
305.891	76.62
306.121	86.62
306.352	72.62
306.582	80.62
306.812	67.62
307.042	86.62
307.272	76.62
307.502	83.62
307.731	77.62
307.961	84.62
308.191	84.62
308.421	89.62
308.651	75.62
308.881	91.62
309.111	82.62
309.341	78.62
309.571	86.62
309.8	83.62
310.03	83.62
310.26	73.62
310.49	74.62
310.72	86.62
310.949	72.62
311.179	89.62
311.409	99.62
311.639	79.62
311.868	90.62
312.098	80.62
312.328	87.62
312.557	79.62
312.787	79.62
313.017	83.62
313.246	75.62
313.476	65.62
313.706	84.62
313.935	61.62
314.165	83.62
314.394	74.62
314.624	74.62
314.853	98.62
315.083	70.62
315.312	83.62
315.542	78.62
315.771	84.62
316.001	89.62
316.23	70.62
316.46	77.62
316.689	90.62
316.919	83.62
317.148	70.62
317.377	80.62
317.607	100.62
317.836	81.62
318.065	79.62
318.295	83.62
318.524	68.62
318.753	92.62
318.983	80.62
319.212	85.62
319.441	87.62
319.67	84.62
319.9	62.62
320.129	67.62
320.358	70.62
320.587	86.62
320.816	74.62
321.046	79.62
321.275	90.62
321.504	98.62
321.733	75.62
321.962	74.62
322.191	76.62
322.42	77.62
322.649	86.62
322.878	85.62
323.108	94.62
323.337	76.62
323.566	78.62
323.795	89.62
324.024	87.62
324.253	87.62
324.482	88.62
324.71	87.62
324.939	95.62
325.168	82.62
325.397	73.62
325.626	89.62
325.855	91.62
326.084	88.62
326.313	83.62
326.542	71.62
326.77	74.62
326.999	90.62
327.228	77.62
327.457	87.62
327.686	82.62
327.914	87.62
328.143	85.62
328.372	80.62
328.6	83.62
328.829	95.62
329.058	85.62
329.287	87.62
329.515	80.62
329.744	80.62
329.972	79.62
330.201	78.62
330.43	79.62
330.658	79.62
330.887	88.62
331.115	86.62
331.344	72.62
331.572	95.62
331.801	96.62
332.03	84.62
332.258	93.62
332.486	75.62
332.715	97.62
332.943	87.62
333.172	84.62
333.4	80.62
333.629	86.62
333.857	86.62
334.085	85.62
334.314	79.62
334.542	70.62
334.771	84.62
334.999	78.62
335.227	95.62
335.455	82.62
335.684	87.62
335.912	79.62
336.14	87.62
336.369	73.62
336.597	80.62
336.825	81.62
337.053	73.62
337.281	66.62
337.51	85.62
337.738	78.62
337.966	84.62
338.194	87.62
338.422	74.62
338.65	96.62
338.878	77.62
339.106	74.62
339.334	83.62
339.562	84.62
339.79	77.62
340.018	77.62
340.246	74.62
340.474	82.62
340.702	88.62
340.93	81.62
341.158	88.62
341.386	87.62
341.614	90.62
341.842	81.62
342.07	73.62
342.298	82.62
342.526	77.62
342.754	79.62
342.981	86.62
343.209	94.62
343.437	86.62
343.665	82.62
343.893	74.62
344.12	86.62
344.348	78.62
344.576	82.62
344.804	83.62
345.031	80.62
345.259	86.62
345.487	74.62
345.714	81.62
345.942	82.62
346.17	86.62
346.397	80.62
346.625	82.62
346.853	79.62
347.08	71.62
347.308	84.62
347.535	80.62
347.763	78.62
347.99	83.62
348.218	74.62
348.445	84.62
348.673	86.62
348.9	82.62
349.128	87.62
349.355	98.62
349.583	90.62
349.81	89.62
350.037	77.62
350.265	94.62
350.492	68.62
350.72	70.62
350.947	79.62
351.174	92.62
351.402	78.62
351.629	76.62
351.856	83.62
352.083	90.62
352.311	75.62
352.538	84.62
352.765	89.62
352.992	85.62
353.22	82.62
353.447	86.62
353.674	93.62
353.901	93.62
354.128	91.62
354.355	89.62
354.583	80.62
354.81	67.62
355.037	95.62
355.264	86.62
355.491	72.62
355.718	86.62
355.945	89.62
356.172	85.62
356.399	85.62
356.626	69.62
356.853	71.62
357.08	75.62
357.307	89.62
357.534	71.62
357.761	85.62
357.988	85.62
358.215	89.62
358.441	85.62
358.668	77.62
358.895	93.62
359.122	98.62
359.349	82.62
359.576	92.62
359.802	88.62
360.029	79.62
360.256	92.62
360.483	82.62
360.709	78.62
360.936	89.62
361.163	68.62
361.39	71.62
361.616	86.62
361.843	88.62
362.07	99.62
362.296	83.62
362.523	72.62
362.749	100.62
362.976	76.62
363.203	68.62
363.429	100.62
363.656	81.62
363.882	69.62
364.109	85.62
364.335	79.62
364.562	84.62
364.788	87.62
365.015	97.62
365.241	99.62
365.468	80.62
365.694	81.62
365.92	105.62
366.147	73.62
366.373	76.62
366.599	85.62
366.826	90.62
367.052	75.62
367.278	75.62
367.505	73.62
367.731	73.62
367.957	87.62
368.184	76.62
368.41	82.62
368.636	92.62
368.862	68.62
369.089	77.62
369.315	103.62
369.541	79.62
369.767	93.62
369.993	98.62
370.219	68.62
370.445	69.62
370.672	83.62
370.898	87.62
371.124	91.62
371.35	90.62
371.576	81.62
371.802	67.62
372.028	88.62
372.254	76.62
372.48	89.62
372.706	82.62
372.932	87.62
373.158	83.62
373.384	78.62
373.61	81.62
373.835	78.62
374.061	67.62
374.287	74.62
374.513	78.62
374.739	83.62
374.965	72.62
375.191	96.62
375.416	100.62
375.642	77.62
375.868	78.62
376.094	84.62
376.319	80.62
376.545	96.62
376.771	79.62
376.997	77.62
377.222	65.62
377.448	75.62
377.674	84.62
377.899	83.62
378.125	64.62
378.35	76.62
378.576	66.62
378.802	71.62
379.027	67.62
379.253	79.62
379.478	70.62
379.704	79.62
379.929	72.62
380.155	72.62
380.38	83.62
380.606	81.62
380.831	70.62
381.057	86.62
381.282	77.62
381.507	77.62
381.733	89.62
381.958	85.62
382.184	83.62
382.409	81.62
382.634	79.62
382.86	78.62
383.085	78.62
383.31	83.62
383.535	77.62
383.761	87.62
383.986	84.62
384.211	85.62
384.436	88.62
384.662	87.62
384.887	90.62
385.112	76.62
385.337	83.62
385.562	77.62
385.787	81.62
386.013	87.62
386.238	71.62
386.463	82.62
386.688	84.62
386.913	77.62
387.138	90.62
387.363	71.62
387.588	79.62
387.813	85.62
388.038	73.62
388.263	82.62
388.488	70.62
388.713	74.62
388.938	73.62
389.163	68.62
389.387	73.62
389.612	77.62
389.837	73.62
390.062	77.62
390.287	72.62
390.512	75.62
390.736	77.62
390.961	84.62
391.186	78.62
391.411	75.62
391.636	74.62
391.86	80.62
392.085	79.62
392.31	75.62
392.534	73.62
392.759	78.62
392.984	95.62
393.208	90.62
393.433	98.62
393.658	102.62
393.882	87.62
394.107	80.62
394.331	80.62
394.556	85.62
394.78	92.62
395.005	76.62
395.229	82.62
395.454	91.62
395.678	82.62
395.903	79.62
396.127	88.62
396.352	90.62
396.576	87.62
396.801	83.62
397.025	108.62
397.249	75.62
397.474	82.62
397.698	87.62
397.922	91.62
398.147	82.62
398.371	66.62
398.595	92.62
398.82	77.62
399.044	68.62
399.268	82.62
399.492	77.62
399.717	85.62
399.941	59.62
400.165	91.62
400.389	84.62
400.613	75.62
400.837	68.62
401.062	73.62
401.286	80.62
401.51	74.62
401.734	77.62
401.958	71.62
402.182	79.62
402.406	74.62
402.63	79.62
402.854	85.62
403.078	79.62
403.302	78.62
403.526	84.62
403.75	81.62
403.974	75.62
404.198	72.62
404.422	74.62
404.645	78.62
404.869	73.62
405.093	77.62
405.317	75.62
405.541	85.62
405.765	74.62
405.988	87.62
406.212	95.62
406.436	80.62
406.66	81.62
406.883	78.62
407.107	83.62
407.331	82.62
407.555	88.62
407.778	84.62
408.002	76.62
408.226	75.62
408.449	77.62
408.673	87.62
408.896	76.62
409.12	81.62
409.344	79.62
409.567	82.62
409.791	91.62
410.014	72.62
410.238	76.62
410.461	89.62
410.685	88.62
410.908	75.62
411.132	92.62
411.355	84.62
411.578	76.62
411.802	68.62
412.025	78.62
412.249	83.62
412.472	90.62
412.695	74.62
412.919	91.62
413.142	73.62
413.365	67.62
413.589	85.62
413.812	67.62
414.035	81.62
414.258	86.62
414.482	88.62
414.705	84.62
414.928	76.62
415.151	72.62
415.374	79.62
415.597	77.62
415.821	79.62
416.044	90.62
416.267	78.62
416.49	84.62
416.713	79.62
416.936	83.62
417.159	74.62
417.382	77.62
417.605	60.62
417.828	75.62
418.051	80.62
418.274	88.62
418.497	66.62
418.72	70.62
418.943	80.62
419.166	87.62
419.389	89.62
419.611	62.62
419.834	79.62
420.057	77.62
420.28	83.62
420.503	78.62
420.726	82.62
420.948	89.62
421.171	86.62
421.394	82.62
421.617	90.62
421.839	67.62
422.062	86.62
422.285	88.62
422.507	101.62
422.73	114.62
422.953	120.62
423.175	83.62
423.398	84.62
423.621	77.62
423.843	72.62
424.066	74.62
424.288	76.62
424.511	78.62
424.733	81.62
424.956	99.62
425.178	80.62
425.401	82.62
425.623	72.62
425.846	69.62
426.068	74.62
426.291	74.62
426.513	84.62
426.735	80.62
426.958	84.62
427.18	74.62
427.402	83.62
427.625	91.62
427.847	56.62
428.069	89.62
428.292	73.62
428.514	88.62
428.736	74.62
428.958	71.62
429.181	84.62
429.403	73.62
429.625	98.62
429.847	78.62
430.069	97.62
430.292	93.62
430.514	75.62
430.736	62.62
430.958	77.62
431.18	84.62
431.402	87.62
431.624	80.62
431.846	80.62
432.068	90.62
432.29	78.62
432.512	79.62
432.734	74.62
432.956	101.62
433.178	69.62
433.4	87.62
433.622	81.62
433.844	82.62
434.066	70.62
434.287	70.62
434.509	77.62
434.731	76.62
434.953	77.62
435.175	85.62
435.397	72.62
435.618	76.62
435.84	94.62
436.062	75.62
436.284	79.62
436.505	87.62
436.727	80.62
436.949	72.62
437.17	81.62
437.392	92.62
437.614	74.62
437.835	89.62
438.057	74.62
438.278	81.62
438.5	70.62
438.721	82.62
438.943	77.62
439.165	84.62
439.386	78.62
439.608	59.62
439.829	80.62
440.05	78.62
440.272	86.62
440.493	74.62
440.715	81.62
440.936	77.62
441.158	73.62
441.379	71.62
441.6	79.62
441.822	80.62
442.043	82.62
442.264	80.62
442.486	88.62
442.707	84.62
442.928	77.62
443.149	80.62
443.371	88.62
443.592	116.62
443.813	102.62
444.034	86.62
444.255	84.62
444.476	73.62
444.698	82.62
444.919	88.62
445.14	150.62
445.361	125.62
445.582	112.62
445.803	98.62
446.024	98.62
446.245	78.62
446.466	87.62
446.687	73.62
446.908	72.62
447.129	75.62
447.35	90.62
447.571	87.62
447.792	74.62
448.013	84.62
448.234	85.62
448.455	87.62
448.675	95.62
448.896	90.62
449.117	64.62
449.338	70.62
449.559	75.62
449.779	88.62
450	89.62
450.221	81.62
450.442	78.62
450.662	73.62
450.883	77.62
451.104	71.62
451.324	80.62
451.545	83.62
451.766	86.62
451.986	101.62
452.207	79.62
452.428	83.62
452.648	82.62
452.869	98.62
453.089	72.62
453.31	81.62
453.53	96.62
453.751	73.62
453.971	76.62
454.192	90.62
454.412	75.62
454.633	79.62
454.853	86.62
455.073	84.62
455.294	71.62
455.514	84.62
455.734	79.62
455.955	70.62
456.175	80.62
456.395	94.62
456.616	98.62
456.836	78.62
457.056	83.62
457.276	84.62
457.497	73.62
457.717	62.62
457.937	68.62
458.157	95.62
458.377	106.62
458.598	88.62
458.818	84.62
459.038	86.62
459.258	75.62
459.478	71.62
459.698	85.62
459.918	74.62
460.138	63.62
460.358	74.62
460.578	80.62
460.798	86.62
461.018	86.62
461.238	75.62
461.458	78.62
461.678	79.62
461.898	71.62
462.118	82.62
462.338	87.62
462.558	80.62
462.777	83.62
462.997	90.62
463.217	82.62
463.437	81.62
463.657	73.62
463.876	79.62
464.096	82.62
464.316	73.62
464.536	80.62
464.755	88.62
464.975	73.62
465.195	79.62
465.414	83.62
465.634	91.62
465.854	76.62
466.073	61.62
466.293	76.62
466.512	84.62
466.732	70.62
466.951	82.62
467.171	86.62
467.391	88.62
467.61	68.62
467.829	84.62
468.049	79.62
468.268	81.62
468.488	83.62
468.707	97.62
468.927	84.62
469.146	81.62
469.365	70.62
469.585	80.62
469.804	86.62
470.023	83.62
470.243	74.62
470.462	80.62
470.681	75.62
470.901	86.62
471.12	87.62
471.339	91.62
471.558	92.62
471.777	81.62
471.997	72.62
472.216	76.62
472.435	68.62
472.654	75.62
472.873	89.62
473.092	93.62
473.311	85.62
473.53	81.62
473.749	75.62
473.968	87.62
474.187	81.62
474.406	77.62
474.625	78.62
474.844	82.62
475.063	90.62
475.282	80.62
475.501	86.62
475.72	78.62
475.939	61.62
476.158	74.62
476.377	71.62
476.596	67.62
476.814	103.62
477.033	68.62
477.252	68.62
477.471	69.62
477.69	86.62
477.908	81.62
478.127	82.62
478.346	75.62
478.564	85.62
478.783	80.62
479.002	95.62
479.22	69.62
479.439	75.62
479.658	90.62
479.876	84.62
480.095	85.62
480.313	68.62
480.532	77.62
480.751	79.62
480.969	81.62
481.188	79.62
481.406	86.62
481.624	75.62
481.843	79.62
482.061	83.62
482.28	75.62
482.498	74.62
482.717	72.62
482.935	80.62
483.153	64.62
483.372	78.62
483.59	77.62
483.808	79.62
484.027	90.62
484.245	72.62
484.463	84.62
484.681	90.62
484.9	86.62
485.118	101.62
485.336	79.62
485.554	88.62
485.772	82.62
485.99	88.62
486.209	81.62
486.427	87.62
486.645	90.62
486.863	82.62
487.081	80.62
487.299	88.62
487.517	96.62
487.735	74.62
487.953	92.62
488.171	94.62
488.389	90.62
488.607	83.62
488.825	78.62
489.043	72.62
489.261	93.62
489.479	68.62
489.696	65.62
489.914	69.62
490.132	91.62
490.35	72.62
490.568	85.62
490.786	86.62
491.003	80.62
491.221	83.62
491.439	95.62
491.657	79.62
491.874	82.62
492.092	72.62
492.31	82.62
492.527	83.62
492.745	83.62
492.963	82.62
493.18	75.62
493.398	83.62
493.615	84.62
493.833	71.62
494.05	80.62
494.268	77.62
494.485	88.62
494.703	93.62
494.92	84.62
495.138	84.62
495.355	83.62
495.573	77.62
495.79	80.62
496.008	86.62
496.225	74.62
496.442	91.62
496.66	90.62
496.877	78.62
497.094	94.62
497.312	71.62
497.529	63.62
497.746	68.62
497.963	77.62
498.181	104.62
498.398	94.62
498.615	75.62
498.832	79.62
499.049	83.62
499.267	82.62
499.484	75.62
499.701	83.62
499.918	79.62
500.135	87.62
500.352	75.62
500.569	75.62
500.786	87.62
501.003	76.62
501.22	89.62
501.437	91.62
501.654	76.62
501.871	88.62
502.088	71.62
502.305	95.62
502.522	93.62
502.739	88.62
502.956	87.62
503.172	92.62
503.389	73.62
503.606	86.62
503.823	72.62
504.04	104.62
504.256	110.62
504.473	81.62
504.69	86.62
504.907	96.62
505.123	77.62
505.34	64.62
505.557	82.62
505.773	77.62
505.99	85.62
506.207	73.62
506.423	74.62
506.64	80.62
506.856	100.62
507.073	74.62
507.289	83.62
507.506	76.62
507.722	87.62
507.939	80.62
508.155	87.62
508.372	82.62
508.588	78.62
508.805	90.62
509.021	85.62
509.238	88.62
509.454	85.62
509.67	69.62
509.887	84.62
510.103	79.62
510.319	75.62
510.536	88.62
510.752	78.62
510.968	68.62
511.184	86.62
511.401	82.62
511.617	91.62
511.833	79.62
512.049	87.62
512.265	82.62
512.481	78.62
512.698	83.62
512.914	69.62
513.13	74.62
513.346	81.62
513.562	86.62
513.778	87.62
513.994	75.62
514.21	63.62
514.426	76.62
514.642	64.62
514.858	76.62
515.074	87.62
515.29	86.62
515.506	72.62
515.721	86.62
515.937	85.62
516.153	79.62
516.369	70.62
516.585	92.62
516.801	85.62
517.016	72.62
517.232	76.62
517.448	91.62
517.664	104.62
517.879	88.62
518.095	82.62
518.311	73.62
518.527	86.62
518.742	92.62
518.958	91.62
519.173	94.62
519.389	84.62
519.605	72.62
519.82	88.62
520.036	92.62
