Data from Dirtheat3_HRD10591_00012.txt Node
Date: Fri Dec 27 15:16:24 EST 2024
User: Yrep
Spectrometer: HR+D1059
Trigger mode: 1
Integration Time (sec): 1.000000E-1
Scans to average: 1
Electric dark correction enabled: true
Nonlinearity correction enabled: false
Boxcar width: 0
XAxis mode: Wavelengths
Number of Pixels in Spectrum: 2048
>>>>>Begin Spectral Data<<<<<
223.165	-21.19
223.4	-21.19
223.635	-21.19
223.869	-26.19
224.104	-20.19
224.338	-15.19
224.573	-8.19
224.808	-16.19
225.042	-4.19
225.277	15.81
225.511	0.81
225.746	-11.19
225.98	9.81
226.215	6.81
226.449	15.81
226.683	30.81
226.918	21.81
227.152	20.81
227.387	36.81
227.621	43.81
227.856	47.81
228.09	44.81
228.324	44.81
228.559	65.81
228.793	53.81
229.027	60.81
229.262	66.81
229.496	81.81
229.73	65.81
229.964	71.81
230.199	71.81
230.433	87.81
230.667	75.81
230.901	77.81
231.136	63.81
231.37	79.81
231.604	60.81
231.838	83.81
232.072	92.81
232.306	80.81
232.541	80.81
232.775	78.81
233.009	72.81
233.243	76.81
233.477	70.81
233.711	83.81
233.945	79.81
234.179	87.81
234.413	74.81
234.647	70.81
234.881	70.81
235.115	65.81
235.349	64.81
235.583	90.81
235.817	69.81
236.051	72.81
236.285	64.81
236.519	69.81
236.753	69.81
236.987	71.81
237.221	78.81
237.455	69.81
237.689	74.81
237.922	86.81
238.156	76.81
238.39	61.81
238.624	76.81
238.858	64.81
239.091	77.81
239.325	64.81
239.559	75.81
239.793	65.81
240.027	72.81
240.26	76.81
240.494	71.81
240.728	64.81
240.961	79.81
241.195	77.81
241.429	77.81
241.662	83.81
241.896	79.81
242.13	74.81
242.363	79.81
242.597	65.81
242.83	71.81
243.064	68.81
243.298	61.81
243.531	68.81
243.765	85.81
243.998	73.81
244.232	77.81
244.465	80.81
244.699	66.81
244.932	64.81
245.166	67.81
245.399	76.81
245.633	76.81
245.866	72.81
246.099	77.81
246.333	75.81
246.566	92.81
246.8	84.81
247.033	78.81
247.266	68.81
247.5	63.81
247.733	91.81
247.966	82.81
248.2	74.81
248.433	80.81
248.666	66.81
248.899	82.81
249.133	71.81
249.366	96.81
249.599	78.81
249.832	70.81
250.066	74.81
250.299	66.81
250.532	71.81
250.765	71.81
250.998	86.81
251.231	81.81
251.465	79.81
251.698	91.81
251.931	84.81
252.164	83.81
252.397	77.81
252.63	69.81
252.863	80.81
253.096	77.81
253.329	75.81
253.562	90.81
253.795	78.81
254.028	72.81
254.261	78.81
254.494	87.81
254.727	79.81
254.96	86.81
255.193	78.81
255.426	76.81
255.659	81.81
255.892	99.81
256.124	66.81
256.357	64.81
256.59	68.81
256.823	68.81
257.056	77.81
257.289	78.81
257.521	77.81
257.754	70.81
257.987	78.81
258.22	81.81
258.452	74.81
258.685	69.81
258.918	73.81
259.151	77.81
259.383	75.81
259.616	79.81
259.849	74.81
260.081	66.81
260.314	90.81
260.547	86.81
260.779	72.81
261.012	85.81
261.244	82.81
261.477	66.81
261.71	70.81
261.942	81.81
262.175	72.81
262.407	75.81
262.64	79.81
262.872	68.81
263.105	79.81
263.337	70.81
263.57	79.81
263.802	80.81
264.035	79.81
264.267	83.81
264.499	74.81
264.732	87.81
264.964	77.81
265.197	70.81
265.429	69.81
265.661	78.81
265.894	70.81
266.126	96.81
266.358	67.81
266.591	85.81
266.823	85.81
267.055	80.81
267.287	75.81
267.52	85.81
267.752	67.81
267.984	76.81
268.216	76.81
268.448	67.81
268.681	79.81
268.913	78.81
269.145	93.81
269.377	79.81
269.609	78.81
269.841	71.81
270.073	83.81
270.306	78.81
270.538	82.81
270.77	88.81
271.002	89.81
271.234	84.81
271.466	87.81
271.698	83.81
271.93	83.81
272.162	79.81
272.394	83.81
272.626	77.81
272.858	82.81
273.09	66.81
273.322	74.81
273.553	78.81
273.785	81.81
274.017	83.81
274.249	76.81
274.481	77.81
274.713	81.81
274.945	89.81
275.176	80.81
275.408	92.81
275.64	98.81
275.872	86.81
276.104	75.81
276.335	92.81
276.567	83.81
276.799	75.81
277.031	69.81
277.262	81.81
277.494	84.81
277.726	82.81
277.957	71.81
278.189	90.81
278.421	69.81
278.652	73.81
278.884	78.81
279.115	85.81
279.347	85.81
279.579	86.81
279.81	90.81
280.042	80.81
280.273	87.81
280.505	69.81
280.736	64.81
280.968	79.81
281.199	89.81
281.431	73.81
281.662	87.81
281.894	78.81
282.125	81.81
282.356	77.81
282.588	81.81
282.819	76.81
283.051	77.81
283.282	86.81
283.513	91.81
283.745	76.81
283.976	66.81
284.207	86.81
284.439	86.81
284.67	81.81
284.901	89.81
285.132	85.81
285.364	68.81
285.595	75.81
285.826	91.81
286.057	88.81
286.288	80.81
286.52	83.81
286.751	85.81
286.982	72.81
287.213	91.81
287.444	83.81
287.675	86.81
287.906	75.81
288.138	77.81
288.369	80.81
288.6	76.81
288.831	81.81
289.062	83.81
289.293	64.81
289.524	87.81
289.755	87.81
289.986	63.81
290.217	79.81
290.448	103.81
290.679	75.81
290.91	80.81
291.141	87.81
291.371	82.81
291.602	85.81
291.833	104.81
292.064	92.81
292.295	75.81
292.526	83.81
292.757	74.81
292.987	88.81
293.218	79.81
293.449	72.81
293.68	78.81
293.91	83.81
294.141	85.81
294.372	75.81
294.603	71.81
294.833	75.81
295.064	87.81
295.295	90.81
295.525	81.81
295.756	84.81
295.987	88.81
296.217	84.81
296.448	78.81
296.679	85.81
296.909	72.81
297.14	82.81
297.37	86.81
297.601	79.81
297.831	84.81
298.062	92.81
298.292	87.81
298.523	88.81
298.753	68.81
298.984	85.81
299.214	71.81
299.445	84.81
299.675	85.81
299.905	96.81
300.136	72.81
300.366	87.81
300.597	89.81
300.827	94.81
301.057	99.81
301.288	78.81
301.518	86.81
301.748	97.81
301.979	106.81
302.209	70.81
302.439	80.81
302.669	81.81
302.9	75.81
303.13	70.81
303.36	85.81
303.59	91.81
303.82	90.81
304.051	88.81
304.281	80.81
304.511	107.81
304.741	76.81
304.971	81.81
305.201	77.81
305.431	80.81
305.661	102.81
305.891	92.81
306.121	79.81
306.352	79.81
306.582	81.81
306.812	70.81
307.042	86.81
307.272	77.81
307.502	72.81
307.731	79.81
307.961	74.81
308.191	71.81
308.421	89.81
308.651	90.81
308.881	92.81
309.111	90.81
309.341	93.81
309.571	75.81
309.8	90.81
310.03	65.81
310.26	85.81
310.49	89.81
310.72	85.81
310.949	83.81
311.179	79.81
311.409	91.81
311.639	70.81
311.868	91.81
312.098	91.81
312.328	87.81
312.557	84.81
312.787	85.81
313.017	73.81
313.246	98.81
313.476	88.81
313.706	94.81
313.935	65.81
314.165	68.81
314.394	76.81
314.624	73.81
314.853	74.81
315.083	84.81
315.312	74.81
315.542	75.81
315.771	76.81
316.001	77.81
316.23	76.81
316.46	78.81
316.689	80.81
316.919	74.81
317.148	70.81
317.377	92.81
317.607	87.81
317.836	72.81
318.065	87.81
318.295	73.81
318.524	70.81
318.753	80.81
318.983	86.81
319.212	74.81
319.441	84.81
319.67	80.81
319.9	69.81
320.129	84.81
320.358	70.81
320.587	89.81
320.816	83.81
321.046	73.81
321.275	82.81
321.504	83.81
321.733	74.81
321.962	82.81
322.191	81.81
322.42	79.81
322.649	97.81
322.878	71.81
323.108	89.81
323.337	84.81
323.566	79.81
323.795	94.81
324.024	87.81
324.253	80.81
324.482	89.81
324.71	80.81
324.939	75.81
325.168	95.81
325.397	76.81
325.626	78.81
325.855	95.81
326.084	86.81
326.313	81.81
326.542	86.81
326.77	81.81
326.999	92.81
327.228	87.81
327.457	81.81
327.686	78.81
327.914	80.81
328.143	86.81
328.372	68.81
328.6	76.81
328.829	73.81
329.058	78.81
329.287	92.81
329.515	65.81
329.744	87.81
329.972	92.81
330.201	75.81
330.43	79.81
330.658	78.81
330.887	94.81
331.115	79.81
331.344	85.81
331.572	71.81
331.801	76.81
332.03	86.81
332.258	70.81
332.486	83.81
332.715	81.81
332.943	80.81
333.172	87.81
333.4	83.81
333.629	78.81
333.857	74.81
334.085	74.81
334.314	82.81
334.542	89.81
334.771	75.81
334.999	76.81
335.227	90.81
335.455	79.81
335.684	85.81
335.912	81.81
336.14	84.81
336.369	78.81
336.597	101.81
336.825	99.81
337.053	81.81
337.281	94.81
337.51	80.81
337.738	88.81
337.966	81.81
338.194	79.81
338.422	71.81
338.65	73.81
338.878	71.81
339.106	88.81
339.334	94.81
339.562	86.81
339.79	89.81
340.018	90.81
340.246	87.81
340.474	78.81
340.702	79.81
340.93	80.81
341.158	82.81
341.386	81.81
341.614	72.81
341.842	82.81
342.07	67.81
342.298	80.81
342.526	84.81
342.754	71.81
342.981	65.81
343.209	80.81
343.437	100.81
343.665	95.81
343.893	95.81
344.12	82.81
344.348	87.81
344.576	80.81
344.804	76.81
345.031	75.81
345.259	78.81
345.487	77.81
345.714	91.81
345.942	102.81
346.17	82.81
346.397	73.81
346.625	87.81
346.853	73.81
347.08	83.81
347.308	76.81
347.535	83.81
347.763	72.81
347.99	80.81
348.218	74.81
348.445	85.81
348.673	78.81
348.9	75.81
349.128	78.81
349.355	75.81
349.583	80.81
349.81	70.81
350.037	88.81
350.265	89.81
350.492	97.81
350.72	81.81
350.947	70.81
351.174	78.81
351.402	77.81
351.629	73.81
351.856	95.81
352.083	88.81
352.311	70.81
352.538	70.81
352.765	76.81
352.992	80.81
353.22	79.81
353.447	77.81
353.674	70.81
353.901	74.81
354.128	94.81
354.355	76.81
354.583	93.81
354.81	87.81
355.037	92.81
355.264	92.81
355.491	81.81
355.718	74.81
355.945	75.81
356.172	80.81
356.399	94.81
356.626	84.81
356.853	74.81
357.08	89.81
357.307	76.81
357.534	65.81
357.761	89.81
357.988	87.81
358.215	66.81
358.441	91.81
358.668	86.81
358.895	80.81
359.122	98.81
359.349	80.81
359.576	78.81
359.802	82.81
360.029	74.81
360.256	70.81
360.483	83.81
360.709	70.81
360.936	99.81
361.163	92.81
361.39	83.81
361.616	68.81
361.843	82.81
362.07	103.81
362.296	79.81
362.523	84.81
362.749	84.81
362.976	85.81
363.203	80.81
363.429	75.81
363.656	98.81
363.882	87.81
364.109	90.81
364.335	87.81
364.562	87.81
364.788	84.81
365.015	89.81
365.241	72.81
365.468	88.81
365.694	83.81
365.92	88.81
366.147	80.81
366.373	70.81
366.599	79.81
366.826	82.81
367.052	73.81
367.278	83.81
367.505	92.81
367.731	95.81
367.957	81.81
368.184	96.81
368.41	83.81
368.636	92.81
368.862	81.81
369.089	75.81
369.315	87.81
369.541	87.81
369.767	83.81
369.993	81.81
370.219	73.81
370.445	82.81
370.672	80.81
370.898	88.81
371.124	87.81
371.35	66.81
371.576	77.81
371.802	96.81
372.028	71.81
372.254	92.81
372.48	86.81
372.706	84.81
372.932	83.81
373.158	66.81
373.384	89.81
373.61	85.81
373.835	89.81
374.061	87.81
374.287	75.81
374.513	70.81
374.739	75.81
374.965	84.81
375.191	91.81
375.416	82.81
375.642	87.81
375.868	90.81
376.094	92.81
376.319	75.81
376.545	79.81
376.771	74.81
376.997	82.81
377.222	71.81
377.448	79.81
377.674	73.81
377.899	79.81
378.125	77.81
378.35	86.81
378.576	75.81
378.802	77.81
379.027	65.81
379.253	75.81
379.478	83.81
379.704	85.81
379.929	77.81
380.155	90.81
380.38	92.81
380.606	80.81
380.831	84.81
381.057	89.81
381.282	85.81
381.507	79.81
381.733	76.81
381.958	88.81
382.184	76.81
382.409	84.81
382.634	81.81
382.86	72.81
383.085	89.81
383.31	90.81
383.535	92.81
383.761	77.81
383.986	91.81
384.211	84.81
384.436	76.81
384.662	75.81
384.887	79.81
385.112	92.81
385.337	90.81
385.562	72.81
385.787	95.81
386.013	79.81
386.238	76.81
386.463	77.81
386.688	108.81
386.913	67.81
387.138	83.81
387.363	76.81
387.588	81.81
387.813	83.81
388.038	81.81
388.263	82.81
388.488	82.81
388.713	81.81
388.938	80.81
389.163	79.81
389.387	78.81
389.612	88.81
389.837	65.81
390.062	88.81
390.287	83.81
390.512	76.81
390.736	69.81
390.961	88.81
391.186	80.81
391.411	81.81
391.636	68.81
391.86	91.81
392.085	77.81
392.31	92.81
392.534	87.81
392.759	77.81
392.984	79.81
393.208	102.81
393.433	94.81
393.658	91.81
393.882	85.81
394.107	76.81
394.331	67.81
394.556	87.81
394.78	77.81
395.005	75.81
395.229	75.81
395.454	83.81
395.678	83.81
395.903	84.81
396.127	99.81
396.352	67.81
396.576	82.81
396.801	99.81
397.025	95.81
397.249	87.81
397.474	82.81
397.698	83.81
397.922	72.81
398.147	74.81
398.371	82.81
398.595	85.81
398.82	84.81
399.044	69.81
399.268	74.81
399.492	89.81
399.717	81.81
399.941	75.81
400.165	77.81
400.389	87.81
400.613	81.81
400.837	86.81
401.062	71.81
401.286	84.81
401.51	82.81
401.734	88.81
401.958	83.81
402.182	95.81
402.406	81.81
402.63	76.81
402.854	81.81
403.078	99.81
403.302	77.81
403.526	74.81
403.75	81.81
403.974	75.81
404.198	80.81
404.422	81.81
404.645	66.81
404.869	64.81
405.093	82.81
405.317	79.81
405.541	79.81
405.765	93.81
405.988	96.81
406.212	67.81
406.436	87.81
406.66	77.81
406.883	84.81
407.107	80.81
407.331	72.81
407.555	86.81
407.778	76.81
408.002	86.81
408.226	87.81
408.449	86.81
408.673	77.81
408.896	90.81
409.12	79.81
409.344	83.81
409.567	64.81
409.791	73.81
410.014	85.81
410.238	86.81
410.461	96.81
410.685	92.81
410.908	78.81
411.132	81.81
411.355	80.81
411.578	88.81
411.802	73.81
412.025	74.81
412.249	79.81
412.472	87.81
412.695	81.81
412.919	69.81
413.142	71.81
413.365	77.81
413.589	79.81
413.812	77.81
414.035	85.81
414.258	82.81
414.482	80.81
414.705	85.81
414.928	68.81
415.151	70.81
415.374	78.81
415.597	69.81
415.821	74.81
416.044	60.81
416.267	89.81
416.49	67.81
416.713	90.81
416.936	93.81
417.159	79.81
417.382	76.81
417.605	79.81
417.828	80.81
418.051	87.81
418.274	85.81
418.497	85.81
418.72	78.81
418.943	86.81
419.166	77.81
419.389	83.81
419.611	86.81
419.834	89.81
420.057	91.81
420.28	72.81
420.503	84.81
420.726	71.81
420.948	77.81
421.171	72.81
421.394	78.81
421.617	70.81
421.839	84.81
422.062	78.81
422.285	81.81
422.507	103.81
422.73	109.81
422.953	95.81
423.175	89.81
423.398	83.81
423.621	76.81
423.843	80.81
424.066	87.81
424.288	79.81
424.511	69.81
424.733	87.81
424.956	81.81
425.178	90.81
425.401	74.81
425.623	71.81
425.846	75.81
426.068	74.81
426.291	72.81
426.513	83.81
426.735	82.81
426.958	79.81
427.18	74.81
427.402	79.81
427.625	77.81
427.847	81.81
428.069	87.81
428.292	82.81
428.514	86.81
428.736	82.81
428.958	78.81
429.181	89.81
429.403	84.81
429.625	83.81
429.847	86.81
430.069	89.81
430.292	83.81
430.514	81.81
430.736	90.81
430.958	91.81
431.18	72.81
431.402	80.81
431.624	78.81
431.846	71.81
432.068	85.81
432.29	97.81
432.512	83.81
432.734	80.81
432.956	73.81
433.178	93.81
433.4	83.81
433.622	91.81
433.844	91.81
434.066	87.81
434.287	81.81
434.509	81.81
434.731	80.81
434.953	95.81
435.175	82.81
435.397	81.81
435.618	76.81
435.84	71.81
436.062	76.81
436.284	70.81
436.505	77.81
436.727	77.81
436.949	73.81
437.17	78.81
437.392	76.81
437.614	85.81
437.835	84.81
438.057	80.81
438.278	77.81
438.5	77.81
438.721	86.81
438.943	91.81
439.165	76.81
439.386	85.81
439.608	79.81
439.829	83.81
440.05	85.81
440.272	83.81
440.493	95.81
440.715	89.81
440.936	74.81
441.158	92.81
441.379	89.81
441.6	78.81
441.822	80.81
442.043	83.81
442.264	89.81
442.486	85.81
442.707	79.81
442.928	85.81
443.149	92.81
443.371	90.81
443.592	81.81
443.813	73.81
444.034	79.81
444.255	73.81
444.476	76.81
444.698	84.81
444.919	80.81
445.14	154.81
445.361	112.81
445.582	82.81
445.803	78.81
446.024	87.81
446.245	81.81
446.466	80.81
446.687	74.81
446.908	84.81
447.129	99.81
447.35	69.81
447.571	76.81
447.792	81.81
448.013	84.81
448.234	83.81
448.455	80.81
448.675	83.81
448.896	71.81
449.117	90.81
449.338	75.81
449.559	79.81
449.779	83.81
450	68.81
450.221	74.81
450.442	68.81
450.662	83.81
450.883	79.81
451.104	79.81
451.324	78.81
451.545	73.81
451.766	91.81
451.986	84.81
452.207	76.81
452.428	64.81
452.648	76.81
452.869	76.81
453.089	86.81
453.31	82.81
453.53	78.81
453.751	96.81
453.971	75.81
454.192	72.81
454.412	78.81
454.633	72.81
454.853	80.81
455.073	66.81
455.294	68.81
455.514	92.81
455.734	65.81
455.955	93.81
456.175	76.81
456.395	91.81
456.616	91.81
456.836	83.81
457.056	85.81
457.276	84.81
457.497	86.81
457.717	91.81
457.937	89.81
458.157	91.81
458.377	67.81
458.598	87.81
458.818	77.81
459.038	65.81
459.258	91.81
459.478	83.81
459.698	75.81
459.918	88.81
460.138	78.81
460.358	68.81
460.578	80.81
460.798	71.81
461.018	87.81
461.238	80.81
461.458	77.81
461.678	69.81
461.898	74.81
462.118	71.81
462.338	67.81
462.558	79.81
462.777	73.81
462.997	77.81
463.217	72.81
463.437	79.81
463.657	76.81
463.876	80.81
464.096	91.81
464.316	76.81
464.536	72.81
464.755	77.81
464.975	68.81
465.195	80.81
465.414	73.81
465.634	70.81
465.854	96.81
466.073	84.81
466.293	83.81
466.512	79.81
466.732	70.81
466.951	72.81
467.171	91.81
467.391	68.81
467.61	84.81
467.829	85.81
468.049	77.81
468.268	73.81
468.488	73.81
468.707	88.81
468.927	83.81
469.146	83.81
469.365	83.81
469.585	104.81
469.804	72.81
470.023	77.81
470.243	87.81
470.462	88.81
470.681	89.81
470.901	79.81
471.12	77.81
471.339	74.81
471.558	74.81
471.777	90.81
471.997	74.81
472.216	85.81
472.435	69.81
472.654	75.81
472.873	80.81
473.092	95.81
473.311	74.81
473.53	89.81
473.749	73.81
473.968	79.81
474.187	82.81
474.406	64.81
474.625	90.81
474.844	90.81
475.063	77.81
475.282	76.81
475.501	75.81
475.72	90.81
475.939	78.81
476.158	84.81
476.377	81.81
476.596	76.81
476.814	78.81
477.033	75.81
477.252	87.81
477.471	77.81
477.69	77.81
477.908	101.81
478.127	83.81
478.346	64.81
478.564	75.81
478.783	75.81
479.002	79.81
479.22	68.81
479.439	69.81
479.658	79.81
479.876	84.81
480.095	64.81
480.313	94.81
480.532	85.81
480.751	75.81
480.969	71.81
481.188	96.81
481.406	85.81
481.624	88.81
481.843	81.81
482.061	83.81
482.28	72.81
482.498	85.81
482.717	93.81
482.935	80.81
483.153	76.81
483.372	89.81
483.59	78.81
483.808	77.81
484.027	82.81
484.245	74.81
484.463	76.81
484.681	86.81
484.9	75.81
485.118	78.81
485.336	72.81
485.554	86.81
485.772	81.81
485.99	74.81
486.209	75.81
486.427	82.81
486.645	79.81
486.863	88.81
487.081	72.81
487.299	78.81
487.517	87.81
487.735	72.81
487.953	83.81
488.171	79.81
488.389	95.81
488.607	86.81
488.825	85.81
489.043	81.81
489.261	102.81
489.479	77.81
489.696	73.81
489.914	80.81
490.132	68.81
490.35	87.81
490.568	87.81
490.786	74.81
491.003	71.81
491.221	81.81
491.439	93.81
491.657	79.81
491.874	89.81
492.092	91.81
492.31	81.81
492.527	82.81
492.745	90.81
492.963	86.81
493.18	81.81
493.398	86.81
493.615	82.81
493.833	93.81
494.05	81.81
494.268	69.81
494.485	78.81
494.703	82.81
494.92	73.81
495.138	75.81
495.355	89.81
495.573	81.81
495.79	91.81
496.008	65.81
496.225	71.81
496.442	76.81
496.66	80.81
496.877	77.81
497.094	101.81
497.312	66.81
497.529	87.81
497.746	84.81
497.963	80.81
498.181	97.81
498.398	82.81
498.615	87.81
498.832	80.81
499.049	87.81
499.267	85.81
499.484	87.81
499.701	84.81
499.918	68.81
500.135	77.81
500.352	61.81
500.569	65.81
500.786	85.81
501.003	98.81
501.22	82.81
501.437	81.81
501.654	72.81
501.871	60.81
502.088	76.81
502.305	81.81
502.522	87.81
502.739	71.81
502.956	73.81
503.172	76.81
503.389	84.81
503.606	74.81
503.823	78.81
504.04	90.81
504.256	75.81
504.473	77.81
504.69	86.81
504.907	95.81
505.123	82.81
505.34	81.81
505.557	83.81
505.773	83.81
505.99	82.81
506.207	74.81
506.423	76.81
506.64	91.81
506.856	77.81
507.073	81.81
507.289	84.81
507.506	82.81
507.722	71.81
507.939	84.81
508.155	91.81
508.372	77.81
508.588	73.81
508.805	83.81
509.021	72.81
509.238	82.81
509.454	99.81
509.67	69.81
509.887	84.81
510.103	77.81
510.319	94.81
510.536	79.81
510.752	75.81
510.968	82.81
511.184	79.81
511.401	76.81
511.617	77.81
511.833	88.81
512.049	93.81
512.265	84.81
512.481	66.81
512.698	85.81
512.914	82.81
513.13	84.81
513.346	80.81
513.562	90.81
513.778	81.81
513.994	80.81
514.21	90.81
514.426	78.81
514.642	83.81
514.858	84.81
515.074	81.81
515.29	69.81
515.506	87.81
515.721	99.81
515.937	85.81
516.153	89.81
516.369	80.81
516.585	78.81
516.801	69.81
517.016	80.81
517.232	82.81
517.448	85.81
517.664	93.81
517.879	75.81
518.095	89.81
518.311	80.81
518.527	62.81
518.742	65.81
518.958	81.81
519.173	101.81
519.389	87.81
519.605	79.81
519.82	74.81
520.036	76.81
