Data from Dirtheat3_HRD10591_00008.txt Node
Date: Fri Dec 27 15:16:20 EST 2024
User: Yrep
Spectrometer: HR+D1059
Trigger mode: 1
Integration Time (sec): 1.000000E-1
Scans to average: 1
Electric dark correction enabled: true
Nonlinearity correction enabled: false
Boxcar width: 0
XAxis mode: Wavelengths
Number of Pixels in Spectrum: 2048
>>>>>Begin Spectral Data<<<<<
223.165	-9.56
223.4	-9.56
223.635	-9.56
223.869	-34.56
224.104	-24.56
224.338	-4.56
224.573	-10.56
224.808	-8.56
225.042	-8.56
225.277	-14.56
225.511	3.44
225.746	5.44
225.98	8.44
226.215	4.44
226.449	13.44
226.683	18.44
226.918	20.44
227.152	41.44
227.387	37.44
227.621	43.44
227.856	39.44
228.09	41.44
228.324	53.44
228.559	55.44
228.793	71.44
229.027	63.44
229.262	71.44
229.496	66.44
229.73	72.44
229.964	66.44
230.199	73.44
230.433	85.44
230.667	78.44
230.901	65.44
231.136	78.44
231.37	79.44
231.604	83.44
231.838	82.44
232.072	88.44
232.306	74.44
232.541	74.44
232.775	78.44
233.009	93.44
233.243	83.44
233.477	84.44
233.711	76.44
233.945	82.44
234.179	75.44
234.413	91.44
234.647	79.44
234.881	94.44
235.115	89.44
235.349	71.44
235.583	71.44
235.817	79.44
236.051	61.44
236.285	80.44
236.519	80.44
236.753	77.44
236.987	96.44
237.221	74.44
237.455	73.44
237.689	87.44
237.922	72.44
238.156	82.44
238.39	80.44
238.624	86.44
238.858	63.44
239.091	74.44
239.325	76.44
239.559	93.44
239.793	82.44
240.027	81.44
240.26	72.44
240.494	78.44
240.728	85.44
240.961	71.44
241.195	82.44
241.429	78.44
241.662	64.44
241.896	78.44
242.13	66.44
242.363	78.44
242.597	78.44
242.83	89.44
243.064	59.44
243.298	78.44
243.531	60.44
243.765	63.44
243.998	72.44
244.232	80.44
244.465	74.44
244.699	74.44
244.932	88.44
245.166	61.44
245.399	86.44
245.633	82.44
245.866	71.44
246.099	68.44
246.333	77.44
246.566	71.44
246.8	80.44
247.033	81.44
247.266	81.44
247.5	81.44
247.733	76.44
247.966	75.44
248.2	89.44
248.433	77.44
248.666	73.44
248.899	87.44
249.133	82.44
249.366	79.44
249.599	70.44
249.832	75.44
250.066	94.44
250.299	84.44
250.532	70.44
250.765	75.44
250.998	80.44
251.231	82.44
251.465	74.44
251.698	82.44
251.931	67.44
252.164	93.44
252.397	95.44
252.63	96.44
252.863	82.44
253.096	68.44
253.329	82.44
253.562	77.44
253.795	84.44
254.028	88.44
254.261	74.44
254.494	89.44
254.727	67.44
254.96	90.44
255.193	71.44
255.426	90.44
255.659	81.44
255.892	79.44
256.124	91.44
256.357	83.44
256.59	99.44
256.823	89.44
257.056	81.44
257.289	74.44
257.521	67.44
257.754	74.44
257.987	81.44
258.22	76.44
258.452	81.44
258.685	79.44
258.918	86.44
259.151	76.44
259.383	71.44
259.616	74.44
259.849	83.44
260.081	86.44
260.314	77.44
260.547	76.44
260.779	67.44
261.012	61.44
261.244	90.44
261.477	94.44
261.71	95.44
261.942	82.44
262.175	70.44
262.407	72.44
262.64	79.44
262.872	76.44
263.105	69.44
263.337	73.44
263.57	70.44
263.802	74.44
264.035	81.44
264.267	71.44
264.499	83.44
264.732	76.44
264.964	86.44
265.197	73.44
265.429	89.44
265.661	74.44
265.894	81.44
266.126	71.44
266.358	85.44
266.591	81.44
266.823	79.44
267.055	78.44
267.287	73.44
267.52	79.44
267.752	79.44
267.984	67.44
268.216	70.44
268.448	83.44
268.681	78.44
268.913	103.44
269.145	92.44
269.377	96.44
269.609	66.44
269.841	84.44
270.073	90.44
270.306	73.44
270.538	91.44
270.77	79.44
271.002	78.44
271.234	90.44
271.466	85.44
271.698	90.44
271.93	97.44
272.162	83.44
272.394	81.44
272.626	90.44
272.858	76.44
273.09	72.44
273.322	75.44
273.553	80.44
273.785	83.44
274.017	73.44
274.249	86.44
274.481	77.44
274.713	81.44
274.945	89.44
275.176	85.44
275.408	86.44
275.64	67.44
275.872	72.44
276.104	81.44
276.335	72.44
276.567	81.44
276.799	86.44
277.031	79.44
277.262	71.44
277.494	85.44
277.726	76.44
277.957	108.44
278.189	71.44
278.421	96.44
278.652	81.44
278.884	74.44
279.115	87.44
279.347	80.44
279.579	87.44
279.81	83.44
280.042	85.44
280.273	84.44
280.505	91.44
280.736	73.44
280.968	68.44
281.199	89.44
281.431	82.44
281.662	74.44
281.894	87.44
282.125	94.44
282.356	77.44
282.588	75.44
282.819	83.44
283.051	78.44
283.282	79.44
283.513	87.44
283.745	96.44
283.976	91.44
284.207	81.44
284.439	92.44
284.67	74.44
284.901	94.44
285.132	71.44
285.364	76.44
285.595	86.44
285.826	75.44
286.057	82.44
286.288	63.44
286.52	90.44
286.751	90.44
286.982	82.44
287.213	92.44
287.444	83.44
287.675	82.44
287.906	95.44
288.138	86.44
288.369	74.44
288.6	89.44
288.831	87.44
289.062	91.44
289.293	85.44
289.524	85.44
289.755	88.44
289.986	76.44
290.217	90.44
290.448	81.44
290.679	81.44
290.91	86.44
291.141	75.44
291.371	86.44
291.602	92.44
291.833	83.44
292.064	85.44
292.295	99.44
292.526	72.44
292.757	89.44
292.987	80.44
293.218	87.44
293.449	93.44
293.68	88.44
293.91	86.44
294.141	88.44
294.372	87.44
294.603	72.44
294.833	79.44
295.064	82.44
295.295	96.44
295.525	73.44
295.756	88.44
295.987	102.44
296.217	90.44
296.448	83.44
296.679	87.44
296.909	97.44
297.14	81.44
297.37	92.44
297.601	92.44
297.831	92.44
298.062	89.44
298.292	93.44
298.523	79.44
298.753	85.44
298.984	68.44
299.214	95.44
299.445	107.44
299.675	95.44
299.905	74.44
300.136	84.44
300.366	90.44
300.597	81.44
300.827	103.44
301.057	95.44
301.288	88.44
301.518	72.44
301.748	76.44
301.979	106.44
302.209	97.44
302.439	82.44
302.669	83.44
302.9	85.44
303.13	82.44
303.36	78.44
303.59	84.44
303.82	76.44
304.051	82.44
304.281	88.44
304.511	102.44
304.741	71.44
304.971	83.44
305.201	74.44
305.431	88.44
305.661	86.44
305.891	96.44
306.121	74.44
306.352	83.44
306.582	88.44
306.812	82.44
307.042	77.44
307.272	94.44
307.502	83.44
307.731	78.44
307.961	92.44
308.191	82.44
308.421	78.44
308.651	84.44
308.881	96.44
309.111	75.44
309.341	84.44
309.571	81.44
309.8	88.44
310.03	73.44
310.26	86.44
310.49	88.44
310.72	88.44
310.949	77.44
311.179	85.44
311.409	83.44
311.639	83.44
311.868	89.44
312.098	105.44
312.328	61.44
312.557	85.44
312.787	81.44
313.017	92.44
313.246	81.44
313.476	82.44
313.706	86.44
313.935	85.44
314.165	88.44
314.394	94.44
314.624	75.44
314.853	90.44
315.083	78.44
315.312	95.44
315.542	83.44
315.771	89.44
316.001	83.44
316.23	71.44
316.46	88.44
316.689	87.44
316.919	79.44
317.148	88.44
317.377	89.44
317.607	86.44
317.836	85.44
318.065	97.44
318.295	79.44
318.524	78.44
318.753	97.44
318.983	82.44
319.212	85.44
319.441	79.44
319.67	88.44
319.9	97.44
320.129	97.44
320.358	77.44
320.587	88.44
320.816	82.44
321.046	84.44
321.275	79.44
321.504	92.44
321.733	89.44
321.962	91.44
322.191	88.44
322.42	81.44
322.649	80.44
322.878	73.44
323.108	87.44
323.337	103.44
323.566	71.44
323.795	88.44
324.024	91.44
324.253	88.44
324.482	87.44
324.71	86.44
324.939	90.44
325.168	83.44
325.397	94.44
325.626	73.44
325.855	81.44
326.084	87.44
326.313	85.44
326.542	77.44
326.77	82.44
326.999	91.44
327.228	93.44
327.457	82.44
327.686	80.44
327.914	96.44
328.143	87.44
328.372	85.44
328.6	82.44
328.829	98.44
329.058	71.44
329.287	77.44
329.515	77.44
329.744	87.44
329.972	93.44
330.201	70.44
330.43	81.44
330.658	86.44
330.887	85.44
331.115	92.44
331.344	82.44
331.572	93.44
331.801	92.44
332.03	92.44
332.258	91.44
332.486	79.44
332.715	87.44
332.943	72.44
333.172	82.44
333.4	88.44
333.629	82.44
333.857	81.44
334.085	79.44
334.314	88.44
334.542	71.44
334.771	72.44
334.999	87.44
335.227	81.44
335.455	71.44
335.684	90.44
335.912	90.44
336.14	97.44
336.369	76.44
336.597	82.44
336.825	79.44
337.053	77.44
337.281	83.44
337.51	71.44
337.738	84.44
337.966	78.44
338.194	87.44
338.422	89.44
338.65	85.44
338.878	103.44
339.106	87.44
339.334	81.44
339.562	79.44
339.79	74.44
340.018	76.44
340.246	80.44
340.474	87.44
340.702	71.44
340.93	77.44
341.158	74.44
341.386	82.44
341.614	89.44
341.842	96.44
342.07	83.44
342.298	83.44
342.526	83.44
342.754	80.44
342.981	82.44
343.209	98.44
343.437	95.44
343.665	84.44
343.893	87.44
344.12	96.44
344.348	91.44
344.576	98.44
344.804	91.44
345.031	102.44
345.259	88.44
345.487	93.44
345.714	88.44
345.942	86.44
346.17	88.44
346.397	73.44
346.625	79.44
346.853	80.44
347.08	91.44
347.308	85.44
347.535	74.44
347.763	87.44
347.99	81.44
348.218	73.44
348.445	73.44
348.673	72.44
348.9	88.44
349.128	87.44
349.355	88.44
349.583	90.44
349.81	83.44
350.037	100.44
350.265	80.44
350.492	78.44
350.72	94.44
350.947	88.44
351.174	92.44
351.402	82.44
351.629	90.44
351.856	79.44
352.083	80.44
352.311	92.44
352.538	86.44
352.765	79.44
352.992	82.44
353.22	82.44
353.447	69.44
353.674	83.44
353.901	85.44
354.128	85.44
354.355	92.44
354.583	89.44
354.81	71.44
355.037	87.44
355.264	92.44
355.491	79.44
355.718	71.44
355.945	85.44
356.172	80.44
356.399	90.44
356.626	86.44
356.853	81.44
357.08	82.44
357.307	92.44
357.534	93.44
357.761	72.44
357.988	96.44
358.215	93.44
358.441	93.44
358.668	92.44
358.895	83.44
359.122	77.44
359.349	86.44
359.576	87.44
359.802	91.44
360.029	83.44
360.256	102.44
360.483	71.44
360.709	78.44
360.936	78.44
361.163	85.44
361.39	94.44
361.616	87.44
361.843	78.44
362.07	94.44
362.296	90.44
362.523	93.44
362.749	96.44
362.976	83.44
363.203	89.44
363.429	97.44
363.656	90.44
363.882	67.44
364.109	90.44
364.335	79.44
364.562	89.44
364.788	81.44
365.015	74.44
365.241	75.44
365.468	78.44
365.694	97.44
365.92	89.44
366.147	75.44
366.373	82.44
366.599	91.44
366.826	80.44
367.052	92.44
367.278	66.44
367.505	86.44
367.731	87.44
367.957	81.44
368.184	78.44
368.41	83.44
368.636	98.44
368.862	94.44
369.089	94.44
369.315	79.44
369.541	77.44
369.767	93.44
369.993	81.44
370.219	82.44
370.445	85.44
370.672	105.44
370.898	70.44
371.124	81.44
371.35	73.44
371.576	75.44
371.802	80.44
372.028	81.44
372.254	80.44
372.48	89.44
372.706	70.44
372.932	77.44
373.158	77.44
373.384	88.44
373.61	75.44
373.835	74.44
374.061	94.44
374.287	81.44
374.513	89.44
374.739	78.44
374.965	95.44
375.191	92.44
375.416	82.44
375.642	83.44
375.868	71.44
376.094	80.44
376.319	86.44
376.545	90.44
376.771	88.44
376.997	86.44
377.222	91.44
377.448	92.44
377.674	81.44
377.899	79.44
378.125	69.44
378.35	80.44
378.576	79.44
378.802	93.44
379.027	89.44
379.253	90.44
379.478	72.44
379.704	82.44
379.929	65.44
380.155	82.44
380.38	69.44
380.606	101.44
380.831	82.44
381.057	91.44
381.282	90.44
381.507	94.44
381.733	85.44
381.958	71.44
382.184	72.44
382.409	83.44
382.634	86.44
382.86	93.44
383.085	80.44
383.31	93.44
383.535	78.44
383.761	94.44
383.986	85.44
384.211	91.44
384.436	89.44
384.662	77.44
384.887	74.44
385.112	79.44
385.337	81.44
385.562	77.44
385.787	80.44
386.013	78.44
386.238	79.44
386.463	82.44
386.688	95.44
386.913	71.44
387.138	73.44
387.363	78.44
387.588	79.44
387.813	91.44
388.038	93.44
388.263	90.44
388.488	85.44
388.713	82.44
388.938	81.44
389.163	93.44
389.387	96.44
389.612	78.44
389.837	77.44
390.062	83.44
390.287	81.44
390.512	74.44
390.736	80.44
390.961	84.44
391.186	84.44
391.411	79.44
391.636	83.44
391.86	90.44
392.085	82.44
392.31	86.44
392.534	77.44
392.759	83.44
392.984	102.44
393.208	102.44
393.433	113.44
393.658	97.44
393.882	75.44
394.107	93.44
394.331	87.44
394.556	90.44
394.78	85.44
395.005	83.44
395.229	85.44
395.454	99.44
395.678	87.44
395.903	89.44
396.127	86.44
396.352	96.44
396.576	74.44
396.801	91.44
397.025	70.44
397.249	95.44
397.474	105.44
397.698	88.44
397.922	87.44
398.147	77.44
398.371	85.44
398.595	79.44
398.82	102.44
399.044	82.44
399.268	77.44
399.492	83.44
399.717	70.44
399.941	91.44
400.165	77.44
400.389	82.44
400.613	86.44
400.837	88.44
401.062	82.44
401.286	90.44
401.51	86.44
401.734	78.44
401.958	77.44
402.182	90.44
402.406	93.44
402.63	93.44
402.854	72.44
403.078	90.44
403.302	88.44
403.526	88.44
403.75	83.44
403.974	97.44
404.198	79.44
404.422	91.44
404.645	103.44
404.869	102.44
405.093	74.44
405.317	72.44
405.541	82.44
405.765	73.44
405.988	83.44
406.212	76.44
406.436	87.44
406.66	92.44
406.883	73.44
407.107	65.44
407.331	73.44
407.555	97.44
407.778	89.44
408.002	78.44
408.226	88.44
408.449	72.44
408.673	80.44
408.896	96.44
409.12	63.44
409.344	74.44
409.567	77.44
409.791	80.44
410.014	89.44
410.238	75.44
410.461	71.44
410.685	80.44
410.908	88.44
411.132	81.44
411.355	79.44
411.578	79.44
411.802	87.44
412.025	85.44
412.249	74.44
412.472	83.44
412.695	78.44
412.919	70.44
413.142	93.44
413.365	79.44
413.589	79.44
413.812	88.44
414.035	93.44
414.258	62.44
414.482	69.44
414.705	73.44
414.928	85.44
415.151	80.44
415.374	89.44
415.597	82.44
415.821	78.44
416.044	80.44
416.267	90.44
416.49	77.44
416.713	82.44
416.936	75.44
417.159	75.44
417.382	85.44
417.605	70.44
417.828	81.44
418.051	81.44
418.274	97.44
418.497	79.44
418.72	80.44
418.943	70.44
419.166	81.44
419.389	85.44
419.611	90.44
419.834	83.44
420.057	89.44
420.28	76.44
420.503	83.44
420.726	86.44
420.948	79.44
421.171	71.44
421.394	80.44
421.617	85.44
421.839	80.44
422.062	83.44
422.285	88.44
422.507	101.44
422.73	105.44
422.953	99.44
423.175	87.44
423.398	104.44
423.621	92.44
423.843	82.44
424.066	88.44
424.288	76.44
424.511	78.44
424.733	80.44
424.956	91.44
425.178	75.44
425.401	70.44
425.623	87.44
425.846	77.44
426.068	82.44
426.291	68.44
426.513	82.44
426.735	88.44
426.958	82.44
427.18	87.44
427.402	80.44
427.625	84.44
427.847	77.44
428.069	95.44
428.292	98.44
428.514	96.44
428.736	91.44
428.958	85.44
429.181	85.44
429.403	77.44
429.625	87.44
429.847	80.44
430.069	83.44
430.292	89.44
430.514	85.44
430.736	83.44
430.958	87.44
431.18	76.44
431.402	83.44
431.624	89.44
431.846	89.44
432.068	79.44
432.29	86.44
432.512	82.44
432.734	71.44
432.956	81.44
433.178	98.44
433.4	97.44
433.622	63.44
433.844	81.44
434.066	92.44
434.287	80.44
434.509	87.44
434.731	87.44
434.953	72.44
435.175	86.44
435.397	107.44
435.618	81.44
435.84	80.44
436.062	74.44
436.284	69.44
436.505	99.44
436.727	74.44
436.949	66.44
437.17	86.44
437.392	72.44
437.614	75.44
437.835	72.44
438.057	83.44
438.278	77.44
438.5	90.44
438.721	85.44
438.943	85.44
439.165	82.44
439.386	81.44
439.608	78.44
439.829	84.44
440.05	85.44
440.272	82.44
440.493	77.44
440.715	74.44
440.936	83.44
441.158	87.44
441.379	66.44
441.6	87.44
441.822	72.44
442.043	68.44
442.264	82.44
442.486	87.44
442.707	90.44
442.928	81.44
443.149	80.44
443.371	91.44
443.592	95.44
443.813	82.44
444.034	75.44
444.255	86.44
444.476	81.44
444.698	78.44
444.919	87.44
445.14	165.44
445.361	105.44
445.582	98.44
445.803	81.44
446.024	81.44
446.245	98.44
446.466	85.44
446.687	75.44
446.908	82.44
447.129	85.44
447.35	85.44
447.571	77.44
447.792	78.44
448.013	73.44
448.234	83.44
448.455	82.44
448.675	90.44
448.896	84.44
449.117	86.44
449.338	79.44
449.559	74.44
449.779	75.44
450	73.44
450.221	86.44
450.442	71.44
450.662	84.44
450.883	96.44
451.104	74.44
451.324	83.44
451.545	79.44
451.766	67.44
451.986	94.44
452.207	90.44
452.428	71.44
452.648	89.44
452.869	85.44
453.089	79.44
453.31	70.44
453.53	86.44
453.751	74.44
453.971	95.44
454.192	88.44
454.412	78.44
454.633	81.44
454.853	64.44
455.073	69.44
455.294	86.44
455.514	91.44
455.734	84.44
455.955	73.44
456.175	88.44
456.395	80.44
456.616	70.44
456.836	78.44
457.056	85.44
457.276	79.44
457.497	80.44
457.717	80.44
457.937	94.44
458.157	74.44
458.377	80.44
458.598	83.44
458.818	70.44
459.038	75.44
459.258	82.44
459.478	78.44
459.698	75.44
459.918	93.44
460.138	78.44
460.358	84.44
460.578	96.44
460.798	95.44
461.018	67.44
461.238	84.44
461.458	89.44
461.678	81.44
461.898	81.44
462.118	83.44
462.338	89.44
462.558	72.44
462.777	88.44
462.997	85.44
463.217	87.44
463.437	95.44
463.657	68.44
463.876	70.44
464.096	70.44
464.316	79.44
464.536	86.44
464.755	82.44
464.975	90.44
465.195	81.44
465.414	79.44
465.634	75.44
465.854	84.44
466.073	89.44
466.293	81.44
466.512	82.44
466.732	83.44
466.951	82.44
467.171	67.44
467.391	94.44
467.61	87.44
467.829	78.44
468.049	79.44
468.268	78.44
468.488	80.44
468.707	88.44
468.927	76.44
469.146	91.44
469.365	80.44
469.585	82.44
469.804	73.44
470.023	86.44
470.243	73.44
470.462	93.44
470.681	82.44
470.901	72.44
471.12	79.44
471.339	79.44
471.558	76.44
471.777	87.44
471.997	97.44
472.216	67.44
472.435	73.44
472.654	81.44
472.873	83.44
473.092	85.44
473.311	81.44
473.53	93.44
473.749	72.44
473.968	76.44
474.187	96.44
474.406	87.44
474.625	82.44
474.844	99.44
475.063	94.44
475.282	88.44
475.501	89.44
475.72	85.44
475.939	77.44
476.158	64.44
476.377	92.44
476.596	87.44
476.814	78.44
477.033	82.44
477.252	75.44
477.471	76.44
477.69	80.44
477.908	83.44
478.127	90.44
478.346	81.44
478.564	89.44
478.783	88.44
479.002	90.44
479.22	80.44
479.439	86.44
479.658	81.44
479.876	86.44
480.095	82.44
480.313	74.44
480.532	83.44
480.751	91.44
480.969	90.44
481.188	80.44
481.406	79.44
481.624	78.44
481.843	73.44
482.061	91.44
482.28	88.44
482.498	82.44
482.717	80.44
482.935	81.44
483.153	89.44
483.372	72.44
483.59	92.44
483.808	67.44
484.027	98.44
484.245	98.44
484.463	75.44
484.681	84.44
484.9	81.44
485.118	89.44
485.336	86.44
485.554	86.44
485.772	94.44
485.99	78.44
486.209	73.44
486.427	77.44
486.645	72.44
486.863	90.44
487.081	74.44
487.299	91.44
487.517	83.44
487.735	78.44
487.953	85.44
488.171	92.44
488.389	71.44
488.607	79.44
488.825	96.44
489.043	83.44
489.261	85.44
489.479	76.44
489.696	94.44
489.914	72.44
490.132	72.44
490.35	68.44
490.568	86.44
490.786	80.44
491.003	71.44
491.221	85.44
491.439	85.44
491.657	90.44
491.874	85.44
492.092	86.44
492.31	89.44
492.527	71.44
492.745	74.44
492.963	85.44
493.18	82.44
493.398	87.44
493.615	81.44
493.833	83.44
494.05	79.44
494.268	83.44
494.485	78.44
494.703	73.44
494.92	74.44
495.138	84.44
495.355	65.44
495.573	77.44
495.79	74.44
496.008	86.44
496.225	87.44
496.442	73.44
496.66	97.44
496.877	80.44
497.094	85.44
497.312	88.44
497.529	89.44
497.746	73.44
497.963	90.44
498.181	83.44
498.398	79.44
498.615	86.44
498.832	75.44
499.049	81.44
499.267	88.44
499.484	71.44
499.701	87.44
499.918	98.44
500.135	93.44
500.352	84.44
500.569	86.44
500.786	86.44
501.003	82.44
501.22	82.44
501.437	87.44
501.654	81.44
501.871	78.44
502.088	84.44
502.305	94.44
502.522	105.44
502.739	84.44
502.956	73.44
503.172	79.44
503.389	93.44
503.606	84.44
503.823	91.44
504.04	80.44
504.256	90.44
504.473	83.44
504.69	79.44
504.907	97.44
505.123	74.44
505.34	86.44
505.557	85.44
505.773	69.44
505.99	92.44
506.207	84.44
506.423	78.44
506.64	101.44
506.856	87.44
507.073	76.44
507.289	82.44
507.506	85.44
507.722	75.44
507.939	84.44
508.155	77.44
508.372	82.44
508.588	95.44
508.805	77.44
509.021	81.44
509.238	102.44
509.454	84.44
509.67	84.44
509.887	74.44
510.103	94.44
510.319	86.44
510.536	72.44
510.752	85.44
510.968	73.44
511.184	86.44
511.401	78.44
511.617	93.44
511.833	76.44
512.049	90.44
512.265	79.44
512.481	101.44
512.698	68.44
512.914	68.44
513.13	75.44
513.346	79.44
513.562	83.44
513.778	97.44
513.994	71.44
514.21	85.44
514.426	83.44
514.642	87.44
514.858	82.44
515.074	89.44
515.29	96.44
515.506	80.44
515.721	85.44
515.937	85.44
516.153	78.44
516.369	98.44
516.585	86.44
516.801	85.44
517.016	81.44
517.232	73.44
517.448	82.44
517.664	72.44
517.879	79.44
518.095	77.44
518.311	95.44
518.527	106.44
518.742	78.44
518.958	79.44
519.173	84.44
519.389	82.44
519.605	90.44
519.82	89.44
