Data from Dirtheat3_HRD10591_00016.txt Node
Date: Fri Dec 27 15:16:28 EST 2024
User: Yrep
Spectrometer: HR+D1059
Trigger mode: 1
Integration Time (sec): 1.000000E-1
Scans to average: 1
Electric dark correction enabled: true
Nonlinearity correction enabled: false
Boxcar width: 0
XAxis mode: Wavelengths
Number of Pixels in Spectrum: 2048
>>>>>Begin Spectral Data<<<<<
223.165	-11.25
223.4	-11.25
223.635	-11.25
223.869	-16.25
224.104	-10.25
224.338	-2.25
224.573	-8.25
224.808	-10.25
225.042	-9.25
225.277	-12.25
225.511	6.75
225.746	5.75
225.98	-7.25
226.215	5.75
226.449	15.75
226.683	16.75
226.918	19.75
227.152	16.75
227.387	27.75
227.621	26.75
227.856	42.75
228.09	40.75
228.324	48.75
228.559	53.75
228.793	49.75
229.027	54.75
229.262	65.75
229.496	70.75
229.73	67.75
229.964	61.75
230.199	73.75
230.433	70.75
230.667	63.75
230.901	78.75
231.136	82.75
231.37	73.75
231.604	73.75
231.838	82.75
232.072	78.75
232.306	86.75
232.541	75.75
232.775	69.75
233.009	71.75
233.243	84.75
233.477	74.75
233.711	80.75
233.945	70.75
234.179	79.75
234.413	77.75
234.647	63.75
234.881	72.75
235.115	70.75
235.349	91.75
235.583	80.75
235.817	71.75
236.051	81.75
236.285	80.75
236.519	65.75
236.753	72.75
236.987	68.75
237.221	71.75
237.455	78.75
237.689	72.75
237.922	69.75
238.156	73.75
238.39	78.75
238.624	62.75
238.858	74.75
239.091	74.75
239.325	77.75
239.559	87.75
239.793	83.75
240.027	66.75
240.26	70.75
240.494	79.75
240.728	75.75
240.961	72.75
241.195	68.75
241.429	72.75
241.662	72.75
241.896	62.75
242.13	72.75
242.363	74.75
242.597	79.75
242.83	71.75
243.064	87.75
243.298	87.75
243.531	68.75
243.765	70.75
243.998	80.75
244.232	81.75
244.465	82.75
244.699	75.75
244.932	68.75
245.166	80.75
245.399	86.75
245.633	86.75
245.866	71.75
246.099	81.75
246.333	86.75
246.566	84.75
246.8	81.75
247.033	80.75
247.266	69.75
247.5	62.75
247.733	86.75
247.966	80.75
248.2	75.75
248.433	98.75
248.666	81.75
248.899	76.75
249.133	89.75
249.366	79.75
249.599	79.75
249.832	73.75
250.066	89.75
250.299	85.75
250.532	66.75
250.765	73.75
250.998	85.75
251.231	82.75
251.465	85.75
251.698	87.75
251.931	68.75
252.164	75.75
252.397	64.75
252.63	62.75
252.863	76.75
253.096	71.75
253.329	63.75
253.562	82.75
253.795	92.75
254.028	94.75
254.261	75.75
254.494	69.75
254.727	75.75
254.96	73.75
255.193	75.75
255.426	65.75
255.659	69.75
255.892	63.75
256.124	86.75
256.357	87.75
256.59	77.75
256.823	77.75
257.056	69.75
257.289	78.75
257.521	83.75
257.754	66.75
257.987	79.75
258.22	97.75
258.452	72.75
258.685	84.75
258.918	72.75
259.151	80.75
259.383	69.75
259.616	84.75
259.849	70.75
260.081	88.75
260.314	76.75
260.547	87.75
260.779	83.75
261.012	88.75
261.244	85.75
261.477	93.75
261.71	83.75
261.942	76.75
262.175	84.75
262.407	79.75
262.64	72.75
262.872	89.75
263.105	84.75
263.337	89.75
263.57	71.75
263.802	73.75
264.035	75.75
264.267	75.75
264.499	86.75
264.732	77.75
264.964	88.75
265.197	80.75
265.429	75.75
265.661	76.75
265.894	83.75
266.126	88.75
266.358	80.75
266.591	63.75
266.823	81.75
267.055	77.75
267.287	75.75
267.52	68.75
267.752	91.75
267.984	78.75
268.216	88.75
268.448	73.75
268.681	88.75
268.913	77.75
269.145	88.75
269.377	77.75
269.609	71.75
269.841	92.75
270.073	79.75
270.306	87.75
270.538	85.75
270.77	82.75
271.002	86.75
271.234	83.75
271.466	84.75
271.698	80.75
271.93	81.75
272.162	84.75
272.394	84.75
272.626	66.75
272.858	68.75
273.09	75.75
273.322	74.75
273.553	80.75
273.785	85.75
274.017	83.75
274.249	82.75
274.481	76.75
274.713	89.75
274.945	90.75
275.176	78.75
275.408	74.75
275.64	79.75
275.872	83.75
276.104	58.75
276.335	82.75
276.567	82.75
276.799	70.75
277.031	73.75
277.262	78.75
277.494	82.75
277.726	95.75
277.957	71.75
278.189	80.75
278.421	82.75
278.652	87.75
278.884	76.75
279.115	79.75
279.347	82.75
279.579	77.75
279.81	84.75
280.042	79.75
280.273	77.75
280.505	92.75
280.736	88.75
280.968	87.75
281.199	73.75
281.431	76.75
281.662	90.75
281.894	92.75
282.125	83.75
282.356	77.75
282.588	77.75
282.819	91.75
283.051	79.75
283.282	90.75
283.513	88.75
283.745	84.75
283.976	70.75
284.207	79.75
284.439	89.75
284.67	75.75
284.901	83.75
285.132	87.75
285.364	78.75
285.595	82.75
285.826	82.75
286.057	85.75
286.288	75.75
286.52	86.75
286.751	79.75
286.982	80.75
287.213	85.75
287.444	76.75
287.675	79.75
287.906	100.75
288.138	81.75
288.369	78.75
288.6	72.75
288.831	73.75
289.062	89.75
289.293	87.75
289.524	78.75
289.755	78.75
289.986	91.75
290.217	76.75
290.448	74.75
290.679	92.75
290.91	87.75
291.141	88.75
291.371	73.75
291.602	81.75
291.833	80.75
292.064	85.75
292.295	62.75
292.526	81.75
292.757	83.75
292.987	80.75
293.218	91.75
293.449	94.75
293.68	85.75
293.91	69.75
294.141	83.75
294.372	79.75
294.603	58.75
294.833	65.75
295.064	75.75
295.295	80.75
295.525	72.75
295.756	88.75
295.987	90.75
296.217	85.75
296.448	83.75
296.679	76.75
296.909	95.75
297.14	81.75
297.37	93.75
297.601	63.75
297.831	66.75
298.062	92.75
298.292	99.75
298.523	72.75
298.753	82.75
298.984	80.75
299.214	90.75
299.445	100.75
299.675	77.75
299.905	85.75
300.136	78.75
300.366	87.75
300.597	75.75
300.827	89.75
301.057	75.75
301.288	86.75
301.518	75.75
301.748	66.75
301.979	107.75
302.209	85.75
302.439	77.75
302.669	76.75
302.9	84.75
303.13	84.75
303.36	77.75
303.59	85.75
303.82	76.75
304.051	108.75
304.281	87.75
304.511	81.75
304.741	90.75
304.971	76.75
305.201	89.75
305.431	95.75
305.661	102.75
305.891	82.75
306.121	78.75
306.352	77.75
306.582	76.75
306.812	74.75
307.042	80.75
307.272	80.75
307.502	75.75
307.731	78.75
307.961	81.75
308.191	72.75
308.421	78.75
308.651	85.75
308.881	87.75
309.111	76.75
309.341	77.75
309.571	93.75
309.8	84.75
310.03	71.75
310.26	99.75
310.49	74.75
310.72	86.75
310.949	78.75
311.179	84.75
311.409	85.75
311.639	93.75
311.868	92.75
312.098	89.75
312.328	59.75
312.557	91.75
312.787	83.75
313.017	96.75
313.246	100.75
313.476	93.75
313.706	97.75
313.935	76.75
314.165	89.75
314.394	71.75
314.624	87.75
314.853	86.75
315.083	85.75
315.312	87.75
315.542	80.75
315.771	94.75
316.001	87.75
316.23	89.75
316.46	64.75
316.689	79.75
316.919	93.75
317.148	65.75
317.377	86.75
317.607	87.75
317.836	71.75
318.065	72.75
318.295	91.75
318.524	90.75
318.753	83.75
318.983	70.75
319.212	68.75
319.441	85.75
319.67	78.75
319.9	85.75
320.129	77.75
320.358	86.75
320.587	78.75
320.816	79.75
321.046	72.75
321.275	84.75
321.504	74.75
321.733	73.75
321.962	75.75
322.191	87.75
322.42	84.75
322.649	90.75
322.878	85.75
323.108	93.75
323.337	66.75
323.566	75.75
323.795	73.75
324.024	90.75
324.253	83.75
324.482	85.75
324.71	90.75
324.939	87.75
325.168	83.75
325.397	77.75
325.626	77.75
325.855	85.75
326.084	83.75
326.313	99.75
326.542	78.75
326.77	81.75
326.999	82.75
327.228	83.75
327.457	83.75
327.686	84.75
327.914	85.75
328.143	76.75
328.372	83.75
328.6	83.75
328.829	78.75
329.058	81.75
329.287	77.75
329.515	88.75
329.744	61.75
329.972	75.75
330.201	69.75
330.43	77.75
330.658	80.75
330.887	81.75
331.115	69.75
331.344	84.75
331.572	84.75
331.801	90.75
332.03	79.75
332.258	90.75
332.486	78.75
332.715	65.75
332.943	86.75
333.172	84.75
333.4	83.75
333.629	87.75
333.857	79.75
334.085	86.75
334.314	89.75
334.542	77.75
334.771	74.75
334.999	75.75
335.227	78.75
335.455	76.75
335.684	88.75
335.912	98.75
336.14	77.75
336.369	65.75
336.597	78.75
336.825	83.75
337.053	68.75
337.281	74.75
337.51	88.75
337.738	91.75
337.966	84.75
338.194	75.75
338.422	84.75
338.65	82.75
338.878	75.75
339.106	64.75
339.334	105.75
339.562	83.75
339.79	79.75
340.018	80.75
340.246	74.75
340.474	76.75
340.702	84.75
340.93	78.75
341.158	80.75
341.386	72.75
341.614	89.75
341.842	101.75
342.07	63.75
342.298	88.75
342.526	73.75
342.754	80.75
342.981	91.75
343.209	89.75
343.437	96.75
343.665	77.75
343.893	78.75
344.12	86.75
344.348	87.75
344.576	88.75
344.804	80.75
345.031	80.75
345.259	65.75
345.487	64.75
345.714	71.75
345.942	75.75
346.17	73.75
346.397	77.75
346.625	78.75
346.853	79.75
347.08	71.75
347.308	75.75
347.535	75.75
347.763	62.75
347.99	86.75
348.218	79.75
348.445	85.75
348.673	91.75
348.9	78.75
349.128	99.75
349.355	103.75
349.583	78.75
349.81	85.75
350.037	70.75
350.265	67.75
350.492	76.75
350.72	78.75
350.947	72.75
351.174	100.75
351.402	67.75
351.629	76.75
351.856	80.75
352.083	81.75
352.311	82.75
352.538	82.75
352.765	85.75
352.992	99.75
353.22	81.75
353.447	85.75
353.674	79.75
353.901	74.75
354.128	79.75
354.355	75.75
354.583	75.75
354.81	80.75
355.037	73.75
355.264	81.75
355.491	83.75
355.718	74.75
355.945	91.75
356.172	79.75
356.399	69.75
356.626	74.75
356.853	91.75
357.08	87.75
357.307	76.75
357.534	67.75
357.761	83.75
357.988	81.75
358.215	83.75
358.441	70.75
358.668	75.75
358.895	79.75
359.122	72.75
359.349	78.75
359.576	93.75
359.802	78.75
360.029	84.75
360.256	80.75
360.483	79.75
360.709	81.75
360.936	94.75
361.163	78.75
361.39	84.75
361.616	74.75
361.843	85.75
362.07	85.75
362.296	101.75
362.523	88.75
362.749	81.75
362.976	81.75
363.203	91.75
363.429	82.75
363.656	75.75
363.882	92.75
364.109	100.75
364.335	94.75
364.562	93.75
364.788	95.75
365.015	86.75
365.241	71.75
365.468	85.75
365.694	76.75
365.92	97.75
366.147	86.75
366.373	91.75
366.599	75.75
366.826	79.75
367.052	84.75
367.278	83.75
367.505	82.75
367.731	93.75
367.957	86.75
368.184	76.75
368.41	78.75
368.636	101.75
368.862	80.75
369.089	89.75
369.315	71.75
369.541	93.75
369.767	83.75
369.993	81.75
370.219	80.75
370.445	79.75
370.672	68.75
370.898	75.75
371.124	74.75
371.35	84.75
371.576	101.75
371.802	80.75
372.028	65.75
372.254	76.75
372.48	86.75
372.706	76.75
372.932	72.75
373.158	99.75
373.384	78.75
373.61	69.75
373.835	72.75
374.061	78.75
374.287	87.75
374.513	90.75
374.739	79.75
374.965	89.75
375.191	86.75
375.416	70.75
375.642	86.75
375.868	68.75
376.094	67.75
376.319	94.75
376.545	88.75
376.771	73.75
376.997	91.75
377.222	78.75
377.448	70.75
377.674	75.75
377.899	88.75
378.125	74.75
378.35	78.75
378.576	71.75
378.802	74.75
379.027	89.75
379.253	75.75
379.478	78.75
379.704	77.75
379.929	79.75
380.155	68.75
380.38	82.75
380.606	80.75
380.831	81.75
381.057	97.75
381.282	89.75
381.507	73.75
381.733	86.75
381.958	80.75
382.184	85.75
382.409	79.75
382.634	89.75
382.86	82.75
383.085	79.75
383.31	73.75
383.535	85.75
383.761	78.75
383.986	75.75
384.211	81.75
384.436	101.75
384.662	90.75
384.887	77.75
385.112	85.75
385.337	76.75
385.562	79.75
385.787	86.75
386.013	86.75
386.238	88.75
386.463	73.75
386.688	91.75
386.913	78.75
387.138	83.75
387.363	91.75
387.588	88.75
387.813	86.75
388.038	70.75
388.263	80.75
388.488	76.75
388.713	82.75
388.938	65.75
389.163	73.75
389.387	86.75
389.612	80.75
389.837	78.75
390.062	79.75
390.287	90.75
390.512	78.75
390.736	78.75
390.961	87.75
391.186	85.75
391.411	80.75
391.636	78.75
391.86	79.75
392.085	77.75
392.31	76.75
392.534	78.75
392.759	90.75
392.984	91.75
393.208	88.75
393.433	107.75
393.658	97.75
393.882	83.75
394.107	74.75
394.331	88.75
394.556	77.75
394.78	87.75
395.005	69.75
395.229	84.75
395.454	88.75
395.678	81.75
395.903	86.75
396.127	94.75
396.352	77.75
396.576	80.75
396.801	93.75
397.025	125.75
397.249	96.75
397.474	91.75
397.698	92.75
397.922	86.75
398.147	79.75
398.371	80.75
398.595	80.75
398.82	84.75
399.044	83.75
399.268	92.75
399.492	78.75
399.717	68.75
399.941	89.75
400.165	92.75
400.389	72.75
400.613	91.75
400.837	80.75
401.062	75.75
401.286	80.75
401.51	73.75
401.734	83.75
401.958	87.75
402.182	83.75
402.406	84.75
402.63	75.75
402.854	76.75
403.078	89.75
403.302	80.75
403.526	75.75
403.75	79.75
403.974	86.75
404.198	87.75
404.422	77.75
404.645	69.75
404.869	87.75
405.093	77.75
405.317	79.75
405.541	84.75
405.765	89.75
405.988	72.75
406.212	71.75
406.436	77.75
406.66	79.75
406.883	85.75
407.107	86.75
407.331	72.75
407.555	59.75
407.778	77.75
408.002	72.75
408.226	64.75
408.449	88.75
408.673	84.75
408.896	83.75
409.12	68.75
409.344	93.75
409.567	83.75
409.791	91.75
410.014	81.75
410.238	82.75
410.461	70.75
410.685	77.75
410.908	89.75
411.132	78.75
411.355	85.75
411.578	80.75
411.802	79.75
412.025	71.75
412.249	75.75
412.472	84.75
412.695	79.75
412.919	73.75
413.142	81.75
413.365	83.75
413.589	93.75
413.812	87.75
414.035	72.75
414.258	73.75
414.482	70.75
414.705	84.75
414.928	92.75
415.151	79.75
415.374	94.75
415.597	76.75
415.821	64.75
416.044	83.75
416.267	83.75
416.49	60.75
416.713	73.75
416.936	93.75
417.159	87.75
417.382	82.75
417.605	72.75
417.828	90.75
418.051	80.75
418.274	75.75
418.497	69.75
418.72	76.75
418.943	77.75
419.166	82.75
419.389	80.75
419.611	78.75
419.834	80.75
420.057	78.75
420.28	74.75
420.503	83.75
420.726	93.75
420.948	86.75
421.171	66.75
421.394	83.75
421.617	76.75
421.839	75.75
422.062	82.75
422.285	94.75
422.507	106.75
422.73	119.75
422.953	112.75
423.175	92.75
423.398	82.75
423.621	90.75
423.843	78.75
424.066	83.75
424.288	76.75
424.511	79.75
424.733	74.75
424.956	78.75
425.178	75.75
425.401	80.75
425.623	78.75
425.846	63.75
426.068	75.75
426.291	69.75
426.513	76.75
426.735	74.75
426.958	76.75
427.18	64.75
427.402	78.75
427.625	89.75
427.847	82.75
428.069	71.75
428.292	74.75
428.514	72.75
428.736	76.75
428.958	81.75
429.181	82.75
429.403	88.75
429.625	92.75
429.847	76.75
430.069	83.75
430.292	96.75
430.514	83.75
430.736	86.75
430.958	86.75
431.18	86.75
431.402	75.75
431.624	80.75
431.846	85.75
432.068	89.75
432.29	78.75
432.512	91.75
432.734	78.75
432.956	87.75
433.178	77.75
433.4	70.75
433.622	83.75
433.844	78.75
434.066	81.75
434.287	79.75
434.509	78.75
434.731	71.75
434.953	85.75
435.175	76.75
435.397	68.75
435.618	73.75
435.84	75.75
436.062	63.75
436.284	76.75
436.505	80.75
436.727	68.75
436.949	88.75
437.17	66.75
437.392	66.75
437.614	78.75
437.835	77.75
438.057	88.75
438.278	81.75
438.5	75.75
438.721	79.75
438.943	80.75
439.165	85.75
439.386	72.75
439.608	79.75
439.829	85.75
440.05	79.75
440.272	80.75
440.493	71.75
440.715	77.75
440.936	85.75
441.158	90.75
441.379	66.75
441.6	83.75
441.822	86.75
442.043	80.75
442.264	79.75
442.486	87.75
442.707	95.75
442.928	88.75
443.149	88.75
443.371	84.75
443.592	93.75
443.813	79.75
444.034	70.75
444.255	77.75
444.476	81.75
444.698	100.75
444.919	72.75
445.14	143.75
445.361	127.75
445.582	116.75
445.803	89.75
446.024	81.75
446.245	75.75
446.466	84.75
446.687	79.75
446.908	81.75
447.129	76.75
447.35	75.75
447.571	73.75
447.792	82.75
448.013	74.75
448.234	76.75
448.455	82.75
448.675	94.75
448.896	92.75
449.117	83.75
449.338	85.75
449.559	79.75
449.779	81.75
450	92.75
450.221	77.75
450.442	81.75
450.662	78.75
450.883	77.75
451.104	94.75
451.324	79.75
451.545	64.75
451.766	87.75
451.986	85.75
452.207	76.75
452.428	71.75
452.648	70.75
452.869	81.75
453.089	93.75
453.31	85.75
453.53	88.75
453.751	80.75
453.971	86.75
454.192	60.75
454.412	79.75
454.633	79.75
454.853	76.75
455.073	76.75
455.294	84.75
455.514	70.75
455.734	71.75
455.955	85.75
456.175	77.75
456.395	62.75
456.616	80.75
456.836	84.75
457.056	84.75
457.276	74.75
457.497	74.75
457.717	92.75
457.937	71.75
458.157	93.75
458.377	88.75
458.598	80.75
458.818	86.75
459.038	82.75
459.258	73.75
459.478	81.75
459.698	76.75
459.918	75.75
460.138	71.75
460.358	74.75
460.578	83.75
460.798	77.75
461.018	79.75
461.238	103.75
461.458	77.75
461.678	76.75
461.898	84.75
462.118	83.75
462.338	76.75
462.558	91.75
462.777	77.75
462.997	73.75
463.217	67.75
463.437	87.75
463.657	70.75
463.876	73.75
464.096	69.75
464.316	77.75
464.536	67.75
464.755	85.75
464.975	83.75
465.195	69.75
465.414	65.75
465.634	76.75
465.854	74.75
466.073	85.75
466.293	75.75
466.512	75.75
466.732	76.75
466.951	64.75
467.171	79.75
467.391	76.75
467.61	76.75
467.829	68.75
468.049	84.75
468.268	82.75
468.488	84.75
468.707	95.75
468.927	79.75
469.146	73.75
469.365	71.75
469.585	90.75
469.804	85.75
470.023	79.75
470.243	90.75
470.462	90.75
470.681	83.75
470.901	81.75
471.12	80.75
471.339	74.75
471.558	79.75
471.777	73.75
471.997	79.75
472.216	78.75
472.435	78.75
472.654	86.75
472.873	80.75
473.092	80.75
473.311	76.75
473.53	75.75
473.749	78.75
473.968	80.75
474.187	83.75
474.406	76.75
474.625	74.75
474.844	81.75
475.063	72.75
475.282	82.75
475.501	86.75
475.72	84.75
475.939	76.75
476.158	84.75
476.377	82.75
476.596	73.75
476.814	89.75
477.033	81.75
477.252	70.75
477.471	64.75
477.69	81.75
477.908	84.75
478.127	83.75
478.346	83.75
478.564	84.75
478.783	85.75
479.002	76.75
479.22	63.75
479.439	76.75
479.658	85.75
479.876	69.75
480.095	62.75
480.313	89.75
480.532	80.75
480.751	80.75
480.969	59.75
481.188	77.75
481.406	81.75
481.624	90.75
481.843	81.75
482.061	85.75
482.28	84.75
482.498	87.75
482.717	89.75
482.935	90.75
483.153	75.75
483.372	88.75
483.59	74.75
483.808	78.75
484.027	75.75
484.245	75.75
484.463	94.75
484.681	81.75
484.9	75.75
485.118	86.75
485.336	89.75
485.554	73.75
485.772	87.75
485.99	66.75
486.209	83.75
486.427	90.75
486.645	84.75
486.863	76.75
487.081	79.75
487.299	78.75
487.517	84.75
487.735	85.75
487.953	99.75
488.171	69.75
488.389	83.75
488.607	79.75
488.825	76.75
489.043	82.75
489.261	77.75
489.479	87.75
489.696	96.75
489.914	68.75
490.132	85.75
490.35	88.75
490.568	72.75
490.786	85.75
491.003	80.75
491.221	86.75
491.439	69.75
491.657	81.75
491.874	81.75
492.092	85.75
492.31	72.75
492.527	77.75
492.745	80.75
492.963	88.75
493.18	86.75
493.398	95.75
493.615	90.75
493.833	89.75
494.05	83.75
494.268	73.75
494.485	84.75
494.703	104.75
494.92	80.75
495.138	72.75
495.355	84.75
495.573	81.75
495.79	80.75
496.008	79.75
496.225	85.75
496.442	69.75
496.66	86.75
496.877	86.75
497.094	86.75
497.312	82.75
497.529	73.75
497.746	85.75
497.963	86.75
498.181	80.75
498.398	71.75
498.615	84.75
498.832	76.75
499.049	87.75
499.267	89.75
499.484	74.75
499.701	79.75
499.918	78.75
500.135	81.75
500.352	90.75
500.569	75.75
500.786	91.75
501.003	103.75
501.22	77.75
501.437	77.75
501.654	89.75
501.871	91.75
502.088	79.75
502.305	80.75
502.522	91.75
502.739	91.75
502.956	80.75
503.172	98.75
503.389	84.75
503.606	84.75
503.823	80.75
504.04	87.75
504.256	96.75
504.473	81.75
504.69	74.75
504.907	81.75
505.123	87.75
505.34	85.75
505.557	88.75
505.773	84.75
505.99	86.75
506.207	77.75
506.423	83.75
506.64	74.75
506.856	81.75
507.073	81.75
507.289	76.75
507.506	75.75
507.722	79.75
507.939	89.75
508.155	85.75
508.372	61.75
508.588	92.75
508.805	79.75
509.021	75.75
509.238	90.75
509.454	78.75
509.67	84.75
509.887	88.75
510.103	93.75
510.319	97.75
510.536	82.75
510.752	83.75
510.968	81.75
511.184	71.75
511.401	84.75
511.617	86.75
511.833	85.75
512.049	75.75
512.265	86.75
512.481	77.75
512.698	63.75
512.914	82.75
513.13	85.75
513.346	85.75
513.562	76.75
513.778	68.75
513.994	72.75
514.21	78.75
514.426	88.75
514.642	82.75
514.858	79.75
515.074	80.75
515.29	90.75
515.506	81.75
515.721	87.75
515.937	73.75
516.153	75.75
516.369	88.75
516.585	74.75
516.801	88.75
517.016	87.75
517.232	80.75
517.448	82.75
517.664	90.75
517.879	76.75
518.095	80.75
518.311	78.75
518.527	96.75
518.742	80.75
518.958	88.75
519.173	100.75
519.389	79.75
519.605	77.75
519.82	88.75
