Data from Dirtheat3_HRD10591_00005.txt Node
Date: Fri Dec 27 15:16:17 EST 2024
User: Yrep
Spectrometer: HR+D1059
Trigger mode: 1
Integration Time (sec): 1.000000E-1
Scans to average: 1
Electric dark correction enabled: true
Nonlinearity correction enabled: false
Boxcar width: 0
XAxis mode: Wavelengths
Number of Pixels in Spectrum: 2048
>>>>>Begin Spectral Data<<<<<
223.165	-7.94
223.4	-7.94
223.635	-7.94
223.869	-24.94
224.104	-26.94
224.338	-18.94
224.573	-28.94
224.808	-13.94
225.042	2.06
225.277	-5.94
225.511	-9.94
225.746	7.06
225.98	7.06
226.215	11.06
226.449	37.06
226.683	15.06
226.918	27.06
227.152	31.06
227.387	24.06
227.621	41.06
227.856	30.06
228.09	43.06
228.324	53.06
228.559	47.06
228.793	64.06
229.027	73.06
229.262	66.06
229.496	75.06
229.73	61.06
229.964	69.06
230.199	83.06
230.433	65.06
230.667	88.06
230.901	81.06
231.136	75.06
231.37	91.06
231.604	80.06
231.838	71.06
232.072	90.06
232.306	85.06
232.541	78.06
232.775	92.06
233.009	71.06
233.243	79.06
233.477	92.06
233.711	70.06
233.945	69.06
234.179	73.06
234.413	84.06
234.647	91.06
234.881	77.06
235.115	72.06
235.349	79.06
235.583	64.06
235.817	76.06
236.051	80.06
236.285	72.06
236.519	76.06
236.753	71.06
236.987	71.06
237.221	64.06
237.455	69.06
237.689	76.06
237.922	62.06
238.156	79.06
238.39	56.06
238.624	80.06
238.858	67.06
239.091	81.06
239.325	83.06
239.559	83.06
239.793	83.06
240.027	77.06
240.26	87.06
240.494	73.06
240.728	72.06
240.961	80.06
241.195	79.06
241.429	75.06
241.662	72.06
241.896	74.06
242.13	61.06
242.363	73.06
242.597	80.06
242.83	69.06
243.064	71.06
243.298	64.06
243.531	67.06
243.765	67.06
243.998	77.06
244.232	72.06
244.465	82.06
244.699	77.06
244.932	79.06
245.166	83.06
245.399	84.06
245.633	91.06
245.866	61.06
246.099	67.06
246.333	84.06
246.566	71.06
246.8	83.06
247.033	82.06
247.266	88.06
247.5	73.06
247.733	75.06
247.966	75.06
248.2	74.06
248.433	79.06
248.666	80.06
248.899	90.06
249.133	74.06
249.366	88.06
249.599	74.06
249.832	85.06
250.066	74.06
250.299	77.06
250.532	90.06
250.765	81.06
250.998	74.06
251.231	79.06
251.465	77.06
251.698	86.06
251.931	77.06
252.164	87.06
252.397	88.06
252.63	82.06
252.863	78.06
253.096	57.06
253.329	52.06
253.562	84.06
253.795	88.06
254.028	86.06
254.261	78.06
254.494	77.06
254.727	85.06
254.96	89.06
255.193	78.06
255.426	68.06
255.659	72.06
255.892	97.06
256.124	78.06
256.357	86.06
256.59	75.06
256.823	77.06
257.056	100.06
257.289	83.06
257.521	77.06
257.754	67.06
257.987	91.06
258.22	69.06
258.452	82.06
258.685	87.06
258.918	80.06
259.151	78.06
259.383	83.06
259.616	82.06
259.849	77.06
260.081	89.06
260.314	83.06
260.547	76.06
260.779	79.06
261.012	69.06
261.244	72.06
261.477	80.06
261.71	92.06
261.942	92.06
262.175	75.06
262.407	73.06
262.64	93.06
262.872	78.06
263.105	62.06
263.337	81.06
263.57	69.06
263.802	93.06
264.035	89.06
264.267	75.06
264.499	81.06
264.732	86.06
264.964	75.06
265.197	79.06
265.429	81.06
265.661	90.06
265.894	95.06
266.126	83.06
266.358	87.06
266.591	79.06
266.823	77.06
267.055	89.06
267.287	94.06
267.52	78.06
267.752	90.06
267.984	86.06
268.216	75.06
268.448	88.06
268.681	69.06
268.913	94.06
269.145	87.06
269.377	92.06
269.609	84.06
269.841	73.06
270.073	82.06
270.306	87.06
270.538	87.06
270.77	74.06
271.002	87.06
271.234	81.06
271.466	90.06
271.698	79.06
271.93	68.06
272.162	65.06
272.394	85.06
272.626	76.06
272.858	71.06
273.09	90.06
273.322	77.06
273.553	78.06
273.785	79.06
274.017	78.06
274.249	86.06
274.481	73.06
274.713	85.06
274.945	73.06
275.176	76.06
275.408	92.06
275.64	70.06
275.872	80.06
276.104	89.06
276.335	83.06
276.567	86.06
276.799	82.06
277.031	74.06
277.262	72.06
277.494	92.06
277.726	82.06
277.957	73.06
278.189	62.06
278.421	67.06
278.652	77.06
278.884	75.06
279.115	74.06
279.347	89.06
279.579	93.06
279.81	84.06
280.042	71.06
280.273	78.06
280.505	75.06
280.736	85.06
280.968	89.06
281.199	94.06
281.431	86.06
281.662	74.06
281.894	75.06
282.125	84.06
282.356	81.06
282.588	90.06
282.819	79.06
283.051	83.06
283.282	79.06
283.513	75.06
283.745	80.06
283.976	72.06
284.207	91.06
284.439	77.06
284.67	73.06
284.901	76.06
285.132	77.06
285.364	80.06
285.595	86.06
285.826	86.06
286.057	80.06
286.288	81.06
286.52	66.06
286.751	71.06
286.982	83.06
287.213	89.06
287.444	73.06
287.675	81.06
287.906	95.06
288.138	87.06
288.369	85.06
288.6	72.06
288.831	96.06
289.062	78.06
289.293	79.06
289.524	85.06
289.755	90.06
289.986	81.06
290.217	73.06
290.448	92.06
290.679	87.06
290.91	85.06
291.141	84.06
291.371	73.06
291.602	76.06
291.833	92.06
292.064	74.06
292.295	75.06
292.526	74.06
292.757	93.06
292.987	93.06
293.218	79.06
293.449	88.06
293.68	77.06
293.91	79.06
294.141	74.06
294.372	80.06
294.603	68.06
294.833	72.06
295.064	84.06
295.295	76.06
295.525	100.06
295.756	91.06
295.987	94.06
296.217	63.06
296.448	86.06
296.679	74.06
296.909	94.06
297.14	93.06
297.37	83.06
297.601	84.06
297.831	83.06
298.062	78.06
298.292	88.06
298.523	89.06
298.753	88.06
298.984	80.06
299.214	79.06
299.445	91.06
299.675	73.06
299.905	87.06
300.136	76.06
300.366	67.06
300.597	89.06
300.827	80.06
301.057	79.06
301.288	80.06
301.518	87.06
301.748	92.06
301.979	93.06
302.209	89.06
302.439	89.06
302.669	81.06
302.9	70.06
303.13	74.06
303.36	70.06
303.59	74.06
303.82	82.06
304.051	94.06
304.281	80.06
304.511	83.06
304.741	79.06
304.971	77.06
305.201	80.06
305.431	99.06
305.661	93.06
305.891	83.06
306.121	77.06
306.352	83.06
306.582	80.06
306.812	74.06
307.042	89.06
307.272	90.06
307.502	71.06
307.731	80.06
307.961	81.06
308.191	78.06
308.421	91.06
308.651	91.06
308.881	87.06
309.111	77.06
309.341	83.06
309.571	94.06
309.8	81.06
310.03	74.06
310.26	76.06
310.49	83.06
310.72	89.06
310.949	75.06
311.179	87.06
311.409	90.06
311.639	77.06
311.868	90.06
312.098	94.06
312.328	78.06
312.557	80.06
312.787	79.06
313.017	81.06
313.246	93.06
313.476	76.06
313.706	99.06
313.935	77.06
314.165	75.06
314.394	90.06
314.624	88.06
314.853	87.06
315.083	86.06
315.312	80.06
315.542	74.06
315.771	71.06
316.001	80.06
316.23	90.06
316.46	75.06
316.689	85.06
316.919	80.06
317.148	94.06
317.377	85.06
317.607	88.06
317.836	87.06
318.065	90.06
318.295	78.06
318.524	85.06
318.753	74.06
318.983	84.06
319.212	87.06
319.441	100.06
319.67	81.06
319.9	82.06
320.129	89.06
320.358	84.06
320.587	80.06
320.816	75.06
321.046	78.06
321.275	88.06
321.504	82.06
321.733	61.06
321.962	74.06
322.191	85.06
322.42	79.06
322.649	89.06
322.878	91.06
323.108	100.06
323.337	85.06
323.566	78.06
323.795	90.06
324.024	91.06
324.253	76.06
324.482	66.06
324.71	90.06
324.939	78.06
325.168	78.06
325.397	78.06
325.626	76.06
325.855	92.06
326.084	76.06
326.313	72.06
326.542	82.06
326.77	77.06
326.999	69.06
327.228	93.06
327.457	83.06
327.686	75.06
327.914	89.06
328.143	91.06
328.372	79.06
328.6	77.06
328.829	87.06
329.058	92.06
329.287	96.06
329.515	72.06
329.744	81.06
329.972	77.06
330.201	74.06
330.43	90.06
330.658	80.06
330.887	81.06
331.115	77.06
331.344	90.06
331.572	85.06
331.801	99.06
332.03	80.06
332.258	84.06
332.486	71.06
332.715	98.06
332.943	87.06
333.172	93.06
333.4	91.06
333.629	77.06
333.857	85.06
334.085	86.06
334.314	78.06
334.542	71.06
334.771	75.06
334.999	80.06
335.227	91.06
335.455	94.06
335.684	85.06
335.912	94.06
336.14	70.06
336.369	76.06
336.597	82.06
336.825	96.06
337.053	85.06
337.281	70.06
337.51	78.06
337.738	86.06
337.966	73.06
338.194	61.06
338.422	95.06
338.65	77.06
338.878	93.06
339.106	86.06
339.334	86.06
339.562	78.06
339.79	80.06
340.018	85.06
340.246	78.06
340.474	74.06
340.702	87.06
340.93	86.06
341.158	91.06
341.386	78.06
341.614	85.06
341.842	90.06
342.07	78.06
342.298	78.06
342.526	88.06
342.754	72.06
342.981	89.06
343.209	89.06
343.437	99.06
343.665	78.06
343.893	92.06
344.12	87.06
344.348	89.06
344.576	86.06
344.804	76.06
345.031	83.06
345.259	82.06
345.487	72.06
345.714	71.06
345.942	67.06
346.17	82.06
346.397	84.06
346.625	83.06
346.853	75.06
347.08	79.06
347.308	81.06
347.535	78.06
347.763	85.06
347.99	99.06
348.218	78.06
348.445	68.06
348.673	81.06
348.9	93.06
349.128	87.06
349.355	79.06
349.583	86.06
349.81	92.06
350.037	90.06
350.265	92.06
350.492	91.06
350.72	87.06
350.947	64.06
351.174	80.06
351.402	79.06
351.629	78.06
351.856	85.06
352.083	87.06
352.311	82.06
352.538	78.06
352.765	87.06
352.992	87.06
353.22	86.06
353.447	80.06
353.674	80.06
353.901	86.06
354.128	71.06
354.355	83.06
354.583	79.06
354.81	91.06
355.037	95.06
355.264	92.06
355.491	73.06
355.718	85.06
355.945	78.06
356.172	77.06
356.399	70.06
356.626	83.06
356.853	90.06
357.08	80.06
357.307	69.06
357.534	75.06
357.761	70.06
357.988	80.06
358.215	81.06
358.441	81.06
358.668	84.06
358.895	84.06
359.122	93.06
359.349	88.06
359.576	65.06
359.802	88.06
360.029	75.06
360.256	64.06
360.483	76.06
360.709	83.06
360.936	94.06
361.163	89.06
361.39	70.06
361.616	75.06
361.843	72.06
362.07	70.06
362.296	78.06
362.523	78.06
362.749	80.06
362.976	75.06
363.203	94.06
363.429	87.06
363.656	67.06
363.882	90.06
364.109	90.06
364.335	80.06
364.562	83.06
364.788	84.06
365.015	82.06
365.241	81.06
365.468	99.06
365.694	97.06
365.92	90.06
366.147	78.06
366.373	83.06
366.599	83.06
366.826	73.06
367.052	82.06
367.278	77.06
367.505	77.06
367.731	83.06
367.957	77.06
368.184	71.06
368.41	80.06
368.636	75.06
368.862	92.06
369.089	76.06
369.315	63.06
369.541	79.06
369.767	74.06
369.993	88.06
370.219	89.06
370.445	86.06
370.672	81.06
370.898	67.06
371.124	92.06
371.35	83.06
371.576	83.06
371.802	90.06
372.028	71.06
372.254	80.06
372.48	85.06
372.706	84.06
372.932	92.06
373.158	93.06
373.384	81.06
373.61	81.06
373.835	84.06
374.061	81.06
374.287	88.06
374.513	69.06
374.739	73.06
374.965	69.06
375.191	82.06
375.416	78.06
375.642	68.06
375.868	84.06
376.094	64.06
376.319	72.06
376.545	83.06
376.771	77.06
376.997	83.06
377.222	66.06
377.448	94.06
377.674	75.06
377.899	90.06
378.125	96.06
378.35	73.06
378.576	76.06
378.802	78.06
379.027	75.06
379.253	86.06
379.478	79.06
379.704	62.06
379.929	78.06
380.155	87.06
380.38	84.06
380.606	87.06
380.831	81.06
381.057	83.06
381.282	79.06
381.507	88.06
381.733	77.06
381.958	77.06
382.184	85.06
382.409	75.06
382.634	80.06
382.86	86.06
383.085	91.06
383.31	87.06
383.535	92.06
383.761	73.06
383.986	73.06
384.211	87.06
384.436	85.06
384.662	70.06
384.887	80.06
385.112	78.06
385.337	79.06
385.562	68.06
385.787	68.06
386.013	91.06
386.238	96.06
386.463	82.06
386.688	95.06
386.913	74.06
387.138	83.06
387.363	66.06
387.588	79.06
387.813	85.06
388.038	74.06
388.263	87.06
388.488	96.06
388.713	90.06
388.938	82.06
389.163	86.06
389.387	77.06
389.612	94.06
389.837	80.06
390.062	68.06
390.287	81.06
390.512	70.06
390.736	81.06
390.961	84.06
391.186	83.06
391.411	88.06
391.636	72.06
391.86	73.06
392.085	71.06
392.31	74.06
392.534	73.06
392.759	72.06
392.984	92.06
393.208	104.06
393.433	84.06
393.658	103.06
393.882	77.06
394.107	69.06
394.331	62.06
394.556	85.06
394.78	88.06
395.005	79.06
395.229	77.06
395.454	83.06
395.678	79.06
395.903	89.06
396.127	90.06
396.352	88.06
396.576	84.06
396.801	78.06
397.025	76.06
397.249	84.06
397.474	75.06
397.698	84.06
397.922	85.06
398.147	82.06
398.371	70.06
398.595	89.06
398.82	72.06
399.044	78.06
399.268	71.06
399.492	85.06
399.717	90.06
399.941	86.06
400.165	85.06
400.389	77.06
400.613	79.06
400.837	87.06
401.062	92.06
401.286	76.06
401.51	79.06
401.734	69.06
401.958	83.06
402.182	91.06
402.406	85.06
402.63	93.06
402.854	88.06
403.078	83.06
403.302	72.06
403.526	76.06
403.75	83.06
403.974	71.06
404.198	70.06
404.422	84.06
404.645	79.06
404.869	85.06
405.093	76.06
405.317	101.06
405.541	84.06
405.765	78.06
405.988	81.06
406.212	80.06
406.436	85.06
406.66	83.06
406.883	83.06
407.107	73.06
407.331	72.06
407.555	65.06
407.778	88.06
408.002	89.06
408.226	78.06
408.449	78.06
408.673	71.06
408.896	82.06
409.12	91.06
409.344	84.06
409.567	90.06
409.791	86.06
410.014	90.06
410.238	81.06
410.461	77.06
410.685	80.06
410.908	83.06
411.132	70.06
411.355	68.06
411.578	76.06
411.802	83.06
412.025	80.06
412.249	84.06
412.472	71.06
412.695	79.06
412.919	92.06
413.142	74.06
413.365	87.06
413.589	74.06
413.812	71.06
414.035	91.06
414.258	77.06
414.482	71.06
414.705	68.06
414.928	88.06
415.151	86.06
415.374	88.06
415.597	69.06
415.821	66.06
416.044	79.06
416.267	69.06
416.49	77.06
416.713	80.06
416.936	90.06
417.159	73.06
417.382	81.06
417.605	88.06
417.828	68.06
418.051	75.06
418.274	84.06
418.497	80.06
418.72	79.06
418.943	80.06
419.166	81.06
419.389	87.06
419.611	77.06
419.834	61.06
420.057	86.06
420.28	71.06
420.503	73.06
420.726	70.06
420.948	76.06
421.171	77.06
421.394	78.06
421.617	88.06
421.839	83.06
422.062	100.06
422.285	73.06
422.507	83.06
422.73	101.06
422.953	98.06
423.175	86.06
423.398	86.06
423.621	98.06
423.843	79.06
424.066	71.06
424.288	73.06
424.511	74.06
424.733	81.06
424.956	84.06
425.178	81.06
425.401	80.06
425.623	84.06
425.846	79.06
426.068	77.06
426.291	78.06
426.513	78.06
426.735	77.06
426.958	73.06
427.18	85.06
427.402	79.06
427.625	85.06
427.847	84.06
428.069	83.06
428.292	92.06
428.514	71.06
428.736	82.06
428.958	88.06
429.181	95.06
429.403	78.06
429.625	78.06
429.847	103.06
430.069	85.06
430.292	86.06
430.514	87.06
430.736	82.06
430.958	75.06
431.18	69.06
431.402	91.06
431.624	75.06
431.846	78.06
432.068	81.06
432.29	78.06
432.512	76.06
432.734	84.06
432.956	75.06
433.178	103.06
433.4	92.06
433.622	83.06
433.844	81.06
434.066	97.06
434.287	75.06
434.509	79.06
434.731	85.06
434.953	80.06
435.175	79.06
435.397	83.06
435.618	79.06
435.84	80.06
436.062	87.06
436.284	83.06
436.505	78.06
436.727	88.06
436.949	83.06
437.17	76.06
437.392	84.06
437.614	86.06
437.835	87.06
438.057	80.06
438.278	80.06
438.5	72.06
438.721	93.06
438.943	67.06
439.165	91.06
439.386	70.06
439.608	86.06
439.829	87.06
440.05	90.06
440.272	77.06
440.493	77.06
440.715	71.06
440.936	76.06
441.158	75.06
441.379	100.06
441.6	81.06
441.822	66.06
442.043	76.06
442.264	75.06
442.486	89.06
442.707	76.06
442.928	81.06
443.149	78.06
443.371	85.06
443.592	94.06
443.813	96.06
444.034	89.06
444.255	89.06
444.476	84.06
444.698	83.06
444.919	74.06
445.14	147.06
445.361	118.06
445.582	91.06
445.803	80.06
446.024	79.06
446.245	81.06
446.466	82.06
446.687	83.06
446.908	80.06
447.129	75.06
447.35	93.06
447.571	83.06
447.792	71.06
448.013	79.06
448.234	72.06
448.455	73.06
448.675	80.06
448.896	88.06
449.117	77.06
449.338	81.06
449.559	75.06
449.779	76.06
450	95.06
450.221	87.06
450.442	74.06
450.662	81.06
450.883	92.06
451.104	92.06
451.324	76.06
451.545	85.06
451.766	87.06
451.986	74.06
452.207	85.06
452.428	73.06
452.648	102.06
452.869	88.06
453.089	93.06
453.31	94.06
453.53	74.06
453.751	81.06
453.971	70.06
454.192	94.06
454.412	88.06
454.633	84.06
454.853	89.06
455.073	76.06
455.294	75.06
455.514	73.06
455.734	76.06
455.955	72.06
456.175	72.06
456.395	83.06
456.616	78.06
456.836	91.06
457.056	81.06
457.276	84.06
457.497	88.06
457.717	81.06
457.937	84.06
458.157	75.06
458.377	67.06
458.598	76.06
458.818	83.06
459.038	91.06
459.258	85.06
459.478	74.06
459.698	96.06
459.918	88.06
460.138	76.06
460.358	75.06
460.578	86.06
460.798	77.06
461.018	88.06
461.238	103.06
461.458	91.06
461.678	94.06
461.898	91.06
462.118	83.06
462.338	86.06
462.558	94.06
462.777	92.06
462.997	71.06
463.217	89.06
463.437	92.06
463.657	69.06
463.876	81.06
464.096	68.06
464.316	67.06
464.536	79.06
464.755	94.06
464.975	90.06
465.195	96.06
465.414	88.06
465.634	77.06
465.854	73.06
466.073	86.06
466.293	91.06
466.512	64.06
466.732	83.06
466.951	73.06
467.171	84.06
467.391	86.06
467.61	82.06
467.829	75.06
468.049	75.06
468.268	73.06
468.488	84.06
468.707	80.06
468.927	84.06
469.146	87.06
469.365	57.06
469.585	74.06
469.804	81.06
470.023	78.06
470.243	77.06
470.462	93.06
470.681	64.06
470.901	76.06
471.12	76.06
471.339	86.06
471.558	69.06
471.777	70.06
471.997	82.06
472.216	88.06
472.435	90.06
472.654	91.06
472.873	89.06
473.092	76.06
473.311	73.06
473.53	83.06
473.749	90.06
473.968	86.06
474.187	89.06
474.406	83.06
474.625	76.06
474.844	88.06
475.063	83.06
475.282	78.06
475.501	86.06
475.72	97.06
475.939	71.06
476.158	88.06
476.377	73.06
476.596	85.06
476.814	84.06
477.033	79.06
477.252	73.06
477.471	80.06
477.69	75.06
477.908	80.06
478.127	87.06
478.346	81.06
478.564	76.06
478.783	85.06
479.002	87.06
479.22	81.06
479.439	77.06
479.658	80.06
479.876	56.06
480.095	87.06
480.313	92.06
480.532	83.06
480.751	70.06
480.969	71.06
481.188	90.06
481.406	88.06
481.624	68.06
481.843	88.06
482.061	97.06
482.28	90.06
482.498	76.06
482.717	69.06
482.935	75.06
483.153	75.06
483.372	69.06
483.59	78.06
483.808	80.06
484.027	83.06
484.245	80.06
484.463	83.06
484.681	96.06
484.9	82.06
485.118	92.06
485.336	78.06
485.554	74.06
485.772	72.06
485.99	79.06
486.209	95.06
486.427	78.06
486.645	90.06
486.863	90.06
487.081	87.06
487.299	80.06
487.517	93.06
487.735	75.06
487.953	78.06
488.171	107.06
488.389	81.06
488.607	82.06
488.825	64.06
489.043	82.06
489.261	88.06
489.479	83.06
489.696	92.06
489.914	78.06
490.132	84.06
490.35	84.06
490.568	90.06
490.786	89.06
491.003	91.06
491.221	71.06
491.439	86.06
491.657	98.06
491.874	89.06
492.092	69.06
492.31	84.06
492.527	78.06
492.745	77.06
492.963	90.06
493.18	87.06
493.398	75.06
493.615	85.06
493.833	74.06
494.05	74.06
494.268	76.06
494.485	88.06
494.703	74.06
494.92	100.06
495.138	79.06
495.355	77.06
495.573	96.06
495.79	80.06
496.008	82.06
496.225	97.06
496.442	81.06
496.66	87.06
496.877	87.06
497.094	92.06
497.312	75.06
497.529	92.06
497.746	84.06
497.963	88.06
498.181	94.06
498.398	80.06
498.615	87.06
498.832	68.06
499.049	86.06
499.267	86.06
499.484	82.06
499.701	91.06
499.918	87.06
500.135	93.06
500.352	77.06
500.569	78.06
500.786	89.06
501.003	81.06
501.22	91.06
501.437	93.06
501.654	79.06
501.871	95.06
502.088	88.06
502.305	90.06
502.522	80.06
502.739	103.06
502.956	75.06
503.172	65.06
503.389	94.06
503.606	90.06
503.823	93.06
504.04	83.06
504.256	95.06
504.473	89.06
504.69	78.06
504.907	89.06
505.123	69.06
505.34	80.06
505.557	85.06
505.773	86.06
505.99	90.06
506.207	75.06
506.423	87.06
506.64	78.06
506.856	81.06
507.073	70.06
507.289	73.06
507.506	86.06
507.722	80.06
507.939	74.06
508.155	70.06
508.372	77.06
508.588	81.06
508.805	76.06
509.021	84.06
509.238	84.06
509.454	82.06
509.67	86.06
509.887	81.06
510.103	81.06
510.319	78.06
510.536	87.06
510.752	89.06
510.968	82.06
511.184	76.06
511.401	86.06
511.617	81.06
511.833	77.06
512.049	77.06
512.265	89.06
512.481	79.06
512.698	78.06
512.914	80.06
513.13	73.06
513.346	86.06
513.562	92.06
513.778	89.06
513.994	69.06
514.21	91.06
514.426	94.06
514.642	77.06
514.858	94.06
515.074	75.06
515.29	94.06
515.506	78.06
515.721	91.06
515.937	92.06
516.153	86.06
516.369	92.06
516.585	89.06
516.801	80.06
517.016	71.06
517.232	88.06
517.448	93.06
517.664	77.06
517.879	89.06
518.095	88.06
518.311	84.06
518.527	85.06
518.742	72.06
518.958	79.06
519.173	104.06
519.389	84.06
519.605	73.06
519.82	86.06
520.036	72.06
