Data from Dirtheat3_HRD10591_00002.txt Node
Date: Fri Dec 27 15:16:14 EST 2024
User: Yrep
Spectrometer: HR+D1059
Trigger mode: 1
Integration Time (sec): 1.000000E-1
Scans to average: 1
Electric dark correction enabled: true
Nonlinearity correction enabled: false
Boxcar width: 0
XAxis mode: Wavelengths
Number of Pixels in Spectrum: 2048
>>>>>Begin Spectral Data<<<<<
223.165	-20.56
223.4	-20.56
223.635	-20.56
223.869	-19.56
224.104	-16.56
224.338	-14.56
224.573	-11.56
224.808	-24.56
225.042	-4.56
225.277	-3.56
225.511	-5.56
225.746	12.44
225.98	4.44
226.215	16.44
226.449	17.44
226.683	17.44
226.918	24.44
227.152	28.44
227.387	32.44
227.621	45.44
227.856	47.44
228.09	46.44
228.324	35.44
228.559	44.44
228.793	52.44
229.027	43.44
229.262	61.44
229.496	72.44
229.73	73.44
229.964	68.44
230.199	58.44
230.433	67.44
230.667	65.44
230.901	70.44
231.136	64.44
231.37	68.44
231.604	84.44
231.838	74.44
232.072	82.44
232.306	81.44
232.541	73.44
232.775	71.44
233.009	85.44
233.243	87.44
233.477	75.44
233.711	69.44
233.945	76.44
234.179	77.44
234.413	74.44
234.647	78.44
234.881	83.44
235.115	84.44
235.349	60.44
235.583	63.44
235.817	68.44
236.051	87.44
236.285	84.44
236.519	81.44
236.753	83.44
236.987	87.44
237.221	66.44
237.455	70.44
237.689	81.44
237.922	83.44
238.156	67.44
238.39	68.44
238.624	68.44
238.858	68.44
239.091	80.44
239.325	78.44
239.559	83.44
239.793	78.44
240.027	72.44
240.26	69.44
240.494	76.44
240.728	75.44
240.961	71.44
241.195	75.44
241.429	60.44
241.662	75.44
241.896	61.44
242.13	64.44
242.363	82.44
242.597	72.44
242.83	82.44
243.064	72.44
243.298	73.44
243.531	80.44
243.765	66.44
243.998	79.44
244.232	59.44
244.465	71.44
244.699	71.44
244.932	79.44
245.166	70.44
245.399	61.44
245.633	74.44
245.866	78.44
246.099	77.44
246.333	89.44
246.566	77.44
246.8	61.44
247.033	69.44
247.266	78.44
247.5	73.44
247.733	71.44
247.966	65.44
248.2	75.44
248.433	76.44
248.666	78.44
248.899	72.44
249.133	78.44
249.366	83.44
249.599	78.44
249.832	68.44
250.066	67.44
250.299	71.44
250.532	78.44
250.765	80.44
250.998	78.44
251.231	68.44
251.465	82.44
251.698	77.44
251.931	81.44
252.164	64.44
252.397	80.44
252.63	65.44
252.863	76.44
253.096	76.44
253.329	76.44
253.562	70.44
253.795	80.44
254.028	84.44
254.261	70.44
254.494	80.44
254.727	77.44
254.96	76.44
255.193	80.44
255.426	79.44
255.659	78.44
255.892	74.44
256.124	73.44
256.357	70.44
256.59	73.44
256.823	61.44
257.056	79.44
257.289	81.44
257.521	75.44
257.754	82.44
257.987	87.44
258.22	83.44
258.452	73.44
258.685	75.44
258.918	83.44
259.151	78.44
259.383	70.44
259.616	72.44
259.849	65.44
260.081	80.44
260.314	73.44
260.547	89.44
260.779	85.44
261.012	82.44
261.244	65.44
261.477	103.44
261.71	68.44
261.942	88.44
262.175	76.44
262.407	79.44
262.64	82.44
262.872	70.44
263.105	84.44
263.337	80.44
263.57	64.44
263.802	85.44
264.035	71.44
264.267	72.44
264.499	88.44
264.732	87.44
264.964	72.44
265.197	71.44
265.429	84.44
265.661	70.44
265.894	79.44
266.126	86.44
266.358	75.44
266.591	89.44
266.823	73.44
267.055	78.44
267.287	72.44
267.52	63.44
267.752	80.44
267.984	85.44
268.216	79.44
268.448	74.44
268.681	80.44
268.913	91.44
269.145	86.44
269.377	84.44
269.609	71.44
269.841	83.44
270.073	78.44
270.306	88.44
270.538	79.44
270.77	81.44
271.002	57.44
271.234	86.44
271.466	70.44
271.698	82.44
271.93	74.44
272.162	72.44
272.394	68.44
272.626	86.44
272.858	67.44
273.09	80.44
273.322	70.44
273.553	75.44
273.785	77.44
274.017	87.44
274.249	80.44
274.481	74.44
274.713	78.44
274.945	89.44
275.176	83.44
275.408	89.44
275.64	68.44
275.872	73.44
276.104	76.44
276.335	74.44
276.567	82.44
276.799	79.44
277.031	72.44
277.262	85.44
277.494	86.44
277.726	80.44
277.957	75.44
278.189	78.44
278.421	77.44
278.652	82.44
278.884	85.44
279.115	92.44
279.347	85.44
279.579	66.44
279.81	68.44
280.042	74.44
280.273	84.44
280.505	87.44
280.736	89.44
280.968	71.44
281.199	83.44
281.431	88.44
281.662	88.44
281.894	71.44
282.125	80.44
282.356	69.44
282.588	82.44
282.819	74.44
283.051	72.44
283.282	90.44
283.513	96.44
283.745	71.44
283.976	70.44
284.207	69.44
284.439	71.44
284.67	71.44
284.901	92.44
285.132	76.44
285.364	84.44
285.595	75.44
285.826	76.44
286.057	84.44
286.288	84.44
286.52	67.44
286.751	85.44
286.982	76.44
287.213	87.44
287.444	92.44
287.675	83.44
287.906	71.44
288.138	84.44
288.369	84.44
288.6	86.44
288.831	74.44
289.062	72.44
289.293	75.44
289.524	79.44
289.755	92.44
289.986	83.44
290.217	76.44
290.448	92.44
290.679	85.44
290.91	79.44
291.141	85.44
291.371	74.44
291.602	82.44
291.833	79.44
292.064	86.44
292.295	75.44
292.526	89.44
292.757	85.44
292.987	82.44
293.218	77.44
293.449	99.44
293.68	72.44
293.91	70.44
294.141	77.44
294.372	86.44
294.603	83.44
294.833	89.44
295.064	76.44
295.295	78.44
295.525	84.44
295.756	92.44
295.987	81.44
296.217	73.44
296.448	75.44
296.679	90.44
296.909	96.44
297.14	89.44
297.37	84.44
297.601	94.44
297.831	100.44
298.062	90.44
298.292	95.44
298.523	82.44
298.753	88.44
298.984	83.44
299.214	84.44
299.445	69.44
299.675	87.44
299.905	76.44
300.136	72.44
300.366	96.44
300.597	87.44
300.827	88.44
301.057	86.44
301.288	77.44
301.518	68.44
301.748	80.44
301.979	91.44
302.209	78.44
302.439	91.44
302.669	92.44
302.9	82.44
303.13	102.44
303.36	86.44
303.59	84.44
303.82	104.44
304.051	84.44
304.281	93.44
304.511	79.44
304.741	75.44
304.971	88.44
305.201	88.44
305.431	79.44
305.661	92.44
305.891	83.44
306.121	92.44
306.352	70.44
306.582	86.44
306.812	93.44
307.042	87.44
307.272	79.44
307.502	73.44
307.731	71.44
307.961	83.44
308.191	82.44
308.421	80.44
308.651	78.44
308.881	84.44
309.111	78.44
309.341	62.44
309.571	96.44
309.8	86.44
310.03	86.44
310.26	104.44
310.49	82.44
310.72	73.44
310.949	90.44
311.179	81.44
311.409	82.44
311.639	94.44
311.868	86.44
312.098	75.44
312.328	76.44
312.557	89.44
312.787	86.44
313.017	75.44
313.246	90.44
313.476	77.44
313.706	78.44
313.935	83.44
314.165	74.44
314.394	86.44
314.624	84.44
314.853	90.44
315.083	75.44
315.312	79.44
315.542	72.44
315.771	79.44
316.001	79.44
316.23	83.44
316.46	85.44
316.689	87.44
316.919	83.44
317.148	83.44
317.377	78.44
317.607	87.44
317.836	92.44
318.065	91.44
318.295	74.44
318.524	78.44
318.753	72.44
318.983	90.44
319.212	89.44
319.441	85.44
319.67	82.44
319.9	74.44
320.129	86.44
320.358	87.44
320.587	88.44
320.816	86.44
321.046	84.44
321.275	88.44
321.504	83.44
321.733	77.44
321.962	81.44
322.191	78.44
322.42	91.44
322.649	82.44
322.878	90.44
323.108	91.44
323.337	78.44
323.566	93.44
323.795	91.44
324.024	81.44
324.253	75.44
324.482	60.44
324.71	84.44
324.939	91.44
325.168	88.44
325.397	83.44
325.626	86.44
325.855	66.44
326.084	82.44
326.313	87.44
326.542	76.44
326.77	94.44
326.999	69.44
327.228	82.44
327.457	84.44
327.686	84.44
327.914	74.44
328.143	86.44
328.372	78.44
328.6	84.44
328.829	88.44
329.058	76.44
329.287	90.44
329.515	78.44
329.744	88.44
329.972	73.44
330.201	86.44
330.43	92.44
330.658	84.44
330.887	73.44
331.115	85.44
331.344	67.44
331.572	78.44
331.801	73.44
332.03	92.44
332.258	85.44
332.486	77.44
332.715	83.44
332.943	84.44
333.172	78.44
333.4	84.44
333.629	75.44
333.857	87.44
334.085	87.44
334.314	84.44
334.542	74.44
334.771	72.44
334.999	81.44
335.227	77.44
335.455	82.44
335.684	90.44
335.912	80.44
336.14	84.44
336.369	74.44
336.597	82.44
336.825	90.44
337.053	85.44
337.281	85.44
337.51	86.44
337.738	84.44
337.966	75.44
338.194	76.44
338.422	89.44
338.65	80.44
338.878	96.44
339.106	88.44
339.334	85.44
339.562	95.44
339.79	81.44
340.018	89.44
340.246	95.44
340.474	93.44
340.702	75.44
340.93	82.44
341.158	78.44
341.386	82.44
341.614	86.44
341.842	74.44
342.07	85.44
342.298	74.44
342.526	71.44
342.754	74.44
342.981	86.44
343.209	84.44
343.437	105.44
343.665	77.44
343.893	75.44
344.12	96.44
344.348	69.44
344.576	83.44
344.804	81.44
345.031	87.44
345.259	77.44
345.487	85.44
345.714	95.44
345.942	87.44
346.17	86.44
346.397	87.44
346.625	83.44
346.853	80.44
347.08	83.44
347.308	84.44
347.535	76.44
347.763	86.44
347.99	76.44
348.218	83.44
348.445	85.44
348.673	88.44
348.9	74.44
349.128	84.44
349.355	86.44
349.583	77.44
349.81	90.44
350.037	80.44
350.265	91.44
350.492	89.44
350.72	79.44
350.947	83.44
351.174	83.44
351.402	76.44
351.629	79.44
351.856	75.44
352.083	84.44
352.311	82.44
352.538	77.44
352.765	75.44
352.992	92.44
353.22	81.44
353.447	82.44
353.674	80.44
353.901	87.44
354.128	84.44
354.355	85.44
354.583	74.44
354.81	72.44
355.037	105.44
355.264	86.44
355.491	89.44
355.718	68.44
355.945	72.44
356.172	86.44
356.399	67.44
356.626	88.44
356.853	86.44
357.08	66.44
357.307	70.44
357.534	90.44
357.761	75.44
357.988	87.44
358.215	88.44
358.441	79.44
358.668	84.44
358.895	92.44
359.122	91.44
359.349	79.44
359.576	77.44
359.802	71.44
360.029	79.44
360.256	93.44
360.483	75.44
360.709	82.44
360.936	69.44
361.163	82.44
361.39	74.44
361.616	102.44
361.843	92.44
362.07	71.44
362.296	69.44
362.523	79.44
362.749	79.44
362.976	74.44
363.203	85.44
363.429	86.44
363.656	78.44
363.882	64.44
364.109	102.44
364.335	105.44
364.562	95.44
364.788	87.44
365.015	80.44
365.241	92.44
365.468	87.44
365.694	77.44
365.92	78.44
366.147	88.44
366.373	70.44
366.599	80.44
366.826	77.44
367.052	75.44
367.278	85.44
367.505	91.44
367.731	77.44
367.957	75.44
368.184	79.44
368.41	82.44
368.636	81.44
368.862	81.44
369.089	86.44
369.315	69.44
369.541	93.44
369.767	86.44
369.993	79.44
370.219	86.44
370.445	71.44
370.672	80.44
370.898	90.44
371.124	82.44
371.35	88.44
371.576	83.44
371.802	81.44
372.028	80.44
372.254	79.44
372.48	79.44
372.706	79.44
372.932	80.44
373.158	85.44
373.384	81.44
373.61	88.44
373.835	75.44
374.061	80.44
374.287	78.44
374.513	85.44
374.739	62.44
374.965	86.44
375.191	99.44
375.416	95.44
375.642	84.44
375.868	84.44
376.094	80.44
376.319	83.44
376.545	82.44
376.771	79.44
376.997	82.44
377.222	100.44
377.448	80.44
377.674	85.44
377.899	91.44
378.125	72.44
378.35	78.44
378.576	83.44
378.802	84.44
379.027	85.44
379.253	85.44
379.478	76.44
379.704	80.44
379.929	81.44
380.155	89.44
380.38	75.44
380.606	76.44
380.831	86.44
381.057	74.44
381.282	86.44
381.507	74.44
381.733	76.44
381.958	94.44
382.184	95.44
382.409	96.44
382.634	77.44
382.86	65.44
383.085	101.44
383.31	98.44
383.535	76.44
383.761	72.44
383.986	90.44
384.211	84.44
384.436	89.44
384.662	92.44
384.887	84.44
385.112	87.44
385.337	78.44
385.562	83.44
385.787	72.44
386.013	80.44
386.238	83.44
386.463	86.44
386.688	91.44
386.913	60.44
387.138	83.44
387.363	70.44
387.588	83.44
387.813	87.44
388.038	81.44
388.263	75.44
388.488	80.44
388.713	76.44
388.938	86.44
389.163	103.44
389.387	67.44
389.612	74.44
389.837	70.44
390.062	94.44
390.287	76.44
390.512	91.44
390.736	85.44
390.961	65.44
391.186	85.44
391.411	74.44
391.636	59.44
391.86	86.44
392.085	70.44
392.31	73.44
392.534	80.44
392.759	88.44
392.984	74.44
393.208	100.44
393.433	104.44
393.658	103.44
393.882	71.44
394.107	89.44
394.331	79.44
394.556	78.44
394.78	75.44
395.005	79.44
395.229	75.44
395.454	92.44
395.678	89.44
395.903	77.44
396.127	85.44
396.352	96.44
396.576	85.44
396.801	87.44
397.025	88.44
397.249	83.44
397.474	84.44
397.698	81.44
397.922	82.44
398.147	93.44
398.371	85.44
398.595	71.44
398.82	75.44
399.044	78.44
399.268	79.44
399.492	85.44
399.717	76.44
399.941	84.44
400.165	81.44
400.389	87.44
400.613	87.44
400.837	81.44
401.062	78.44
401.286	69.44
401.51	79.44
401.734	82.44
401.958	80.44
402.182	82.44
402.406	84.44
402.63	89.44
402.854	83.44
403.078	84.44
403.302	88.44
403.526	96.44
403.75	79.44
403.974	79.44
404.198	92.44
404.422	87.44
404.645	81.44
404.869	80.44
405.093	96.44
405.317	98.44
405.541	74.44
405.765	72.44
405.988	85.44
406.212	83.44
406.436	82.44
406.66	75.44
406.883	82.44
407.107	76.44
407.331	74.44
407.555	66.44
407.778	81.44
408.002	72.44
408.226	79.44
408.449	73.44
408.673	80.44
408.896	82.44
409.12	70.44
409.344	75.44
409.567	83.44
409.791	73.44
410.014	95.44
410.238	86.44
410.461	78.44
410.685	87.44
410.908	75.44
411.132	85.44
411.355	90.44
411.578	83.44
411.802	75.44
412.025	61.44
412.249	75.44
412.472	82.44
412.695	77.44
412.919	72.44
413.142	72.44
413.365	79.44
413.589	88.44
413.812	71.44
414.035	91.44
414.258	84.44
414.482	74.44
414.705	86.44
414.928	77.44
415.151	79.44
415.374	70.44
415.597	88.44
415.821	75.44
416.044	70.44
416.267	80.44
416.49	78.44
416.713	86.44
416.936	82.44
417.159	91.44
417.382	76.44
417.605	80.44
417.828	90.44
418.051	92.44
418.274	74.44
418.497	91.44
418.72	80.44
418.943	82.44
419.166	74.44
419.389	80.44
419.611	72.44
419.834	84.44
420.057	69.44
420.28	78.44
420.503	82.44
420.726	72.44
420.948	72.44
421.171	80.44
421.394	83.44
421.617	97.44
421.839	89.44
422.062	90.44
422.285	85.44
422.507	97.44
422.73	106.44
422.953	94.44
423.175	92.44
423.398	86.44
423.621	82.44
423.843	86.44
424.066	86.44
424.288	78.44
424.511	86.44
424.733	66.44
424.956	92.44
425.178	89.44
425.401	63.44
425.623	81.44
425.846	49.44
426.068	58.44
426.291	80.44
426.513	80.44
426.735	75.44
426.958	87.44
427.18	85.44
427.402	91.44
427.625	91.44
427.847	94.44
428.069	71.44
428.292	87.44
428.514	79.44
428.736	92.44
428.958	85.44
429.181	77.44
429.403	83.44
429.625	84.44
429.847	90.44
430.069	96.44
430.292	97.44
430.514	102.44
430.736	84.44
430.958	97.44
431.18	82.44
431.402	86.44
431.624	70.44
431.846	72.44
432.068	73.44
432.29	80.44
432.512	78.44
432.734	80.44
432.956	82.44
433.178	90.44
433.4	79.44
433.622	91.44
433.844	83.44
434.066	77.44
434.287	85.44
434.509	70.44
434.731	87.44
434.953	89.44
435.175	87.44
435.397	76.44
435.618	71.44
435.84	75.44
436.062	86.44
436.284	87.44
436.505	83.44
436.727	71.44
436.949	71.44
437.17	83.44
437.392	92.44
437.614	77.44
437.835	60.44
438.057	68.44
438.278	78.44
438.5	77.44
438.721	86.44
438.943	90.44
439.165	73.44
439.386	84.44
439.608	77.44
439.829	82.44
440.05	79.44
440.272	76.44
440.493	82.44
440.715	82.44
440.936	95.44
441.158	101.44
441.379	76.44
441.6	73.44
441.822	90.44
442.043	94.44
442.264	78.44
442.486	90.44
442.707	103.44
442.928	82.44
443.149	88.44
443.371	76.44
443.592	72.44
443.813	78.44
444.034	76.44
444.255	78.44
444.476	80.44
444.698	79.44
444.919	92.44
445.14	135.44
445.361	112.44
445.582	101.44
445.803	99.44
446.024	90.44
446.245	84.44
446.466	85.44
446.687	82.44
446.908	86.44
447.129	82.44
447.35	85.44
447.571	77.44
447.792	84.44
448.013	85.44
448.234	83.44
448.455	84.44
448.675	78.44
448.896	73.44
449.117	79.44
449.338	63.44
449.559	76.44
449.779	73.44
450	80.44
450.221	80.44
450.442	88.44
450.662	69.44
450.883	81.44
451.104	66.44
451.324	78.44
451.545	75.44
451.766	75.44
451.986	83.44
452.207	83.44
452.428	90.44
452.648	79.44
452.869	78.44
453.089	68.44
453.31	62.44
453.53	77.44
453.751	81.44
453.971	77.44
454.192	75.44
454.412	93.44
454.633	84.44
454.853	72.44
455.073	82.44
455.294	73.44
455.514	92.44
455.734	80.44
455.955	85.44
456.175	79.44
456.395	83.44
456.616	92.44
456.836	64.44
457.056	89.44
457.276	72.44
457.497	74.44
457.717	75.44
457.937	64.44
458.157	82.44
458.377	74.44
458.598	82.44
458.818	78.44
459.038	70.44
459.258	83.44
459.478	67.44
459.698	82.44
459.918	82.44
460.138	76.44
460.358	82.44
460.578	74.44
460.798	85.44
461.018	83.44
461.238	80.44
461.458	71.44
461.678	77.44
461.898	76.44
462.118	84.44
462.338	83.44
462.558	83.44
462.777	74.44
462.997	78.44
463.217	83.44
463.437	70.44
463.657	79.44
463.876	79.44
464.096	66.44
464.316	82.44
464.536	84.44
464.755	80.44
464.975	75.44
465.195	89.44
465.414	60.44
465.634	84.44
465.854	84.44
466.073	72.44
466.293	74.44
466.512	76.44
466.732	71.44
466.951	76.44
467.171	82.44
467.391	88.44
467.61	71.44
467.829	89.44
468.049	62.44
468.268	87.44
468.488	73.44
468.707	78.44
468.927	68.44
469.146	78.44
469.365	77.44
469.585	86.44
469.804	74.44
470.023	78.44
470.243	84.44
470.462	84.44
470.681	83.44
470.901	81.44
471.12	61.44
471.339	75.44
471.558	75.44
471.777	74.44
471.997	83.44
472.216	70.44
472.435	73.44
472.654	87.44
472.873	86.44
473.092	77.44
473.311	91.44
473.53	89.44
473.749	77.44
473.968	78.44
474.187	85.44
474.406	78.44
474.625	75.44
474.844	72.44
475.063	82.44
475.282	72.44
475.501	68.44
475.72	87.44
475.939	85.44
476.158	74.44
476.377	72.44
476.596	87.44
476.814	81.44
477.033	84.44
477.252	90.44
477.471	72.44
477.69	73.44
477.908	76.44
478.127	81.44
478.346	83.44
478.564	75.44
478.783	89.44
479.002	69.44
479.22	64.44
479.439	80.44
479.658	99.44
479.876	62.44
480.095	70.44
480.313	82.44
480.532	94.44
480.751	83.44
480.969	83.44
481.188	98.44
481.406	89.44
481.624	88.44
481.843	74.44
482.061	70.44
482.28	88.44
482.498	72.44
482.717	68.44
482.935	86.44
483.153	81.44
483.372	58.44
483.59	80.44
483.808	82.44
484.027	86.44
484.245	72.44
484.463	63.44
484.681	83.44
484.9	93.44
485.118	69.44
485.336	87.44
485.554	86.44
485.772	89.44
485.99	90.44
486.209	103.44
486.427	78.44
486.645	80.44
486.863	78.44
487.081	86.44
487.299	83.44
487.517	83.44
487.735	81.44
487.953	87.44
488.171	88.44
488.389	82.44
488.607	80.44
488.825	71.44
489.043	78.44
489.261	79.44
489.479	78.44
489.696	80.44
489.914	92.44
490.132	79.44
490.35	76.44
490.568	67.44
490.786	75.44
491.003	77.44
491.221	78.44
491.439	91.44
491.657	73.44
491.874	74.44
492.092	87.44
492.31	75.44
492.527	77.44
492.745	72.44
492.963	90.44
493.18	74.44
493.398	71.44
493.615	79.44
493.833	84.44
494.05	81.44
494.268	76.44
494.485	81.44
494.703	86.44
494.92	81.44
495.138	92.44
495.355	73.44
495.573	77.44
495.79	72.44
496.008	64.44
496.225	80.44
496.442	74.44
496.66	89.44
496.877	85.44
497.094	68.44
497.312	72.44
497.529	75.44
497.746	83.44
497.963	79.44
498.181	87.44
498.398	90.44
498.615	80.44
498.832	92.44
499.049	88.44
499.267	74.44
499.484	79.44
499.701	91.44
499.918	94.44
500.135	73.44
500.352	76.44
500.569	79.44
500.786	93.44
501.003	63.44
501.22	85.44
501.437	71.44
501.654	76.44
501.871	80.44
502.088	61.44
502.305	76.44
502.522	78.44
502.739	74.44
502.956	93.44
503.172	75.44
503.389	77.44
503.606	78.44
503.823	89.44
504.04	92.44
504.256	97.44
504.473	75.44
504.69	92.44
504.907	73.44
505.123	72.44
505.34	71.44
505.557	70.44
505.773	83.44
505.99	69.44
506.207	87.44
506.423	87.44
506.64	99.44
506.856	69.44
507.073	81.44
507.289	73.44
507.506	75.44
507.722	67.44
507.939	92.44
508.155	75.44
508.372	75.44
508.588	95.44
508.805	76.44
509.021	90.44
509.238	85.44
509.454	78.44
509.67	75.44
509.887	85.44
510.103	88.44
510.319	89.44
510.536	83.44
510.752	78.44
510.968	78.44
511.184	71.44
511.401	79.44
511.617	75.44
511.833	87.44
512.049	78.44
512.265	89.44
512.481	82.44
512.698	83.44
512.914	87.44
513.13	79.44
513.346	77.44
513.562	77.44
513.778	85.44
513.994	74.44
514.21	85.44
514.426	80.44
514.642	83.44
514.858	74.44
515.074	87.44
515.29	101.44
515.506	82.44
515.721	73.44
515.937	70.44
516.153	93.44
516.369	74.44
516.585	89.44
516.801	84.44
517.016	74.44
517.232	77.44
517.448	76.44
517.664	73.44
517.879	93.44
518.095	97.44
518.311	88.44
518.527	73.44
518.742	85.44
518.958	85.44
519.173	82.44
519.389	93.44
519.605	105.44
519.82	78.44
