Data from Dirtheat3_HRD10591_00003.txt Node
Date: Fri Dec 27 15:16:15 EST 2024
User: Yrep
Spectrometer: HR+D1059
Trigger mode: 1
Integration Time (sec): 1.000000E-1
Scans to average: 1
Electric dark correction enabled: true
Nonlinearity correction enabled: false
Boxcar width: 0
XAxis mode: Wavelengths
Number of Pixels in Spectrum: 2048
>>>>>Begin Spectral Data<<<<<
223.165	-5.56
223.4	-5.56
223.635	-5.56
223.869	-22.56
224.104	-21.56
224.338	-19.56
224.573	-27.56
224.808	-24.56
225.042	-6.56
225.277	8.44
225.511	3.44
225.746	6.44
225.98	17.44
226.215	7.44
226.449	14.44
226.683	23.44
226.918	21.44
227.152	25.44
227.387	26.44
227.621	41.44
227.856	37.44
228.09	58.44
228.324	58.44
228.559	70.44
228.793	68.44
229.027	74.44
229.262	67.44
229.496	56.44
229.73	79.44
229.964	73.44
230.199	76.44
230.433	76.44
230.667	74.44
230.901	79.44
231.136	85.44
231.37	81.44
231.604	63.44
231.838	85.44
232.072	101.44
232.306	76.44
232.541	73.44
232.775	89.44
233.009	84.44
233.243	88.44
233.477	77.44
233.711	81.44
233.945	85.44
234.179	82.44
234.413	72.44
234.647	70.44
234.881	71.44
235.115	77.44
235.349	93.44
235.583	82.44
235.817	83.44
236.051	84.44
236.285	76.44
236.519	71.44
236.753	83.44
236.987	75.44
237.221	78.44
237.455	82.44
237.689	85.44
237.922	65.44
238.156	61.44
238.39	71.44
238.624	63.44
238.858	77.44
239.091	80.44
239.325	78.44
239.559	74.44
239.793	72.44
240.027	85.44
240.26	74.44
240.494	78.44
240.728	69.44
240.961	85.44
241.195	81.44
241.429	91.44
241.662	81.44
241.896	78.44
242.13	71.44
242.363	77.44
242.597	67.44
242.83	69.44
243.064	79.44
243.298	79.44
243.531	79.44
243.765	77.44
243.998	76.44
244.232	79.44
244.465	90.44
244.699	76.44
244.932	61.44
245.166	84.44
245.399	81.44
245.633	73.44
245.866	82.44
246.099	85.44
246.333	89.44
246.566	84.44
246.8	73.44
247.033	90.44
247.266	77.44
247.5	88.44
247.733	72.44
247.966	65.44
248.2	85.44
248.433	82.44
248.666	86.44
248.899	82.44
249.133	79.44
249.366	83.44
249.599	79.44
249.832	72.44
250.066	80.44
250.299	76.44
250.532	85.44
250.765	71.44
250.998	86.44
251.231	93.44
251.465	67.44
251.698	78.44
251.931	75.44
252.164	63.44
252.397	77.44
252.63	75.44
252.863	66.44
253.096	83.44
253.329	94.44
253.562	75.44
253.795	80.44
254.028	64.44
254.261	70.44
254.494	81.44
254.727	72.44
254.96	62.44
255.193	69.44
255.426	81.44
255.659	78.44
255.892	77.44
256.124	69.44
256.357	83.44
256.59	87.44
256.823	93.44
257.056	89.44
257.289	87.44
257.521	89.44
257.754	79.44
257.987	67.44
258.22	82.44
258.452	88.44
258.685	73.44
258.918	76.44
259.151	79.44
259.383	84.44
259.616	70.44
259.849	86.44
260.081	92.44
260.314	71.44
260.547	81.44
260.779	78.44
261.012	90.44
261.244	80.44
261.477	91.44
261.71	78.44
261.942	80.44
262.175	72.44
262.407	77.44
262.64	78.44
262.872	57.44
263.105	84.44
263.337	84.44
263.57	88.44
263.802	70.44
264.035	96.44
264.267	86.44
264.499	85.44
264.732	80.44
264.964	82.44
265.197	83.44
265.429	95.44
265.661	81.44
265.894	85.44
266.126	87.44
266.358	81.44
266.591	92.44
266.823	89.44
267.055	80.44
267.287	88.44
267.52	86.44
267.752	87.44
267.984	75.44
268.216	91.44
268.448	88.44
268.681	76.44
268.913	81.44
269.145	84.44
269.377	84.44
269.609	80.44
269.841	86.44
270.073	75.44
270.306	85.44
270.538	77.44
270.77	89.44
271.002	77.44
271.234	81.44
271.466	77.44
271.698	76.44
271.93	77.44
272.162	81.44
272.394	85.44
272.626	82.44
272.858	81.44
273.09	77.44
273.322	79.44
273.553	81.44
273.785	81.44
274.017	78.44
274.249	81.44
274.481	75.44
274.713	89.44
274.945	96.44
275.176	74.44
275.408	75.44
275.64	90.44
275.872	80.44
276.104	70.44
276.335	82.44
276.567	89.44
276.799	91.44
277.031	84.44
277.262	82.44
277.494	81.44
277.726	91.44
277.957	94.44
278.189	72.44
278.421	70.44
278.652	81.44
278.884	91.44
279.115	88.44
279.347	87.44
279.579	89.44
279.81	82.44
280.042	92.44
280.273	103.44
280.505	79.44
280.736	87.44
280.968	86.44
281.199	82.44
281.431	81.44
281.662	79.44
281.894	80.44
282.125	83.44
282.356	84.44
282.588	87.44
282.819	86.44
283.051	73.44
283.282	80.44
283.513	87.44
283.745	83.44
283.976	72.44
284.207	79.44
284.439	89.44
284.67	78.44
284.901	75.44
285.132	84.44
285.364	84.44
285.595	87.44
285.826	78.44
286.057	80.44
286.288	84.44
286.52	68.44
286.751	87.44
286.982	85.44
287.213	77.44
287.444	94.44
287.675	84.44
287.906	79.44
288.138	73.44
288.369	87.44
288.6	71.44
288.831	87.44
289.062	86.44
289.293	73.44
289.524	82.44
289.755	84.44
289.986	84.44
290.217	70.44
290.448	70.44
290.679	91.44
290.91	93.44
291.141	80.44
291.371	87.44
291.602	81.44
291.833	83.44
292.064	88.44
292.295	88.44
292.526	80.44
292.757	76.44
292.987	82.44
293.218	78.44
293.449	71.44
293.68	86.44
293.91	68.44
294.141	80.44
294.372	64.44
294.603	76.44
294.833	78.44
295.064	82.44
295.295	87.44
295.525	74.44
295.756	86.44
295.987	83.44
296.217	67.44
296.448	86.44
296.679	86.44
296.909	85.44
297.14	89.44
297.37	83.44
297.601	76.44
297.831	86.44
298.062	84.44
298.292	93.44
298.523	88.44
298.753	82.44
298.984	82.44
299.214	70.44
299.445	80.44
299.675	97.44
299.905	77.44
300.136	74.44
300.366	81.44
300.597	82.44
300.827	94.44
301.057	80.44
301.288	81.44
301.518	87.44
301.748	87.44
301.979	91.44
302.209	74.44
302.439	84.44
302.669	90.44
302.9	103.44
303.13	75.44
303.36	85.44
303.59	90.44
303.82	82.44
304.051	83.44
304.281	91.44
304.511	72.44
304.741	71.44
304.971	89.44
305.201	67.44
305.431	80.44
305.661	85.44
305.891	70.44
306.121	81.44
306.352	89.44
306.582	74.44
306.812	87.44
307.042	82.44
307.272	89.44
307.502	91.44
307.731	87.44
307.961	94.44
308.191	90.44
308.421	101.44
308.651	85.44
308.881	61.44
309.111	79.44
309.341	91.44
309.571	87.44
309.8	90.44
310.03	75.44
310.26	81.44
310.49	95.44
310.72	92.44
310.949	79.44
311.179	84.44
311.409	83.44
311.639	72.44
311.868	82.44
312.098	78.44
312.328	82.44
312.557	84.44
312.787	91.44
313.017	80.44
313.246	96.44
313.476	77.44
313.706	89.44
313.935	78.44
314.165	78.44
314.394	70.44
314.624	106.44
314.853	75.44
315.083	80.44
315.312	80.44
315.542	75.44
315.771	83.44
316.001	78.44
316.23	82.44
316.46	90.44
316.689	72.44
316.919	78.44
317.148	80.44
317.377	96.44
317.607	90.44
317.836	72.44
318.065	81.44
318.295	85.44
318.524	86.44
318.753	87.44
318.983	82.44
319.212	78.44
319.441	85.44
319.67	80.44
319.9	94.44
320.129	81.44
320.358	86.44
320.587	68.44
320.816	85.44
321.046	80.44
321.275	86.44
321.504	79.44
321.733	98.44
321.962	92.44
322.191	76.44
322.42	81.44
322.649	74.44
322.878	79.44
323.108	86.44
323.337	91.44
323.566	83.44
323.795	107.44
324.024	93.44
324.253	85.44
324.482	103.44
324.71	77.44
324.939	90.44
325.168	88.44
325.397	75.44
325.626	89.44
325.855	83.44
326.084	72.44
326.313	92.44
326.542	70.44
326.77	76.44
326.999	102.44
327.228	90.44
327.457	97.44
327.686	83.44
327.914	78.44
328.143	105.44
328.372	96.44
328.6	93.44
328.829	87.44
329.058	71.44
329.287	81.44
329.515	86.44
329.744	85.44
329.972	91.44
330.201	85.44
330.43	91.44
330.658	77.44
330.887	79.44
331.115	83.44
331.344	68.44
331.572	95.44
331.801	94.44
332.03	75.44
332.258	86.44
332.486	95.44
332.715	82.44
332.943	68.44
333.172	82.44
333.4	86.44
333.629	93.44
333.857	88.44
334.085	85.44
334.314	86.44
334.542	80.44
334.771	97.44
334.999	68.44
335.227	90.44
335.455	81.44
335.684	84.44
335.912	89.44
336.14	83.44
336.369	94.44
336.597	77.44
336.825	86.44
337.053	88.44
337.281	73.44
337.51	73.44
337.738	89.44
337.966	79.44
338.194	77.44
338.422	82.44
338.65	92.44
338.878	87.44
339.106	78.44
339.334	80.44
339.562	82.44
339.79	80.44
340.018	87.44
340.246	72.44
340.474	102.44
340.702	92.44
340.93	82.44
341.158	75.44
341.386	86.44
341.614	78.44
341.842	92.44
342.07	83.44
342.298	85.44
342.526	88.44
342.754	85.44
342.981	77.44
343.209	78.44
343.437	84.44
343.665	97.44
343.893	89.44
344.12	78.44
344.348	77.44
344.576	89.44
344.804	67.44
345.031	71.44
345.259	85.44
345.487	80.44
345.714	81.44
345.942	90.44
346.17	86.44
346.397	79.44
346.625	70.44
346.853	72.44
347.08	98.44
347.308	89.44
347.535	79.44
347.763	95.44
347.99	73.44
348.218	95.44
348.445	81.44
348.673	85.44
348.9	74.44
349.128	74.44
349.355	83.44
349.583	91.44
349.81	78.44
350.037	74.44
350.265	82.44
350.492	82.44
350.72	73.44
350.947	85.44
351.174	80.44
351.402	85.44
351.629	77.44
351.856	86.44
352.083	91.44
352.311	86.44
352.538	85.44
352.765	77.44
352.992	96.44
353.22	76.44
353.447	86.44
353.674	91.44
353.901	78.44
354.128	81.44
354.355	79.44
354.583	88.44
354.81	73.44
355.037	84.44
355.264	75.44
355.491	81.44
355.718	74.44
355.945	78.44
356.172	67.44
356.399	73.44
356.626	77.44
356.853	86.44
357.08	89.44
357.307	85.44
357.534	86.44
357.761	80.44
357.988	86.44
358.215	80.44
358.441	86.44
358.668	86.44
358.895	73.44
359.122	73.44
359.349	79.44
359.576	83.44
359.802	89.44
360.029	80.44
360.256	71.44
360.483	89.44
360.709	76.44
360.936	93.44
361.163	75.44
361.39	73.44
361.616	81.44
361.843	87.44
362.07	85.44
362.296	80.44
362.523	95.44
362.749	86.44
362.976	84.44
363.203	83.44
363.429	95.44
363.656	81.44
363.882	87.44
364.109	89.44
364.335	95.44
364.562	80.44
364.788	91.44
365.015	88.44
365.241	96.44
365.468	85.44
365.694	63.44
365.92	77.44
366.147	73.44
366.373	81.44
366.599	94.44
366.826	90.44
367.052	89.44
367.278	80.44
367.505	87.44
367.731	99.44
367.957	94.44
368.184	89.44
368.41	83.44
368.636	83.44
368.862	77.44
369.089	80.44
369.315	88.44
369.541	91.44
369.767	66.44
369.993	77.44
370.219	78.44
370.445	70.44
370.672	82.44
370.898	83.44
371.124	89.44
371.35	70.44
371.576	81.44
371.802	81.44
372.028	84.44
372.254	81.44
372.48	98.44
372.706	91.44
372.932	77.44
373.158	84.44
373.384	84.44
373.61	80.44
373.835	84.44
374.061	76.44
374.287	91.44
374.513	79.44
374.739	88.44
374.965	68.44
375.191	78.44
375.416	68.44
375.642	86.44
375.868	70.44
376.094	80.44
376.319	87.44
376.545	80.44
376.771	85.44
376.997	90.44
377.222	87.44
377.448	81.44
377.674	89.44
377.899	80.44
378.125	89.44
378.35	86.44
378.576	89.44
378.802	90.44
379.027	68.44
379.253	106.44
379.478	79.44
379.704	88.44
379.929	86.44
380.155	81.44
380.38	94.44
380.606	76.44
380.831	80.44
381.057	104.44
381.282	72.44
381.507	76.44
381.733	88.44
381.958	86.44
382.184	83.44
382.409	80.44
382.634	94.44
382.86	78.44
383.085	88.44
383.31	90.44
383.535	80.44
383.761	75.44
383.986	87.44
384.211	87.44
384.436	90.44
384.662	73.44
384.887	82.44
385.112	79.44
385.337	85.44
385.562	66.44
385.787	83.44
386.013	70.44
386.238	81.44
386.463	83.44
386.688	95.44
386.913	81.44
387.138	88.44
387.363	85.44
387.588	85.44
387.813	78.44
388.038	78.44
388.263	90.44
388.488	85.44
388.713	86.44
388.938	85.44
389.163	75.44
389.387	78.44
389.612	83.44
389.837	87.44
390.062	96.44
390.287	70.44
390.512	79.44
390.736	99.44
390.961	79.44
391.186	85.44
391.411	80.44
391.636	77.44
391.86	85.44
392.085	102.44
392.31	81.44
392.534	91.44
392.759	92.44
392.984	89.44
393.208	86.44
393.433	90.44
393.658	95.44
393.882	86.44
394.107	90.44
394.331	78.44
394.556	90.44
394.78	81.44
395.005	97.44
395.229	86.44
395.454	85.44
395.678	79.44
395.903	72.44
396.127	88.44
396.352	81.44
396.576	89.44
396.801	86.44
397.025	97.44
397.249	94.44
397.474	90.44
397.698	78.44
397.922	84.44
398.147	86.44
398.371	74.44
398.595	76.44
398.82	83.44
399.044	92.44
399.268	84.44
399.492	84.44
399.717	78.44
399.941	67.44
400.165	93.44
400.389	81.44
400.613	85.44
400.837	81.44
401.062	87.44
401.286	74.44
401.51	84.44
401.734	78.44
401.958	77.44
402.182	81.44
402.406	87.44
402.63	82.44
402.854	96.44
403.078	82.44
403.302	80.44
403.526	95.44
403.75	67.44
403.974	94.44
404.198	88.44
404.422	80.44
404.645	73.44
404.869	84.44
405.093	87.44
405.317	79.44
405.541	80.44
405.765	92.44
405.988	77.44
406.212	88.44
406.436	74.44
406.66	90.44
406.883	70.44
407.107	62.44
407.331	95.44
407.555	79.44
407.778	78.44
408.002	89.44
408.226	90.44
408.449	83.44
408.673	79.44
408.896	92.44
409.12	86.44
409.344	86.44
409.567	85.44
409.791	83.44
410.014	97.44
410.238	72.44
410.461	90.44
410.685	86.44
410.908	73.44
411.132	83.44
411.355	90.44
411.578	80.44
411.802	64.44
412.025	73.44
412.249	67.44
412.472	87.44
412.695	78.44
412.919	69.44
413.142	85.44
413.365	86.44
413.589	79.44
413.812	83.44
414.035	86.44
414.258	92.44
414.482	75.44
414.705	77.44
414.928	76.44
415.151	79.44
415.374	79.44
415.597	65.44
415.821	84.44
416.044	88.44
416.267	90.44
416.49	82.44
416.713	79.44
416.936	86.44
417.159	95.44
417.382	75.44
417.605	87.44
417.828	86.44
418.051	69.44
418.274	72.44
418.497	103.44
418.72	81.44
418.943	73.44
419.166	88.44
419.389	81.44
419.611	80.44
419.834	88.44
420.057	90.44
420.28	86.44
420.503	86.44
420.726	68.44
420.948	80.44
421.171	72.44
421.394	79.44
421.617	86.44
421.839	79.44
422.062	66.44
422.285	87.44
422.507	94.44
422.73	108.44
422.953	99.44
423.175	95.44
423.398	91.44
423.621	81.44
423.843	75.44
424.066	74.44
424.288	85.44
424.511	78.44
424.733	81.44
424.956	78.44
425.178	84.44
425.401	87.44
425.623	86.44
425.846	86.44
426.068	70.44
426.291	79.44
426.513	82.44
426.735	79.44
426.958	90.44
427.18	71.44
427.402	81.44
427.625	83.44
427.847	87.44
428.069	99.44
428.292	86.44
428.514	75.44
428.736	67.44
428.958	71.44
429.181	91.44
429.403	81.44
429.625	89.44
429.847	80.44
430.069	101.44
430.292	89.44
430.514	88.44
430.736	81.44
430.958	95.44
431.18	65.44
431.402	86.44
431.624	80.44
431.846	82.44
432.068	85.44
432.29	83.44
432.512	87.44
432.734	90.44
432.956	77.44
433.178	82.44
433.4	89.44
433.622	57.44
433.844	89.44
434.066	82.44
434.287	68.44
434.509	61.44
434.731	80.44
434.953	86.44
435.175	87.44
435.397	72.44
435.618	79.44
435.84	94.44
436.062	85.44
436.284	76.44
436.505	86.44
436.727	78.44
436.949	74.44
437.17	80.44
437.392	80.44
437.614	75.44
437.835	79.44
438.057	85.44
438.278	93.44
438.5	86.44
438.721	100.44
438.943	91.44
439.165	86.44
439.386	78.44
439.608	72.44
439.829	90.44
440.05	66.44
440.272	78.44
440.493	94.44
440.715	82.44
440.936	94.44
441.158	91.44
441.379	72.44
441.6	90.44
441.822	78.44
442.043	78.44
442.264	96.44
442.486	90.44
442.707	91.44
442.928	96.44
443.149	82.44
443.371	94.44
443.592	101.44
443.813	98.44
444.034	81.44
444.255	90.44
444.476	89.44
444.698	79.44
444.919	69.44
445.14	153.44
445.361	107.44
445.582	99.44
445.803	102.44
446.024	87.44
446.245	84.44
446.466	90.44
446.687	80.44
446.908	81.44
447.129	76.44
447.35	80.44
447.571	84.44
447.792	80.44
448.013	86.44
448.234	97.44
448.455	72.44
448.675	75.44
448.896	83.44
449.117	77.44
449.338	89.44
449.559	75.44
449.779	79.44
450	86.44
450.221	88.44
450.442	88.44
450.662	78.44
450.883	82.44
451.104	79.44
451.324	80.44
451.545	73.44
451.766	90.44
451.986	88.44
452.207	85.44
452.428	79.44
452.648	98.44
452.869	94.44
453.089	82.44
453.31	72.44
453.53	87.44
453.751	78.44
453.971	69.44
454.192	79.44
454.412	80.44
454.633	90.44
454.853	82.44
455.073	81.44
455.294	76.44
455.514	75.44
455.734	78.44
455.955	85.44
456.175	79.44
456.395	79.44
456.616	83.44
456.836	85.44
457.056	75.44
457.276	74.44
457.497	90.44
457.717	63.44
457.937	89.44
458.157	77.44
458.377	62.44
458.598	86.44
458.818	79.44
459.038	96.44
459.258	72.44
459.478	67.44
459.698	75.44
459.918	83.44
460.138	82.44
460.358	85.44
460.578	89.44
460.798	82.44
461.018	80.44
461.238	77.44
461.458	80.44
461.678	77.44
461.898	74.44
462.118	65.44
462.338	81.44
462.558	81.44
462.777	81.44
462.997	80.44
463.217	78.44
463.437	80.44
463.657	82.44
463.876	82.44
464.096	79.44
464.316	83.44
464.536	76.44
464.755	94.44
464.975	98.44
465.195	78.44
465.414	80.44
465.634	95.44
465.854	94.44
466.073	80.44
466.293	73.44
466.512	93.44
466.732	74.44
466.951	86.44
467.171	78.44
467.391	70.44
467.61	77.44
467.829	79.44
468.049	71.44
468.268	89.44
468.488	66.44
468.707	89.44
468.927	87.44
469.146	76.44
469.365	84.44
469.585	91.44
469.804	73.44
470.023	91.44
470.243	82.44
470.462	83.44
470.681	80.44
470.901	76.44
471.12	92.44
471.339	95.44
471.558	78.44
471.777	83.44
471.997	81.44
472.216	91.44
472.435	92.44
472.654	73.44
472.873	77.44
473.092	86.44
473.311	88.44
473.53	77.44
473.749	69.44
473.968	98.44
474.187	94.44
474.406	80.44
474.625	94.44
474.844	81.44
475.063	93.44
475.282	92.44
475.501	90.44
475.72	79.44
475.939	86.44
476.158	69.44
476.377	74.44
476.596	82.44
476.814	93.44
477.033	86.44
477.252	89.44
477.471	79.44
477.69	83.44
477.908	89.44
478.127	95.44
478.346	77.44
478.564	85.44
478.783	66.44
479.002	73.44
479.22	77.44
479.439	77.44
479.658	92.44
479.876	78.44
480.095	83.44
480.313	89.44
480.532	83.44
480.751	83.44
480.969	80.44
481.188	83.44
481.406	78.44
481.624	72.44
481.843	79.44
482.061	87.44
482.28	84.44
482.498	90.44
482.717	72.44
482.935	78.44
483.153	87.44
483.372	86.44
483.59	72.44
483.808	90.44
484.027	82.44
484.245	84.44
484.463	85.44
484.681	86.44
484.9	86.44
485.118	88.44
485.336	88.44
485.554	71.44
485.772	79.44
485.99	90.44
486.209	92.44
486.427	86.44
486.645	86.44
486.863	96.44
487.081	90.44
487.299	94.44
487.517	85.44
487.735	75.44
487.953	93.44
488.171	96.44
488.389	98.44
488.607	90.44
488.825	74.44
489.043	88.44
489.261	95.44
489.479	83.44
489.696	107.44
489.914	92.44
490.132	79.44
490.35	97.44
490.568	85.44
490.786	98.44
491.003	80.44
491.221	83.44
491.439	68.44
491.657	88.44
491.874	98.44
492.092	76.44
492.31	68.44
492.527	75.44
492.745	77.44
492.963	73.44
493.18	84.44
493.398	83.44
493.615	96.44
493.833	81.44
494.05	90.44
494.268	82.44
494.485	83.44
494.703	81.44
494.92	63.44
495.138	81.44
495.355	79.44
495.573	79.44
495.79	94.44
496.008	103.44
496.225	89.44
496.442	80.44
496.66	84.44
496.877	85.44
497.094	94.44
497.312	82.44
497.529	77.44
497.746	79.44
497.963	85.44
498.181	78.44
498.398	95.44
498.615	88.44
498.832	87.44
499.049	86.44
499.267	85.44
499.484	81.44
499.701	82.44
499.918	86.44
500.135	81.44
500.352	71.44
500.569	78.44
500.786	82.44
501.003	68.44
501.22	71.44
501.437	87.44
501.654	80.44
501.871	94.44
502.088	78.44
502.305	92.44
502.522	87.44
502.739	83.44
502.956	91.44
503.172	108.44
503.389	94.44
503.606	82.44
503.823	81.44
504.04	79.44
504.256	87.44
504.473	84.44
504.69	94.44
504.907	89.44
505.123	97.44
505.34	77.44
505.557	68.44
505.773	74.44
505.99	70.44
506.207	89.44
506.423	84.44
506.64	95.44
506.856	86.44
507.073	90.44
507.289	85.44
507.506	86.44
507.722	89.44
507.939	83.44
508.155	105.44
508.372	78.44
508.588	84.44
508.805	86.44
509.021	101.44
509.238	86.44
509.454	75.44
509.67	86.44
509.887	75.44
510.103	85.44
510.319	94.44
510.536	89.44
510.752	92.44
510.968	103.44
511.184	82.44
511.401	81.44
511.617	81.44
511.833	85.44
512.049	81.44
512.265	79.44
512.481	88.44
512.698	88.44
512.914	78.44
513.13	94.44
513.346	76.44
513.562	90.44
513.778	77.44
513.994	86.44
514.21	75.44
514.426	77.44
514.642	94.44
514.858	90.44
515.074	74.44
515.29	87.44
515.506	76.44
515.721	92.44
515.937	93.44
516.153	90.44
516.369	84.44
516.585	84.44
516.801	104.44
517.016	75.44
517.232	81.44
517.448	84.44
517.664	91.44
517.879	78.44
518.095	71.44
518.311	86.44
518.527	87.44
518.742	73.44
518.958	90.44
519.173	101.44
519.389	91.44
519.605	95.44
519.82	85.44
520.036	74.44
