Data from Dirtheat3_HRD10591_00010.txt Node
Date: Fri Dec 27 15:16:22 EST 2024
User: Yrep
Spectrometer: HR+D1059
Trigger mode: 1
Integration Time (sec): 1.000000E-1
Scans to average: 1
Electric dark correction enabled: true
Nonlinearity correction enabled: false
Boxcar width: 0
XAxis mode: Wavelengths
Number of Pixels in Spectrum: 2048
>>>>>Begin Spectral Data<<<<<
223.165	-9.62
223.4	-9.62
223.635	-9.62
223.869	-11.62
224.104	-22.62
224.338	-8.62
224.573	-7.62
224.808	-9.62
225.042	-15.62
225.277	-2.62
225.511	-11.62
225.746	0.38
225.98	2.38
226.215	8.38
226.449	8.38
226.683	27.38
226.918	26.38
227.152	26.38
227.387	25.38
227.621	35.38
227.856	49.38
228.09	42.38
228.324	45.38
228.559	59.38
228.793	57.38
229.027	57.38
229.262	60.38
229.496	75.38
229.73	73.38
229.964	72.38
230.199	90.38
230.433	78.38
230.667	65.38
230.901	72.38
231.136	79.38
231.37	80.38
231.604	58.38
231.838	87.38
232.072	69.38
232.306	86.38
232.541	83.38
232.775	85.38
233.009	75.38
233.243	77.38
233.477	95.38
233.711	92.38
233.945	87.38
234.179	85.38
234.413	93.38
234.647	84.38
234.881	75.38
235.115	82.38
235.349	78.38
235.583	82.38
235.817	74.38
236.051	84.38
236.285	69.38
236.519	74.38
236.753	65.38
236.987	73.38
237.221	76.38
237.455	71.38
237.689	78.38
237.922	82.38
238.156	73.38
238.39	85.38
238.624	73.38
238.858	77.38
239.091	80.38
239.325	89.38
239.559	82.38
239.793	78.38
240.027	80.38
240.26	96.38
240.494	69.38
240.728	68.38
240.961	78.38
241.195	54.38
241.429	75.38
241.662	60.38
241.896	73.38
242.13	90.38
242.363	83.38
242.597	69.38
242.83	78.38
243.064	70.38
243.298	85.38
243.531	80.38
243.765	86.38
243.998	70.38
244.232	69.38
244.465	74.38
244.699	84.38
244.932	73.38
245.166	75.38
245.399	70.38
245.633	85.38
245.866	74.38
246.099	77.38
246.333	74.38
246.566	71.38
246.8	74.38
247.033	101.38
247.266	78.38
247.5	68.38
247.733	78.38
247.966	83.38
248.2	79.38
248.433	70.38
248.666	81.38
248.899	73.38
249.133	74.38
249.366	86.38
249.599	79.38
249.832	94.38
250.066	81.38
250.299	80.38
250.532	86.38
250.765	85.38
250.998	79.38
251.231	76.38
251.465	77.38
251.698	84.38
251.931	69.38
252.164	67.38
252.397	88.38
252.63	74.38
252.863	70.38
253.096	84.38
253.329	74.38
253.562	80.38
253.795	87.38
254.028	81.38
254.261	87.38
254.494	81.38
254.727	83.38
254.96	73.38
255.193	95.38
255.426	74.38
255.659	73.38
255.892	87.38
256.124	68.38
256.357	81.38
256.59	85.38
256.823	79.38
257.056	84.38
257.289	74.38
257.521	88.38
257.754	79.38
257.987	76.38
258.22	89.38
258.452	70.38
258.685	77.38
258.918	80.38
259.151	84.38
259.383	77.38
259.616	83.38
259.849	80.38
260.081	93.38
260.314	77.38
260.547	77.38
260.779	70.38
261.012	79.38
261.244	98.38
261.477	89.38
261.71	89.38
261.942	86.38
262.175	93.38
262.407	86.38
262.64	92.38
262.872	72.38
263.105	79.38
263.337	79.38
263.57	87.38
263.802	73.38
264.035	88.38
264.267	92.38
264.499	81.38
264.732	89.38
264.964	74.38
265.197	82.38
265.429	82.38
265.661	82.38
265.894	80.38
266.126	80.38
266.358	69.38
266.591	72.38
266.823	91.38
267.055	93.38
267.287	88.38
267.52	70.38
267.752	81.38
267.984	82.38
268.216	78.38
268.448	89.38
268.681	78.38
268.913	92.38
269.145	88.38
269.377	89.38
269.609	81.38
269.841	76.38
270.073	80.38
270.306	79.38
270.538	79.38
270.77	104.38
271.002	82.38
271.234	84.38
271.466	82.38
271.698	71.38
271.93	86.38
272.162	81.38
272.394	85.38
272.626	94.38
272.858	76.38
273.09	84.38
273.322	96.38
273.553	98.38
273.785	92.38
274.017	90.38
274.249	86.38
274.481	87.38
274.713	85.38
274.945	84.38
275.176	80.38
275.408	72.38
275.64	106.38
275.872	86.38
276.104	83.38
276.335	87.38
276.567	88.38
276.799	83.38
277.031	84.38
277.262	85.38
277.494	81.38
277.726	83.38
277.957	90.38
278.189	86.38
278.421	86.38
278.652	76.38
278.884	84.38
279.115	101.38
279.347	93.38
279.579	85.38
279.81	88.38
280.042	92.38
280.273	104.38
280.505	87.38
280.736	100.38
280.968	70.38
281.199	66.38
281.431	75.38
281.662	76.38
281.894	85.38
282.125	78.38
282.356	94.38
282.588	94.38
282.819	87.38
283.051	92.38
283.282	84.38
283.513	91.38
283.745	70.38
283.976	83.38
284.207	87.38
284.439	92.38
284.67	93.38
284.901	93.38
285.132	88.38
285.364	73.38
285.595	84.38
285.826	82.38
286.057	84.38
286.288	83.38
286.52	88.38
286.751	87.38
286.982	89.38
287.213	87.38
287.444	90.38
287.675	85.38
287.906	94.38
288.138	98.38
288.369	90.38
288.6	94.38
288.831	91.38
289.062	78.38
289.293	76.38
289.524	84.38
289.755	84.38
289.986	88.38
290.217	76.38
290.448	79.38
290.679	94.38
290.91	101.38
291.141	89.38
291.371	81.38
291.602	81.38
291.833	77.38
292.064	78.38
292.295	76.38
292.526	89.38
292.757	82.38
292.987	87.38
293.218	92.38
293.449	84.38
293.68	74.38
293.91	76.38
294.141	92.38
294.372	78.38
294.603	92.38
294.833	88.38
295.064	107.38
295.295	88.38
295.525	86.38
295.756	95.38
295.987	87.38
296.217	85.38
296.448	91.38
296.679	79.38
296.909	81.38
297.14	83.38
297.37	84.38
297.601	79.38
297.831	88.38
298.062	94.38
298.292	85.38
298.523	80.38
298.753	71.38
298.984	90.38
299.214	80.38
299.445	94.38
299.675	80.38
299.905	89.38
300.136	85.38
300.366	88.38
300.597	95.38
300.827	70.38
301.057	86.38
301.288	73.38
301.518	87.38
301.748	90.38
301.979	94.38
302.209	78.38
302.439	61.38
302.669	78.38
302.9	81.38
303.13	90.38
303.36	82.38
303.59	80.38
303.82	80.38
304.051	78.38
304.281	102.38
304.511	90.38
304.741	99.38
304.971	84.38
305.201	78.38
305.431	81.38
305.661	69.38
305.891	74.38
306.121	83.38
306.352	81.38
306.582	67.38
306.812	90.38
307.042	85.38
307.272	85.38
307.502	85.38
307.731	74.38
307.961	93.38
308.191	81.38
308.421	81.38
308.651	85.38
308.881	83.38
309.111	91.38
309.341	69.38
309.571	79.38
309.8	90.38
310.03	76.38
310.26	78.38
310.49	84.38
310.72	91.38
310.949	90.38
311.179	73.38
311.409	84.38
311.639	74.38
311.868	108.38
312.098	71.38
312.328	77.38
312.557	80.38
312.787	90.38
313.017	87.38
313.246	90.38
313.476	89.38
313.706	86.38
313.935	88.38
314.165	80.38
314.394	79.38
314.624	79.38
314.853	91.38
315.083	97.38
315.312	86.38
315.542	81.38
315.771	86.38
316.001	76.38
316.23	87.38
316.46	88.38
316.689	84.38
316.919	94.38
317.148	96.38
317.377	78.38
317.607	112.38
317.836	78.38
318.065	83.38
318.295	102.38
318.524	84.38
318.753	78.38
318.983	97.38
319.212	80.38
319.441	87.38
319.67	100.38
319.9	86.38
320.129	87.38
320.358	79.38
320.587	81.38
320.816	78.38
321.046	80.38
321.275	90.38
321.504	78.38
321.733	81.38
321.962	83.38
322.191	88.38
322.42	96.38
322.649	90.38
322.878	81.38
323.108	88.38
323.337	88.38
323.566	97.38
323.795	100.38
324.024	79.38
324.253	77.38
324.482	88.38
324.71	79.38
324.939	80.38
325.168	77.38
325.397	85.38
325.626	83.38
325.855	90.38
326.084	98.38
326.313	88.38
326.542	96.38
326.77	97.38
326.999	79.38
327.228	87.38
327.457	79.38
327.686	85.38
327.914	77.38
328.143	77.38
328.372	79.38
328.6	94.38
328.829	72.38
329.058	79.38
329.287	89.38
329.515	92.38
329.744	89.38
329.972	79.38
330.201	67.38
330.43	84.38
330.658	92.38
330.887	89.38
331.115	91.38
331.344	73.38
331.572	84.38
331.801	78.38
332.03	70.38
332.258	87.38
332.486	92.38
332.715	89.38
332.943	81.38
333.172	86.38
333.4	73.38
333.629	84.38
333.857	80.38
334.085	88.38
334.314	89.38
334.542	92.38
334.771	92.38
334.999	77.38
335.227	91.38
335.455	85.38
335.684	90.38
335.912	78.38
336.14	84.38
336.369	65.38
336.597	79.38
336.825	83.38
337.053	78.38
337.281	81.38
337.51	93.38
337.738	107.38
337.966	84.38
338.194	72.38
338.422	75.38
338.65	82.38
338.878	81.38
339.106	93.38
339.334	75.38
339.562	76.38
339.79	90.38
340.018	93.38
340.246	82.38
340.474	83.38
340.702	102.38
340.93	82.38
341.158	85.38
341.386	84.38
341.614	79.38
341.842	82.38
342.07	99.38
342.298	88.38
342.526	87.38
342.754	96.38
342.981	87.38
343.209	92.38
343.437	94.38
343.665	95.38
343.893	87.38
344.12	87.38
344.348	87.38
344.576	88.38
344.804	76.38
345.031	87.38
345.259	85.38
345.487	89.38
345.714	94.38
345.942	91.38
346.17	74.38
346.397	91.38
346.625	81.38
346.853	86.38
347.08	96.38
347.308	94.38
347.535	86.38
347.763	84.38
347.99	80.38
348.218	81.38
348.445	87.38
348.673	76.38
348.9	84.38
349.128	88.38
349.355	84.38
349.583	86.38
349.81	90.38
350.037	75.38
350.265	82.38
350.492	83.38
350.72	91.38
350.947	97.38
351.174	82.38
351.402	81.38
351.629	79.38
351.856	80.38
352.083	69.38
352.311	85.38
352.538	80.38
352.765	87.38
352.992	93.38
353.22	92.38
353.447	84.38
353.674	76.38
353.901	78.38
354.128	79.38
354.355	94.38
354.583	89.38
354.81	69.38
355.037	96.38
355.264	104.38
355.491	80.38
355.718	87.38
355.945	89.38
356.172	83.38
356.399	83.38
356.626	79.38
356.853	78.38
357.08	72.38
357.307	88.38
357.534	72.38
357.761	93.38
357.988	86.38
358.215	92.38
358.441	74.38
358.668	79.38
358.895	94.38
359.122	84.38
359.349	82.38
359.576	83.38
359.802	96.38
360.029	84.38
360.256	77.38
360.483	97.38
360.709	89.38
360.936	94.38
361.163	91.38
361.39	68.38
361.616	81.38
361.843	92.38
362.07	73.38
362.296	84.38
362.523	88.38
362.749	71.38
362.976	88.38
363.203	93.38
363.429	89.38
363.656	93.38
363.882	80.38
364.109	98.38
364.335	97.38
364.562	82.38
364.788	86.38
365.015	87.38
365.241	82.38
365.468	79.38
365.694	81.38
365.92	88.38
366.147	66.38
366.373	77.38
366.599	90.38
366.826	79.38
367.052	75.38
367.278	79.38
367.505	81.38
367.731	80.38
367.957	81.38
368.184	66.38
368.41	89.38
368.636	87.38
368.862	89.38
369.089	73.38
369.315	77.38
369.541	88.38
369.767	79.38
369.993	84.38
370.219	79.38
370.445	83.38
370.672	74.38
370.898	85.38
371.124	90.38
371.35	85.38
371.576	94.38
371.802	97.38
372.028	84.38
372.254	85.38
372.48	89.38
372.706	74.38
372.932	92.38
373.158	88.38
373.384	85.38
373.61	82.38
373.835	69.38
374.061	82.38
374.287	93.38
374.513	76.38
374.739	72.38
374.965	66.38
375.191	73.38
375.416	101.38
375.642	82.38
375.868	72.38
376.094	84.38
376.319	88.38
376.545	69.38
376.771	86.38
376.997	77.38
377.222	90.38
377.448	91.38
377.674	91.38
377.899	87.38
378.125	77.38
378.35	90.38
378.576	84.38
378.802	79.38
379.027	88.38
379.253	95.38
379.478	82.38
379.704	74.38
379.929	90.38
380.155	78.38
380.38	76.38
380.606	82.38
380.831	79.38
381.057	73.38
381.282	81.38
381.507	79.38
381.733	78.38
381.958	77.38
382.184	76.38
382.409	73.38
382.634	95.38
382.86	102.38
383.085	77.38
383.31	85.38
383.535	80.38
383.761	90.38
383.986	85.38
384.211	87.38
384.436	87.38
384.662	85.38
384.887	87.38
385.112	85.38
385.337	86.38
385.562	78.38
385.787	86.38
386.013	89.38
386.238	78.38
386.463	88.38
386.688	94.38
386.913	79.38
387.138	82.38
387.363	91.38
387.588	94.38
387.813	94.38
388.038	86.38
388.263	96.38
388.488	83.38
388.713	78.38
388.938	79.38
389.163	95.38
389.387	90.38
389.612	81.38
389.837	77.38
390.062	88.38
390.287	84.38
390.512	89.38
390.736	89.38
390.961	81.38
391.186	90.38
391.411	93.38
391.636	96.38
391.86	83.38
392.085	83.38
392.31	80.38
392.534	76.38
392.759	86.38
392.984	68.38
393.208	95.38
393.433	107.38
393.658	92.38
393.882	90.38
394.107	85.38
394.331	81.38
394.556	77.38
394.78	89.38
395.005	80.38
395.229	81.38
395.454	94.38
395.678	89.38
395.903	88.38
396.127	80.38
396.352	92.38
396.576	87.38
396.801	88.38
397.025	98.38
397.249	93.38
397.474	100.38
397.698	84.38
397.922	85.38
398.147	83.38
398.371	96.38
398.595	89.38
398.82	76.38
399.044	80.38
399.268	81.38
399.492	88.38
399.717	79.38
399.941	81.38
400.165	80.38
400.389	76.38
400.613	91.38
400.837	87.38
401.062	81.38
401.286	76.38
401.51	81.38
401.734	94.38
401.958	82.38
402.182	76.38
402.406	85.38
402.63	72.38
402.854	74.38
403.078	85.38
403.302	81.38
403.526	83.38
403.75	87.38
403.974	82.38
404.198	78.38
404.422	79.38
404.645	88.38
404.869	95.38
405.093	83.38
405.317	79.38
405.541	77.38
405.765	90.38
405.988	84.38
406.212	91.38
406.436	78.38
406.66	77.38
406.883	85.38
407.107	74.38
407.331	78.38
407.555	91.38
407.778	88.38
408.002	79.38
408.226	89.38
408.449	74.38
408.673	80.38
408.896	85.38
409.12	73.38
409.344	68.38
409.567	72.38
409.791	77.38
410.014	82.38
410.238	86.38
410.461	75.38
410.685	78.38
410.908	87.38
411.132	100.38
411.355	93.38
411.578	98.38
411.802	89.38
412.025	83.38
412.249	67.38
412.472	77.38
412.695	91.38
412.919	80.38
413.142	68.38
413.365	80.38
413.589	89.38
413.812	76.38
414.035	86.38
414.258	79.38
414.482	84.38
414.705	75.38
414.928	73.38
415.151	71.38
415.374	82.38
415.597	93.38
415.821	71.38
416.044	78.38
416.267	74.38
416.49	84.38
416.713	81.38
416.936	86.38
417.159	88.38
417.382	86.38
417.605	63.38
417.828	74.38
418.051	79.38
418.274	74.38
418.497	64.38
418.72	96.38
418.943	90.38
419.166	79.38
419.389	83.38
419.611	85.38
419.834	77.38
420.057	70.38
420.28	83.38
420.503	92.38
420.726	71.38
420.948	70.38
421.171	71.38
421.394	81.38
421.617	74.38
421.839	81.38
422.062	89.38
422.285	72.38
422.507	104.38
422.73	102.38
422.953	114.38
423.175	92.38
423.398	88.38
423.621	86.38
423.843	91.38
424.066	81.38
424.288	74.38
424.511	77.38
424.733	86.38
424.956	79.38
425.178	88.38
425.401	76.38
425.623	85.38
425.846	86.38
426.068	85.38
426.291	81.38
426.513	76.38
426.735	79.38
426.958	90.38
427.18	80.38
427.402	86.38
427.625	74.38
427.847	79.38
428.069	86.38
428.292	92.38
428.514	75.38
428.736	79.38
428.958	79.38
429.181	93.38
429.403	74.38
429.625	83.38
429.847	82.38
430.069	84.38
430.292	95.38
430.514	93.38
430.736	79.38
430.958	97.38
431.18	79.38
431.402	80.38
431.624	74.38
431.846	82.38
432.068	92.38
432.29	90.38
432.512	85.38
432.734	79.38
432.956	86.38
433.178	81.38
433.4	82.38
433.622	75.38
433.844	85.38
434.066	81.38
434.287	75.38
434.509	74.38
434.731	88.38
434.953	94.38
435.175	83.38
435.397	89.38
435.618	85.38
435.84	94.38
436.062	80.38
436.284	84.38
436.505	71.38
436.727	93.38
436.949	86.38
437.17	80.38
437.392	80.38
437.614	83.38
437.835	89.38
438.057	84.38
438.278	82.38
438.5	85.38
438.721	89.38
438.943	92.38
439.165	75.38
439.386	87.38
439.608	70.38
439.829	91.38
440.05	78.38
440.272	87.38
440.493	86.38
440.715	91.38
440.936	81.38
441.158	86.38
441.379	79.38
441.6	72.38
441.822	99.38
442.043	91.38
442.264	78.38
442.486	89.38
442.707	96.38
442.928	88.38
443.149	90.38
443.371	93.38
443.592	102.38
443.813	85.38
444.034	78.38
444.255	88.38
444.476	86.38
444.698	71.38
444.919	94.38
445.14	146.38
445.361	103.38
445.582	102.38
445.803	88.38
446.024	81.38
446.245	80.38
446.466	90.38
446.687	88.38
446.908	75.38
447.129	88.38
447.35	81.38
447.571	77.38
447.792	92.38
448.013	74.38
448.234	73.38
448.455	75.38
448.675	76.38
448.896	91.38
449.117	86.38
449.338	70.38
449.559	87.38
449.779	81.38
450	63.38
450.221	82.38
450.442	76.38
450.662	78.38
450.883	77.38
451.104	80.38
451.324	89.38
451.545	78.38
451.766	78.38
451.986	70.38
452.207	73.38
452.428	97.38
452.648	78.38
452.869	74.38
453.089	81.38
453.31	89.38
453.53	73.38
453.751	77.38
453.971	69.38
454.192	72.38
454.412	64.38
454.633	88.38
454.853	80.38
455.073	81.38
455.294	70.38
455.514	82.38
455.734	74.38
455.955	76.38
456.175	92.38
456.395	99.38
456.616	84.38
456.836	86.38
457.056	82.38
457.276	77.38
457.497	94.38
457.717	72.38
457.937	77.38
458.157	85.38
458.377	82.38
458.598	98.38
458.818	80.38
459.038	80.38
459.258	89.38
459.478	90.38
459.698	94.38
459.918	80.38
460.138	89.38
460.358	84.38
460.578	90.38
460.798	91.38
461.018	85.38
461.238	73.38
461.458	80.38
461.678	72.38
461.898	81.38
462.118	88.38
462.338	86.38
462.558	76.38
462.777	90.38
462.997	82.38
463.217	78.38
463.437	91.38
463.657	74.38
463.876	86.38
464.096	92.38
464.316	92.38
464.536	90.38
464.755	85.38
464.975	81.38
465.195	97.38
465.414	85.38
465.634	80.38
465.854	86.38
466.073	74.38
466.293	84.38
466.512	70.38
466.732	74.38
466.951	87.38
467.171	84.38
467.391	77.38
467.61	72.38
467.829	74.38
468.049	92.38
468.268	102.38
468.488	83.38
468.707	72.38
468.927	84.38
469.146	88.38
469.365	86.38
469.585	88.38
469.804	80.38
470.023	81.38
470.243	109.38
470.462	88.38
470.681	78.38
470.901	82.38
471.12	76.38
471.339	76.38
471.558	82.38
471.777	79.38
471.997	69.38
472.216	84.38
472.435	84.38
472.654	74.38
472.873	88.38
473.092	86.38
473.311	86.38
473.53	71.38
473.749	82.38
473.968	80.38
474.187	81.38
474.406	81.38
474.625	82.38
474.844	84.38
475.063	72.38
475.282	84.38
475.501	81.38
475.72	74.38
475.939	79.38
476.158	80.38
476.377	76.38
476.596	99.38
476.814	89.38
477.033	81.38
477.252	89.38
477.471	69.38
477.69	89.38
477.908	82.38
478.127	103.38
478.346	87.38
478.564	96.38
478.783	88.38
479.002	80.38
479.22	81.38
479.439	87.38
479.658	76.38
479.876	94.38
480.095	87.38
480.313	79.38
480.532	84.38
480.751	89.38
480.969	69.38
481.188	75.38
481.406	86.38
481.624	98.38
481.843	68.38
482.061	86.38
482.28	77.38
482.498	81.38
482.717	69.38
482.935	80.38
483.153	79.38
483.372	78.38
483.59	84.38
483.808	91.38
484.027	76.38
484.245	97.38
484.463	77.38
484.681	84.38
484.9	84.38
485.118	87.38
485.336	81.38
485.554	93.38
485.772	90.38
485.99	80.38
486.209	85.38
486.427	85.38
486.645	84.38
486.863	80.38
487.081	91.38
487.299	85.38
487.517	87.38
487.735	93.38
487.953	98.38
488.171	79.38
488.389	72.38
488.607	98.38
488.825	73.38
489.043	92.38
489.261	87.38
489.479	84.38
489.696	84.38
489.914	86.38
490.132	81.38
490.35	87.38
490.568	82.38
490.786	90.38
491.003	97.38
491.221	84.38
491.439	83.38
491.657	79.38
491.874	95.38
492.092	94.38
492.31	85.38
492.527	67.38
492.745	74.38
492.963	86.38
493.18	105.38
493.398	95.38
493.615	84.38
493.833	88.38
494.05	94.38
494.268	81.38
494.485	75.38
494.703	83.38
494.92	91.38
495.138	73.38
495.355	78.38
495.573	87.38
495.79	100.38
496.008	89.38
496.225	84.38
496.442	69.38
496.66	82.38
496.877	78.38
497.094	92.38
497.312	86.38
497.529	84.38
497.746	74.38
497.963	74.38
498.181	84.38
498.398	78.38
498.615	85.38
498.832	88.38
499.049	92.38
499.267	85.38
499.484	83.38
499.701	71.38
499.918	70.38
500.135	85.38
500.352	88.38
500.569	90.38
500.786	76.38
501.003	75.38
501.22	82.38
501.437	83.38
501.654	93.38
501.871	86.38
502.088	84.38
502.305	93.38
502.522	80.38
502.739	86.38
502.956	71.38
503.172	90.38
503.389	84.38
503.606	87.38
503.823	88.38
504.04	94.38
504.256	77.38
504.473	85.38
504.69	92.38
504.907	97.38
505.123	73.38
505.34	79.38
505.557	85.38
505.773	101.38
505.99	82.38
506.207	77.38
506.423	66.38
506.64	76.38
506.856	82.38
507.073	97.38
507.289	80.38
507.506	104.38
507.722	100.38
507.939	102.38
508.155	94.38
508.372	89.38
508.588	81.38
508.805	86.38
509.021	81.38
509.238	80.38
509.454	80.38
509.67	80.38
509.887	85.38
510.103	80.38
510.319	80.38
510.536	73.38
510.752	84.38
510.968	82.38
511.184	70.38
511.401	82.38
511.617	90.38
511.833	87.38
512.049	86.38
512.265	88.38
512.481	79.38
512.698	93.38
512.914	89.38
513.13	84.38
513.346	69.38
513.562	91.38
513.778	89.38
513.994	62.38
514.21	71.38
514.426	78.38
514.642	73.38
514.858	78.38
515.074	72.38
515.29	86.38
515.506	77.38
515.721	92.38
515.937	82.38
516.153	77.38
516.369	72.38
516.585	93.38
516.801	82.38
517.016	101.38
517.232	84.38
517.448	84.38
517.664	78.38
517.879	79.38
518.095	75.38
518.311	81.38
518.527	76.38
518.742	80.38
518.958	83.38
519.173	112.38
519.389	78.38
519.605	80.38
519.82	78.38
