Data from Dirtheat3_HRD10591_00009.txt Node
Date: Fri Dec 27 15:16:21 EST 2024
User: Yrep
Spectrometer: HR+D1059
Trigger mode: 1
Integration Time (sec): 1.000000E-1
Scans to average: 1
Electric dark correction enabled: true
Nonlinearity correction enabled: false
Boxcar width: 0
XAxis mode: Wavelengths
Number of Pixels in Spectrum: 2048
>>>>>Begin Spectral Data<<<<<
223.165	-24.88
223.4	-24.88
223.635	-24.88
223.869	-20.88
224.104	-22.88
224.338	-20.88
224.573	-5.88
224.808	-5.88
225.042	-11.88
225.277	-0.88
225.511	3.12
225.746	8.12
225.98	13.12
226.215	11.12
226.449	10.12
226.683	10.12
226.918	29.12
227.152	29.12
227.387	35.12
227.621	49.12
227.856	38.12
228.09	48.12
228.324	40.12
228.559	57.12
228.793	58.12
229.027	77.12
229.262	65.12
229.496	72.12
229.73	68.12
229.964	68.12
230.199	77.12
230.433	78.12
230.667	77.12
230.901	69.12
231.136	82.12
231.37	79.12
231.604	71.12
231.838	89.12
232.072	83.12
232.306	85.12
232.541	92.12
232.775	66.12
233.009	84.12
233.243	75.12
233.477	81.12
233.711	80.12
233.945	72.12
234.179	77.12
234.413	80.12
234.647	83.12
234.881	82.12
235.115	77.12
235.349	77.12
235.583	83.12
235.817	71.12
236.051	77.12
236.285	62.12
236.519	85.12
236.753	72.12
236.987	74.12
237.221	69.12
237.455	69.12
237.689	63.12
237.922	77.12
238.156	77.12
238.39	76.12
238.624	77.12
238.858	82.12
239.091	68.12
239.325	73.12
239.559	76.12
239.793	83.12
240.027	91.12
240.26	64.12
240.494	82.12
240.728	70.12
240.961	71.12
241.195	81.12
241.429	63.12
241.662	76.12
241.896	68.12
242.13	72.12
242.363	67.12
242.597	77.12
242.83	64.12
243.064	70.12
243.298	88.12
243.531	66.12
243.765	84.12
243.998	67.12
244.232	56.12
244.465	86.12
244.699	84.12
244.932	67.12
245.166	83.12
245.399	75.12
245.633	85.12
245.866	78.12
246.099	80.12
246.333	83.12
246.566	76.12
246.8	69.12
247.033	83.12
247.266	76.12
247.5	76.12
247.733	85.12
247.966	89.12
248.2	82.12
248.433	69.12
248.666	86.12
248.899	85.12
249.133	67.12
249.366	74.12
249.599	78.12
249.832	66.12
250.066	82.12
250.299	77.12
250.532	68.12
250.765	81.12
250.998	73.12
251.231	78.12
251.465	79.12
251.698	71.12
251.931	87.12
252.164	91.12
252.397	90.12
252.63	84.12
252.863	80.12
253.096	61.12
253.329	79.12
253.562	80.12
253.795	64.12
254.028	90.12
254.261	67.12
254.494	62.12
254.727	76.12
254.96	89.12
255.193	74.12
255.426	69.12
255.659	70.12
255.892	90.12
256.124	79.12
256.357	77.12
256.59	69.12
256.823	83.12
257.056	79.12
257.289	70.12
257.521	66.12
257.754	80.12
257.987	75.12
258.22	77.12
258.452	68.12
258.685	79.12
258.918	78.12
259.151	74.12
259.383	80.12
259.616	85.12
259.849	74.12
260.081	70.12
260.314	75.12
260.547	76.12
260.779	82.12
261.012	71.12
261.244	76.12
261.477	86.12
261.71	85.12
261.942	73.12
262.175	78.12
262.407	66.12
262.64	81.12
262.872	84.12
263.105	76.12
263.337	90.12
263.57	74.12
263.802	87.12
264.035	88.12
264.267	92.12
264.499	69.12
264.732	86.12
264.964	74.12
265.197	85.12
265.429	72.12
265.661	94.12
265.894	67.12
266.126	78.12
266.358	81.12
266.591	69.12
266.823	70.12
267.055	73.12
267.287	83.12
267.52	86.12
267.752	77.12
267.984	75.12
268.216	69.12
268.448	83.12
268.681	80.12
268.913	75.12
269.145	71.12
269.377	83.12
269.609	77.12
269.841	83.12
270.073	78.12
270.306	87.12
270.538	87.12
270.77	67.12
271.002	83.12
271.234	79.12
271.466	83.12
271.698	75.12
271.93	68.12
272.162	76.12
272.394	98.12
272.626	91.12
272.858	76.12
273.09	84.12
273.322	76.12
273.553	74.12
273.785	69.12
274.017	76.12
274.249	92.12
274.481	66.12
274.713	79.12
274.945	83.12
275.176	80.12
275.408	97.12
275.64	89.12
275.872	79.12
276.104	91.12
276.335	83.12
276.567	77.12
276.799	68.12
277.031	72.12
277.262	86.12
277.494	90.12
277.726	76.12
277.957	86.12
278.189	71.12
278.421	74.12
278.652	73.12
278.884	77.12
279.115	81.12
279.347	84.12
279.579	74.12
279.81	89.12
280.042	75.12
280.273	71.12
280.505	80.12
280.736	82.12
280.968	82.12
281.199	94.12
281.431	81.12
281.662	72.12
281.894	85.12
282.125	99.12
282.356	78.12
282.588	88.12
282.819	77.12
283.051	75.12
283.282	82.12
283.513	87.12
283.745	87.12
283.976	82.12
284.207	81.12
284.439	91.12
284.67	82.12
284.901	88.12
285.132	68.12
285.364	91.12
285.595	87.12
285.826	84.12
286.057	86.12
286.288	73.12
286.52	90.12
286.751	100.12
286.982	91.12
287.213	72.12
287.444	69.12
287.675	93.12
287.906	97.12
288.138	91.12
288.369	75.12
288.6	77.12
288.831	84.12
289.062	73.12
289.293	69.12
289.524	87.12
289.755	83.12
289.986	92.12
290.217	70.12
290.448	85.12
290.679	80.12
290.91	71.12
291.141	83.12
291.371	79.12
291.602	80.12
291.833	91.12
292.064	81.12
292.295	83.12
292.526	87.12
292.757	81.12
292.987	70.12
293.218	86.12
293.449	88.12
293.68	86.12
293.91	71.12
294.141	93.12
294.372	87.12
294.603	73.12
294.833	83.12
295.064	83.12
295.295	96.12
295.525	87.12
295.756	85.12
295.987	91.12
296.217	87.12
296.448	89.12
296.679	88.12
296.909	87.12
297.14	89.12
297.37	90.12
297.601	83.12
297.831	82.12
298.062	92.12
298.292	94.12
298.523	71.12
298.753	82.12
298.984	87.12
299.214	80.12
299.445	68.12
299.675	81.12
299.905	86.12
300.136	80.12
300.366	79.12
300.597	99.12
300.827	88.12
301.057	78.12
301.288	95.12
301.518	94.12
301.748	76.12
301.979	113.12
302.209	76.12
302.439	78.12
302.669	77.12
302.9	81.12
303.13	107.12
303.36	93.12
303.59	88.12
303.82	90.12
304.051	78.12
304.281	82.12
304.511	96.12
304.741	92.12
304.971	76.12
305.201	73.12
305.431	87.12
305.661	87.12
305.891	76.12
306.121	92.12
306.352	73.12
306.582	68.12
306.812	85.12
307.042	76.12
307.272	81.12
307.502	91.12
307.731	78.12
307.961	78.12
308.191	93.12
308.421	90.12
308.651	83.12
308.881	88.12
309.111	73.12
309.341	87.12
309.571	76.12
309.8	79.12
310.03	89.12
310.26	87.12
310.49	69.12
310.72	96.12
310.949	82.12
311.179	90.12
311.409	87.12
311.639	79.12
311.868	75.12
312.098	77.12
312.328	81.12
312.557	86.12
312.787	74.12
313.017	91.12
313.246	79.12
313.476	83.12
313.706	79.12
313.935	78.12
314.165	88.12
314.394	67.12
314.624	94.12
314.853	90.12
315.083	81.12
315.312	86.12
315.542	75.12
315.771	73.12
316.001	83.12
316.23	98.12
316.46	85.12
316.689	76.12
316.919	82.12
317.148	71.12
317.377	82.12
317.607	89.12
317.836	84.12
318.065	92.12
318.295	86.12
318.524	83.12
318.753	86.12
318.983	74.12
319.212	84.12
319.441	86.12
319.67	70.12
319.9	91.12
320.129	91.12
320.358	74.12
320.587	78.12
320.816	93.12
321.046	89.12
321.275	87.12
321.504	82.12
321.733	79.12
321.962	83.12
322.191	73.12
322.42	83.12
322.649	79.12
322.878	78.12
323.108	78.12
323.337	91.12
323.566	78.12
323.795	86.12
324.024	78.12
324.253	80.12
324.482	82.12
324.71	80.12
324.939	84.12
325.168	70.12
325.397	77.12
325.626	69.12
325.855	85.12
326.084	85.12
326.313	82.12
326.542	83.12
326.77	102.12
326.999	81.12
327.228	86.12
327.457	81.12
327.686	85.12
327.914	93.12
328.143	84.12
328.372	68.12
328.6	71.12
328.829	87.12
329.058	78.12
329.287	85.12
329.515	74.12
329.744	82.12
329.972	80.12
330.201	88.12
330.43	92.12
330.658	81.12
330.887	90.12
331.115	75.12
331.344	76.12
331.572	72.12
331.801	79.12
332.03	76.12
332.258	83.12
332.486	91.12
332.715	85.12
332.943	70.12
333.172	84.12
333.4	79.12
333.629	84.12
333.857	86.12
334.085	80.12
334.314	79.12
334.542	76.12
334.771	86.12
334.999	72.12
335.227	74.12
335.455	81.12
335.684	81.12
335.912	82.12
336.14	104.12
336.369	96.12
336.597	82.12
336.825	84.12
337.053	79.12
337.281	87.12
337.51	70.12
337.738	81.12
337.966	69.12
338.194	72.12
338.422	95.12
338.65	89.12
338.878	81.12
339.106	89.12
339.334	85.12
339.562	89.12
339.79	75.12
340.018	81.12
340.246	85.12
340.474	95.12
340.702	90.12
340.93	74.12
341.158	82.12
341.386	72.12
341.614	71.12
341.842	80.12
342.07	93.12
342.298	91.12
342.526	70.12
342.754	80.12
342.981	95.12
343.209	77.12
343.437	101.12
343.665	71.12
343.893	70.12
344.12	71.12
344.348	87.12
344.576	81.12
344.804	86.12
345.031	91.12
345.259	74.12
345.487	86.12
345.714	83.12
345.942	74.12
346.17	80.12
346.397	90.12
346.625	81.12
346.853	70.12
347.08	79.12
347.308	65.12
347.535	88.12
347.763	70.12
347.99	79.12
348.218	84.12
348.445	72.12
348.673	87.12
348.9	91.12
349.128	88.12
349.355	81.12
349.583	91.12
349.81	71.12
350.037	68.12
350.265	77.12
350.492	75.12
350.72	91.12
350.947	99.12
351.174	78.12
351.402	85.12
351.629	76.12
351.856	79.12
352.083	67.12
352.311	73.12
352.538	74.12
352.765	72.12
352.992	87.12
353.22	79.12
353.447	79.12
353.674	89.12
353.901	82.12
354.128	80.12
354.355	77.12
354.583	93.12
354.81	85.12
355.037	74.12
355.264	84.12
355.491	77.12
355.718	85.12
355.945	89.12
356.172	98.12
356.399	77.12
356.626	78.12
356.853	86.12
357.08	88.12
357.307	96.12
357.534	77.12
357.761	83.12
357.988	82.12
358.215	86.12
358.441	88.12
358.668	77.12
358.895	90.12
359.122	76.12
359.349	83.12
359.576	81.12
359.802	82.12
360.029	86.12
360.256	76.12
360.483	86.12
360.709	76.12
360.936	84.12
361.163	88.12
361.39	98.12
361.616	82.12
361.843	77.12
362.07	86.12
362.296	76.12
362.523	84.12
362.749	94.12
362.976	75.12
363.203	89.12
363.429	87.12
363.656	96.12
363.882	92.12
364.109	74.12
364.335	89.12
364.562	86.12
364.788	83.12
365.015	79.12
365.241	84.12
365.468	79.12
365.694	77.12
365.92	82.12
366.147	82.12
366.373	76.12
366.599	67.12
366.826	74.12
367.052	68.12
367.278	83.12
367.505	87.12
367.731	95.12
367.957	81.12
368.184	87.12
368.41	69.12
368.636	82.12
368.862	96.12
369.089	84.12
369.315	82.12
369.541	88.12
369.767	90.12
369.993	83.12
370.219	78.12
370.445	83.12
370.672	86.12
370.898	86.12
371.124	75.12
371.35	80.12
371.576	83.12
371.802	84.12
372.028	73.12
372.254	77.12
372.48	74.12
372.706	85.12
372.932	65.12
373.158	75.12
373.384	95.12
373.61	82.12
373.835	70.12
374.061	72.12
374.287	71.12
374.513	79.12
374.739	77.12
374.965	68.12
375.191	88.12
375.416	85.12
375.642	68.12
375.868	84.12
376.094	99.12
376.319	100.12
376.545	86.12
376.771	79.12
376.997	79.12
377.222	71.12
377.448	71.12
377.674	73.12
377.899	83.12
378.125	75.12
378.35	96.12
378.576	85.12
378.802	76.12
379.027	75.12
379.253	91.12
379.478	83.12
379.704	79.12
379.929	88.12
380.155	92.12
380.38	90.12
380.606	84.12
380.831	89.12
381.057	104.12
381.282	85.12
381.507	70.12
381.733	81.12
381.958	87.12
382.184	75.12
382.409	84.12
382.634	80.12
382.86	84.12
383.085	81.12
383.31	98.12
383.535	82.12
383.761	79.12
383.986	85.12
384.211	76.12
384.436	72.12
384.662	77.12
384.887	68.12
385.112	89.12
385.337	87.12
385.562	90.12
385.787	79.12
386.013	84.12
386.238	89.12
386.463	81.12
386.688	91.12
386.913	79.12
387.138	82.12
387.363	77.12
387.588	90.12
387.813	93.12
388.038	79.12
388.263	70.12
388.488	84.12
388.713	74.12
388.938	76.12
389.163	76.12
389.387	74.12
389.612	95.12
389.837	86.12
390.062	78.12
390.287	91.12
390.512	76.12
390.736	65.12
390.961	87.12
391.186	87.12
391.411	92.12
391.636	83.12
391.86	95.12
392.085	100.12
392.31	78.12
392.534	90.12
392.759	77.12
392.984	90.12
393.208	84.12
393.433	79.12
393.658	75.12
393.882	80.12
394.107	84.12
394.331	95.12
394.556	76.12
394.78	76.12
395.005	73.12
395.229	86.12
395.454	78.12
395.678	75.12
395.903	86.12
396.127	82.12
396.352	72.12
396.576	72.12
396.801	106.12
397.025	79.12
397.249	80.12
397.474	92.12
397.698	82.12
397.922	90.12
398.147	76.12
398.371	83.12
398.595	88.12
398.82	70.12
399.044	95.12
399.268	75.12
399.492	83.12
399.717	86.12
399.941	86.12
400.165	82.12
400.389	84.12
400.613	71.12
400.837	80.12
401.062	75.12
401.286	76.12
401.51	84.12
401.734	84.12
401.958	86.12
402.182	84.12
402.406	78.12
402.63	77.12
402.854	74.12
403.078	72.12
403.302	79.12
403.526	89.12
403.75	67.12
403.974	83.12
404.198	77.12
404.422	78.12
404.645	85.12
404.869	86.12
405.093	82.12
405.317	84.12
405.541	103.12
405.765	70.12
405.988	61.12
406.212	78.12
406.436	83.12
406.66	89.12
406.883	85.12
407.107	88.12
407.331	73.12
407.555	79.12
407.778	78.12
408.002	82.12
408.226	68.12
408.449	81.12
408.673	82.12
408.896	95.12
409.12	87.12
409.344	90.12
409.567	93.12
409.791	71.12
410.014	74.12
410.238	84.12
410.461	79.12
410.685	78.12
410.908	84.12
411.132	84.12
411.355	68.12
411.578	83.12
411.802	82.12
412.025	83.12
412.249	71.12
412.472	77.12
412.695	72.12
412.919	79.12
413.142	73.12
413.365	74.12
413.589	76.12
413.812	86.12
414.035	86.12
414.258	94.12
414.482	81.12
414.705	82.12
414.928	99.12
415.151	83.12
415.374	80.12
415.597	73.12
415.821	62.12
416.044	75.12
416.267	84.12
416.49	80.12
416.713	79.12
416.936	81.12
417.159	78.12
417.382	88.12
417.605	72.12
417.828	87.12
418.051	87.12
418.274	73.12
418.497	91.12
418.72	70.12
418.943	66.12
419.166	77.12
419.389	78.12
419.611	91.12
419.834	76.12
420.057	69.12
420.28	76.12
420.503	71.12
420.726	90.12
420.948	71.12
421.171	70.12
421.394	94.12
421.617	91.12
421.839	89.12
422.062	88.12
422.285	98.12
422.507	89.12
422.73	82.12
422.953	91.12
423.175	71.12
423.398	74.12
423.621	77.12
423.843	66.12
424.066	68.12
424.288	87.12
424.511	78.12
424.733	82.12
424.956	80.12
425.178	50.12
425.401	60.12
425.623	72.12
425.846	89.12
426.068	78.12
426.291	72.12
426.513	78.12
426.735	84.12
426.958	87.12
427.18	71.12
427.402	78.12
427.625	91.12
427.847	71.12
428.069	86.12
428.292	86.12
428.514	84.12
428.736	92.12
428.958	84.12
429.181	80.12
429.403	87.12
429.625	81.12
429.847	88.12
430.069	77.12
430.292	84.12
430.514	81.12
430.736	79.12
430.958	90.12
431.18	78.12
431.402	88.12
431.624	87.12
431.846	85.12
432.068	77.12
432.29	84.12
432.512	86.12
432.734	76.12
432.956	70.12
433.178	79.12
433.4	75.12
433.622	86.12
433.844	79.12
434.066	79.12
434.287	79.12
434.509	88.12
434.731	86.12
434.953	87.12
435.175	73.12
435.397	86.12
435.618	71.12
435.84	74.12
436.062	74.12
436.284	94.12
436.505	80.12
436.727	79.12
436.949	82.12
437.17	72.12
437.392	75.12
437.614	78.12
437.835	79.12
438.057	74.12
438.278	76.12
438.5	76.12
438.721	83.12
438.943	79.12
439.165	76.12
439.386	78.12
439.608	74.12
439.829	82.12
440.05	86.12
440.272	81.12
440.493	96.12
440.715	67.12
440.936	75.12
441.158	76.12
441.379	76.12
441.6	77.12
441.822	89.12
442.043	89.12
442.264	91.12
442.486	88.12
442.707	92.12
442.928	89.12
443.149	67.12
443.371	95.12
443.592	78.12
443.813	84.12
444.034	82.12
444.255	73.12
444.476	77.12
444.698	78.12
444.919	73.12
445.14	147.12
445.361	125.12
445.582	72.12
445.803	74.12
446.024	85.12
446.245	94.12
446.466	100.12
446.687	78.12
446.908	88.12
447.129	84.12
447.35	68.12
447.571	85.12
447.792	82.12
448.013	86.12
448.234	72.12
448.455	65.12
448.675	58.12
448.896	80.12
449.117	84.12
449.338	71.12
449.559	89.12
449.779	66.12
450	83.12
450.221	71.12
450.442	95.12
450.662	88.12
450.883	78.12
451.104	75.12
451.324	79.12
451.545	67.12
451.766	82.12
451.986	82.12
452.207	78.12
452.428	80.12
452.648	88.12
452.869	85.12
453.089	78.12
453.31	96.12
453.53	94.12
453.751	78.12
453.971	79.12
454.192	73.12
454.412	68.12
454.633	63.12
454.853	70.12
455.073	79.12
455.294	60.12
455.514	85.12
455.734	80.12
455.955	90.12
456.175	85.12
456.395	76.12
456.616	82.12
456.836	78.12
457.056	80.12
457.276	89.12
457.497	70.12
457.717	81.12
457.937	82.12
458.157	76.12
458.377	79.12
458.598	87.12
458.818	82.12
459.038	71.12
459.258	68.12
459.478	77.12
459.698	80.12
459.918	79.12
460.138	75.12
460.358	76.12
460.578	70.12
460.798	92.12
461.018	83.12
461.238	79.12
461.458	100.12
461.678	81.12
461.898	80.12
462.118	62.12
462.338	89.12
462.558	90.12
462.777	82.12
462.997	81.12
463.217	82.12
463.437	79.12
463.657	68.12
463.876	74.12
464.096	86.12
464.316	88.12
464.536	69.12
464.755	76.12
464.975	76.12
465.195	70.12
465.414	66.12
465.634	92.12
465.854	86.12
466.073	79.12
466.293	88.12
466.512	74.12
466.732	93.12
466.951	85.12
467.171	76.12
467.391	87.12
467.61	81.12
467.829	79.12
468.049	76.12
468.268	73.12
468.488	73.12
468.707	80.12
468.927	75.12
469.146	74.12
469.365	75.12
469.585	74.12
469.804	79.12
470.023	75.12
470.243	94.12
470.462	74.12
470.681	77.12
470.901	83.12
471.12	82.12
471.339	83.12
471.558	67.12
471.777	90.12
471.997	94.12
472.216	80.12
472.435	83.12
472.654	80.12
472.873	71.12
473.092	78.12
473.311	81.12
473.53	76.12
473.749	86.12
473.968	74.12
474.187	78.12
474.406	77.12
474.625	88.12
474.844	85.12
475.063	91.12
475.282	78.12
475.501	78.12
475.72	62.12
475.939	78.12
476.158	79.12
476.377	77.12
476.596	82.12
476.814	80.12
477.033	84.12
477.252	78.12
477.471	76.12
477.69	84.12
477.908	77.12
478.127	80.12
478.346	77.12
478.564	84.12
478.783	84.12
479.002	85.12
479.22	89.12
479.439	71.12
479.658	86.12
479.876	75.12
480.095	73.12
480.313	89.12
480.532	81.12
480.751	88.12
480.969	86.12
481.188	82.12
481.406	93.12
481.624	86.12
481.843	81.12
482.061	82.12
482.28	74.12
482.498	84.12
482.717	76.12
482.935	76.12
483.153	83.12
483.372	86.12
483.59	89.12
483.808	81.12
484.027	74.12
484.245	86.12
484.463	91.12
484.681	85.12
484.9	74.12
485.118	88.12
485.336	84.12
485.554	97.12
485.772	86.12
485.99	87.12
486.209	82.12
486.427	74.12
486.645	87.12
486.863	73.12
487.081	84.12
487.299	82.12
487.517	80.12
487.735	84.12
487.953	90.12
488.171	88.12
488.389	62.12
488.607	81.12
488.825	80.12
489.043	78.12
489.261	85.12
489.479	83.12
489.696	89.12
489.914	83.12
490.132	87.12
490.35	83.12
490.568	81.12
490.786	82.12
491.003	74.12
491.221	77.12
491.439	94.12
491.657	86.12
491.874	77.12
492.092	73.12
492.31	70.12
492.527	87.12
492.745	84.12
492.963	93.12
493.18	82.12
493.398	68.12
493.615	65.12
493.833	71.12
494.05	92.12
494.268	86.12
494.485	70.12
494.703	69.12
494.92	83.12
495.138	83.12
495.355	85.12
495.573	84.12
495.79	72.12
496.008	77.12
496.225	75.12
496.442	87.12
496.66	92.12
496.877	85.12
497.094	88.12
497.312	98.12
497.529	85.12
497.746	97.12
497.963	77.12
498.181	71.12
498.398	92.12
498.615	76.12
498.832	80.12
499.049	79.12
499.267	85.12
499.484	90.12
499.701	91.12
499.918	91.12
500.135	85.12
500.352	74.12
500.569	92.12
500.786	73.12
501.003	78.12
501.22	95.12
501.437	97.12
501.654	82.12
501.871	78.12
502.088	90.12
502.305	76.12
502.522	67.12
502.739	82.12
502.956	93.12
503.172	69.12
503.389	77.12
503.606	71.12
503.823	85.12
504.04	81.12
504.256	77.12
504.473	83.12
504.69	84.12
504.907	77.12
505.123	79.12
505.34	78.12
505.557	88.12
505.773	76.12
505.99	74.12
506.207	79.12
506.423	76.12
506.64	72.12
506.856	81.12
507.073	69.12
507.289	71.12
507.506	85.12
507.722	84.12
507.939	74.12
508.155	83.12
508.372	93.12
508.588	80.12
508.805	95.12
509.021	78.12
509.238	90.12
509.454	86.12
509.67	70.12
509.887	85.12
510.103	87.12
510.319	85.12
510.536	88.12
510.752	82.12
510.968	84.12
511.184	86.12
511.401	64.12
511.617	91.12
511.833	77.12
512.049	74.12
512.265	78.12
512.481	78.12
512.698	77.12
512.914	69.12
513.13	73.12
513.346	84.12
513.562	79.12
513.778	89.12
513.994	79.12
514.21	83.12
514.426	89.12
514.642	87.12
514.858	80.12
515.074	66.12
515.29	83.12
515.506	70.12
515.721	86.12
515.937	93.12
516.153	80.12
516.369	89.12
516.585	86.12
516.801	73.12
517.016	76.12
517.232	68.12
517.448	75.12
517.664	80.12
517.879	91.12
518.095	89.12
518.311	85.12
518.527	76.12
518.742	75.12
518.958	80.12
519.173	96.12
519.389	75.12
519.605	88.12
519.82	71.12
520.036	66.12
