Data from Dirtheat3_HRD10591_00020.txt Node
Date: Fri Dec 27 15:16:32 EST 2024
User: Yrep
Spectrometer: HR+D1059
Trigger mode: 1
Integration Time (sec): 1.000000E-1
Scans to average: 1
Electric dark correction enabled: true
Nonlinearity correction enabled: false
Boxcar width: 0
XAxis mode: Wavelengths
Number of Pixels in Spectrum: 2048
>>>>>Begin Spectral Data<<<<<
223.165	-26.19
223.4	-26.19
223.635	-26.19
223.869	-33.19
224.104	-29.19
224.338	-15.19
224.573	-19.19
224.808	-20.19
225.042	-6.19
225.277	2.81
225.511	0.81
225.746	-0.19
225.98	12.81
226.215	28.81
226.449	14.81
226.683	28.81
226.918	25.81
227.152	34.81
227.387	31.81
227.621	50.81
227.856	44.81
228.09	35.81
228.324	49.81
228.559	60.81
228.793	53.81
229.027	57.81
229.262	75.81
229.496	75.81
229.73	65.81
229.964	73.81
230.199	77.81
230.433	75.81
230.667	76.81
230.901	88.81
231.136	80.81
231.37	81.81
231.604	81.81
231.838	77.81
232.072	75.81
232.306	89.81
232.541	77.81
232.775	78.81
233.009	86.81
233.243	88.81
233.477	94.81
233.711	97.81
233.945	88.81
234.179	86.81
234.413	84.81
234.647	99.81
234.881	73.81
235.115	64.81
235.349	70.81
235.583	88.81
235.817	91.81
236.051	85.81
236.285	77.81
236.519	84.81
236.753	82.81
236.987	82.81
237.221	76.81
237.455	75.81
237.689	62.81
237.922	81.81
238.156	93.81
238.39	83.81
238.624	84.81
238.858	80.81
239.091	66.81
239.325	85.81
239.559	81.81
239.793	69.81
240.027	84.81
240.26	71.81
240.494	96.81
240.728	74.81
240.961	79.81
241.195	80.81
241.429	60.81
241.662	72.81
241.896	71.81
242.13	88.81
242.363	89.81
242.597	82.81
242.83	82.81
243.064	76.81
243.298	69.81
243.531	71.81
243.765	70.81
243.998	71.81
244.232	87.81
244.465	73.81
244.699	77.81
244.932	83.81
245.166	66.81
245.399	69.81
245.633	76.81
245.866	78.81
246.099	82.81
246.333	83.81
246.566	80.81
246.8	76.81
247.033	96.81
247.266	87.81
247.5	74.81
247.733	69.81
247.966	69.81
248.2	94.81
248.433	87.81
248.666	77.81
248.899	80.81
249.133	76.81
249.366	84.81
249.599	87.81
249.832	62.81
250.066	75.81
250.299	86.81
250.532	84.81
250.765	79.81
250.998	85.81
251.231	73.81
251.465	81.81
251.698	98.81
251.931	72.81
252.164	91.81
252.397	68.81
252.63	78.81
252.863	76.81
253.096	75.81
253.329	73.81
253.562	67.81
253.795	76.81
254.028	76.81
254.261	75.81
254.494	82.81
254.727	85.81
254.96	80.81
255.193	90.81
255.426	83.81
255.659	90.81
255.892	75.81
256.124	92.81
256.357	87.81
256.59	78.81
256.823	78.81
257.056	84.81
257.289	84.81
257.521	97.81
257.754	82.81
257.987	76.81
258.22	85.81
258.452	81.81
258.685	85.81
258.918	78.81
259.151	75.81
259.383	79.81
259.616	91.81
259.849	72.81
260.081	83.81
260.314	88.81
260.547	87.81
260.779	87.81
261.012	98.81
261.244	81.81
261.477	91.81
261.71	87.81
261.942	72.81
262.175	95.81
262.407	93.81
262.64	76.81
262.872	79.81
263.105	81.81
263.337	88.81
263.57	83.81
263.802	93.81
264.035	72.81
264.267	85.81
264.499	91.81
264.732	84.81
264.964	74.81
265.197	76.81
265.429	73.81
265.661	81.81
265.894	74.81
266.126	97.81
266.358	87.81
266.591	90.81
266.823	76.81
267.055	91.81
267.287	84.81
267.52	79.81
267.752	99.81
267.984	83.81
268.216	79.81
268.448	95.81
268.681	86.81
268.913	89.81
269.145	90.81
269.377	88.81
269.609	83.81
269.841	106.81
270.073	89.81
270.306	99.81
270.538	95.81
270.77	90.81
271.002	85.81
271.234	82.81
271.466	75.81
271.698	86.81
271.93	87.81
272.162	89.81
272.394	86.81
272.626	91.81
272.858	71.81
273.09	95.81
273.322	97.81
273.553	88.81
273.785	84.81
274.017	72.81
274.249	88.81
274.481	84.81
274.713	87.81
274.945	80.81
275.176	88.81
275.408	74.81
275.64	83.81
275.872	100.81
276.104	84.81
276.335	81.81
276.567	88.81
276.799	75.81
277.031	80.81
277.262	74.81
277.494	88.81
277.726	87.81
277.957	81.81
278.189	84.81
278.421	80.81
278.652	85.81
278.884	64.81
279.115	93.81
279.347	84.81
279.579	90.81
279.81	81.81
280.042	86.81
280.273	101.81
280.505	98.81
280.736	77.81
280.968	87.81
281.199	69.81
281.431	92.81
281.662	91.81
281.894	80.81
282.125	93.81
282.356	90.81
282.588	78.81
282.819	77.81
283.051	90.81
283.282	82.81
283.513	87.81
283.745	80.81
283.976	86.81
284.207	82.81
284.439	88.81
284.67	81.81
284.901	68.81
285.132	77.81
285.364	76.81
285.595	90.81
285.826	90.81
286.057	82.81
286.288	89.81
286.52	95.81
286.751	81.81
286.982	86.81
287.213	78.81
287.444	87.81
287.675	73.81
287.906	79.81
288.138	99.81
288.369	88.81
288.6	101.81
288.831	80.81
289.062	81.81
289.293	91.81
289.524	90.81
289.755	81.81
289.986	88.81
290.217	103.81
290.448	84.81
290.679	80.81
290.91	80.81
291.141	80.81
291.371	91.81
291.602	87.81
291.833	85.81
292.064	82.81
292.295	82.81
292.526	87.81
292.757	87.81
292.987	98.81
293.218	84.81
293.449	93.81
293.68	82.81
293.91	77.81
294.141	72.81
294.372	73.81
294.603	89.81
294.833	91.81
295.064	82.81
295.295	87.81
295.525	91.81
295.756	94.81
295.987	89.81
296.217	89.81
296.448	81.81
296.679	72.81
296.909	88.81
297.14	77.81
297.37	81.81
297.601	94.81
297.831	86.81
298.062	75.81
298.292	88.81
298.523	77.81
298.753	82.81
298.984	91.81
299.214	89.81
299.445	76.81
299.675	84.81
299.905	92.81
300.136	81.81
300.366	87.81
300.597	88.81
300.827	99.81
301.057	84.81
301.288	80.81
301.518	76.81
301.748	82.81
301.979	95.81
302.209	76.81
302.439	90.81
302.669	88.81
302.9	84.81
303.13	86.81
303.36	91.81
303.59	74.81
303.82	70.81
304.051	88.81
304.281	90.81
304.511	90.81
304.741	75.81
304.971	80.81
305.201	79.81
305.431	86.81
305.661	82.81
305.891	84.81
306.121	95.81
306.352	78.81
306.582	90.81
306.812	92.81
307.042	93.81
307.272	90.81
307.502	95.81
307.731	89.81
307.961	81.81
308.191	87.81
308.421	90.81
308.651	96.81
308.881	89.81
309.111	76.81
309.341	92.81
309.571	91.81
309.8	89.81
310.03	95.81
310.26	93.81
310.49	85.81
310.72	77.81
310.949	89.81
311.179	95.81
311.409	92.81
311.639	90.81
311.868	80.81
312.098	78.81
312.328	88.81
312.557	89.81
312.787	91.81
313.017	87.81
313.246	82.81
313.476	87.81
313.706	78.81
313.935	70.81
314.165	81.81
314.394	90.81
314.624	90.81
314.853	82.81
315.083	83.81
315.312	105.81
315.542	91.81
315.771	84.81
316.001	84.81
316.23	78.81
316.46	76.81
316.689	88.81
316.919	78.81
317.148	93.81
317.377	96.81
317.607	98.81
317.836	102.81
318.065	81.81
318.295	93.81
318.524	88.81
318.753	99.81
318.983	84.81
319.212	82.81
319.441	89.81
319.67	92.81
319.9	85.81
320.129	89.81
320.358	92.81
320.587	75.81
320.816	83.81
321.046	85.81
321.275	89.81
321.504	85.81
321.733	101.81
321.962	97.81
322.191	96.81
322.42	79.81
322.649	95.81
322.878	96.81
323.108	91.81
323.337	80.81
323.566	82.81
323.795	79.81
324.024	89.81
324.253	92.81
324.482	71.81
324.71	67.81
324.939	79.81
325.168	77.81
325.397	88.81
325.626	96.81
325.855	78.81
326.084	82.81
326.313	92.81
326.542	91.81
326.77	92.81
326.999	81.81
327.228	83.81
327.457	90.81
327.686	79.81
327.914	93.81
328.143	83.81
328.372	88.81
328.6	84.81
328.829	82.81
329.058	93.81
329.287	91.81
329.515	74.81
329.744	99.81
329.972	80.81
330.201	77.81
330.43	79.81
330.658	80.81
330.887	76.81
331.115	95.81
331.344	75.81
331.572	98.81
331.801	85.81
332.03	74.81
332.258	74.81
332.486	81.81
332.715	84.81
332.943	83.81
333.172	97.81
333.4	87.81
333.629	91.81
333.857	89.81
334.085	84.81
334.314	89.81
334.542	74.81
334.771	88.81
334.999	85.81
335.227	82.81
335.455	83.81
335.684	92.81
335.912	82.81
336.14	72.81
336.369	80.81
336.597	85.81
336.825	85.81
337.053	90.81
337.281	93.81
337.51	99.81
337.738	85.81
337.966	96.81
338.194	82.81
338.422	73.81
338.65	68.81
338.878	76.81
339.106	88.81
339.334	98.81
339.562	87.81
339.79	95.81
340.018	90.81
340.246	96.81
340.474	88.81
340.702	90.81
340.93	93.81
341.158	91.81
341.386	96.81
341.614	79.81
341.842	85.81
342.07	93.81
342.298	80.81
342.526	88.81
342.754	101.81
342.981	93.81
343.209	89.81
343.437	98.81
343.665	87.81
343.893	77.81
344.12	98.81
344.348	104.81
344.576	84.81
344.804	81.81
345.031	89.81
345.259	85.81
345.487	74.81
345.714	82.81
345.942	101.81
346.17	89.81
346.397	92.81
346.625	85.81
346.853	91.81
347.08	73.81
347.308	69.81
347.535	103.81
347.763	116.81
347.99	87.81
348.218	90.81
348.445	94.81
348.673	103.81
348.9	97.81
349.128	79.81
349.355	68.81
349.583	79.81
349.81	89.81
350.037	91.81
350.265	96.81
350.492	96.81
350.72	88.81
350.947	97.81
351.174	95.81
351.402	92.81
351.629	85.81
351.856	83.81
352.083	100.81
352.311	86.81
352.538	75.81
352.765	80.81
352.992	92.81
353.22	94.81
353.447	88.81
353.674	84.81
353.901	97.81
354.128	85.81
354.355	87.81
354.583	77.81
354.81	88.81
355.037	77.81
355.264	84.81
355.491	86.81
355.718	81.81
355.945	97.81
356.172	88.81
356.399	86.81
356.626	89.81
356.853	75.81
357.08	73.81
357.307	93.81
357.534	82.81
357.761	75.81
357.988	87.81
358.215	80.81
358.441	80.81
358.668	92.81
358.895	94.81
359.122	80.81
359.349	78.81
359.576	85.81
359.802	75.81
360.029	80.81
360.256	82.81
360.483	87.81
360.709	84.81
360.936	91.81
361.163	84.81
361.39	89.81
361.616	87.81
361.843	83.81
362.07	87.81
362.296	84.81
362.523	79.81
362.749	75.81
362.976	79.81
363.203	96.81
363.429	84.81
363.656	82.81
363.882	87.81
364.109	85.81
364.335	103.81
364.562	91.81
364.788	82.81
365.015	87.81
365.241	92.81
365.468	83.81
365.694	79.81
365.92	70.81
366.147	67.81
366.373	69.81
366.599	85.81
366.826	94.81
367.052	89.81
367.278	75.81
367.505	87.81
367.731	91.81
367.957	70.81
368.184	83.81
368.41	72.81
368.636	78.81
368.862	82.81
369.089	77.81
369.315	92.81
369.541	87.81
369.767	83.81
369.993	80.81
370.219	92.81
370.445	83.81
370.672	96.81
370.898	86.81
371.124	84.81
371.35	90.81
371.576	85.81
371.802	71.81
372.028	87.81
372.254	96.81
372.48	82.81
372.706	91.81
372.932	87.81
373.158	87.81
373.384	92.81
373.61	79.81
373.835	89.81
374.061	86.81
374.287	84.81
374.513	89.81
374.739	95.81
374.965	87.81
375.191	93.81
375.416	83.81
375.642	76.81
375.868	83.81
376.094	77.81
376.319	108.81
376.545	75.81
376.771	81.81
376.997	81.81
377.222	82.81
377.448	85.81
377.674	78.81
377.899	90.81
378.125	73.81
378.35	75.81
378.576	81.81
378.802	87.81
379.027	75.81
379.253	95.81
379.478	76.81
379.704	71.81
379.929	97.81
380.155	89.81
380.38	78.81
380.606	73.81
380.831	70.81
381.057	100.81
381.282	95.81
381.507	84.81
381.733	98.81
381.958	89.81
382.184	85.81
382.409	88.81
382.634	81.81
382.86	85.81
383.085	93.81
383.31	84.81
383.535	87.81
383.761	84.81
383.986	80.81
384.211	97.81
384.436	92.81
384.662	79.81
384.887	91.81
385.112	79.81
385.337	92.81
385.562	83.81
385.787	89.81
386.013	79.81
386.238	98.81
386.463	88.81
386.688	100.81
386.913	91.81
387.138	81.81
387.363	70.81
387.588	91.81
387.813	90.81
388.038	88.81
388.263	89.81
388.488	87.81
388.713	100.81
388.938	64.81
389.163	76.81
389.387	89.81
389.612	77.81
389.837	92.81
390.062	91.81
390.287	88.81
390.512	91.81
390.736	89.81
390.961	80.81
391.186	85.81
391.411	80.81
391.636	80.81
391.86	89.81
392.085	99.81
392.31	94.81
392.534	79.81
392.759	75.81
392.984	81.81
393.208	82.81
393.433	85.81
393.658	97.81
393.882	87.81
394.107	73.81
394.331	86.81
394.556	76.81
394.78	79.81
395.005	82.81
395.229	75.81
395.454	79.81
395.678	91.81
395.903	75.81
396.127	86.81
396.352	94.81
396.576	65.81
396.801	82.81
397.025	92.81
397.249	91.81
397.474	92.81
397.698	79.81
397.922	67.81
398.147	83.81
398.371	92.81
398.595	86.81
398.82	78.81
399.044	83.81
399.268	72.81
399.492	91.81
399.717	90.81
399.941	86.81
400.165	95.81
400.389	79.81
400.613	86.81
400.837	89.81
401.062	94.81
401.286	78.81
401.51	89.81
401.734	79.81
401.958	91.81
402.182	79.81
402.406	88.81
402.63	80.81
402.854	80.81
403.078	91.81
403.302	70.81
403.526	83.81
403.75	100.81
403.974	82.81
404.198	87.81
404.422	83.81
404.645	94.81
404.869	76.81
405.093	77.81
405.317	82.81
405.541	90.81
405.765	70.81
405.988	88.81
406.212	83.81
406.436	73.81
406.66	91.81
406.883	88.81
407.107	88.81
407.331	90.81
407.555	89.81
407.778	90.81
408.002	83.81
408.226	81.81
408.449	82.81
408.673	81.81
408.896	77.81
409.12	111.81
409.344	93.81
409.567	75.81
409.791	79.81
410.014	80.81
410.238	87.81
410.461	74.81
410.685	80.81
410.908	83.81
411.132	72.81
411.355	95.81
411.578	81.81
411.802	82.81
412.025	78.81
412.249	75.81
412.472	93.81
412.695	90.81
412.919	99.81
413.142	90.81
413.365	89.81
413.589	90.81
413.812	86.81
414.035	77.81
414.258	87.81
414.482	75.81
414.705	83.81
414.928	75.81
415.151	92.81
415.374	91.81
415.597	76.81
415.821	74.81
416.044	92.81
416.267	98.81
416.49	81.81
416.713	88.81
416.936	101.81
417.159	84.81
417.382	80.81
417.605	79.81
417.828	88.81
418.051	92.81
418.274	76.81
418.497	80.81
418.72	84.81
418.943	89.81
419.166	91.81
419.389	73.81
419.611	78.81
419.834	87.81
420.057	77.81
420.28	95.81
420.503	85.81
420.726	82.81
420.948	89.81
421.171	77.81
421.394	89.81
421.617	93.81
421.839	84.81
422.062	78.81
422.285	89.81
422.507	95.81
422.73	95.81
422.953	88.81
423.175	83.81
423.398	75.81
423.621	86.81
423.843	93.81
424.066	96.81
424.288	89.81
424.511	85.81
424.733	82.81
424.956	86.81
425.178	83.81
425.401	94.81
425.623	88.81
425.846	83.81
426.068	95.81
426.291	85.81
426.513	69.81
426.735	90.81
426.958	93.81
427.18	83.81
427.402	90.81
427.625	83.81
427.847	61.81
428.069	84.81
428.292	112.81
428.514	75.81
428.736	81.81
428.958	89.81
429.181	82.81
429.403	83.81
429.625	82.81
429.847	79.81
430.069	100.81
430.292	98.81
430.514	91.81
430.736	82.81
430.958	96.81
431.18	79.81
431.402	86.81
431.624	77.81
431.846	91.81
432.068	108.81
432.29	92.81
432.512	100.81
432.734	87.81
432.956	87.81
433.178	96.81
433.4	91.81
433.622	91.81
433.844	92.81
434.066	91.81
434.287	88.81
434.509	91.81
434.731	67.81
434.953	84.81
435.175	90.81
435.397	85.81
435.618	75.81
435.84	91.81
436.062	81.81
436.284	74.81
436.505	105.81
436.727	84.81
436.949	84.81
437.17	79.81
437.392	80.81
437.614	91.81
437.835	80.81
438.057	73.81
438.278	79.81
438.5	82.81
438.721	80.81
438.943	69.81
439.165	89.81
439.386	84.81
439.608	71.81
439.829	81.81
440.05	80.81
440.272	78.81
440.493	79.81
440.715	77.81
440.936	91.81
441.158	90.81
441.379	82.81
441.6	84.81
441.822	75.81
442.043	80.81
442.264	81.81
442.486	94.81
442.707	85.81
442.928	97.81
443.149	84.81
443.371	77.81
443.592	86.81
443.813	90.81
444.034	83.81
444.255	94.81
444.476	83.81
444.698	86.81
444.919	98.81
445.14	146.81
445.361	101.81
445.582	101.81
445.803	85.81
446.024	85.81
446.245	98.81
446.466	80.81
446.687	87.81
446.908	83.81
447.129	85.81
447.35	89.81
447.571	92.81
447.792	85.81
448.013	73.81
448.234	80.81
448.455	98.81
448.675	83.81
448.896	83.81
449.117	87.81
449.338	86.81
449.559	76.81
449.779	73.81
450	71.81
450.221	77.81
450.442	84.81
450.662	90.81
450.883	74.81
451.104	74.81
451.324	82.81
451.545	77.81
451.766	80.81
451.986	90.81
452.207	97.81
452.428	101.81
452.648	89.81
452.869	89.81
453.089	83.81
453.31	92.81
453.53	82.81
453.751	87.81
453.971	76.81
454.192	74.81
454.412	88.81
454.633	83.81
454.853	85.81
455.073	92.81
455.294	87.81
455.514	86.81
455.734	80.81
455.955	77.81
456.175	72.81
456.395	89.81
456.616	81.81
456.836	77.81
457.056	101.81
457.276	95.81
457.497	91.81
457.717	84.81
457.937	96.81
458.157	96.81
458.377	98.81
458.598	75.81
458.818	88.81
459.038	73.81
459.258	84.81
459.478	87.81
459.698	83.81
459.918	87.81
460.138	88.81
460.358	96.81
460.578	91.81
460.798	80.81
461.018	91.81
461.238	75.81
461.458	75.81
461.678	78.81
461.898	91.81
462.118	93.81
462.338	96.81
462.558	82.81
462.777	76.81
462.997	96.81
463.217	70.81
463.437	82.81
463.657	79.81
463.876	89.81
464.096	91.81
464.316	86.81
464.536	86.81
464.755	89.81
464.975	77.81
465.195	82.81
465.414	94.81
465.634	82.81
465.854	85.81
466.073	97.81
466.293	90.81
466.512	74.81
466.732	83.81
466.951	90.81
467.171	91.81
467.391	83.81
467.61	80.81
467.829	78.81
468.049	81.81
468.268	87.81
468.488	63.81
468.707	84.81
468.927	89.81
469.146	77.81
469.365	73.81
469.585	86.81
469.804	75.81
470.023	93.81
470.243	91.81
470.462	89.81
470.681	80.81
470.901	91.81
471.12	81.81
471.339	109.81
471.558	81.81
471.777	90.81
471.997	80.81
472.216	85.81
472.435	92.81
472.654	89.81
472.873	91.81
473.092	96.81
473.311	92.81
473.53	81.81
473.749	73.81
473.968	86.81
474.187	85.81
474.406	86.81
474.625	83.81
474.844	84.81
475.063	78.81
475.282	73.81
475.501	82.81
475.72	97.81
475.939	78.81
476.158	79.81
476.377	88.81
476.596	76.81
476.814	87.81
477.033	85.81
477.252	83.81
477.471	88.81
477.69	86.81
477.908	87.81
478.127	80.81
478.346	84.81
478.564	76.81
478.783	95.81
479.002	85.81
479.22	83.81
479.439	81.81
479.658	80.81
479.876	84.81
480.095	76.81
480.313	84.81
480.532	99.81
480.751	86.81
480.969	89.81
481.188	95.81
481.406	90.81
481.624	83.81
481.843	83.81
482.061	92.81
482.28	93.81
482.498	73.81
482.717	84.81
482.935	89.81
483.153	92.81
483.372	88.81
483.59	75.81
483.808	93.81
484.027	84.81
484.245	87.81
484.463	83.81
484.681	93.81
484.9	105.81
485.118	107.81
485.336	83.81
485.554	62.81
485.772	81.81
485.99	94.81
486.209	76.81
486.427	83.81
486.645	88.81
486.863	85.81
487.081	87.81
487.299	86.81
487.517	88.81
487.735	71.81
487.953	85.81
488.171	79.81
488.389	100.81
488.607	80.81
488.825	82.81
489.043	90.81
489.261	86.81
489.479	86.81
489.696	81.81
489.914	89.81
490.132	87.81
490.35	76.81
490.568	100.81
490.786	85.81
491.003	84.81
491.221	88.81
491.439	76.81
491.657	91.81
491.874	75.81
492.092	89.81
492.31	92.81
492.527	97.81
492.745	80.81
492.963	86.81
493.18	96.81
493.398	92.81
493.615	100.81
493.833	86.81
494.05	89.81
494.268	101.81
494.485	91.81
494.703	104.81
494.92	99.81
495.138	94.81
495.355	100.81
495.573	94.81
495.79	87.81
496.008	86.81
496.225	78.81
496.442	79.81
496.66	93.81
496.877	84.81
497.094	98.81
497.312	80.81
497.529	89.81
497.746	80.81
497.963	88.81
498.181	83.81
498.398	82.81
498.615	97.81
498.832	82.81
499.049	79.81
499.267	92.81
499.484	76.81
499.701	92.81
499.918	97.81
500.135	74.81
500.352	93.81
500.569	84.81
500.786	84.81
501.003	96.81
501.22	91.81
501.437	99.81
501.654	89.81
501.871	78.81
502.088	81.81
502.305	81.81
502.522	87.81
502.739	80.81
502.956	95.81
503.172	90.81
503.389	78.81
503.606	94.81
503.823	94.81
504.04	80.81
504.256	88.81
504.473	98.81
504.69	92.81
504.907	81.81
505.123	84.81
505.34	76.81
505.557	103.81
505.773	70.81
505.99	85.81
506.207	80.81
506.423	75.81
506.64	74.81
506.856	83.81
507.073	88.81
507.289	83.81
507.506	86.81
507.722	92.81
507.939	72.81
508.155	75.81
508.372	71.81
508.588	92.81
508.805	85.81
509.021	77.81
509.238	89.81
509.454	83.81
509.67	78.81
509.887	78.81
510.103	95.81
510.319	85.81
510.536	95.81
510.752	72.81
510.968	90.81
511.184	89.81
511.401	86.81
511.617	98.81
511.833	80.81
512.049	87.81
512.265	75.81
512.481	85.81
512.698	83.81
512.914	77.81
513.13	87.81
513.346	71.81
513.562	84.81
513.778	89.81
513.994	94.81
514.21	97.81
514.426	80.81
514.642	83.81
514.858	86.81
515.074	77.81
515.29	85.81
515.506	95.81
515.721	94.81
515.937	91.81
516.153	86.81
516.369	87.81
516.585	81.81
516.801	76.81
517.016	96.81
517.232	87.81
517.448	81.81
517.664	92.81
517.879	92.81
518.095	83.81
518.311	86.81
518.527	87.81
518.742	88.81
518.958	93.81
519.173	88.81
519.389	93.81
519.605	79.81
