Data from Dirtheat3_HRD10591_00006.txt Node
Date: Fri Dec 27 15:16:18 EST 2024
User: Yrep
Spectrometer: HR+D1059
Trigger mode: 1
Integration Time (sec): 1.000000E-1
Scans to average: 1
Electric dark correction enabled: true
Nonlinearity correction enabled: false
Boxcar width: 0
XAxis mode: Wavelengths
Number of Pixels in Spectrum: 2048
>>>>>Begin Spectral Data<<<<<
223.165	-15.75
223.4	-15.75
223.635	-15.75
223.869	-16.75
224.104	-24.75
224.338	-10.75
224.573	-15.75
224.808	-9.75
225.042	3.25
225.277	-12.75
225.511	-5.75
225.746	4.25
225.98	-0.75
226.215	15.25
226.449	16.25
226.683	23.25
226.918	25.25
227.152	25.25
227.387	50.25
227.621	40.25
227.856	51.25
228.09	49.25
228.324	57.25
228.559	53.25
228.793	38.25
229.027	53.25
229.262	68.25
229.496	67.25
229.73	79.25
229.964	70.25
230.199	75.25
230.433	71.25
230.667	73.25
230.901	75.25
231.136	92.25
231.37	65.25
231.604	87.25
231.838	96.25
232.072	82.25
232.306	78.25
232.541	90.25
232.775	83.25
233.009	74.25
233.243	90.25
233.477	68.25
233.711	87.25
233.945	79.25
234.179	85.25
234.413	92.25
234.647	95.25
234.881	85.25
235.115	76.25
235.349	81.25
235.583	71.25
235.817	81.25
236.051	79.25
236.285	85.25
236.519	87.25
236.753	76.25
236.987	80.25
237.221	86.25
237.455	75.25
237.689	73.25
237.922	70.25
238.156	81.25
238.39	94.25
238.624	90.25
238.858	71.25
239.091	74.25
239.325	76.25
239.559	76.25
239.793	85.25
240.027	74.25
240.26	76.25
240.494	74.25
240.728	83.25
240.961	84.25
241.195	90.25
241.429	74.25
241.662	82.25
241.896	78.25
242.13	79.25
242.363	71.25
242.597	82.25
242.83	83.25
243.064	91.25
243.298	77.25
243.531	77.25
243.765	87.25
243.998	89.25
244.232	68.25
244.465	74.25
244.699	63.25
244.932	68.25
245.166	78.25
245.399	71.25
245.633	77.25
245.866	85.25
246.099	86.25
246.333	77.25
246.566	90.25
246.8	75.25
247.033	73.25
247.266	98.25
247.5	79.25
247.733	75.25
247.966	79.25
248.2	80.25
248.433	72.25
248.666	78.25
248.899	83.25
249.133	75.25
249.366	70.25
249.599	91.25
249.832	77.25
250.066	78.25
250.299	87.25
250.532	94.25
250.765	78.25
250.998	84.25
251.231	85.25
251.465	96.25
251.698	85.25
251.931	83.25
252.164	87.25
252.397	81.25
252.63	76.25
252.863	71.25
253.096	79.25
253.329	91.25
253.562	86.25
253.795	88.25
254.028	86.25
254.261	88.25
254.494	87.25
254.727	83.25
254.96	78.25
255.193	67.25
255.426	85.25
255.659	73.25
255.892	89.25
256.124	82.25
256.357	73.25
256.59	86.25
256.823	94.25
257.056	76.25
257.289	89.25
257.521	98.25
257.754	80.25
257.987	78.25
258.22	81.25
258.452	81.25
258.685	89.25
258.918	92.25
259.151	81.25
259.383	87.25
259.616	90.25
259.849	75.25
260.081	81.25
260.314	77.25
260.547	77.25
260.779	75.25
261.012	79.25
261.244	76.25
261.477	98.25
261.71	78.25
261.942	62.25
262.175	82.25
262.407	86.25
262.64	81.25
262.872	78.25
263.105	79.25
263.337	82.25
263.57	93.25
263.802	84.25
264.035	90.25
264.267	76.25
264.499	86.25
264.732	102.25
264.964	89.25
265.197	84.25
265.429	85.25
265.661	81.25
265.894	80.25
266.126	85.25
266.358	91.25
266.591	90.25
266.823	89.25
267.055	94.25
267.287	83.25
267.52	76.25
267.752	85.25
267.984	86.25
268.216	93.25
268.448	94.25
268.681	90.25
268.913	74.25
269.145	77.25
269.377	86.25
269.609	93.25
269.841	90.25
270.073	77.25
270.306	87.25
270.538	90.25
270.77	76.25
271.002	78.25
271.234	101.25
271.466	91.25
271.698	98.25
271.93	87.25
272.162	70.25
272.394	92.25
272.626	89.25
272.858	89.25
273.09	76.25
273.322	85.25
273.553	86.25
273.785	91.25
274.017	90.25
274.249	85.25
274.481	95.25
274.713	70.25
274.945	100.25
275.176	97.25
275.408	94.25
275.64	77.25
275.872	103.25
276.104	94.25
276.335	86.25
276.567	82.25
276.799	79.25
277.031	86.25
277.262	77.25
277.494	91.25
277.726	81.25
277.957	86.25
278.189	86.25
278.421	83.25
278.652	78.25
278.884	76.25
279.115	88.25
279.347	78.25
279.579	88.25
279.81	85.25
280.042	87.25
280.273	75.25
280.505	85.25
280.736	91.25
280.968	82.25
281.199	95.25
281.431	82.25
281.662	88.25
281.894	90.25
282.125	91.25
282.356	89.25
282.588	81.25
282.819	78.25
283.051	83.25
283.282	91.25
283.513	85.25
283.745	97.25
283.976	91.25
284.207	83.25
284.439	70.25
284.67	90.25
284.901	75.25
285.132	86.25
285.364	85.25
285.595	89.25
285.826	91.25
286.057	95.25
286.288	83.25
286.52	93.25
286.751	90.25
286.982	88.25
287.213	81.25
287.444	89.25
287.675	81.25
287.906	92.25
288.138	79.25
288.369	95.25
288.6	86.25
288.831	107.25
289.062	78.25
289.293	86.25
289.524	86.25
289.755	88.25
289.986	100.25
290.217	91.25
290.448	80.25
290.679	91.25
290.91	81.25
291.141	99.25
291.371	92.25
291.602	90.25
291.833	74.25
292.064	80.25
292.295	88.25
292.526	96.25
292.757	99.25
292.987	84.25
293.218	66.25
293.449	85.25
293.68	87.25
293.91	83.25
294.141	99.25
294.372	82.25
294.603	92.25
294.833	91.25
295.064	80.25
295.295	97.25
295.525	76.25
295.756	92.25
295.987	73.25
296.217	85.25
296.448	96.25
296.679	97.25
296.909	89.25
297.14	84.25
297.37	107.25
297.601	94.25
297.831	80.25
298.062	77.25
298.292	93.25
298.523	91.25
298.753	89.25
298.984	88.25
299.214	79.25
299.445	96.25
299.675	81.25
299.905	87.25
300.136	85.25
300.366	86.25
300.597	87.25
300.827	90.25
301.057	83.25
301.288	81.25
301.518	75.25
301.748	88.25
301.979	111.25
302.209	84.25
302.439	85.25
302.669	91.25
302.9	76.25
303.13	89.25
303.36	89.25
303.59	87.25
303.82	78.25
304.051	79.25
304.281	91.25
304.511	91.25
304.741	67.25
304.971	95.25
305.201	90.25
305.431	91.25
305.661	86.25
305.891	91.25
306.121	94.25
306.352	88.25
306.582	82.25
306.812	80.25
307.042	74.25
307.272	90.25
307.502	90.25
307.731	104.25
307.961	92.25
308.191	78.25
308.421	77.25
308.651	89.25
308.881	93.25
309.111	90.25
309.341	89.25
309.571	83.25
309.8	83.25
310.03	77.25
310.26	101.25
310.49	87.25
310.72	75.25
310.949	84.25
311.179	92.25
311.409	86.25
311.639	103.25
311.868	93.25
312.098	93.25
312.328	89.25
312.557	70.25
312.787	76.25
313.017	85.25
313.246	78.25
313.476	96.25
313.706	83.25
313.935	97.25
314.165	97.25
314.394	97.25
314.624	88.25
314.853	89.25
315.083	75.25
315.312	88.25
315.542	86.25
315.771	96.25
316.001	91.25
316.23	94.25
316.46	97.25
316.689	88.25
316.919	81.25
317.148	82.25
317.377	81.25
317.607	89.25
317.836	94.25
318.065	95.25
318.295	93.25
318.524	94.25
318.753	78.25
318.983	90.25
319.212	93.25
319.441	85.25
319.67	79.25
319.9	85.25
320.129	91.25
320.358	78.25
320.587	99.25
320.816	96.25
321.046	98.25
321.275	87.25
321.504	79.25
321.733	97.25
321.962	93.25
322.191	83.25
322.42	95.25
322.649	86.25
322.878	86.25
323.108	95.25
323.337	105.25
323.566	97.25
323.795	82.25
324.024	110.25
324.253	86.25
324.482	89.25
324.71	74.25
324.939	94.25
325.168	74.25
325.397	98.25
325.626	97.25
325.855	93.25
326.084	93.25
326.313	86.25
326.542	78.25
326.77	98.25
326.999	92.25
327.228	98.25
327.457	86.25
327.686	95.25
327.914	94.25
328.143	93.25
328.372	97.25
328.6	73.25
328.829	82.25
329.058	82.25
329.287	80.25
329.515	87.25
329.744	94.25
329.972	80.25
330.201	86.25
330.43	80.25
330.658	83.25
330.887	94.25
331.115	83.25
331.344	82.25
331.572	76.25
331.801	97.25
332.03	85.25
332.258	101.25
332.486	97.25
332.715	85.25
332.943	82.25
333.172	89.25
333.4	74.25
333.629	86.25
333.857	87.25
334.085	79.25
334.314	85.25
334.542	92.25
334.771	94.25
334.999	88.25
335.227	81.25
335.455	78.25
335.684	91.25
335.912	95.25
336.14	102.25
336.369	91.25
336.597	81.25
336.825	93.25
337.053	92.25
337.281	100.25
337.51	97.25
337.738	86.25
337.966	84.25
338.194	77.25
338.422	83.25
338.65	91.25
338.878	89.25
339.106	92.25
339.334	84.25
339.562	78.25
339.79	90.25
340.018	86.25
340.246	93.25
340.474	96.25
340.702	91.25
340.93	79.25
341.158	75.25
341.386	85.25
341.614	82.25
341.842	82.25
342.07	86.25
342.298	94.25
342.526	82.25
342.754	84.25
342.981	92.25
343.209	70.25
343.437	94.25
343.665	95.25
343.893	94.25
344.12	94.25
344.348	83.25
344.576	78.25
344.804	72.25
345.031	81.25
345.259	86.25
345.487	86.25
345.714	79.25
345.942	90.25
346.17	89.25
346.397	103.25
346.625	91.25
346.853	84.25
347.08	92.25
347.308	82.25
347.535	85.25
347.763	80.25
347.99	93.25
348.218	97.25
348.445	82.25
348.673	91.25
348.9	86.25
349.128	87.25
349.355	83.25
349.583	93.25
349.81	85.25
350.037	77.25
350.265	76.25
350.492	91.25
350.72	96.25
350.947	98.25
351.174	97.25
351.402	77.25
351.629	71.25
351.856	88.25
352.083	90.25
352.311	89.25
352.538	85.25
352.765	95.25
352.992	106.25
353.22	92.25
353.447	78.25
353.674	79.25
353.901	93.25
354.128	95.25
354.355	82.25
354.583	95.25
354.81	71.25
355.037	94.25
355.264	84.25
355.491	96.25
355.718	86.25
355.945	85.25
356.172	97.25
356.399	91.25
356.626	92.25
356.853	85.25
357.08	90.25
357.307	97.25
357.534	90.25
357.761	87.25
357.988	88.25
358.215	76.25
358.441	86.25
358.668	83.25
358.895	91.25
359.122	82.25
359.349	93.25
359.576	85.25
359.802	94.25
360.029	89.25
360.256	93.25
360.483	87.25
360.709	76.25
360.936	94.25
361.163	91.25
361.39	90.25
361.616	89.25
361.843	80.25
362.07	95.25
362.296	87.25
362.523	78.25
362.749	85.25
362.976	89.25
363.203	85.25
363.429	78.25
363.656	96.25
363.882	85.25
364.109	95.25
364.335	94.25
364.562	80.25
364.788	87.25
365.015	75.25
365.241	94.25
365.468	81.25
365.694	90.25
365.92	73.25
366.147	85.25
366.373	81.25
366.599	71.25
366.826	74.25
367.052	86.25
367.278	83.25
367.505	94.25
367.731	103.25
367.957	94.25
368.184	81.25
368.41	94.25
368.636	93.25
368.862	109.25
369.089	95.25
369.315	93.25
369.541	82.25
369.767	98.25
369.993	77.25
370.219	78.25
370.445	79.25
370.672	75.25
370.898	95.25
371.124	96.25
371.35	91.25
371.576	86.25
371.802	85.25
372.028	84.25
372.254	90.25
372.48	79.25
372.706	82.25
372.932	89.25
373.158	96.25
373.384	105.25
373.61	89.25
373.835	74.25
374.061	86.25
374.287	85.25
374.513	91.25
374.739	99.25
374.965	84.25
375.191	87.25
375.416	84.25
375.642	89.25
375.868	89.25
376.094	99.25
376.319	83.25
376.545	91.25
376.771	79.25
376.997	89.25
377.222	83.25
377.448	90.25
377.674	69.25
377.899	87.25
378.125	79.25
378.35	93.25
378.576	91.25
378.802	98.25
379.027	85.25
379.253	82.25
379.478	89.25
379.704	102.25
379.929	91.25
380.155	92.25
380.38	98.25
380.606	86.25
380.831	102.25
381.057	89.25
381.282	81.25
381.507	95.25
381.733	107.25
381.958	97.25
382.184	96.25
382.409	95.25
382.634	103.25
382.86	95.25
383.085	83.25
383.31	73.25
383.535	100.25
383.761	92.25
383.986	79.25
384.211	75.25
384.436	84.25
384.662	80.25
384.887	84.25
385.112	94.25
385.337	96.25
385.562	81.25
385.787	92.25
386.013	94.25
386.238	91.25
386.463	86.25
386.688	108.25
386.913	74.25
387.138	90.25
387.363	84.25
387.588	99.25
387.813	83.25
388.038	82.25
388.263	103.25
388.488	80.25
388.713	76.25
388.938	90.25
389.163	92.25
389.387	80.25
389.612	85.25
389.837	66.25
390.062	83.25
390.287	91.25
390.512	88.25
390.736	78.25
390.961	84.25
391.186	91.25
391.411	80.25
391.636	81.25
391.86	81.25
392.085	98.25
392.31	85.25
392.534	80.25
392.759	68.25
392.984	85.25
393.208	93.25
393.433	106.25
393.658	98.25
393.882	84.25
394.107	89.25
394.331	92.25
394.556	96.25
394.78	92.25
395.005	82.25
395.229	68.25
395.454	82.25
395.678	83.25
395.903	86.25
396.127	89.25
396.352	92.25
396.576	82.25
396.801	84.25
397.025	94.25
397.249	79.25
397.474	83.25
397.698	93.25
397.922	87.25
398.147	86.25
398.371	88.25
398.595	82.25
398.82	84.25
399.044	92.25
399.268	89.25
399.492	87.25
399.717	88.25
399.941	77.25
400.165	86.25
400.389	91.25
400.613	82.25
400.837	71.25
401.062	99.25
401.286	86.25
401.51	74.25
401.734	82.25
401.958	90.25
402.182	84.25
402.406	89.25
402.63	91.25
402.854	108.25
403.078	87.25
403.302	95.25
403.526	98.25
403.75	87.25
403.974	93.25
404.198	82.25
404.422	92.25
404.645	99.25
404.869	73.25
405.093	83.25
405.317	87.25
405.541	93.25
405.765	74.25
405.988	80.25
406.212	77.25
406.436	77.25
406.66	99.25
406.883	72.25
407.107	77.25
407.331	80.25
407.555	76.25
407.778	83.25
408.002	92.25
408.226	98.25
408.449	82.25
408.673	87.25
408.896	95.25
409.12	80.25
409.344	86.25
409.567	86.25
409.791	92.25
410.014	83.25
410.238	80.25
410.461	77.25
410.685	86.25
410.908	88.25
411.132	88.25
411.355	75.25
411.578	77.25
411.802	93.25
412.025	96.25
412.249	84.25
412.472	85.25
412.695	86.25
412.919	86.25
413.142	96.25
413.365	83.25
413.589	75.25
413.812	80.25
414.035	75.25
414.258	86.25
414.482	78.25
414.705	93.25
414.928	99.25
415.151	84.25
415.374	76.25
415.597	98.25
415.821	68.25
416.044	91.25
416.267	91.25
416.49	85.25
416.713	76.25
416.936	90.25
417.159	89.25
417.382	95.25
417.605	81.25
417.828	80.25
418.051	73.25
418.274	94.25
418.497	93.25
418.72	73.25
418.943	96.25
419.166	95.25
419.389	101.25
419.611	70.25
419.834	90.25
420.057	77.25
420.28	85.25
420.503	100.25
420.726	77.25
420.948	80.25
421.171	86.25
421.394	90.25
421.617	97.25
421.839	89.25
422.062	84.25
422.285	82.25
422.507	94.25
422.73	125.25
422.953	109.25
423.175	99.25
423.398	99.25
423.621	91.25
423.843	78.25
424.066	92.25
424.288	73.25
424.511	83.25
424.733	71.25
424.956	96.25
425.178	90.25
425.401	81.25
425.623	84.25
425.846	77.25
426.068	86.25
426.291	89.25
426.513	79.25
426.735	86.25
426.958	83.25
427.18	81.25
427.402	79.25
427.625	77.25
427.847	79.25
428.069	75.25
428.292	83.25
428.514	84.25
428.736	91.25
428.958	91.25
429.181	95.25
429.403	86.25
429.625	97.25
429.847	92.25
430.069	90.25
430.292	86.25
430.514	93.25
430.736	91.25
430.958	98.25
431.18	89.25
431.402	80.25
431.624	80.25
431.846	86.25
432.068	90.25
432.29	83.25
432.512	91.25
432.734	80.25
432.956	88.25
433.178	98.25
433.4	87.25
433.622	71.25
433.844	68.25
434.066	83.25
434.287	89.25
434.509	89.25
434.731	89.25
434.953	91.25
435.175	90.25
435.397	82.25
435.618	76.25
435.84	92.25
436.062	83.25
436.284	89.25
436.505	82.25
436.727	79.25
436.949	73.25
437.17	91.25
437.392	84.25
437.614	86.25
437.835	84.25
438.057	79.25
438.278	85.25
438.5	92.25
438.721	82.25
438.943	86.25
439.165	68.25
439.386	68.25
439.608	101.25
439.829	76.25
440.05	67.25
440.272	93.25
440.493	79.25
440.715	71.25
440.936	82.25
441.158	80.25
441.379	94.25
441.6	84.25
441.822	90.25
442.043	77.25
442.264	81.25
442.486	92.25
442.707	87.25
442.928	94.25
443.149	91.25
443.371	87.25
443.592	101.25
443.813	95.25
444.034	75.25
444.255	76.25
444.476	97.25
444.698	96.25
444.919	81.25
445.14	155.25
445.361	105.25
445.582	94.25
445.803	86.25
446.024	92.25
446.245	72.25
446.466	94.25
446.687	99.25
446.908	90.25
447.129	98.25
447.35	77.25
447.571	92.25
447.792	94.25
448.013	87.25
448.234	83.25
448.455	84.25
448.675	103.25
448.896	84.25
449.117	90.25
449.338	87.25
449.559	85.25
449.779	91.25
450	87.25
450.221	89.25
450.442	81.25
450.662	91.25
450.883	107.25
451.104	81.25
451.324	97.25
451.545	95.25
451.766	89.25
451.986	83.25
452.207	89.25
452.428	101.25
452.648	96.25
452.869	89.25
453.089	77.25
453.31	91.25
453.53	98.25
453.751	87.25
453.971	82.25
454.192	87.25
454.412	94.25
454.633	85.25
454.853	87.25
455.073	67.25
455.294	74.25
455.514	94.25
455.734	74.25
455.955	85.25
456.175	97.25
456.395	85.25
456.616	91.25
456.836	76.25
457.056	79.25
457.276	87.25
457.497	74.25
457.717	75.25
457.937	104.25
458.157	83.25
458.377	79.25
458.598	93.25
458.818	84.25
459.038	90.25
459.258	85.25
459.478	81.25
459.698	85.25
459.918	87.25
460.138	87.25
460.358	86.25
460.578	94.25
460.798	75.25
461.018	91.25
461.238	89.25
461.458	91.25
461.678	88.25
461.898	81.25
462.118	81.25
462.338	92.25
462.558	78.25
462.777	83.25
462.997	91.25
463.217	87.25
463.437	76.25
463.657	78.25
463.876	105.25
464.096	85.25
464.316	93.25
464.536	93.25
464.755	86.25
464.975	78.25
465.195	91.25
465.414	80.25
465.634	86.25
465.854	82.25
466.073	80.25
466.293	87.25
466.512	70.25
466.732	94.25
466.951	98.25
467.171	84.25
467.391	79.25
467.61	105.25
467.829	96.25
468.049	84.25
468.268	80.25
468.488	86.25
468.707	77.25
468.927	79.25
469.146	91.25
469.365	89.25
469.585	83.25
469.804	86.25
470.023	81.25
470.243	96.25
470.462	93.25
470.681	99.25
470.901	75.25
471.12	82.25
471.339	89.25
471.558	73.25
471.777	83.25
471.997	93.25
472.216	84.25
472.435	72.25
472.654	82.25
472.873	91.25
473.092	85.25
473.311	76.25
473.53	83.25
473.749	87.25
473.968	83.25
474.187	93.25
474.406	73.25
474.625	84.25
474.844	80.25
475.063	87.25
475.282	83.25
475.501	92.25
475.72	85.25
475.939	74.25
476.158	82.25
476.377	75.25
476.596	85.25
476.814	80.25
477.033	85.25
477.252	75.25
477.471	95.25
477.69	86.25
477.908	88.25
478.127	89.25
478.346	77.25
478.564	94.25
478.783	92.25
479.002	87.25
479.22	76.25
479.439	90.25
479.658	94.25
479.876	84.25
480.095	77.25
480.313	98.25
480.532	90.25
480.751	102.25
480.969	84.25
481.188	72.25
481.406	86.25
481.624	83.25
481.843	75.25
482.061	85.25
482.28	83.25
482.498	92.25
482.717	78.25
482.935	92.25
483.153	85.25
483.372	84.25
483.59	80.25
483.808	94.25
484.027	86.25
484.245	91.25
484.463	87.25
484.681	91.25
484.9	94.25
485.118	100.25
485.336	99.25
485.554	89.25
485.772	91.25
485.99	84.25
486.209	80.25
486.427	78.25
486.645	90.25
486.863	84.25
487.081	85.25
487.299	81.25
487.517	85.25
487.735	84.25
487.953	105.25
488.171	93.25
488.389	79.25
488.607	84.25
488.825	86.25
489.043	90.25
489.261	89.25
489.479	92.25
489.696	87.25
489.914	94.25
490.132	85.25
490.35	82.25
490.568	81.25
490.786	101.25
491.003	94.25
491.221	82.25
491.439	94.25
491.657	85.25
491.874	85.25
492.092	83.25
492.31	84.25
492.527	73.25
492.745	95.25
492.963	87.25
493.18	87.25
493.398	87.25
493.615	77.25
493.833	85.25
494.05	84.25
494.268	75.25
494.485	86.25
494.703	78.25
494.92	86.25
495.138	88.25
495.355	98.25
495.573	81.25
495.79	85.25
496.008	95.25
496.225	85.25
496.442	79.25
496.66	78.25
496.877	91.25
497.094	87.25
497.312	91.25
497.529	91.25
497.746	77.25
497.963	77.25
498.181	90.25
498.398	86.25
498.615	96.25
498.832	92.25
499.049	85.25
499.267	87.25
499.484	80.25
499.701	100.25
499.918	68.25
500.135	77.25
500.352	87.25
500.569	81.25
500.786	85.25
501.003	84.25
501.22	83.25
501.437	84.25
501.654	96.25
501.871	100.25
502.088	78.25
502.305	83.25
502.522	87.25
502.739	96.25
502.956	76.25
503.172	70.25
503.389	95.25
503.606	85.25
503.823	80.25
504.04	88.25
504.256	84.25
504.473	86.25
504.69	79.25
504.907	84.25
505.123	91.25
505.34	70.25
505.557	92.25
505.773	90.25
505.99	95.25
506.207	84.25
506.423	94.25
506.64	90.25
506.856	91.25
507.073	81.25
507.289	92.25
507.506	89.25
507.722	79.25
507.939	78.25
508.155	80.25
508.372	91.25
508.588	99.25
508.805	82.25
509.021	81.25
509.238	81.25
509.454	86.25
509.67	77.25
509.887	99.25
510.103	83.25
510.319	87.25
510.536	107.25
510.752	83.25
510.968	78.25
511.184	76.25
511.401	86.25
511.617	90.25
511.833	84.25
512.049	90.25
512.265	91.25
512.481	89.25
512.698	91.25
512.914	84.25
513.13	76.25
513.346	85.25
513.562	87.25
513.778	87.25
513.994	88.25
514.21	112.25
514.426	100.25
514.642	99.25
514.858	98.25
515.074	93.25
515.29	93.25
515.506	86.25
515.721	84.25
515.937	90.25
516.153	105.25
516.369	86.25
516.585	88.25
516.801	94.25
517.016	84.25
517.232	85.25
517.448	80.25
517.664	75.25
517.879	83.25
518.095	77.25
518.311	92.25
518.527	91.25
518.742	86.25
518.958	94.25
519.173	95.25
519.389	83.25
