Data from Dirtheat3_HRD10591_00004.txt Node
Date: Fri Dec 27 15:16:16 EST 2024
User: Yrep
Spectrometer: HR+D1059
Trigger mode: 1
Integration Time (sec): 1.000000E-1
Scans to average: 1
Electric dark correction enabled: true
Nonlinearity correction enabled: false
Boxcar width: 0
XAxis mode: Wavelengths
Number of Pixels in Spectrum: 2048
>>>>>Begin Spectral Data<<<<<
223.165	-9.94
223.4	-9.94
223.635	-9.94
223.869	-5.94
224.104	-9.94
224.338	-11.94
224.573	-13.94
224.808	-2.94
225.042	-5.94
225.277	-7.94
225.511	-16.94
225.746	4.06
225.98	-1.94
226.215	5.06
226.449	16.06
226.683	20.06
226.918	18.06
227.152	24.06
227.387	33.06
227.621	26.06
227.856	58.06
228.09	67.06
228.324	56.06
228.559	59.06
228.793	52.06
229.027	72.06
229.262	70.06
229.496	69.06
229.73	61.06
229.964	77.06
230.199	71.06
230.433	74.06
230.667	70.06
230.901	72.06
231.136	79.06
231.37	89.06
231.604	81.06
231.838	82.06
232.072	72.06
232.306	78.06
232.541	86.06
232.775	82.06
233.009	73.06
233.243	72.06
233.477	74.06
233.711	75.06
233.945	71.06
234.179	82.06
234.413	82.06
234.647	95.06
234.881	64.06
235.115	69.06
235.349	80.06
235.583	76.06
235.817	74.06
236.051	81.06
236.285	70.06
236.519	84.06
236.753	71.06
236.987	62.06
237.221	66.06
237.455	68.06
237.689	74.06
237.922	69.06
238.156	69.06
238.39	72.06
238.624	68.06
238.858	66.06
239.091	91.06
239.325	77.06
239.559	74.06
239.793	68.06
240.027	70.06
240.26	74.06
240.494	89.06
240.728	79.06
240.961	70.06
241.195	70.06
241.429	74.06
241.662	70.06
241.896	89.06
242.13	83.06
242.363	78.06
242.597	82.06
242.83	84.06
243.064	69.06
243.298	67.06
243.531	60.06
243.765	84.06
243.998	75.06
244.232	79.06
244.465	84.06
244.699	81.06
244.932	84.06
245.166	71.06
245.399	76.06
245.633	75.06
245.866	72.06
246.099	76.06
246.333	90.06
246.566	67.06
246.8	70.06
247.033	75.06
247.266	77.06
247.5	92.06
247.733	79.06
247.966	62.06
248.2	76.06
248.433	72.06
248.666	64.06
248.899	82.06
249.133	87.06
249.366	75.06
249.599	68.06
249.832	76.06
250.066	72.06
250.299	80.06
250.532	70.06
250.765	62.06
250.998	79.06
251.231	74.06
251.465	78.06
251.698	85.06
251.931	76.06
252.164	68.06
252.397	72.06
252.63	71.06
252.863	70.06
253.096	86.06
253.329	78.06
253.562	75.06
253.795	70.06
254.028	90.06
254.261	83.06
254.494	78.06
254.727	83.06
254.96	88.06
255.193	63.06
255.426	69.06
255.659	70.06
255.892	77.06
256.124	87.06
256.357	76.06
256.59	79.06
256.823	79.06
257.056	75.06
257.289	80.06
257.521	91.06
257.754	74.06
257.987	83.06
258.22	79.06
258.452	87.06
258.685	78.06
258.918	79.06
259.151	77.06
259.383	86.06
259.616	83.06
259.849	95.06
260.081	84.06
260.314	80.06
260.547	77.06
260.779	69.06
261.012	82.06
261.244	78.06
261.477	80.06
261.71	77.06
261.942	78.06
262.175	67.06
262.407	64.06
262.64	82.06
262.872	89.06
263.105	90.06
263.337	92.06
263.57	67.06
263.802	77.06
264.035	74.06
264.267	79.06
264.499	93.06
264.732	89.06
264.964	67.06
265.197	72.06
265.429	83.06
265.661	85.06
265.894	84.06
266.126	78.06
266.358	63.06
266.591	60.06
266.823	72.06
267.055	78.06
267.287	80.06
267.52	65.06
267.752	79.06
267.984	86.06
268.216	90.06
268.448	83.06
268.681	91.06
268.913	86.06
269.145	81.06
269.377	88.06
269.609	91.06
269.841	83.06
270.073	76.06
270.306	95.06
270.538	76.06
270.77	80.06
271.002	83.06
271.234	76.06
271.466	80.06
271.698	71.06
271.93	75.06
272.162	80.06
272.394	87.06
272.626	77.06
272.858	82.06
273.09	80.06
273.322	81.06
273.553	73.06
273.785	79.06
274.017	87.06
274.249	84.06
274.481	81.06
274.713	84.06
274.945	78.06
275.176	70.06
275.408	84.06
275.64	74.06
275.872	80.06
276.104	89.06
276.335	84.06
276.567	70.06
276.799	74.06
277.031	66.06
277.262	85.06
277.494	80.06
277.726	88.06
277.957	87.06
278.189	80.06
278.421	82.06
278.652	72.06
278.884	85.06
279.115	68.06
279.347	85.06
279.579	82.06
279.81	77.06
280.042	79.06
280.273	80.06
280.505	67.06
280.736	86.06
280.968	82.06
281.199	88.06
281.431	79.06
281.662	83.06
281.894	99.06
282.125	91.06
282.356	78.06
282.588	68.06
282.819	80.06
283.051	78.06
283.282	67.06
283.513	83.06
283.745	70.06
283.976	67.06
284.207	86.06
284.439	74.06
284.67	76.06
284.901	71.06
285.132	84.06
285.364	71.06
285.595	87.06
285.826	92.06
286.057	79.06
286.288	93.06
286.52	78.06
286.751	79.06
286.982	91.06
287.213	72.06
287.444	83.06
287.675	85.06
287.906	86.06
288.138	78.06
288.369	88.06
288.6	82.06
288.831	79.06
289.062	90.06
289.293	65.06
289.524	83.06
289.755	71.06
289.986	74.06
290.217	96.06
290.448	83.06
290.679	85.06
290.91	80.06
291.141	83.06
291.371	100.06
291.602	87.06
291.833	90.06
292.064	70.06
292.295	91.06
292.526	78.06
292.757	89.06
292.987	81.06
293.218	75.06
293.449	77.06
293.68	82.06
293.91	71.06
294.141	92.06
294.372	73.06
294.603	84.06
294.833	74.06
295.064	85.06
295.295	83.06
295.525	79.06
295.756	78.06
295.987	80.06
296.217	78.06
296.448	92.06
296.679	88.06
296.909	92.06
297.14	87.06
297.37	79.06
297.601	76.06
297.831	84.06
298.062	86.06
298.292	86.06
298.523	94.06
298.753	87.06
298.984	88.06
299.214	104.06
299.445	90.06
299.675	83.06
299.905	76.06
300.136	69.06
300.366	82.06
300.597	86.06
300.827	95.06
301.057	88.06
301.288	90.06
301.518	69.06
301.748	93.06
301.979	92.06
302.209	89.06
302.439	76.06
302.669	86.06
302.9	86.06
303.13	73.06
303.36	81.06
303.59	93.06
303.82	77.06
304.051	83.06
304.281	86.06
304.511	92.06
304.741	83.06
304.971	82.06
305.201	94.06
305.431	85.06
305.661	103.06
305.891	83.06
306.121	83.06
306.352	72.06
306.582	91.06
306.812	79.06
307.042	91.06
307.272	70.06
307.502	83.06
307.731	71.06
307.961	84.06
308.191	93.06
308.421	91.06
308.651	76.06
308.881	75.06
309.111	85.06
309.341	92.06
309.571	81.06
309.8	85.06
310.03	91.06
310.26	103.06
310.49	75.06
310.72	83.06
310.949	86.06
311.179	84.06
311.409	67.06
311.639	78.06
311.868	82.06
312.098	85.06
312.328	88.06
312.557	82.06
312.787	73.06
313.017	92.06
313.246	81.06
313.476	85.06
313.706	80.06
313.935	84.06
314.165	83.06
314.394	79.06
314.624	65.06
314.853	70.06
315.083	79.06
315.312	87.06
315.542	79.06
315.771	90.06
316.001	89.06
316.23	85.06
316.46	89.06
316.689	67.06
316.919	84.06
317.148	90.06
317.377	84.06
317.607	79.06
317.836	75.06
318.065	80.06
318.295	78.06
318.524	78.06
318.753	86.06
318.983	75.06
319.212	83.06
319.441	91.06
319.67	82.06
319.9	87.06
320.129	78.06
320.358	80.06
320.587	81.06
320.816	82.06
321.046	89.06
321.275	89.06
321.504	100.06
321.733	90.06
321.962	84.06
322.191	75.06
322.42	70.06
322.649	67.06
322.878	88.06
323.108	66.06
323.337	90.06
323.566	80.06
323.795	91.06
324.024	82.06
324.253	79.06
324.482	87.06
324.71	85.06
324.939	79.06
325.168	95.06
325.397	86.06
325.626	91.06
325.855	87.06
326.084	99.06
326.313	83.06
326.542	89.06
326.77	82.06
326.999	78.06
327.228	87.06
327.457	83.06
327.686	87.06
327.914	78.06
328.143	90.06
328.372	70.06
328.6	82.06
328.829	94.06
329.058	86.06
329.287	87.06
329.515	89.06
329.744	91.06
329.972	78.06
330.201	84.06
330.43	87.06
330.658	88.06
330.887	73.06
331.115	80.06
331.344	97.06
331.572	76.06
331.801	87.06
332.03	85.06
332.258	85.06
332.486	83.06
332.715	76.06
332.943	81.06
333.172	83.06
333.4	87.06
333.629	76.06
333.857	84.06
334.085	86.06
334.314	80.06
334.542	78.06
334.771	83.06
334.999	86.06
335.227	85.06
335.455	70.06
335.684	88.06
335.912	75.06
336.14	84.06
336.369	73.06
336.597	74.06
336.825	87.06
337.053	91.06
337.281	70.06
337.51	60.06
337.738	84.06
337.966	68.06
338.194	83.06
338.422	90.06
338.65	92.06
338.878	82.06
339.106	88.06
339.334	87.06
339.562	70.06
339.79	80.06
340.018	77.06
340.246	86.06
340.474	82.06
340.702	73.06
340.93	80.06
341.158	84.06
341.386	90.06
341.614	79.06
341.842	87.06
342.07	77.06
342.298	92.06
342.526	83.06
342.754	82.06
342.981	77.06
343.209	82.06
343.437	96.06
343.665	71.06
343.893	77.06
344.12	64.06
344.348	87.06
344.576	84.06
344.804	82.06
345.031	64.06
345.259	70.06
345.487	74.06
345.714	96.06
345.942	87.06
346.17	76.06
346.397	93.06
346.625	78.06
346.853	75.06
347.08	86.06
347.308	91.06
347.535	92.06
347.763	84.06
347.99	89.06
348.218	78.06
348.445	71.06
348.673	77.06
348.9	84.06
349.128	89.06
349.355	88.06
349.583	94.06
349.81	84.06
350.037	69.06
350.265	88.06
350.492	95.06
350.72	78.06
350.947	81.06
351.174	89.06
351.402	76.06
351.629	86.06
351.856	89.06
352.083	85.06
352.311	88.06
352.538	84.06
352.765	85.06
352.992	80.06
353.22	80.06
353.447	82.06
353.674	97.06
353.901	80.06
354.128	88.06
354.355	76.06
354.583	78.06
354.81	71.06
355.037	84.06
355.264	86.06
355.491	88.06
355.718	82.06
355.945	91.06
356.172	76.06
356.399	94.06
356.626	83.06
356.853	72.06
357.08	88.06
357.307	84.06
357.534	80.06
357.761	82.06
357.988	90.06
358.215	82.06
358.441	88.06
358.668	94.06
358.895	83.06
359.122	75.06
359.349	82.06
359.576	71.06
359.802	84.06
360.029	77.06
360.256	84.06
360.483	79.06
360.709	90.06
360.936	75.06
361.163	71.06
361.39	75.06
361.616	86.06
361.843	78.06
362.07	82.06
362.296	94.06
362.523	68.06
362.749	75.06
362.976	80.06
363.203	84.06
363.429	87.06
363.656	95.06
363.882	76.06
364.109	91.06
364.335	83.06
364.562	77.06
364.788	85.06
365.015	87.06
365.241	87.06
365.468	82.06
365.694	85.06
365.92	74.06
366.147	72.06
366.373	68.06
366.599	100.06
366.826	82.06
367.052	88.06
367.278	58.06
367.505	99.06
367.731	103.06
367.957	69.06
368.184	82.06
368.41	80.06
368.636	83.06
368.862	86.06
369.089	84.06
369.315	68.06
369.541	80.06
369.767	80.06
369.993	85.06
370.219	74.06
370.445	84.06
370.672	71.06
370.898	74.06
371.124	67.06
371.35	76.06
371.576	83.06
371.802	78.06
372.028	87.06
372.254	84.06
372.48	80.06
372.706	93.06
372.932	82.06
373.158	64.06
373.384	93.06
373.61	99.06
373.835	89.06
374.061	78.06
374.287	79.06
374.513	74.06
374.739	84.06
374.965	74.06
375.191	82.06
375.416	87.06
375.642	92.06
375.868	83.06
376.094	76.06
376.319	75.06
376.545	86.06
376.771	72.06
376.997	79.06
377.222	92.06
377.448	86.06
377.674	86.06
377.899	86.06
378.125	91.06
378.35	79.06
378.576	75.06
378.802	86.06
379.027	84.06
379.253	87.06
379.478	94.06
379.704	82.06
379.929	72.06
380.155	80.06
380.38	89.06
380.606	80.06
380.831	95.06
381.057	83.06
381.282	82.06
381.507	84.06
381.733	69.06
381.958	87.06
382.184	96.06
382.409	75.06
382.634	80.06
382.86	86.06
383.085	74.06
383.31	87.06
383.535	81.06
383.761	65.06
383.986	72.06
384.211	81.06
384.436	80.06
384.662	78.06
384.887	95.06
385.112	85.06
385.337	71.06
385.562	78.06
385.787	65.06
386.013	84.06
386.238	84.06
386.463	83.06
386.688	105.06
386.913	89.06
387.138	77.06
387.363	90.06
387.588	63.06
387.813	87.06
388.038	72.06
388.263	84.06
388.488	73.06
388.713	84.06
388.938	72.06
389.163	77.06
389.387	90.06
389.612	94.06
389.837	85.06
390.062	73.06
390.287	81.06
390.512	72.06
390.736	96.06
390.961	74.06
391.186	89.06
391.411	79.06
391.636	91.06
391.86	80.06
392.085	80.06
392.31	80.06
392.534	83.06
392.759	88.06
392.984	81.06
393.208	105.06
393.433	98.06
393.658	93.06
393.882	79.06
394.107	79.06
394.331	69.06
394.556	80.06
394.78	81.06
395.005	81.06
395.229	84.06
395.454	76.06
395.678	76.06
395.903	100.06
396.127	79.06
396.352	82.06
396.576	82.06
396.801	88.06
397.025	80.06
397.249	85.06
397.474	85.06
397.698	92.06
397.922	82.06
398.147	62.06
398.371	92.06
398.595	71.06
398.82	86.06
399.044	82.06
399.268	83.06
399.492	78.06
399.717	85.06
399.941	88.06
400.165	93.06
400.389	77.06
400.613	87.06
400.837	75.06
401.062	94.06
401.286	79.06
401.51	79.06
401.734	86.06
401.958	78.06
402.182	84.06
402.406	71.06
402.63	71.06
402.854	94.06
403.078	79.06
403.302	85.06
403.526	74.06
403.75	83.06
403.974	83.06
404.198	75.06
404.422	80.06
404.645	71.06
404.869	79.06
405.093	82.06
405.317	87.06
405.541	94.06
405.765	65.06
405.988	85.06
406.212	80.06
406.436	77.06
406.66	86.06
406.883	94.06
407.107	73.06
407.331	72.06
407.555	63.06
407.778	106.06
408.002	80.06
408.226	70.06
408.449	96.06
408.673	87.06
408.896	70.06
409.12	75.06
409.344	78.06
409.567	86.06
409.791	84.06
410.014	80.06
410.238	70.06
410.461	83.06
410.685	70.06
410.908	77.06
411.132	79.06
411.355	82.06
411.578	78.06
411.802	82.06
412.025	77.06
412.249	75.06
412.472	85.06
412.695	82.06
412.919	74.06
413.142	88.06
413.365	68.06
413.589	72.06
413.812	75.06
414.035	85.06
414.258	78.06
414.482	74.06
414.705	88.06
414.928	83.06
415.151	65.06
415.374	82.06
415.597	74.06
415.821	72.06
416.044	81.06
416.267	84.06
416.49	82.06
416.713	95.06
416.936	90.06
417.159	78.06
417.382	80.06
417.605	73.06
417.828	76.06
418.051	73.06
418.274	72.06
418.497	93.06
418.72	88.06
418.943	77.06
419.166	83.06
419.389	78.06
419.611	70.06
419.834	92.06
420.057	85.06
420.28	77.06
420.503	78.06
420.726	83.06
420.948	99.06
421.171	91.06
421.394	87.06
421.617	70.06
421.839	83.06
422.062	78.06
422.285	85.06
422.507	91.06
422.73	96.06
422.953	89.06
423.175	106.06
423.398	103.06
423.621	87.06
423.843	89.06
424.066	70.06
424.288	95.06
424.511	70.06
424.733	82.06
424.956	85.06
425.178	69.06
425.401	76.06
425.623	84.06
425.846	62.06
426.068	78.06
426.291	71.06
426.513	82.06
426.735	74.06
426.958	78.06
427.18	73.06
427.402	75.06
427.625	83.06
427.847	80.06
428.069	72.06
428.292	86.06
428.514	74.06
428.736	82.06
428.958	89.06
429.181	76.06
429.403	82.06
429.625	91.06
429.847	72.06
430.069	74.06
430.292	95.06
430.514	90.06
430.736	79.06
430.958	86.06
431.18	61.06
431.402	76.06
431.624	81.06
431.846	77.06
432.068	93.06
432.29	79.06
432.512	92.06
432.734	84.06
432.956	76.06
433.178	81.06
433.4	92.06
433.622	89.06
433.844	70.06
434.066	83.06
434.287	98.06
434.509	80.06
434.731	104.06
434.953	69.06
435.175	76.06
435.397	86.06
435.618	79.06
435.84	80.06
436.062	79.06
436.284	68.06
436.505	71.06
436.727	74.06
436.949	76.06
437.17	74.06
437.392	70.06
437.614	94.06
437.835	79.06
438.057	82.06
438.278	81.06
438.5	79.06
438.721	71.06
438.943	86.06
439.165	80.06
439.386	72.06
439.608	78.06
439.829	80.06
440.05	84.06
440.272	80.06
440.493	80.06
440.715	78.06
440.936	93.06
441.158	93.06
441.379	78.06
441.6	76.06
441.822	93.06
442.043	83.06
442.264	80.06
442.486	93.06
442.707	79.06
442.928	72.06
443.149	90.06
443.371	81.06
443.592	82.06
443.813	77.06
444.034	69.06
444.255	86.06
444.476	93.06
444.698	82.06
444.919	77.06
445.14	149.06
445.361	112.06
445.582	101.06
445.803	104.06
446.024	79.06
446.245	81.06
446.466	85.06
446.687	77.06
446.908	83.06
447.129	76.06
447.35	79.06
447.571	83.06
447.792	83.06
448.013	78.06
448.234	82.06
448.455	85.06
448.675	76.06
448.896	70.06
449.117	75.06
449.338	82.06
449.559	82.06
449.779	77.06
450	74.06
450.221	78.06
450.442	90.06
450.662	74.06
450.883	75.06
451.104	77.06
451.324	70.06
451.545	83.06
451.766	75.06
451.986	72.06
452.207	77.06
452.428	83.06
452.648	98.06
452.869	96.06
453.089	74.06
453.31	75.06
453.53	82.06
453.751	82.06
453.971	85.06
454.192	77.06
454.412	85.06
454.633	94.06
454.853	89.06
455.073	69.06
455.294	83.06
455.514	78.06
455.734	80.06
455.955	79.06
456.175	75.06
456.395	83.06
456.616	80.06
456.836	76.06
457.056	89.06
457.276	84.06
457.497	76.06
457.717	83.06
457.937	85.06
458.157	75.06
458.377	73.06
458.598	79.06
458.818	84.06
459.038	89.06
459.258	91.06
459.478	74.06
459.698	81.06
459.918	87.06
460.138	82.06
460.358	87.06
460.578	91.06
460.798	79.06
461.018	75.06
461.238	74.06
461.458	90.06
461.678	84.06
461.898	68.06
462.118	81.06
462.338	81.06
462.558	77.06
462.777	64.06
462.997	67.06
463.217	84.06
463.437	66.06
463.657	72.06
463.876	76.06
464.096	66.06
464.316	69.06
464.536	65.06
464.755	78.06
464.975	84.06
465.195	75.06
465.414	74.06
465.634	88.06
465.854	80.06
466.073	81.06
466.293	80.06
466.512	79.06
466.732	76.06
466.951	91.06
467.171	78.06
467.391	93.06
467.61	80.06
467.829	77.06
468.049	70.06
468.268	82.06
468.488	77.06
468.707	70.06
468.927	86.06
469.146	86.06
469.365	77.06
469.585	90.06
469.804	78.06
470.023	62.06
470.243	73.06
470.462	93.06
470.681	79.06
470.901	95.06
471.12	78.06
471.339	79.06
471.558	73.06
471.777	77.06
471.997	92.06
472.216	89.06
472.435	78.06
472.654	73.06
472.873	82.06
473.092	79.06
473.311	76.06
473.53	76.06
473.749	72.06
473.968	94.06
474.187	82.06
474.406	68.06
474.625	82.06
474.844	77.06
475.063	76.06
475.282	79.06
475.501	82.06
475.72	80.06
475.939	74.06
476.158	93.06
476.377	75.06
476.596	80.06
476.814	75.06
477.033	67.06
477.252	79.06
477.471	81.06
477.69	86.06
477.908	84.06
478.127	98.06
478.346	86.06
478.564	72.06
478.783	70.06
479.002	65.06
479.22	87.06
479.439	79.06
479.658	83.06
479.876	74.06
480.095	78.06
480.313	71.06
480.532	80.06
480.751	62.06
480.969	84.06
481.188	75.06
481.406	84.06
481.624	78.06
481.843	96.06
482.061	63.06
482.28	72.06
482.498	81.06
482.717	85.06
482.935	71.06
483.153	72.06
483.372	77.06
483.59	84.06
483.808	80.06
484.027	81.06
484.245	87.06
484.463	82.06
484.681	99.06
484.9	88.06
485.118	86.06
485.336	90.06
485.554	78.06
485.772	79.06
485.99	87.06
486.209	80.06
486.427	81.06
486.645	79.06
486.863	79.06
487.081	65.06
487.299	75.06
487.517	84.06
487.735	98.06
487.953	88.06
488.171	83.06
488.389	87.06
488.607	84.06
488.825	99.06
489.043	85.06
489.261	87.06
489.479	86.06
489.696	70.06
489.914	89.06
490.132	74.06
490.35	87.06
490.568	93.06
490.786	75.06
491.003	100.06
491.221	76.06
491.439	69.06
491.657	66.06
491.874	80.06
492.092	89.06
492.31	84.06
492.527	87.06
492.745	82.06
492.963	86.06
493.18	83.06
493.398	84.06
493.615	86.06
493.833	71.06
494.05	78.06
494.268	76.06
494.485	90.06
494.703	75.06
494.92	83.06
495.138	85.06
495.355	76.06
495.573	94.06
495.79	89.06
496.008	87.06
496.225	87.06
496.442	81.06
496.66	82.06
496.877	96.06
497.094	81.06
497.312	74.06
497.529	75.06
497.746	94.06
497.963	80.06
498.181	95.06
498.398	81.06
498.615	82.06
498.832	90.06
499.049	71.06
499.267	76.06
499.484	89.06
499.701	90.06
499.918	72.06
500.135	74.06
500.352	76.06
500.569	84.06
500.786	91.06
501.003	91.06
501.22	67.06
501.437	85.06
501.654	78.06
501.871	74.06
502.088	82.06
502.305	79.06
502.522	72.06
502.739	77.06
502.956	85.06
503.172	94.06
503.389	83.06
503.606	59.06
503.823	79.06
504.04	82.06
504.256	82.06
504.473	83.06
504.69	88.06
504.907	72.06
505.123	77.06
505.34	82.06
505.557	76.06
505.773	94.06
505.99	82.06
506.207	95.06
506.423	86.06
506.64	85.06
506.856	80.06
507.073	87.06
507.289	79.06
507.506	72.06
507.722	87.06
507.939	77.06
508.155	88.06
508.372	85.06
508.588	71.06
508.805	71.06
509.021	80.06
509.238	92.06
509.454	71.06
509.67	72.06
509.887	62.06
510.103	93.06
510.319	81.06
510.536	72.06
510.752	87.06
510.968	82.06
511.184	84.06
511.401	81.06
511.617	81.06
511.833	87.06
512.049	73.06
512.265	76.06
512.481	83.06
512.698	82.06
512.914	86.06
513.13	91.06
513.346	69.06
513.562	83.06
513.778	87.06
513.994	97.06
514.21	74.06
514.426	63.06
514.642	81.06
514.858	88.06
515.074	83.06
515.29	86.06
515.506	74.06
515.721	70.06
515.937	77.06
516.153	78.06
516.369	89.06
516.585	72.06
516.801	89.06
517.016	82.06
517.232	88.06
517.448	91.06
517.664	68.06
517.879	80.06
518.095	76.06
518.311	84.06
518.527	78.06
518.742	76.06
518.958	88.06
519.173	85.06
519.389	82.06
519.605	66.06
519.82	76.06
520.036	105.06
