Data from Circ_2014_H10_HRD10591_00033.txt Node
Date: Wed Jan 03 10:02:15 EST 2024
User: Yrep
Spectrometer: HR+D1059
Trigger mode: 1
Integration Time (sec): 1.000000E-1
Scans to average: 1
Electric dark correction enabled: true
Nonlinearity correction enabled: false
Boxcar width: 0
XAxis mode: Wavelengths
Number of Pixels in Spectrum: 2048
>>>>>Begin Spectral Data<<<<<
223.165	-16.88
223.4	-16.88
223.635	-16.88
223.869	-18.88
224.104	-21.88
224.338	-12.88
224.573	-13.88
224.808	-6.88
225.042	-17.88
225.277	-11.88
225.511	-7.88
225.746	-0.88
225.98	8.12
226.215	11.12
226.449	20.12
226.683	32.12
226.918	26.12
227.152	32.12
227.387	23.12
227.621	38.12
227.856	42.12
228.09	51.12
228.324	37.12
228.559	58.12
228.793	56.12
229.027	43.12
229.262	67.12
229.496	70.12
229.73	78.12
229.964	61.12
230.199	80.12
230.433	77.12
230.667	70.12
230.901	65.12
231.136	76.12
231.37	75.12
231.604	79.12
231.838	83.12
232.072	72.12
232.306	75.12
232.541	78.12
232.775	72.12
233.009	83.12
233.243	98.12
233.477	90.12
233.711	94.12
233.945	89.12
234.179	91.12
234.413	71.12
234.647	75.12
234.881	74.12
235.115	80.12
235.349	73.12
235.583	94.12
235.817	77.12
236.051	89.12
236.285	86.12
236.519	56.12
236.753	78.12
236.987	95.12
237.221	82.12
237.455	77.12
237.689	75.12
237.922	76.12
238.156	79.12
238.39	76.12
238.624	77.12
238.858	82.12
239.091	68.12
239.325	78.12
239.559	83.12
239.793	86.12
240.027	80.12
240.26	70.12
240.494	78.12
240.728	72.12
240.961	85.12
241.195	83.12
241.429	77.12
241.662	89.12
241.896	70.12
242.13	80.12
242.363	72.12
242.597	64.12
242.83	67.12
243.064	84.12
243.298	77.12
243.531	78.12
243.765	75.12
243.998	82.12
244.232	85.12
244.465	86.12
244.699	79.12
244.932	79.12
245.166	63.12
245.399	83.12
245.633	86.12
245.866	74.12
246.099	75.12
246.333	79.12
246.566	77.12
246.8	83.12
247.033	69.12
247.266	76.12
247.5	90.12
247.733	80.12
247.966	70.12
248.2	80.12
248.433	67.12
248.666	79.12
248.899	76.12
249.133	76.12
249.366	97.12
249.599	100.12
249.832	91.12
250.066	86.12
250.299	95.12
250.532	74.12
250.765	68.12
250.998	84.12
251.231	90.12
251.465	67.12
251.698	76.12
251.931	85.12
252.164	82.12
252.397	70.12
252.63	67.12
252.863	73.12
253.096	83.12
253.329	68.12
253.562	93.12
253.795	76.12
254.028	92.12
254.261	78.12
254.494	90.12
254.727	81.12
254.96	75.12
255.193	94.12
255.426	79.12
255.659	69.12
255.892	66.12
256.124	80.12
256.357	85.12
256.59	94.12
256.823	81.12
257.056	86.12
257.289	84.12
257.521	90.12
257.754	79.12
257.987	80.12
258.22	87.12
258.452	95.12
258.685	80.12
258.918	70.12
259.151	68.12
259.383	85.12
259.616	87.12
259.849	86.12
260.081	77.12
260.314	83.12
260.547	86.12
260.779	82.12
261.012	87.12
261.244	92.12
261.477	80.12
261.71	88.12
261.942	123.12
262.175	117.12
262.407	89.12
262.64	82.12
262.872	82.12
263.105	77.12
263.337	85.12
263.57	93.12
263.802	91.12
264.035	86.12
264.267	78.12
264.499	63.12
264.732	83.12
264.964	91.12
265.197	88.12
265.429	85.12
265.661	91.12
265.894	88.12
266.126	88.12
266.358	92.12
266.591	77.12
266.823	62.12
267.055	75.12
267.287	85.12
267.52	83.12
267.752	78.12
267.984	90.12
268.216	74.12
268.448	96.12
268.681	60.12
268.913	84.12
269.145	86.12
269.377	89.12
269.609	115.12
269.841	88.12
270.073	91.12
270.306	75.12
270.538	76.12
270.77	78.12
271.002	79.12
271.234	60.12
271.466	97.12
271.698	87.12
271.93	93.12
272.162	86.12
272.394	77.12
272.626	85.12
272.858	69.12
273.09	72.12
273.322	87.12
273.553	89.12
273.785	90.12
274.017	97.12
274.249	89.12
274.481	86.12
274.713	75.12
274.945	90.12
275.176	78.12
275.408	84.12
275.64	93.12
275.872	88.12
276.104	78.12
276.335	84.12
276.567	106.12
276.799	118.12
277.031	98.12
277.262	88.12
277.494	85.12
277.726	78.12
277.957	86.12
278.189	95.12
278.421	82.12
278.652	82.12
278.884	87.12
279.115	93.12
279.347	89.12
279.579	92.12
279.81	77.12
280.042	79.12
280.273	95.12
280.505	84.12
280.736	86.12
280.968	93.12
281.199	94.12
281.431	93.12
281.662	81.12
281.894	96.12
282.125	91.12
282.356	109.12
282.588	143.12
282.819	111.12
283.051	76.12
283.282	88.12
283.513	119.12
283.745	86.12
283.976	99.12
284.207	84.12
284.439	90.12
284.67	96.12
284.901	94.12
285.132	90.12
285.364	99.12
285.595	88.12
285.826	100.12
286.057	80.12
286.288	83.12
286.52	86.12
286.751	81.12
286.982	90.12
287.213	86.12
287.444	98.12
287.675	83.12
287.906	89.12
288.138	97.12
288.369	85.12
288.6	83.12
288.831	91.12
289.062	98.12
289.293	100.12
289.524	97.12
289.755	86.12
289.986	77.12
290.217	89.12
290.448	92.12
290.679	95.12
290.91	94.12
291.141	95.12
291.371	86.12
291.602	79.12
291.833	85.12
292.064	103.12
292.295	85.12
292.526	88.12
292.757	93.12
292.987	87.12
293.218	90.12
293.449	84.12
293.68	102.12
293.91	92.12
294.141	88.12
294.372	73.12
294.603	85.12
294.833	82.12
295.064	88.12
295.295	101.12
295.525	90.12
295.756	82.12
295.987	110.12
296.217	138.12
296.448	121.12
296.679	98.12
296.909	84.12
297.14	90.12
297.37	79.12
297.601	100.12
297.831	88.12
298.062	79.12
298.292	84.12
298.523	80.12
298.753	77.12
298.984	78.12
299.214	90.12
299.445	80.12
299.675	96.12
299.905	101.12
300.136	97.12
300.366	80.12
300.597	93.12
300.827	80.12
301.057	102.12
301.288	95.12
301.518	80.12
301.748	86.12
301.979	95.12
302.209	92.12
302.439	103.12
302.669	88.12
302.9	74.12
303.13	100.12
303.36	88.12
303.59	94.12
303.82	118.12
304.051	96.12
304.281	82.12
304.511	91.12
304.741	77.12
304.971	103.12
305.201	94.12
305.431	96.12
305.661	83.12
305.891	89.12
306.121	100.12
306.352	91.12
306.582	109.12
306.812	95.12
307.042	83.12
307.272	91.12
307.502	76.12
307.731	99.12
307.961	95.12
308.191	93.12
308.421	89.12
308.651	89.12
308.881	81.12
309.111	105.12
309.341	110.12
309.571	105.12
309.8	87.12
310.03	90.12
310.26	87.12
310.49	98.12
310.72	101.12
310.949	111.12
311.179	101.12
311.409	87.12
311.639	102.12
311.868	97.12
312.098	103.12
312.328	100.12
312.557	98.12
312.787	100.12
313.017	95.12
313.246	88.12
313.476	95.12
313.706	88.12
313.935	91.12
314.165	95.12
314.394	108.12
314.624	105.12
314.853	87.12
315.083	83.12
315.312	87.12
315.542	83.12
315.771	73.12
316.001	88.12
316.23	92.12
316.46	93.12
316.689	95.12
316.919	94.12
317.148	82.12
317.377	87.12
317.607	104.12
317.836	104.12
318.065	87.12
318.295	83.12
318.524	83.12
318.753	87.12
318.983	93.12
319.212	107.12
319.441	103.12
319.67	108.12
319.9	96.12
320.129	104.12
320.358	95.12
320.587	100.12
320.816	98.12
321.046	93.12
321.275	103.12
321.504	103.12
321.733	80.12
321.962	96.12
322.191	87.12
322.42	100.12
322.649	111.12
322.878	97.12
323.108	109.12
323.337	124.12
323.566	116.12
323.795	151.12
324.024	194.12
324.253	366.12
324.482	768.12
324.71	1541.12
324.939	2063.12
325.168	798.12
325.397	233.12
325.626	128.12
325.855	134.12
326.084	114.12
326.313	130.12
326.542	159.12
326.77	232.12
326.999	410.12
327.228	848.12
327.457	1542.12
327.686	1266.12
327.914	350.12
328.143	187.12
328.372	144.12
328.6	131.12
328.829	105.12
329.058	132.12
329.287	117.12
329.515	115.12
329.744	98.12
329.972	101.12
330.201	111.12
330.43	111.12
330.658	119.12
330.887	147.12
331.115	127.12
331.344	118.12
331.572	110.12
331.801	96.12
332.03	89.12
332.258	96.12
332.486	103.12
332.715	84.12
332.943	102.12
333.172	101.12
333.4	101.12
333.629	104.12
333.857	113.12
334.085	101.12
334.314	108.12
334.542	119.12
334.771	119.12
334.999	99.12
335.227	95.12
335.455	87.12
335.684	95.12
335.912	95.12
336.14	97.12
336.369	89.12
336.597	100.12
336.825	93.12
337.053	103.12
337.281	90.12
337.51	87.12
337.738	87.12
337.966	97.12
338.194	98.12
338.422	98.12
338.65	98.12
338.878	99.12
339.106	82.12
339.334	101.12
339.562	90.12
339.79	81.12
340.018	85.12
340.246	102.12
340.474	92.12
340.702	99.12
340.93	87.12
341.158	90.12
341.386	107.12
341.614	101.12
341.842	98.12
342.07	91.12
342.298	98.12
342.526	96.12
342.754	88.12
342.981	90.12
343.209	74.12
343.437	86.12
343.665	88.12
343.893	96.12
344.12	77.12
344.348	96.12
344.576	85.12
344.804	83.12
345.031	82.12
345.259	92.12
345.487	98.12
345.714	103.12
345.942	106.12
346.17	94.12
346.397	84.12
346.625	89.12
346.853	84.12
347.08	86.12
347.308	90.12
347.535	89.12
347.763	107.12
347.99	102.12
348.218	105.12
348.445	112.12
348.673	94.12
348.9	91.12
349.128	66.12
349.355	97.12
349.583	97.12
349.81	98.12
350.037	94.12
350.265	98.12
350.492	93.12
350.72	92.12
350.947	93.12
351.174	94.12
351.402	94.12
351.629	103.12
351.856	104.12
352.083	102.12
352.311	106.12
352.538	107.12
352.765	141.12
352.992	114.12
353.22	96.12
353.447	106.12
353.674	99.12
353.901	88.12
354.128	94.12
354.355	108.12
354.583	101.12
354.81	95.12
355.037	83.12
355.264	91.12
355.491	94.12
355.718	99.12
355.945	91.12
356.172	99.12
356.399	91.12
356.626	102.12
356.853	96.12
357.08	100.12
357.307	79.12
357.534	89.12
357.761	98.12
357.988	99.12
358.215	102.12
358.441	95.12
358.668	97.12
358.895	100.12
359.122	82.12
359.349	77.12
359.576	93.12
359.802	116.12
360.029	110.12
360.256	124.12
360.483	89.12
360.709	84.12
360.936	98.12
361.163	102.12
361.39	91.12
361.616	103.12
361.843	84.12
362.07	105.12
362.296	101.12
362.523	84.12
362.749	96.12
362.976	95.12
363.203	90.12
363.429	87.12
363.656	95.12
363.882	99.12
364.109	94.12
364.335	99.12
364.562	99.12
364.788	96.12
365.015	99.12
365.241	93.12
365.468	103.12
365.694	114.12
365.92	108.12
366.147	95.12
366.373	88.12
366.599	88.12
366.826	95.12
367.052	89.12
367.278	89.12
367.505	91.12
367.731	81.12
367.957	96.12
368.184	96.12
368.41	101.12
368.636	103.12
368.862	121.12
369.089	110.12
369.315	82.12
369.541	88.12
369.767	91.12
369.993	95.12
370.219	97.12
370.445	87.12
370.672	94.12
370.898	87.12
371.124	98.12
371.35	99.12
371.576	88.12
371.802	78.12
372.028	80.12
372.254	94.12
372.48	88.12
372.706	82.12
372.932	80.12
373.158	88.12
373.384	91.12
373.61	97.12
373.835	89.12
374.061	88.12
374.287	93.12
374.513	90.12
374.739	87.12
374.965	77.12
375.191	105.12
375.416	83.12
375.642	94.12
375.868	91.12
376.094	87.12
376.319	102.12
376.545	77.12
376.771	71.12
376.997	109.12
377.222	90.12
377.448	87.12
377.674	85.12
377.899	100.12
378.125	87.12
378.35	100.12
378.576	104.12
378.802	101.12
379.027	98.12
379.253	93.12
379.478	96.12
379.704	116.12
379.929	87.12
380.155	86.12
380.38	102.12
380.606	99.12
380.831	82.12
381.057	115.12
381.282	89.12
381.507	95.12
381.733	93.12
381.958	100.12
382.184	105.12
382.409	110.12
382.634	106.12
382.86	111.12
383.085	100.12
383.31	117.12
383.535	110.12
383.761	124.12
383.986	94.12
384.211	103.12
384.436	95.12
384.662	109.12
384.887	102.12
385.112	110.12
385.337	104.12
385.562	97.12
385.787	102.12
386.013	127.12
386.238	115.12
386.463	106.12
386.688	99.12
386.913	99.12
387.138	105.12
387.363	118.12
387.588	119.12
387.813	117.12
388.038	89.12
388.263	114.12
388.488	99.12
388.713	104.12
388.938	96.12
389.163	92.12
389.387	94.12
389.612	94.12
389.837	86.12
390.062	106.12
390.287	101.12
390.512	97.12
390.736	114.12
390.961	96.12
391.186	85.12
391.411	91.12
391.636	94.12
391.86	90.12
392.085	79.12
392.31	84.12
392.534	84.12
392.759	92.12
392.984	85.12
393.208	91.12
393.433	103.12
393.658	90.12
393.882	80.12
394.107	99.12
394.331	81.12
394.556	89.12
394.78	97.12
395.005	79.12
395.229	88.12
395.454	85.12
395.678	85.12
395.903	92.12
396.127	82.12
396.352	83.12
396.576	77.12
396.801	86.12
397.025	81.12
397.249	85.12
397.474	97.12
397.698	101.12
397.922	87.12
398.147	86.12
398.371	89.12
398.595	83.12
398.82	89.12
399.044	94.12
399.268	101.12
399.492	98.12
399.717	90.12
399.941	92.12
400.165	98.12
400.389	87.12
400.613	79.12
400.837	79.12
401.062	110.12
401.286	96.12
401.51	84.12
401.734	100.12
401.958	96.12
402.182	146.12
402.406	170.12
402.63	110.12
402.854	102.12
403.078	104.12
403.302	99.12
403.526	109.12
403.75	88.12
403.974	82.12
404.198	91.12
404.422	92.12
404.645	98.12
404.869	90.12
405.093	91.12
405.317	99.12
405.541	84.12
405.765	91.12
405.988	116.12
406.212	166.12
406.436	247.12
406.66	152.12
406.883	99.12
407.107	84.12
407.331	101.12
407.555	91.12
407.778	108.12
408.002	85.12
408.226	92.12
408.449	89.12
408.673	82.12
408.896	96.12
409.12	86.12
409.344	103.12
409.567	83.12
409.791	94.12
410.014	91.12
410.238	94.12
410.461	87.12
410.685	89.12
410.908	102.12
411.132	108.12
411.355	108.12
411.578	93.12
411.802	84.12
412.025	76.12
412.249	86.12
412.472	88.12
412.695	94.12
412.919	111.12
413.142	93.12
413.365	91.12
413.589	83.12
413.812	91.12
414.035	99.12
414.258	100.12
414.482	101.12
414.705	98.12
414.928	94.12
415.151	92.12
415.374	101.12
415.597	95.12
415.821	91.12
416.044	94.12
416.267	91.12
416.49	84.12
416.713	84.12
416.936	82.12
417.159	87.12
417.382	96.12
417.605	84.12
417.828	91.12
418.051	91.12
418.274	102.12
418.497	87.12
418.72	94.12
418.943	104.12
419.166	86.12
419.389	92.12
419.611	101.12
419.834	98.12
420.057	101.12
420.28	86.12
420.503	88.12
420.726	90.12
420.948	99.12
421.171	95.12
421.394	91.12
421.617	86.12
421.839	86.12
422.062	98.12
422.285	95.12
422.507	99.12
422.73	85.12
422.953	92.12
423.175	95.12
423.398	94.12
423.621	96.12
423.843	84.12
424.066	89.12
424.288	98.12
424.511	95.12
424.733	88.12
424.956	95.12
425.178	107.12
425.401	93.12
425.623	101.12
425.846	113.12
426.068	94.12
426.291	100.12
426.513	91.12
426.735	106.12
426.958	103.12
427.18	106.12
427.402	141.12
427.625	167.12
427.847	138.12
428.069	114.12
428.292	73.12
428.514	90.12
428.736	79.12
428.958	82.12
429.181	82.12
429.403	99.12
429.625	87.12
429.847	111.12
430.069	100.12
430.292	104.12
430.514	91.12
430.736	79.12
430.958	85.12
431.18	81.12
431.402	95.12
431.624	85.12
431.846	101.12
432.068	77.12
432.29	83.12
432.512	83.12
432.734	89.12
432.956	83.12
433.178	93.12
433.4	103.12
433.622	90.12
433.844	89.12
434.066	83.12
434.287	84.12
434.509	98.12
434.731	106.12
434.953	94.12
435.175	100.12
435.397	99.12
435.618	87.12
435.84	87.12
436.062	117.12
436.284	117.12
436.505	86.12
436.727	104.12
436.949	95.12
437.17	73.12
437.392	87.12
437.614	105.12
437.835	104.12
438.057	109.12
438.278	111.12
438.5	104.12
438.721	119.12
438.943	105.12
439.165	88.12
439.386	90.12
439.608	97.12
439.829	103.12
440.05	123.12
440.272	136.12
440.493	103.12
440.715	84.12
440.936	95.12
441.158	88.12
441.379	93.12
441.6	89.12
441.822	86.12
442.043	109.12
442.264	103.12
442.486	100.12
442.707	94.12
442.928	120.12
443.149	138.12
443.371	132.12
443.592	99.12
443.813	118.12
444.034	103.12
444.255	90.12
444.476	102.12
444.698	83.12
444.919	101.12
445.14	127.12
445.361	114.12
445.582	116.12
445.803	123.12
446.024	131.12
446.245	131.12
446.466	118.12
446.687	91.12
446.908	96.12
447.129	92.12
447.35	90.12
447.571	83.12
447.792	93.12
448.013	94.12
448.234	96.12
448.455	100.12
448.675	122.12
448.896	110.12
449.117	104.12
449.338	90.12
449.559	124.12
449.779	116.12
450	91.12
450.221	90.12
450.442	90.12
450.662	96.12
450.883	98.12
451.104	115.12
451.324	94.12
451.545	82.12
451.766	74.12
451.986	72.12
452.207	90.12
452.428	95.12
452.648	103.12
452.869	125.12
453.089	117.12
453.31	122.12
453.53	90.12
453.751	105.12
453.971	108.12
454.192	114.12
454.412	102.12
454.633	90.12
454.853	95.12
455.073	99.12
455.294	81.12
455.514	99.12
455.734	98.12
455.955	77.12
456.175	82.12
456.395	82.12
456.616	95.12
456.836	89.12
457.056	86.12
457.276	87.12
457.497	78.12
457.717	92.12
457.937	90.12
458.157	91.12
458.377	91.12
458.598	106.12
458.818	147.12
459.038	151.12
459.258	121.12
459.478	84.12
459.698	92.12
459.918	104.12
460.138	99.12
460.358	77.12
460.578	99.12
460.798	86.12
461.018	97.12
461.238	76.12
461.458	79.12
461.678	97.12
461.898	88.12
462.118	84.12
462.338	87.12
462.558	94.12
462.777	77.12
462.997	79.12
463.217	75.12
463.437	87.12
463.657	76.12
463.876	102.12
464.096	89.12
464.316	100.12
464.536	79.12
464.755	106.12
464.975	103.12
465.195	166.12
465.414	162.12
465.634	104.12
465.854	78.12
466.073	90.12
466.293	89.12
466.512	91.12
466.732	76.12
466.951	89.12
467.171	91.12
467.391	95.12
467.61	109.12
467.829	103.12
468.049	95.12
468.268	107.12
468.488	74.12
468.707	82.12
468.927	102.12
469.146	83.12
469.365	88.12
469.585	84.12
469.804	90.12
470.023	83.12
470.243	88.12
470.462	104.12
470.681	111.12
470.901	86.12
471.12	95.12
471.339	87.12
471.558	76.12
471.777	93.12
471.997	85.12
472.216	97.12
472.435	107.12
472.654	87.12
472.873	77.12
473.092	85.12
473.311	75.12
473.53	85.12
473.749	86.12
473.968	96.12
474.187	98.12
474.406	85.12
474.625	91.12
474.844	105.12
475.063	85.12
475.282	80.12
475.501	77.12
475.72	87.12
475.939	89.12
476.158	79.12
476.377	94.12
476.596	105.12
476.814	94.12
477.033	90.12
477.252	85.12
477.471	99.12
477.69	82.12
477.908	95.12
478.127	84.12
478.346	94.12
478.564	88.12
478.783	101.12
479.002	87.12
479.22	90.12
479.439	94.12
479.658	93.12
479.876	96.12
480.095	89.12
480.313	89.12
480.532	100.12
480.751	101.12
480.969	105.12
481.188	145.12
481.406	142.12
481.624	96.12
481.843	96.12
482.061	98.12
482.28	101.12
482.498	95.12
482.717	86.12
482.935	103.12
483.153	78.12
483.372	85.12
483.59	78.12
483.808	82.12
484.027	93.12
484.245	103.12
484.463	99.12
484.681	97.12
484.9	99.12
485.118	71.12
485.336	98.12
485.554	87.12
485.772	98.12
485.99	105.12
486.209	96.12
486.427	93.12
486.645	102.12
486.863	101.12
487.081	116.12
487.299	106.12
487.517	102.12
487.735	96.12
487.953	100.12
488.171	93.12
488.389	105.12
488.607	110.12
488.825	88.12
489.043	81.12
489.261	84.12
489.479	101.12
489.696	91.12
489.914	104.12
490.132	114.12
490.35	93.12
490.568	95.12
490.786	79.12
491.003	100.12
491.221	94.12
491.439	90.12
491.657	81.12
491.874	90.12
492.092	105.12
492.31	90.12
492.527	104.12
492.745	83.12
492.963	84.12
493.18	81.12
493.398	92.12
493.615	80.12
493.833	111.12
494.05	87.12
494.268	82.12
494.485	80.12
494.703	91.12
494.92	91.12
495.138	78.12
495.355	87.12
495.573	84.12
495.79	65.12
496.008	94.12
496.225	88.12
496.442	84.12
496.66	94.12
496.877	108.12
497.094	84.12
497.312	91.12
497.529	77.12
497.746	79.12
497.963	91.12
498.181	96.12
498.398	90.12
498.615	98.12
498.832	93.12
499.049	96.12
499.267	92.12
499.484	94.12
499.701	95.12
499.918	85.12
500.135	95.12
500.352	88.12
500.569	93.12
500.786	92.12
501.003	82.12
501.22	84.12
501.437	92.12
501.654	93.12
501.871	107.12
502.088	96.12
502.305	77.12
502.522	90.12
502.739	77.12
502.956	101.12
503.172	88.12
503.389	93.12
503.606	104.12
503.823	83.12
504.04	95.12
504.256	91.12
504.473	97.12
504.69	99.12
504.907	87.12
505.123	97.12
505.34	101.12
505.557	75.12
505.773	79.12
505.99	83.12
506.207	100.12
506.423	87.12
506.64	80.12
506.856	95.12
507.073	83.12
507.289	84.12
507.506	94.12
507.722	100.12
507.939	120.12
508.155	108.12
508.372	90.12
508.588	87.12
508.805	91.12
509.021	101.12
509.238	96.12
509.454	105.12
509.67	102.12
509.887	90.12
510.103	127.12
510.319	209.12
510.536	768.12
510.752	2543.12
510.968	730.12
511.184	157.12
511.401	114.12
511.617	106.12
511.833	98.12
512.049	102.12
512.265	95.12
512.481	102.12
512.698	86.12
512.914	101.12
513.13	86.12
513.346	94.12
513.562	84.12
513.778	91.12
513.994	93.12
514.21	105.12
514.426	116.12
514.642	122.12
514.858	127.12
515.074	168.12
515.29	426.12
