Data from Circ_2014_H10_HRD10591_00019.txt Node
Date: Wed Jan 03 10:02:13 EST 2024
User: Yrep
Spectrometer: HR+D1059
Trigger mode: 1
Integration Time (sec): 1.000000E-1
Scans to average: 1
Electric dark correction enabled: true
Nonlinearity correction enabled: false
Boxcar width: 0
XAxis mode: Wavelengths
Number of Pixels in Spectrum: 2048
>>>>>Begin Spectral Data<<<<<
223.165	-17.5
223.4	-17.5
223.635	-17.5
223.869	-11.5
224.104	-16.5
224.338	-8.5
224.573	-3.5
224.808	-18.5
225.042	-6.5
225.277	-9.5
225.511	-9.5
225.746	19.5
225.98	22.5
226.215	5.5
226.449	7.5
226.683	9.5
226.918	14.5
227.152	22.5
227.387	36.5
227.621	46.5
227.856	34.5
228.09	61.5
228.324	66.5
228.559	43.5
228.793	58.5
229.027	75.5
229.262	70.5
229.496	73.5
229.73	82.5
229.964	88.5
230.199	76.5
230.433	68.5
230.667	83.5
230.901	84.5
231.136	76.5
231.37	84.5
231.604	81.5
231.838	77.5
232.072	59.5
232.306	76.5
232.541	86.5
232.775	95.5
233.009	74.5
233.243	83.5
233.477	86.5
233.711	86.5
233.945	89.5
234.179	91.5
234.413	71.5
234.647	77.5
234.881	68.5
235.115	81.5
235.349	84.5
235.583	61.5
235.817	71.5
236.051	67.5
236.285	76.5
236.519	72.5
236.753	87.5
236.987	61.5
237.221	83.5
237.455	92.5
237.689	72.5
237.922	85.5
238.156	79.5
238.39	75.5
238.624	65.5
238.858	87.5
239.091	67.5
239.325	99.5
239.559	73.5
239.793	85.5
240.027	76.5
240.26	65.5
240.494	72.5
240.728	74.5
240.961	84.5
241.195	78.5
241.429	64.5
241.662	82.5
241.896	75.5
242.13	79.5
242.363	75.5
242.597	84.5
242.83	83.5
243.064	68.5
243.298	76.5
243.531	81.5
243.765	70.5
243.998	85.5
244.232	102.5
244.465	77.5
244.699	82.5
244.932	79.5
245.166	79.5
245.399	72.5
245.633	78.5
245.866	75.5
246.099	77.5
246.333	85.5
246.566	74.5
246.8	74.5
247.033	93.5
247.266	83.5
247.5	81.5
247.733	91.5
247.966	88.5
248.2	71.5
248.433	85.5
248.666	82.5
248.899	90.5
249.133	79.5
249.366	95.5
249.599	93.5
249.832	65.5
250.066	70.5
250.299	79.5
250.532	85.5
250.765	75.5
250.998	86.5
251.231	83.5
251.465	85.5
251.698	66.5
251.931	67.5
252.164	68.5
252.397	72.5
252.63	72.5
252.863	78.5
253.096	76.5
253.329	78.5
253.562	90.5
253.795	83.5
254.028	90.5
254.261	79.5
254.494	85.5
254.727	86.5
254.96	76.5
255.193	68.5
255.426	79.5
255.659	83.5
255.892	81.5
256.124	84.5
256.357	95.5
256.59	82.5
256.823	85.5
257.056	92.5
257.289	78.5
257.521	76.5
257.754	93.5
257.987	85.5
258.22	86.5
258.452	88.5
258.685	73.5
258.918	79.5
259.151	79.5
259.383	90.5
259.616	91.5
259.849	89.5
260.081	74.5
260.314	84.5
260.547	79.5
260.779	85.5
261.012	91.5
261.244	79.5
261.477	76.5
261.71	101.5
261.942	116.5
262.175	123.5
262.407	87.5
262.64	70.5
262.872	91.5
263.105	94.5
263.337	78.5
263.57	86.5
263.802	84.5
264.035	73.5
264.267	85.5
264.499	87.5
264.732	84.5
264.964	92.5
265.197	88.5
265.429	84.5
265.661	93.5
265.894	76.5
266.126	84.5
266.358	86.5
266.591	71.5
266.823	75.5
267.055	89.5
267.287	74.5
267.52	85.5
267.752	92.5
267.984	83.5
268.216	86.5
268.448	78.5
268.681	87.5
268.913	76.5
269.145	83.5
269.377	78.5
269.609	80.5
269.841	86.5
270.073	74.5
270.306	94.5
270.538	80.5
270.77	77.5
271.002	73.5
271.234	83.5
271.466	85.5
271.698	90.5
271.93	97.5
272.162	81.5
272.394	83.5
272.626	82.5
272.858	96.5
273.09	91.5
273.322	74.5
273.553	77.5
273.785	99.5
274.017	80.5
274.249	86.5
274.481	80.5
274.713	82.5
274.945	79.5
275.176	90.5
275.408	88.5
275.64	78.5
275.872	79.5
276.104	97.5
276.335	90.5
276.567	94.5
276.799	115.5
277.031	108.5
277.262	86.5
277.494	93.5
277.726	88.5
277.957	78.5
278.189	83.5
278.421	86.5
278.652	75.5
278.884	83.5
279.115	83.5
279.347	86.5
279.579	82.5
279.81	84.5
280.042	77.5
280.273	77.5
280.505	87.5
280.736	91.5
280.968	87.5
281.199	98.5
281.431	94.5
281.662	88.5
281.894	99.5
282.125	97.5
282.356	121.5
282.588	154.5
282.819	107.5
283.051	100.5
283.282	77.5
283.513	87.5
283.745	89.5
283.976	82.5
284.207	88.5
284.439	87.5
284.67	84.5
284.901	83.5
285.132	84.5
285.364	85.5
285.595	90.5
285.826	83.5
286.057	92.5
286.288	77.5
286.52	82.5
286.751	92.5
286.982	84.5
287.213	92.5
287.444	77.5
287.675	93.5
287.906	93.5
288.138	98.5
288.369	98.5
288.6	88.5
288.831	82.5
289.062	91.5
289.293	91.5
289.524	83.5
289.755	87.5
289.986	90.5
290.217	89.5
290.448	84.5
290.679	70.5
290.91	107.5
291.141	104.5
291.371	75.5
291.602	77.5
291.833	88.5
292.064	86.5
292.295	95.5
292.526	93.5
292.757	105.5
292.987	87.5
293.218	85.5
293.449	82.5
293.68	85.5
293.91	85.5
294.141	85.5
294.372	94.5
294.603	91.5
294.833	78.5
295.064	89.5
295.295	85.5
295.525	95.5
295.756	104.5
295.987	113.5
296.217	157.5
296.448	139.5
296.679	94.5
296.909	105.5
297.14	93.5
297.37	95.5
297.601	89.5
297.831	89.5
298.062	93.5
298.292	93.5
298.523	91.5
298.753	101.5
298.984	94.5
299.214	89.5
299.445	94.5
299.675	94.5
299.905	117.5
300.136	91.5
300.366	95.5
300.597	91.5
300.827	94.5
301.057	100.5
301.288	108.5
301.518	90.5
301.748	86.5
301.979	90.5
302.209	92.5
302.439	93.5
302.669	95.5
302.9	104.5
303.13	99.5
303.36	85.5
303.59	99.5
303.82	123.5
304.051	85.5
304.281	102.5
304.511	102.5
304.741	98.5
304.971	88.5
305.201	90.5
305.431	91.5
305.661	77.5
305.891	98.5
306.121	108.5
306.352	102.5
306.582	98.5
306.812	105.5
307.042	95.5
307.272	89.5
307.502	103.5
307.731	108.5
307.961	91.5
308.191	95.5
308.421	91.5
308.651	87.5
308.881	103.5
309.111	88.5
309.341	113.5
309.571	99.5
309.8	96.5
310.03	93.5
310.26	91.5
310.49	95.5
310.72	115.5
310.949	101.5
311.179	101.5
311.409	101.5
311.639	101.5
311.868	91.5
312.098	94.5
312.328	100.5
312.557	97.5
312.787	103.5
313.017	117.5
313.246	93.5
313.476	92.5
313.706	83.5
313.935	89.5
314.165	93.5
314.394	90.5
314.624	89.5
314.853	106.5
315.083	102.5
315.312	100.5
315.542	86.5
315.771	86.5
316.001	101.5
316.23	82.5
316.46	83.5
316.689	94.5
316.919	99.5
317.148	102.5
317.377	105.5
317.607	93.5
317.836	93.5
318.065	86.5
318.295	107.5
318.524	89.5
318.753	89.5
318.983	89.5
319.212	102.5
319.441	109.5
319.67	96.5
319.9	92.5
320.129	87.5
320.358	95.5
320.587	100.5
320.816	104.5
321.046	97.5
321.275	117.5
321.504	95.5
321.733	92.5
321.962	98.5
322.191	102.5
322.42	102.5
322.649	92.5
322.878	115.5
323.108	129.5
323.337	142.5
323.566	143.5
323.795	171.5
324.024	199.5
324.253	456.5
324.482	933.5
324.71	1906.5
324.939	2462.5
325.168	930.5
325.397	269.5
325.626	165.5
325.855	143.5
326.084	124.5
326.313	132.5
326.542	169.5
326.77	244.5
326.999	501.5
327.228	1043.5
327.457	1925.5
327.686	1512.5
327.914	415.5
328.143	198.5
328.372	161.5
328.6	140.5
328.829	128.5
329.058	133.5
329.287	150.5
329.515	110.5
329.744	82.5
329.972	105.5
330.201	120.5
330.43	129.5
330.658	139.5
330.887	157.5
331.115	131.5
331.344	105.5
331.572	109.5
331.801	110.5
332.03	97.5
332.258	97.5
332.486	87.5
332.715	83.5
332.943	106.5
333.172	103.5
333.4	98.5
333.629	118.5
333.857	104.5
334.085	102.5
334.314	96.5
334.542	110.5
334.771	107.5
334.999	105.5
335.227	99.5
335.455	101.5
335.684	94.5
335.912	97.5
336.14	100.5
336.369	115.5
336.597	114.5
336.825	94.5
337.053	92.5
337.281	100.5
337.51	91.5
337.738	91.5
337.966	102.5
338.194	98.5
338.422	102.5
338.65	96.5
338.878	109.5
339.106	95.5
339.334	84.5
339.562	87.5
339.79	72.5
340.018	94.5
340.246	107.5
340.474	104.5
340.702	107.5
340.93	103.5
341.158	106.5
341.386	113.5
341.614	98.5
341.842	100.5
342.07	91.5
342.298	88.5
342.526	81.5
342.754	91.5
342.981	94.5
343.209	94.5
343.437	95.5
343.665	67.5
343.893	73.5
344.12	93.5
344.348	97.5
344.576	86.5
344.804	102.5
345.031	101.5
345.259	104.5
345.487	101.5
345.714	98.5
345.942	94.5
346.17	97.5
346.397	94.5
346.625	102.5
346.853	104.5
347.08	91.5
347.308	101.5
347.535	106.5
347.763	97.5
347.99	84.5
348.218	98.5
348.445	103.5
348.673	109.5
348.9	87.5
349.128	91.5
349.355	87.5
349.583	87.5
349.81	99.5
350.037	88.5
350.265	93.5
350.492	94.5
350.72	94.5
350.947	91.5
351.174	110.5
351.402	103.5
351.629	101.5
351.856	92.5
352.083	103.5
352.311	96.5
352.538	113.5
352.765	119.5
352.992	127.5
353.22	107.5
353.447	93.5
353.674	116.5
353.901	97.5
354.128	103.5
354.355	110.5
354.583	96.5
354.81	74.5
355.037	95.5
355.264	100.5
355.491	91.5
355.718	98.5
355.945	91.5
356.172	74.5
356.399	98.5
356.626	103.5
356.853	99.5
357.08	88.5
357.307	99.5
357.534	95.5
357.761	113.5
357.988	88.5
358.215	93.5
358.441	101.5
358.668	86.5
358.895	89.5
359.122	83.5
359.349	83.5
359.576	92.5
359.802	98.5
360.029	119.5
360.256	113.5
360.483	99.5
360.709	96.5
360.936	96.5
361.163	87.5
361.39	85.5
361.616	94.5
361.843	73.5
362.07	87.5
362.296	94.5
362.523	92.5
362.749	87.5
362.976	89.5
363.203	85.5
363.429	91.5
363.656	98.5
363.882	95.5
364.109	93.5
364.335	101.5
364.562	114.5
364.788	86.5
365.015	89.5
365.241	99.5
365.468	117.5
365.694	122.5
365.92	88.5
366.147	86.5
366.373	91.5
366.599	93.5
366.826	83.5
367.052	90.5
367.278	98.5
367.505	95.5
367.731	98.5
367.957	87.5
368.184	102.5
368.41	100.5
368.636	119.5
368.862	123.5
369.089	95.5
369.315	98.5
369.541	85.5
369.767	96.5
369.993	110.5
370.219	96.5
370.445	77.5
370.672	89.5
370.898	83.5
371.124	82.5
371.35	88.5
371.576	98.5
371.802	83.5
372.028	91.5
372.254	98.5
372.48	91.5
372.706	93.5
372.932	85.5
373.158	94.5
373.384	93.5
373.61	91.5
373.835	92.5
374.061	98.5
374.287	108.5
374.513	89.5
374.739	104.5
374.965	77.5
375.191	88.5
375.416	94.5
375.642	88.5
375.868	92.5
376.094	92.5
376.319	91.5
376.545	86.5
376.771	90.5
376.997	88.5
377.222	85.5
377.448	92.5
377.674	90.5
377.899	83.5
378.125	85.5
378.35	94.5
378.576	94.5
378.802	94.5
379.027	100.5
379.253	100.5
379.478	91.5
379.704	93.5
379.929	89.5
380.155	91.5
380.38	100.5
380.606	96.5
380.831	83.5
381.057	101.5
381.282	86.5
381.507	87.5
381.733	106.5
381.958	94.5
382.184	114.5
382.409	101.5
382.634	99.5
382.86	96.5
383.085	102.5
383.31	110.5
383.535	113.5
383.761	110.5
383.986	93.5
384.211	101.5
384.436	118.5
384.662	92.5
384.887	107.5
385.112	111.5
385.337	108.5
385.562	106.5
385.787	110.5
386.013	114.5
386.238	115.5
386.463	125.5
386.688	105.5
386.913	103.5
387.138	115.5
387.363	94.5
387.588	99.5
387.813	100.5
388.038	111.5
388.263	130.5
388.488	117.5
388.713	97.5
388.938	88.5
389.163	86.5
389.387	87.5
389.612	81.5
389.837	91.5
390.062	80.5
390.287	101.5
390.512	91.5
390.736	92.5
390.961	77.5
391.186	88.5
391.411	86.5
391.636	90.5
391.86	98.5
392.085	78.5
392.31	91.5
392.534	75.5
392.759	73.5
392.984	93.5
393.208	89.5
393.433	98.5
393.658	91.5
393.882	82.5
394.107	87.5
394.331	84.5
394.556	75.5
394.78	101.5
395.005	91.5
395.229	100.5
395.454	89.5
395.678	94.5
395.903	71.5
396.127	95.5
396.352	96.5
396.576	97.5
396.801	91.5
397.025	92.5
397.249	82.5
397.474	81.5
397.698	91.5
397.922	92.5
398.147	94.5
398.371	84.5
398.595	91.5
398.82	97.5
399.044	91.5
399.268	82.5
399.492	82.5
399.717	90.5
399.941	82.5
400.165	110.5
400.389	103.5
400.613	96.5
400.837	92.5
401.062	96.5
401.286	88.5
401.51	90.5
401.734	79.5
401.958	115.5
402.182	130.5
402.406	162.5
402.63	149.5
402.854	97.5
403.078	88.5
403.302	78.5
403.526	85.5
403.75	81.5
403.974	81.5
404.198	82.5
404.422	84.5
404.645	89.5
404.869	80.5
405.093	95.5
405.317	107.5
405.541	84.5
405.765	106.5
405.988	125.5
406.212	178.5
406.436	259.5
406.66	154.5
406.883	116.5
407.107	97.5
407.331	94.5
407.555	77.5
407.778	89.5
408.002	85.5
408.226	98.5
408.449	89.5
408.673	89.5
408.896	88.5
409.12	88.5
409.344	87.5
409.567	86.5
409.791	88.5
410.014	98.5
410.238	99.5
410.461	79.5
410.685	93.5
410.908	86.5
411.132	117.5
411.355	117.5
411.578	99.5
411.802	84.5
412.025	91.5
412.249	97.5
412.472	88.5
412.695	93.5
412.919	80.5
413.142	87.5
413.365	91.5
413.589	83.5
413.812	87.5
414.035	100.5
414.258	81.5
414.482	82.5
414.705	101.5
414.928	92.5
415.151	100.5
415.374	91.5
415.597	102.5
415.821	84.5
416.044	92.5
416.267	83.5
416.49	89.5
416.713	81.5
416.936	72.5
417.159	87.5
417.382	95.5
417.605	86.5
417.828	83.5
418.051	86.5
418.274	94.5
418.497	77.5
418.72	81.5
418.943	82.5
419.166	79.5
419.389	76.5
419.611	84.5
419.834	87.5
420.057	93.5
420.28	86.5
420.503	95.5
420.726	90.5
420.948	92.5
421.171	105.5
421.394	102.5
421.617	106.5
421.839	89.5
422.062	90.5
422.285	80.5
422.507	90.5
422.73	99.5
422.953	90.5
423.175	92.5
423.398	103.5
423.621	85.5
423.843	96.5
424.066	71.5
424.288	88.5
424.511	90.5
424.733	104.5
424.956	113.5
425.178	102.5
425.401	102.5
425.623	101.5
425.846	102.5
426.068	111.5
426.291	93.5
426.513	93.5
426.735	91.5
426.958	93.5
427.18	106.5
427.402	155.5
427.625	183.5
427.847	139.5
428.069	106.5
428.292	91.5
428.514	97.5
428.736	101.5
428.958	87.5
429.181	85.5
429.403	91.5
429.625	76.5
429.847	109.5
430.069	98.5
430.292	89.5
430.514	88.5
430.736	91.5
430.958	70.5
431.18	96.5
431.402	90.5
431.624	85.5
431.846	86.5
432.068	91.5
432.29	91.5
432.512	76.5
432.734	89.5
432.956	98.5
433.178	99.5
433.4	93.5
433.622	96.5
433.844	101.5
434.066	82.5
434.287	83.5
434.509	87.5
434.731	92.5
434.953	85.5
435.175	77.5
435.397	92.5
435.618	98.5
435.84	108.5
436.062	108.5
436.284	101.5
436.505	101.5
436.727	99.5
436.949	99.5
437.17	89.5
437.392	101.5
437.614	94.5
437.835	120.5
438.057	139.5
438.278	103.5
438.5	104.5
438.721	122.5
438.943	110.5
439.165	97.5
439.386	93.5
439.608	91.5
439.829	104.5
440.05	136.5
440.272	149.5
440.493	99.5
440.715	97.5
440.936	70.5
441.158	93.5
441.379	94.5
441.6	100.5
441.822	85.5
442.043	102.5
442.264	106.5
442.486	100.5
442.707	87.5
442.928	103.5
443.149	142.5
443.371	138.5
443.592	106.5
443.813	102.5
444.034	114.5
444.255	103.5
444.476	92.5
444.698	109.5
444.919	92.5
445.14	141.5
445.361	127.5
445.582	127.5
445.803	150.5
446.024	150.5
446.245	133.5
446.466	95.5
446.687	83.5
446.908	98.5
447.129	80.5
447.35	94.5
447.571	89.5
447.792	101.5
448.013	101.5
448.234	112.5
448.455	108.5
448.675	129.5
448.896	120.5
449.117	101.5
449.338	114.5
449.559	140.5
449.779	138.5
450	97.5
450.221	104.5
450.442	98.5
450.662	95.5
450.883	123.5
451.104	127.5
451.324	93.5
451.545	97.5
451.766	92.5
451.986	94.5
452.207	94.5
452.428	98.5
452.648	109.5
452.869	111.5
453.089	113.5
453.31	121.5
453.53	110.5
453.751	91.5
453.971	110.5
454.192	133.5
454.412	108.5
454.633	76.5
454.853	79.5
455.073	85.5
455.294	102.5
455.514	93.5
455.734	91.5
455.955	94.5
456.175	74.5
456.395	82.5
456.616	81.5
456.836	75.5
457.056	85.5
457.276	74.5
457.497	95.5
457.717	74.5
457.937	86.5
458.157	78.5
458.377	105.5
458.598	117.5
458.818	170.5
459.038	193.5
459.258	114.5
459.478	82.5
459.698	70.5
459.918	83.5
460.138	88.5
460.358	92.5
460.578	76.5
460.798	94.5
461.018	83.5
461.238	80.5
461.458	82.5
461.678	86.5
461.898	81.5
462.118	81.5
462.338	79.5
462.558	96.5
462.777	73.5
462.997	87.5
463.217	92.5
463.437	80.5
463.657	83.5
463.876	81.5
464.096	75.5
464.316	92.5
464.536	99.5
464.755	89.5
464.975	111.5
465.195	187.5
465.414	172.5
465.634	106.5
465.854	98.5
466.073	89.5
466.293	83.5
466.512	94.5
466.732	80.5
466.951	80.5
467.171	92.5
467.391	106.5
467.61	101.5
467.829	94.5
468.049	89.5
468.268	104.5
468.488	86.5
468.707	78.5
468.927	76.5
469.146	87.5
469.365	82.5
469.585	95.5
469.804	97.5
470.023	109.5
470.243	96.5
470.462	101.5
470.681	117.5
470.901	101.5
471.12	86.5
471.339	89.5
471.558	82.5
471.777	90.5
471.997	98.5
472.216	87.5
472.435	116.5
472.654	91.5
472.873	84.5
473.092	77.5
473.311	79.5
473.53	95.5
473.749	89.5
473.968	100.5
474.187	95.5
474.406	98.5
474.625	81.5
474.844	83.5
475.063	81.5
475.282	99.5
475.501	81.5
475.72	90.5
475.939	93.5
476.158	78.5
476.377	78.5
476.596	91.5
476.814	103.5
477.033	87.5
477.252	91.5
477.471	82.5
477.69	80.5
477.908	96.5
478.127	96.5
478.346	92.5
478.564	98.5
478.783	95.5
479.002	109.5
479.22	92.5
479.439	97.5
479.658	106.5
479.876	102.5
480.095	79.5
480.313	86.5
480.532	90.5
480.751	92.5
480.969	102.5
481.188	124.5
481.406	115.5
481.624	71.5
481.843	100.5
482.061	91.5
482.28	93.5
482.498	82.5
482.717	95.5
482.935	89.5
483.153	74.5
483.372	101.5
483.59	75.5
483.808	91.5
484.027	94.5
484.245	97.5
484.463	100.5
484.681	97.5
484.9	84.5
485.118	94.5
485.336	89.5
485.554	104.5
485.772	102.5
485.99	104.5
486.209	97.5
486.427	102.5
486.645	114.5
486.863	126.5
487.081	87.5
487.299	89.5
487.517	92.5
487.735	84.5
487.953	109.5
488.171	85.5
488.389	90.5
488.607	101.5
488.825	77.5
489.043	72.5
489.261	94.5
489.479	95.5
489.696	80.5
489.914	87.5
490.132	79.5
490.35	94.5
490.568	94.5
490.786	80.5
491.003	90.5
491.221	81.5
491.439	95.5
491.657	98.5
491.874	104.5
492.092	88.5
492.31	87.5
492.527	85.5
492.745	84.5
492.963	101.5
493.18	86.5
493.398	89.5
493.615	100.5
493.833	105.5
494.05	91.5
494.268	96.5
494.485	89.5
494.703	86.5
494.92	82.5
495.138	90.5
495.355	91.5
495.573	94.5
495.79	98.5
496.008	90.5
496.225	88.5
496.442	98.5
496.66	98.5
496.877	86.5
497.094	110.5
497.312	78.5
497.529	91.5
497.746	92.5
497.963	80.5
498.181	79.5
498.398	76.5
498.615	102.5
498.832	95.5
499.049	92.5
499.267	95.5
499.484	84.5
499.701	89.5
499.918	92.5
500.135	93.5
500.352	101.5
500.569	97.5
500.786	96.5
501.003	80.5
501.22	79.5
501.437	82.5
501.654	89.5
501.871	114.5
502.088	96.5
502.305	94.5
502.522	92.5
502.739	86.5
502.956	91.5
503.172	102.5
503.389	94.5
503.606	100.5
503.823	100.5
504.04	85.5
504.256	93.5
504.473	90.5
504.69	90.5
504.907	94.5
505.123	99.5
505.34	94.5
505.557	81.5
505.773	94.5
505.99	94.5
506.207	93.5
506.423	87.5
506.64	82.5
506.856	96.5
507.073	94.5
507.289	93.5
507.506	97.5
507.722	117.5
507.939	113.5
508.155	86.5
508.372	86.5
508.588	100.5
508.805	97.5
509.021	81.5
509.238	102.5
509.454	108.5
509.67	111.5
509.887	109.5
510.103	138.5
510.319	242.5
510.536	866.5
510.752	2936.5
510.968	827.5
511.184	171.5
511.401	119.5
511.617	104.5
511.833	90.5
512.049	96.5
512.265	103.5
512.481	98.5
512.698	93.5
512.914	93.5
513.13	79.5
513.346	83.5
513.562	90.5
513.778	102.5
513.994	99.5
514.21	114.5
514.426	117.5
514.642	145.5
514.858	138.5
515.074	186.5
515.29	540.5
515.506	1911.5
515.721	715.5
515.937	171.5
516.153	114.5
516.369	105.5
516.585	104.5
516.801	92.5
517.016	109.5
517.232	105.5
517.448	89.5
517.664	89.5
517.879	94.5
518.095	101.5
518.311	97.5
518.527	92.5
518.742	86.5
518.958	88.5
519.173	92.5
519.389	97.5
519.605	106.5
519.82	79.5
520.036	100.5
520.251	121.5
520.467	113.5
520.682	107.5
520.898	103.5
521.113	125.5
521.329	150.5
521.544	237.5
521.76	680.5
521.975	3099.5
522.19	1924.5
522.406	393.5
522.621	131.5
522.836	114.5
523.052	103.5
523.267	107.5
523.482	108.5
523.698	103.5
523.913	118.5
524.128	114.5
524.343	90.5
524.559	94.5
524.774	93.5
524.989	91.5
525.204	114.5
525.419	110.5
525.634	102.5
525.849	93.5
526.064	85.5
526.28	78.5
526.495	89.5
526.71	79.5
526.925	97.5
527.14	85.5
527.355	78.5
527.57	82.5
527.785	88.5
527.999	95.5
528.214	99.5
528.429	78.5
528.644	103.5
528.859	100.5
529.074	96.5
529.289	127.5
529.503	209.5
529.718	107.5
529.933	90.5
530.148	87.5
530.363	76.5
530.577	98.5
530.792	88.5
531.007	96.5
531.221	95.5
531.436	90.5
531.651	83.5
531.865	93.5
532.08	88.5
532.295	86.5
532.509	91.5
532.724	95.5
532.938	113.5
533.153	85.5
533.367	103.5
533.582	98.5
533.796	99.5
534.011	89.5
534.225	98.5
534.44	79.5
