Data from Circ_2014_H10_HRD10591_00046.txt Node
Date: Wed Jan 03 10:02:18 EST 2024
User: Yrep
Spectrometer: HR+D1059
Trigger mode: 1
Integration Time (sec): 1.000000E-1
Scans to average: 1
Electric dark correction enabled: true
Nonlinearity correction enabled: false
Boxcar width: 0
XAxis mode: Wavelengths
Number of Pixels in Spectrum: 2048
>>>>>Begin Spectral Data<<<<<
223.165	-24.56
223.4	-24.56
223.635	-24.56
223.869	-16.56
224.104	-25.56
224.338	-16.56
224.573	-12.56
224.808	-7.56
225.042	-2.56
225.277	3.44
225.511	8.44
225.746	-0.56
225.98	4.44
226.215	11.44
226.449	21.44
226.683	19.44
226.918	12.44
227.152	25.44
227.387	29.44
227.621	29.44
227.856	38.44
228.09	57.44
228.324	49.44
228.559	64.44
228.793	51.44
229.027	62.44
229.262	56.44
229.496	71.44
229.73	82.44
229.964	73.44
230.199	61.44
230.433	72.44
230.667	76.44
230.901	75.44
231.136	78.44
231.37	88.44
231.604	72.44
231.838	72.44
232.072	86.44
232.306	89.44
232.541	87.44
232.775	72.44
233.009	74.44
233.243	77.44
233.477	81.44
233.711	96.44
233.945	75.44
234.179	72.44
234.413	81.44
234.647	68.44
234.881	77.44
235.115	66.44
235.349	78.44
235.583	72.44
235.817	60.44
236.051	76.44
236.285	85.44
236.519	70.44
236.753	75.44
236.987	89.44
237.221	83.44
237.455	88.44
237.689	77.44
237.922	91.44
238.156	85.44
238.39	75.44
238.624	85.44
238.858	68.44
239.091	76.44
239.325	79.44
239.559	79.44
239.793	87.44
240.027	70.44
240.26	72.44
240.494	68.44
240.728	75.44
240.961	68.44
241.195	88.44
241.429	73.44
241.662	69.44
241.896	75.44
242.13	82.44
242.363	67.44
242.597	72.44
242.83	62.44
243.064	90.44
243.298	77.44
243.531	82.44
243.765	72.44
243.998	76.44
244.232	83.44
244.465	91.44
244.699	79.44
244.932	87.44
245.166	65.44
245.399	83.44
245.633	76.44
245.866	70.44
246.099	81.44
246.333	76.44
246.566	78.44
246.8	69.44
247.033	72.44
247.266	76.44
247.5	86.44
247.733	79.44
247.966	77.44
248.2	65.44
248.433	71.44
248.666	83.44
248.899	79.44
249.133	86.44
249.366	86.44
249.599	92.44
249.832	58.44
250.066	71.44
250.299	82.44
250.532	83.44
250.765	70.44
250.998	83.44
251.231	71.44
251.465	85.44
251.698	70.44
251.931	84.44
252.164	69.44
252.397	89.44
252.63	95.44
252.863	72.44
253.096	75.44
253.329	77.44
253.562	65.44
253.795	87.44
254.028	76.44
254.261	76.44
254.494	82.44
254.727	77.44
254.96	87.44
255.193	84.44
255.426	85.44
255.659	82.44
255.892	79.44
256.124	89.44
256.357	63.44
256.59	75.44
256.823	72.44
257.056	69.44
257.289	88.44
257.521	84.44
257.754	85.44
257.987	87.44
258.22	79.44
258.452	80.44
258.685	85.44
258.918	95.44
259.151	82.44
259.383	87.44
259.616	93.44
259.849	80.44
260.081	89.44
260.314	78.44
260.547	76.44
260.779	90.44
261.012	83.44
261.244	81.44
261.477	85.44
261.71	77.44
261.942	113.44
262.175	115.44
262.407	83.44
262.64	87.44
262.872	79.44
263.105	70.44
263.337	83.44
263.57	90.44
263.802	72.44
264.035	103.44
264.267	82.44
264.499	88.44
264.732	82.44
264.964	87.44
265.197	70.44
265.429	83.44
265.661	74.44
265.894	79.44
266.126	92.44
266.358	93.44
266.591	77.44
266.823	76.44
267.055	84.44
267.287	77.44
267.52	81.44
267.752	97.44
267.984	82.44
268.216	91.44
268.448	87.44
268.681	72.44
268.913	71.44
269.145	75.44
269.377	84.44
269.609	80.44
269.841	78.44
270.073	71.44
270.306	90.44
270.538	86.44
270.77	87.44
271.002	91.44
271.234	75.44
271.466	86.44
271.698	80.44
271.93	81.44
272.162	88.44
272.394	88.44
272.626	88.44
272.858	81.44
273.09	91.44
273.322	87.44
273.553	69.44
273.785	86.44
274.017	77.44
274.249	76.44
274.481	80.44
274.713	86.44
274.945	76.44
275.176	92.44
275.408	90.44
275.64	85.44
275.872	72.44
276.104	88.44
276.335	80.44
276.567	107.44
276.799	99.44
277.031	100.44
277.262	83.44
277.494	86.44
277.726	74.44
277.957	96.44
278.189	78.44
278.421	77.44
278.652	87.44
278.884	75.44
279.115	92.44
279.347	98.44
279.579	87.44
279.81	91.44
280.042	89.44
280.273	96.44
280.505	83.44
280.736	85.44
280.968	72.44
281.199	71.44
281.431	73.44
281.662	84.44
281.894	85.44
282.125	111.44
282.356	114.44
282.588	132.44
282.819	117.44
283.051	87.44
283.282	98.44
283.513	87.44
283.745	95.44
283.976	80.44
284.207	68.44
284.439	78.44
284.67	84.44
284.901	80.44
285.132	91.44
285.364	81.44
285.595	90.44
285.826	78.44
286.057	92.44
286.288	81.44
286.52	82.44
286.751	89.44
286.982	76.44
287.213	91.44
287.444	82.44
287.675	78.44
287.906	87.44
288.138	71.44
288.369	93.44
288.6	80.44
288.831	80.44
289.062	93.44
289.293	80.44
289.524	95.44
289.755	83.44
289.986	82.44
290.217	98.44
290.448	90.44
290.679	81.44
290.91	95.44
291.141	99.44
291.371	81.44
291.602	75.44
291.833	77.44
292.064	84.44
292.295	91.44
292.526	88.44
292.757	74.44
292.987	84.44
293.218	89.44
293.449	90.44
293.68	70.44
293.91	87.44
294.141	82.44
294.372	76.44
294.603	80.44
294.833	95.44
295.064	99.44
295.295	80.44
295.525	92.44
295.756	108.44
295.987	109.44
296.217	129.44
296.448	117.44
296.679	90.44
296.909	91.44
297.14	86.44
297.37	101.44
297.601	78.44
297.831	75.44
298.062	85.44
298.292	92.44
298.523	88.44
298.753	89.44
298.984	82.44
299.214	95.44
299.445	82.44
299.675	101.44
299.905	84.44
300.136	97.44
300.366	80.44
300.597	83.44
300.827	88.44
301.057	95.44
301.288	93.44
301.518	89.44
301.748	90.44
301.979	96.44
302.209	78.44
302.439	89.44
302.669	75.44
302.9	86.44
303.13	83.44
303.36	90.44
303.59	98.44
303.82	111.44
304.051	91.44
304.281	81.44
304.511	95.44
304.741	82.44
304.971	72.44
305.201	83.44
305.431	88.44
305.661	79.44
305.891	74.44
306.121	120.44
306.352	90.44
306.582	92.44
306.812	93.44
307.042	84.44
307.272	92.44
307.502	90.44
307.731	79.44
307.961	86.44
308.191	88.44
308.421	88.44
308.651	95.44
308.881	82.44
309.111	95.44
309.341	105.44
309.571	83.44
309.8	85.44
310.03	93.44
310.26	100.44
310.49	99.44
310.72	94.44
310.949	108.44
311.179	104.44
311.409	90.44
311.639	97.44
311.868	97.44
312.098	81.44
312.328	81.44
312.557	101.44
312.787	101.44
313.017	91.44
313.246	92.44
313.476	113.44
313.706	101.44
313.935	89.44
314.165	93.44
314.394	88.44
314.624	88.44
314.853	92.44
315.083	74.44
315.312	90.44
315.542	96.44
315.771	77.44
316.001	95.44
316.23	78.44
316.46	90.44
316.689	93.44
316.919	89.44
317.148	99.44
317.377	87.44
317.607	84.44
317.836	85.44
318.065	76.44
318.295	90.44
318.524	81.44
318.753	84.44
318.983	92.44
319.212	102.44
319.441	117.44
319.67	108.44
319.9	103.44
320.129	88.44
320.358	87.44
320.587	99.44
320.816	97.44
321.046	89.44
321.275	107.44
321.504	90.44
321.733	105.44
321.962	92.44
322.191	98.44
322.42	100.44
322.649	106.44
322.878	101.44
323.108	122.44
323.337	121.44
323.566	131.44
323.795	142.44
324.024	195.44
324.253	340.44
324.482	702.44
324.71	1372.44
324.939	1791.44
325.168	707.44
325.397	227.44
325.626	148.44
325.855	125.44
326.084	124.44
326.313	132.44
326.542	151.44
326.77	200.44
326.999	393.44
327.228	781.44
327.457	1380.44
327.686	1105.44
327.914	339.44
328.143	184.44
328.372	143.44
328.6	123.44
328.829	101.44
329.058	106.44
329.287	115.44
329.515	83.44
329.744	95.44
329.972	95.44
330.201	115.44
330.43	131.44
330.658	125.44
330.887	148.44
331.115	112.44
331.344	97.44
331.572	98.44
331.801	95.44
332.03	99.44
332.258	80.44
332.486	93.44
332.715	90.44
332.943	89.44
333.172	98.44
333.4	101.44
333.629	90.44
333.857	112.44
334.085	109.44
334.314	101.44
334.542	126.44
334.771	139.44
334.999	100.44
335.227	90.44
335.455	81.44
335.684	87.44
335.912	99.44
336.14	90.44
336.369	95.44
336.597	86.44
336.825	97.44
337.053	87.44
337.281	85.44
337.51	78.44
337.738	87.44
337.966	95.44
338.194	103.44
338.422	91.44
338.65	86.44
338.878	88.44
339.106	82.44
339.334	80.44
339.562	85.44
339.79	76.44
340.018	80.44
340.246	99.44
340.474	90.44
340.702	86.44
340.93	86.44
341.158	88.44
341.386	89.44
341.614	107.44
341.842	91.44
342.07	69.44
342.298	83.44
342.526	93.44
342.754	81.44
342.981	93.44
343.209	87.44
343.437	92.44
343.665	75.44
343.893	75.44
344.12	90.44
344.348	92.44
344.576	79.44
344.804	85.44
345.031	85.44
345.259	97.44
345.487	92.44
345.714	91.44
345.942	98.44
346.17	89.44
346.397	77.44
346.625	83.44
346.853	92.44
347.08	76.44
347.308	88.44
347.535	101.44
347.763	72.44
347.99	98.44
348.218	104.44
348.445	105.44
348.673	100.44
348.9	97.44
349.128	83.44
349.355	95.44
349.583	94.44
349.81	90.44
350.037	91.44
350.265	90.44
350.492	88.44
350.72	89.44
350.947	99.44
351.174	99.44
351.402	97.44
351.629	92.44
351.856	103.44
352.083	104.44
352.311	101.44
352.538	92.44
352.765	103.44
352.992	101.44
353.22	115.44
353.447	93.44
353.674	108.44
353.901	97.44
354.128	95.44
354.355	93.44
354.583	99.44
354.81	103.44
355.037	88.44
355.264	99.44
355.491	98.44
355.718	102.44
355.945	95.44
356.172	93.44
356.399	89.44
356.626	95.44
356.853	94.44
357.08	87.44
357.307	101.44
357.534	82.44
357.761	78.44
357.988	93.44
358.215	78.44
358.441	95.44
358.668	103.44
358.895	85.44
359.122	92.44
359.349	95.44
359.576	82.44
359.802	101.44
360.029	117.44
360.256	97.44
360.483	95.44
360.709	87.44
360.936	98.44
361.163	94.44
361.39	91.44
361.616	90.44
361.843	92.44
362.07	100.44
362.296	101.44
362.523	94.44
362.749	105.44
362.976	82.44
363.203	83.44
363.429	101.44
363.656	100.44
363.882	86.44
364.109	95.44
364.335	92.44
364.562	92.44
364.788	83.44
365.015	71.44
365.241	85.44
365.468	105.44
365.694	100.44
365.92	93.44
366.147	76.44
366.373	71.44
366.599	91.44
366.826	84.44
367.052	83.44
367.278	87.44
367.505	72.44
367.731	75.44
367.957	85.44
368.184	91.44
368.41	101.44
368.636	89.44
368.862	99.44
369.089	106.44
369.315	94.44
369.541	98.44
369.767	84.44
369.993	98.44
370.219	90.44
370.445	87.44
370.672	77.44
370.898	88.44
371.124	83.44
371.35	89.44
371.576	84.44
371.802	93.44
372.028	85.44
372.254	88.44
372.48	92.44
372.706	75.44
372.932	82.44
373.158	82.44
373.384	83.44
373.61	103.44
373.835	100.44
374.061	83.44
374.287	83.44
374.513	80.44
374.739	94.44
374.965	84.44
375.191	83.44
375.416	94.44
375.642	90.44
375.868	92.44
376.094	83.44
376.319	88.44
376.545	88.44
376.771	87.44
376.997	99.44
377.222	113.44
377.448	96.44
377.674	99.44
377.899	85.44
378.125	85.44
378.35	85.44
378.576	90.44
378.802	84.44
379.027	96.44
379.253	88.44
379.478	80.44
379.704	83.44
379.929	97.44
380.155	84.44
380.38	88.44
380.606	98.44
380.831	98.44
381.057	94.44
381.282	92.44
381.507	93.44
381.733	88.44
381.958	95.44
382.184	116.44
382.409	84.44
382.634	98.44
382.86	91.44
383.085	88.44
383.31	102.44
383.535	99.44
383.761	99.44
383.986	88.44
384.211	109.44
384.436	100.44
384.662	101.44
384.887	88.44
385.112	100.44
385.337	98.44
385.562	109.44
385.787	101.44
386.013	101.44
386.238	113.44
386.463	97.44
386.688	113.44
386.913	106.44
387.138	111.44
387.363	100.44
387.588	92.44
387.813	111.44
388.038	103.44
388.263	102.44
388.488	98.44
388.713	93.44
388.938	91.44
389.163	91.44
389.387	93.44
389.612	96.44
389.837	94.44
390.062	74.44
390.287	76.44
390.512	94.44
390.736	99.44
390.961	74.44
391.186	96.44
391.411	98.44
391.636	94.44
391.86	80.44
392.085	84.44
392.31	77.44
392.534	77.44
392.759	89.44
392.984	83.44
393.208	90.44
393.433	82.44
393.658	96.44
393.882	80.44
394.107	81.44
394.331	85.44
394.556	90.44
394.78	96.44
395.005	100.44
395.229	72.44
395.454	87.44
395.678	87.44
395.903	98.44
396.127	85.44
396.352	76.44
396.576	91.44
396.801	74.44
397.025	91.44
397.249	97.44
397.474	74.44
397.698	88.44
397.922	88.44
398.147	93.44
398.371	86.44
398.595	92.44
398.82	87.44
399.044	92.44
399.268	83.44
399.492	89.44
399.717	96.44
399.941	76.44
400.165	91.44
400.389	94.44
400.613	88.44
400.837	76.44
401.062	82.44
401.286	88.44
401.51	85.44
401.734	83.44
401.958	103.44
402.182	112.44
402.406	140.44
402.63	119.44
402.854	111.44
403.078	92.44
403.302	90.44
403.526	74.44
403.75	76.44
403.974	73.44
404.198	87.44
404.422	88.44
404.645	88.44
404.869	79.44
405.093	88.44
405.317	98.44
405.541	93.44
405.765	95.44
405.988	95.44
406.212	159.44
406.436	205.44
406.66	140.44
406.883	95.44
407.107	94.44
407.331	88.44
407.555	93.44
407.778	87.44
408.002	84.44
408.226	87.44
408.449	81.44
408.673	85.44
408.896	84.44
409.12	84.44
409.344	84.44
409.567	77.44
409.791	92.44
410.014	95.44
410.238	94.44
410.461	102.44
410.685	91.44
410.908	98.44
411.132	96.44
411.355	92.44
411.578	86.44
411.802	92.44
412.025	93.44
412.249	109.44
412.472	76.44
412.695	105.44
412.919	71.44
413.142	82.44
413.365	81.44
413.589	85.44
413.812	79.44
414.035	93.44
414.258	89.44
414.482	99.44
414.705	90.44
414.928	101.44
415.151	82.44
415.374	95.44
415.597	85.44
415.821	95.44
416.044	87.44
416.267	88.44
416.49	85.44
416.713	87.44
416.936	77.44
417.159	86.44
417.382	83.44
417.605	95.44
417.828	98.44
418.051	81.44
418.274	87.44
418.497	89.44
418.72	83.44
418.943	82.44
419.166	92.44
419.389	98.44
419.611	83.44
419.834	86.44
420.057	88.44
420.28	92.44
420.503	74.44
420.726	71.44
420.948	90.44
421.171	80.44
421.394	95.44
421.617	92.44
421.839	78.44
422.062	91.44
422.285	86.44
422.507	103.44
422.73	99.44
422.953	83.44
423.175	80.44
423.398	87.44
423.621	92.44
423.843	84.44
424.066	84.44
424.288	88.44
424.511	99.44
424.733	87.44
424.956	89.44
425.178	99.44
425.401	97.44
425.623	96.44
425.846	90.44
426.068	87.44
426.291	95.44
426.513	88.44
426.735	91.44
426.958	83.44
427.18	92.44
427.402	115.44
427.625	153.44
427.847	139.44
428.069	108.44
428.292	80.44
428.514	77.44
428.736	74.44
428.958	87.44
429.181	88.44
429.403	96.44
429.625	86.44
429.847	92.44
430.069	101.44
430.292	98.44
430.514	90.44
430.736	89.44
430.958	86.44
431.18	82.44
431.402	99.44
431.624	88.44
431.846	90.44
432.068	89.44
432.29	90.44
432.512	97.44
432.734	85.44
432.956	97.44
433.178	94.44
433.4	80.44
433.622	93.44
433.844	85.44
434.066	88.44
434.287	88.44
434.509	88.44
434.731	85.44
434.953	82.44
435.175	78.44
435.397	105.44
435.618	91.44
435.84	92.44
436.062	97.44
436.284	99.44
436.505	99.44
436.727	109.44
436.949	77.44
437.17	94.44
437.392	68.44
437.614	82.44
437.835	83.44
438.057	103.44
438.278	102.44
438.5	116.44
438.721	112.44
438.943	106.44
439.165	83.44
439.386	94.44
439.608	90.44
439.829	104.44
440.05	121.44
440.272	131.44
440.493	88.44
440.715	77.44
440.936	88.44
441.158	88.44
441.379	77.44
441.6	84.44
441.822	95.44
442.043	92.44
442.264	91.44
442.486	103.44
442.707	102.44
442.928	109.44
443.149	94.44
443.371	128.44
443.592	107.44
443.813	104.44
444.034	97.44
444.255	89.44
444.476	82.44
444.698	76.44
444.919	85.44
445.14	117.44
445.361	131.44
445.582	98.44
445.803	122.44
446.024	115.44
446.245	103.44
446.466	100.44
446.687	90.44
446.908	99.44
447.129	87.44
447.35	93.44
447.571	84.44
447.792	87.44
448.013	100.44
448.234	104.44
448.455	98.44
448.675	103.44
448.896	108.44
449.117	99.44
449.338	92.44
449.559	116.44
449.779	102.44
450	91.44
450.221	75.44
450.442	81.44
450.662	93.44
450.883	103.44
451.104	97.44
451.324	86.44
451.545	83.44
451.766	73.44
451.986	83.44
452.207	69.44
452.428	72.44
452.648	104.44
452.869	95.44
453.089	105.44
453.31	107.44
453.53	89.44
453.751	83.44
453.971	81.44
454.192	97.44
454.412	84.44
454.633	101.44
454.853	95.44
455.073	88.44
455.294	65.44
455.514	87.44
455.734	87.44
455.955	85.44
456.175	97.44
456.395	104.44
456.616	97.44
456.836	90.44
457.056	80.44
457.276	76.44
457.497	80.44
457.717	91.44
457.937	80.44
458.157	83.44
458.377	90.44
458.598	96.44
458.818	134.44
459.038	143.44
459.258	101.44
459.478	85.44
459.698	73.44
459.918	84.44
460.138	86.44
460.358	82.44
460.578	70.44
460.798	90.44
461.018	90.44
461.238	80.44
461.458	78.44
461.678	81.44
461.898	95.44
462.118	79.44
462.338	80.44
462.558	91.44
462.777	70.44
462.997	84.44
463.217	85.44
463.437	80.44
463.657	86.44
463.876	87.44
464.096	97.44
464.316	93.44
464.536	85.44
464.755	71.44
464.975	105.44
465.195	159.44
465.414	153.44
465.634	88.44
465.854	75.44
466.073	80.44
466.293	76.44
466.512	87.44
466.732	81.44
466.951	80.44
467.171	93.44
467.391	96.44
467.61	84.44
467.829	100.44
468.049	106.44
468.268	94.44
468.488	75.44
468.707	81.44
468.927	87.44
469.146	84.44
469.365	88.44
469.585	76.44
469.804	90.44
470.023	90.44
470.243	81.44
470.462	98.44
470.681	105.44
470.901	93.44
471.12	81.44
471.339	90.44
471.558	88.44
471.777	93.44
471.997	94.44
472.216	106.44
472.435	149.44
472.654	98.44
472.873	82.44
473.092	88.44
473.311	83.44
473.53	67.44
473.749	76.44
473.968	87.44
474.187	91.44
474.406	95.44
474.625	94.44
474.844	96.44
475.063	98.44
475.282	88.44
475.501	72.44
475.72	92.44
475.939	81.44
476.158	87.44
476.377	86.44
476.596	81.44
476.814	87.44
477.033	88.44
477.252	80.44
477.471	83.44
477.69	83.44
477.908	75.44
478.127	100.44
478.346	80.44
478.564	77.44
478.783	88.44
479.002	93.44
479.22	100.44
479.439	90.44
479.658	90.44
479.876	89.44
480.095	79.44
480.313	91.44
480.532	97.44
480.751	98.44
480.969	113.44
481.188	199.44
481.406	158.44
481.624	87.44
481.843	97.44
482.061	80.44
482.28	87.44
482.498	88.44
482.717	98.44
482.935	79.44
483.153	84.44
483.372	95.44
483.59	64.44
483.808	90.44
484.027	81.44
484.245	99.44
484.463	104.44
484.681	93.44
484.9	96.44
485.118	91.44
485.336	77.44
485.554	96.44
485.772	100.44
485.99	103.44
486.209	94.44
486.427	81.44
486.645	114.44
486.863	108.44
487.081	95.44
487.299	88.44
487.517	87.44
487.735	97.44
487.953	87.44
488.171	79.44
488.389	104.44
488.607	91.44
488.825	95.44
489.043	81.44
489.261	95.44
489.479	99.44
489.696	80.44
489.914	92.44
490.132	77.44
490.35	76.44
490.568	77.44
490.786	69.44
491.003	75.44
491.221	82.44
491.439	87.44
491.657	83.44
491.874	86.44
492.092	91.44
492.31	85.44
492.527	81.44
492.745	93.44
492.963	82.44
493.18	91.44
493.398	103.44
493.615	105.44
493.833	91.44
494.05	92.44
494.268	104.44
494.485	95.44
494.703	71.44
494.92	80.44
495.138	75.44
495.355	94.44
495.573	80.44
495.79	91.44
496.008	88.44
496.225	88.44
496.442	87.44
496.66	89.44
496.877	95.44
497.094	91.44
497.312	100.44
497.529	100.44
497.746	75.44
497.963	82.44
498.181	83.44
498.398	95.44
498.615	107.44
498.832	99.44
499.049	100.44
499.267	93.44
499.484	95.44
499.701	86.44
499.918	90.44
500.135	87.44
500.352	87.44
500.569	85.44
500.786	92.44
501.003	84.44
501.22	79.44
501.437	88.44
501.654	91.44
501.871	108.44
502.088	73.44
502.305	90.44
502.522	90.44
502.739	94.44
502.956	89.44
503.172	89.44
503.389	97.44
503.606	111.44
503.823	105.44
504.04	101.44
504.256	96.44
504.473	90.44
504.69	94.44
504.907	93.44
505.123	87.44
505.34	74.44
505.557	90.44
505.773	95.44
505.99	98.44
506.207	81.44
506.423	97.44
506.64	99.44
506.856	104.44
507.073	91.44
507.289	104.44
507.506	96.44
507.722	96.44
507.939	104.44
508.155	94.44
508.372	83.44
508.588	96.44
508.805	90.44
509.021	104.44
509.238	89.44
509.454	86.44
509.67	97.44
509.887	113.44
510.103	116.44
510.319	208.44
510.536	746.44
510.752	2388.44
510.968	690.44
511.184	161.44
511.401	104.44
511.617	79.44
511.833	84.44
512.049	88.44
512.265	84.44
512.481	80.44
512.698	100.44
512.914	93.44
513.13	102.44
513.346	91.44
513.562	90.44
513.778	98.44
513.994	88.44
514.21	109.44
514.426	105.44
514.642	140.44
514.858	132.44
515.074	154.44
515.29	403.44
515.506	1448.44
515.721	548.44
515.937	163.44
516.153	105.44
516.369	93.44
516.585	99.44
516.801	92.44
