Data from Circ_2014_H10_HRD10591_00070.txt Node
Date: Wed Jan 03 10:02:23 EST 2024
User: Yrep
Spectrometer: HR+D1059
Trigger mode: 1
Integration Time (sec): 1.000000E-1
Scans to average: 1
Electric dark correction enabled: true
Nonlinearity correction enabled: false
Boxcar width: 0
XAxis mode: Wavelengths
Number of Pixels in Spectrum: 2048
>>>>>Begin Spectral Data<<<<<
223.165	-12.5
223.4	-12.5
223.635	-12.5
223.869	-14.5
224.104	-23.5
224.338	-19.5
224.573	-18.5
224.808	-13.5
225.042	-12.5
225.277	-0.5
225.511	-6.5
225.746	1.5
225.98	10.5
226.215	12.5
226.449	11.5
226.683	24.5
226.918	19.5
227.152	41.5
227.387	40.5
227.621	42.5
227.856	38.5
228.09	34.5
228.324	38.5
228.559	52.5
228.793	61.5
229.027	49.5
229.262	57.5
229.496	57.5
229.73	72.5
229.964	71.5
230.199	60.5
230.433	53.5
230.667	84.5
230.901	74.5
231.136	76.5
231.37	74.5
231.604	90.5
231.838	79.5
232.072	68.5
232.306	67.5
232.541	86.5
232.775	89.5
233.009	80.5
233.243	82.5
233.477	60.5
233.711	82.5
233.945	93.5
234.179	83.5
234.413	68.5
234.647	69.5
234.881	64.5
235.115	71.5
235.349	67.5
235.583	67.5
235.817	82.5
236.051	71.5
236.285	63.5
236.519	70.5
236.753	82.5
236.987	65.5
237.221	79.5
237.455	82.5
237.689	75.5
237.922	71.5
238.156	75.5
238.39	76.5
238.624	71.5
238.858	68.5
239.091	83.5
239.325	82.5
239.559	82.5
239.793	74.5
240.027	74.5
240.26	83.5
240.494	83.5
240.728	75.5
240.961	64.5
241.195	79.5
241.429	65.5
241.662	72.5
241.896	61.5
242.13	86.5
242.363	75.5
242.597	69.5
242.83	67.5
243.064	72.5
243.298	67.5
243.531	75.5
243.765	75.5
243.998	65.5
244.232	79.5
244.465	83.5
244.699	75.5
244.932	80.5
245.166	81.5
245.399	76.5
245.633	71.5
245.866	69.5
246.099	93.5
246.333	74.5
246.566	72.5
246.8	75.5
247.033	81.5
247.266	74.5
247.5	76.5
247.733	77.5
247.966	69.5
248.2	80.5
248.433	75.5
248.666	82.5
248.899	76.5
249.133	72.5
249.366	100.5
249.599	95.5
249.832	93.5
250.066	82.5
250.299	83.5
250.532	78.5
250.765	73.5
250.998	77.5
251.231	72.5
251.465	79.5
251.698	69.5
251.931	69.5
252.164	84.5
252.397	79.5
252.63	72.5
252.863	64.5
253.096	71.5
253.329	87.5
253.562	77.5
253.795	71.5
254.028	66.5
254.261	86.5
254.494	80.5
254.727	87.5
254.96	59.5
255.193	59.5
255.426	72.5
255.659	75.5
255.892	90.5
256.124	78.5
256.357	85.5
256.59	87.5
256.823	84.5
257.056	83.5
257.289	73.5
257.521	83.5
257.754	67.5
257.987	79.5
258.22	72.5
258.452	80.5
258.685	69.5
258.918	71.5
259.151	64.5
259.383	78.5
259.616	82.5
259.849	78.5
260.081	77.5
260.314	72.5
260.547	79.5
260.779	66.5
261.012	78.5
261.244	68.5
261.477	86.5
261.71	82.5
261.942	127.5
262.175	124.5
262.407	92.5
262.64	84.5
262.872	78.5
263.105	82.5
263.337	78.5
263.57	64.5
263.802	68.5
264.035	81.5
264.267	69.5
264.499	83.5
264.732	77.5
264.964	77.5
265.197	80.5
265.429	80.5
265.661	95.5
265.894	83.5
266.126	85.5
266.358	66.5
266.591	74.5
266.823	64.5
267.055	80.5
267.287	80.5
267.52	85.5
267.752	74.5
267.984	73.5
268.216	82.5
268.448	79.5
268.681	84.5
268.913	72.5
269.145	73.5
269.377	61.5
269.609	78.5
269.841	68.5
270.073	92.5
270.306	85.5
270.538	83.5
270.77	76.5
271.002	82.5
271.234	62.5
271.466	64.5
271.698	71.5
271.93	74.5
272.162	98.5
272.394	71.5
272.626	72.5
272.858	77.5
273.09	75.5
273.322	98.5
273.553	88.5
273.785	72.5
274.017	78.5
274.249	85.5
274.481	72.5
274.713	87.5
274.945	80.5
275.176	80.5
275.408	78.5
275.64	90.5
275.872	86.5
276.104	95.5
276.335	84.5
276.567	86.5
276.799	107.5
277.031	102.5
277.262	91.5
277.494	88.5
277.726	78.5
277.957	78.5
278.189	62.5
278.421	78.5
278.652	85.5
278.884	76.5
279.115	89.5
279.347	87.5
279.579	74.5
279.81	81.5
280.042	83.5
280.273	90.5
280.505	84.5
280.736	74.5
280.968	84.5
281.199	93.5
281.431	69.5
281.662	94.5
281.894	87.5
282.125	101.5
282.356	107.5
282.588	150.5
282.819	109.5
283.051	83.5
283.282	81.5
283.513	82.5
283.745	75.5
283.976	95.5
284.207	81.5
284.439	92.5
284.67	96.5
284.901	90.5
285.132	75.5
285.364	70.5
285.595	95.5
285.826	87.5
286.057	78.5
286.288	83.5
286.52	70.5
286.751	74.5
286.982	89.5
287.213	81.5
287.444	85.5
287.675	73.5
287.906	70.5
288.138	83.5
288.369	72.5
288.6	72.5
288.831	81.5
289.062	83.5
289.293	78.5
289.524	91.5
289.755	66.5
289.986	74.5
290.217	79.5
290.448	81.5
290.679	79.5
290.91	96.5
291.141	90.5
291.371	92.5
291.602	81.5
291.833	84.5
292.064	90.5
292.295	94.5
292.526	87.5
292.757	98.5
292.987	99.5
293.218	85.5
293.449	74.5
293.68	81.5
293.91	84.5
294.141	98.5
294.372	95.5
294.603	88.5
294.833	65.5
295.064	91.5
295.295	88.5
295.525	94.5
295.756	95.5
295.987	117.5
296.217	131.5
296.448	130.5
296.679	100.5
296.909	90.5
297.14	75.5
297.37	87.5
297.601	81.5
297.831	90.5
298.062	86.5
298.292	86.5
298.523	81.5
298.753	96.5
298.984	92.5
299.214	78.5
299.445	82.5
299.675	82.5
299.905	82.5
300.136	90.5
300.366	103.5
300.597	78.5
300.827	85.5
301.057	97.5
301.288	105.5
301.518	92.5
301.748	98.5
301.979	91.5
302.209	83.5
302.439	93.5
302.669	73.5
302.9	92.5
303.13	95.5
303.36	84.5
303.59	99.5
303.82	105.5
304.051	86.5
304.281	93.5
304.511	87.5
304.741	91.5
304.971	81.5
305.201	88.5
305.431	85.5
305.661	94.5
305.891	86.5
306.121	80.5
306.352	113.5
306.582	94.5
306.812	89.5
307.042	96.5
307.272	102.5
307.502	91.5
307.731	80.5
307.961	96.5
308.191	80.5
308.421	84.5
308.651	98.5
308.881	93.5
309.111	85.5
309.341	83.5
309.571	96.5
309.8	93.5
310.03	91.5
310.26	105.5
310.49	92.5
310.72	94.5
310.949	98.5
311.179	95.5
311.409	95.5
311.639	99.5
311.868	90.5
312.098	87.5
312.328	93.5
312.557	82.5
312.787	98.5
313.017	103.5
313.246	93.5
313.476	85.5
313.706	92.5
313.935	95.5
314.165	100.5
314.394	98.5
314.624	95.5
314.853	83.5
315.083	102.5
315.312	90.5
315.542	90.5
315.771	83.5
316.001	95.5
316.23	88.5
316.46	90.5
316.689	100.5
316.919	87.5
317.148	101.5
317.377	86.5
317.607	83.5
317.836	78.5
318.065	82.5
318.295	88.5
318.524	97.5
318.753	89.5
318.983	89.5
319.212	89.5
319.441	95.5
319.67	98.5
319.9	88.5
320.129	86.5
320.358	89.5
320.587	88.5
320.816	99.5
321.046	109.5
321.275	105.5
321.504	115.5
321.733	95.5
321.962	96.5
322.191	91.5
322.42	86.5
322.649	100.5
322.878	114.5
323.108	118.5
323.337	134.5
323.566	130.5
323.795	169.5
324.024	197.5
324.253	389.5
324.482	877.5
324.71	1813.5
324.939	2388.5
325.168	882.5
325.397	259.5
325.626	157.5
325.855	129.5
326.084	111.5
326.313	135.5
326.542	168.5
326.77	242.5
326.999	503.5
327.228	1000.5
327.457	1832.5
327.686	1444.5
327.914	412.5
328.143	201.5
328.372	184.5
328.6	133.5
328.829	127.5
329.058	124.5
329.287	136.5
329.515	91.5
329.744	105.5
329.972	113.5
330.201	165.5
330.43	192.5
330.658	145.5
330.887	157.5
331.115	134.5
331.344	114.5
331.572	91.5
331.801	107.5
332.03	93.5
332.258	79.5
332.486	85.5
332.715	76.5
332.943	82.5
333.172	78.5
333.4	114.5
333.629	102.5
333.857	98.5
334.085	133.5
334.314	164.5
334.542	212.5
334.771	218.5
334.999	137.5
335.227	104.5
335.455	102.5
335.684	109.5
335.912	77.5
336.14	94.5
336.369	81.5
336.597	103.5
336.825	84.5
337.053	97.5
337.281	90.5
337.51	88.5
337.738	97.5
337.966	84.5
338.194	85.5
338.422	87.5
338.65	87.5
338.878	89.5
339.106	85.5
339.334	90.5
339.562	87.5
339.79	93.5
340.018	88.5
340.246	87.5
340.474	93.5
340.702	94.5
340.93	79.5
341.158	72.5
341.386	99.5
341.614	87.5
341.842	80.5
342.07	90.5
342.298	85.5
342.526	92.5
342.754	91.5
342.981	86.5
343.209	86.5
343.437	95.5
343.665	74.5
343.893	79.5
344.12	94.5
344.348	86.5
344.576	95.5
344.804	101.5
345.031	81.5
345.259	91.5
345.487	98.5
345.714	91.5
345.942	83.5
346.17	91.5
346.397	97.5
346.625	101.5
346.853	112.5
347.08	87.5
347.308	88.5
347.535	93.5
347.763	87.5
347.99	102.5
348.218	102.5
348.445	106.5
348.673	98.5
348.9	106.5
349.128	101.5
349.355	86.5
349.583	81.5
349.81	89.5
350.037	85.5
350.265	111.5
350.492	83.5
350.72	81.5
350.947	91.5
351.174	110.5
351.402	96.5
351.629	81.5
351.856	87.5
352.083	91.5
352.311	90.5
352.538	110.5
352.765	94.5
352.992	102.5
353.22	103.5
353.447	107.5
353.674	97.5
353.901	102.5
354.128	84.5
354.355	93.5
354.583	88.5
354.81	96.5
355.037	89.5
355.264	91.5
355.491	83.5
355.718	89.5
355.945	83.5
356.172	85.5
356.399	104.5
356.626	89.5
356.853	86.5
357.08	89.5
357.307	96.5
357.534	80.5
357.761	88.5
357.988	89.5
358.215	99.5
358.441	78.5
358.668	80.5
358.895	88.5
359.122	91.5
359.349	89.5
359.576	100.5
359.802	103.5
360.029	114.5
360.256	110.5
360.483	106.5
360.709	89.5
360.936	80.5
361.163	87.5
361.39	93.5
361.616	92.5
361.843	106.5
362.07	83.5
362.296	86.5
362.523	92.5
362.749	96.5
362.976	77.5
363.203	73.5
363.429	88.5
363.656	80.5
363.882	85.5
364.109	100.5
364.335	87.5
364.562	86.5
364.788	95.5
365.015	101.5
365.241	95.5
365.468	105.5
365.694	109.5
365.92	87.5
366.147	85.5
366.373	93.5
366.599	92.5
366.826	76.5
367.052	82.5
367.278	94.5
367.505	80.5
367.731	83.5
367.957	87.5
368.184	83.5
368.41	100.5
368.636	110.5
368.862	123.5
369.089	97.5
369.315	107.5
369.541	95.5
369.767	87.5
369.993	98.5
370.219	96.5
370.445	106.5
370.672	77.5
370.898	76.5
371.124	78.5
371.35	87.5
371.576	81.5
371.802	87.5
372.028	82.5
372.254	78.5
372.48	92.5
372.706	76.5
372.932	80.5
373.158	88.5
373.384	91.5
373.61	75.5
373.835	80.5
374.061	84.5
374.287	89.5
374.513	80.5
374.739	83.5
374.965	84.5
375.191	71.5
375.416	69.5
375.642	86.5
375.868	86.5
376.094	74.5
376.319	81.5
376.545	78.5
376.771	94.5
376.997	89.5
377.222	86.5
377.448	94.5
377.674	82.5
377.899	86.5
378.125	91.5
378.35	75.5
378.576	84.5
378.802	75.5
379.027	82.5
379.253	84.5
379.478	78.5
379.704	100.5
379.929	83.5
380.155	89.5
380.38	109.5
380.606	84.5
380.831	88.5
381.057	88.5
381.282	88.5
381.507	93.5
381.733	91.5
381.958	83.5
382.184	91.5
382.409	88.5
382.634	102.5
382.86	99.5
383.085	97.5
383.31	102.5
383.535	104.5
383.761	105.5
383.986	104.5
384.211	102.5
384.436	102.5
384.662	85.5
384.887	100.5
385.112	111.5
385.337	95.5
385.562	104.5
385.787	106.5
386.013	105.5
386.238	108.5
386.463	105.5
386.688	97.5
386.913	103.5
387.138	95.5
387.363	88.5
387.588	92.5
387.813	104.5
388.038	94.5
388.263	110.5
388.488	91.5
388.713	99.5
388.938	106.5
389.163	82.5
389.387	83.5
389.612	86.5
389.837	89.5
390.062	93.5
390.287	87.5
390.512	79.5
390.736	87.5
390.961	81.5
391.186	80.5
391.411	101.5
391.636	74.5
391.86	84.5
392.085	80.5
392.31	76.5
392.534	71.5
392.759	95.5
392.984	62.5
393.208	86.5
393.433	99.5
393.658	85.5
393.882	90.5
394.107	83.5
394.331	99.5
394.556	93.5
394.78	75.5
395.005	85.5
395.229	71.5
395.454	78.5
395.678	73.5
395.903	81.5
396.127	100.5
396.352	106.5
396.576	87.5
396.801	82.5
397.025	77.5
397.249	83.5
397.474	88.5
397.698	88.5
397.922	90.5
398.147	74.5
398.371	94.5
398.595	94.5
398.82	70.5
399.044	87.5
399.268	81.5
399.492	79.5
399.717	92.5
399.941	84.5
400.165	89.5
400.389	93.5
400.613	91.5
400.837	76.5
401.062	90.5
401.286	86.5
401.51	87.5
401.734	95.5
401.958	92.5
402.182	136.5
402.406	163.5
402.63	119.5
402.854	78.5
403.078	85.5
403.302	85.5
403.526	94.5
403.75	89.5
403.974	95.5
404.198	91.5
404.422	89.5
404.645	81.5
404.869	79.5
405.093	101.5
405.317	100.5
405.541	117.5
405.765	100.5
405.988	119.5
406.212	177.5
406.436	261.5
406.66	159.5
406.883	107.5
407.107	99.5
407.331	77.5
407.555	94.5
407.778	88.5
408.002	87.5
408.226	82.5
408.449	85.5
408.673	89.5
408.896	96.5
409.12	97.5
409.344	80.5
409.567	96.5
409.791	76.5
410.014	79.5
410.238	97.5
410.461	92.5
410.685	95.5
410.908	87.5
411.132	87.5
411.355	93.5
411.578	94.5
411.802	81.5
412.025	82.5
412.249	95.5
412.472	82.5
412.695	118.5
412.919	97.5
413.142	93.5
413.365	86.5
413.589	74.5
413.812	86.5
414.035	93.5
414.258	88.5
414.482	86.5
414.705	82.5
414.928	89.5
415.151	81.5
415.374	82.5
415.597	76.5
415.821	83.5
416.044	78.5
416.267	74.5
416.49	100.5
416.713	91.5
416.936	91.5
417.159	91.5
417.382	78.5
417.605	96.5
417.828	96.5
418.051	97.5
418.274	102.5
418.497	87.5
418.72	73.5
418.943	91.5
419.166	81.5
419.389	83.5
419.611	86.5
419.834	79.5
420.057	79.5
420.28	89.5
420.503	86.5
420.726	83.5
420.948	88.5
421.171	90.5
421.394	81.5
421.617	80.5
421.839	83.5
422.062	78.5
422.285	106.5
422.507	89.5
422.73	99.5
422.953	89.5
423.175	80.5
423.398	81.5
423.621	91.5
423.843	98.5
424.066	70.5
424.288	93.5
424.511	80.5
424.733	74.5
424.956	101.5
425.178	96.5
425.401	87.5
425.623	90.5
425.846	96.5
426.068	93.5
426.291	86.5
426.513	91.5
426.735	79.5
426.958	99.5
427.18	93.5
427.402	126.5
427.625	174.5
427.847	146.5
428.069	131.5
428.292	97.5
428.514	83.5
428.736	72.5
428.958	74.5
429.181	90.5
429.403	79.5
429.625	75.5
429.847	74.5
430.069	85.5
430.292	90.5
430.514	77.5
430.736	79.5
430.958	80.5
431.18	80.5
431.402	91.5
431.624	78.5
431.846	74.5
432.068	92.5
432.29	71.5
432.512	77.5
432.734	88.5
432.956	87.5
433.178	89.5
433.4	96.5
433.622	95.5
433.844	86.5
434.066	92.5
434.287	81.5
434.509	94.5
434.731	74.5
434.953	82.5
435.175	79.5
435.397	77.5
435.618	75.5
435.84	96.5
436.062	129.5
436.284	118.5
436.505	106.5
436.727	89.5
436.949	88.5
437.17	93.5
437.392	79.5
437.614	81.5
437.835	102.5
438.057	119.5
438.278	114.5
438.5	99.5
438.721	97.5
438.943	94.5
439.165	80.5
439.386	91.5
439.608	85.5
439.829	92.5
440.05	117.5
440.272	123.5
440.493	87.5
440.715	83.5
440.936	74.5
441.158	88.5
441.379	88.5
441.6	97.5
441.822	76.5
442.043	97.5
442.264	90.5
442.486	82.5
442.707	87.5
442.928	98.5
443.149	117.5
443.371	111.5
443.592	104.5
443.813	105.5
444.034	110.5
444.255	79.5
444.476	88.5
444.698	93.5
444.919	79.5
445.14	133.5
445.361	135.5
445.582	112.5
445.803	137.5
446.024	130.5
446.245	130.5
446.466	112.5
446.687	76.5
446.908	78.5
447.129	73.5
447.35	89.5
447.571	95.5
447.792	89.5
448.013	87.5
448.234	105.5
448.455	98.5
448.675	110.5
448.896	114.5
449.117	91.5
449.338	88.5
449.559	118.5
449.779	119.5
450	96.5
450.221	83.5
450.442	77.5
450.662	103.5
450.883	125.5
451.104	115.5
451.324	92.5
451.545	100.5
451.766	80.5
451.986	71.5
452.207	91.5
452.428	86.5
452.648	94.5
452.869	108.5
453.089	117.5
453.31	105.5
453.53	89.5
453.751	101.5
453.971	104.5
454.192	100.5
454.412	88.5
454.633	85.5
454.853	75.5
455.073	75.5
455.294	87.5
455.514	91.5
455.734	96.5
455.955	80.5
456.175	70.5
456.395	82.5
456.616	86.5
456.836	97.5
457.056	73.5
457.276	85.5
457.497	82.5
457.717	93.5
457.937	82.5
458.157	86.5
458.377	99.5
458.598	117.5
458.818	125.5
459.038	167.5
459.258	112.5
459.478	87.5
459.698	81.5
459.918	87.5
460.138	80.5
460.358	79.5
460.578	94.5
460.798	90.5
461.018	75.5
461.238	83.5
461.458	74.5
461.678	92.5
461.898	85.5
462.118	87.5
462.338	79.5
462.558	85.5
462.777	82.5
462.997	84.5
463.217	83.5
463.437	77.5
463.657	79.5
463.876	76.5
464.096	75.5
464.316	87.5
464.536	78.5
464.755	99.5
464.975	101.5
465.195	157.5
465.414	157.5
465.634	89.5
465.854	96.5
466.073	86.5
466.293	86.5
466.512	81.5
466.732	84.5
466.951	83.5
467.171	84.5
467.391	92.5
467.61	110.5
467.829	114.5
468.049	112.5
468.268	133.5
468.488	87.5
468.707	83.5
468.927	90.5
469.146	66.5
469.365	86.5
469.585	70.5
469.804	98.5
470.023	98.5
470.243	85.5
470.462	90.5
470.681	109.5
470.901	87.5
471.12	75.5
471.339	87.5
471.558	88.5
471.777	95.5
471.997	92.5
472.216	187.5
472.435	282.5
472.654	121.5
472.873	80.5
473.092	97.5
473.311	99.5
473.53	75.5
473.749	81.5
473.968	105.5
474.187	98.5
474.406	95.5
474.625	81.5
474.844	80.5
475.063	87.5
475.282	81.5
475.501	62.5
475.72	90.5
475.939	85.5
476.158	69.5
476.377	84.5
476.596	79.5
476.814	113.5
477.033	89.5
477.252	93.5
477.471	83.5
477.69	71.5
477.908	85.5
478.127	67.5
478.346	79.5
478.564	94.5
478.783	97.5
479.002	98.5
479.22	85.5
479.439	109.5
479.658	90.5
479.876	86.5
480.095	93.5
480.313	93.5
480.532	90.5
480.751	102.5
480.969	186.5
481.188	460.5
481.406	294.5
481.624	117.5
481.843	85.5
482.061	93.5
482.28	89.5
482.498	91.5
482.717	91.5
482.935	85.5
483.153	90.5
483.372	92.5
483.59	65.5
483.808	88.5
484.027	88.5
484.245	84.5
484.463	85.5
484.681	102.5
484.9	97.5
485.118	85.5
485.336	80.5
485.554	73.5
485.772	95.5
485.99	103.5
486.209	95.5
486.427	111.5
486.645	111.5
486.863	100.5
487.081	93.5
487.299	99.5
487.517	90.5
487.735	85.5
487.953	82.5
488.171	91.5
488.389	86.5
488.607	101.5
488.825	76.5
489.043	89.5
489.261	95.5
489.479	68.5
489.696	92.5
489.914	90.5
490.132	100.5
490.35	85.5
490.568	74.5
490.786	92.5
491.003	76.5
491.221	75.5
491.439	78.5
491.657	81.5
491.874	88.5
492.092	105.5
492.31	88.5
492.527	87.5
492.745	84.5
492.963	87.5
493.18	93.5
493.398	76.5
493.615	86.5
493.833	92.5
494.05	86.5
494.268	81.5
494.485	78.5
494.703	73.5
494.92	87.5
495.138	77.5
495.355	78.5
495.573	73.5
495.79	88.5
496.008	70.5
496.225	99.5
496.442	82.5
496.66	82.5
496.877	81.5
497.094	83.5
497.312	85.5
497.529	98.5
497.746	87.5
497.963	83.5
498.181	82.5
498.398	91.5
498.615	104.5
498.832	97.5
499.049	84.5
499.267	76.5
499.484	85.5
499.701	96.5
499.918	79.5
500.135	96.5
500.352	90.5
500.569	74.5
500.786	90.5
501.003	88.5
501.22	101.5
501.437	78.5
501.654	89.5
501.871	96.5
502.088	90.5
502.305	81.5
502.522	85.5
502.739	81.5
502.956	85.5
503.172	77.5
503.389	88.5
503.606	99.5
503.823	103.5
504.04	90.5
504.256	102.5
504.473	81.5
504.69	81.5
504.907	94.5
505.123	93.5
505.34	89.5
505.557	88.5
505.773	81.5
505.99	91.5
506.207	74.5
506.423	96.5
506.64	92.5
506.856	91.5
507.073	74.5
507.289	75.5
507.506	81.5
507.722	104.5
507.939	116.5
508.155	101.5
508.372	95.5
508.588	89.5
508.805	85.5
509.021	89.5
509.238	83.5
509.454	89.5
509.67	104.5
509.887	107.5
510.103	129.5
510.319	242.5
510.536	850.5
510.752	2897.5
510.968	829.5
511.184	158.5
511.401	111.5
511.617	96.5
511.833	86.5
512.049	81.5
512.265	87.5
512.481	93.5
512.698	88.5
512.914	96.5
513.13	98.5
513.346	102.5
513.562	88.5
513.778	88.5
513.994	99.5
514.21	106.5
514.426	135.5
514.642	132.5
514.858	127.5
515.074	189.5
515.29	511.5
515.506	1857.5
515.721	723.5
515.937	168.5
516.153	121.5
516.369	92.5
516.585	96.5
516.801	94.5
517.016	91.5
517.232	82.5
517.448	94.5
517.664	83.5
517.879	83.5
518.095	85.5
518.311	82.5
518.527	94.5
518.742	85.5
518.958	77.5
519.173	83.5
519.389	89.5
519.605	95.5
519.82	100.5
520.036	102.5
520.251	131.5
520.467	100.5
520.682	98.5
520.898	113.5
521.113	111.5
521.329	157.5
521.544	216.5
521.76	642.5
521.975	3043.5
522.19	1913.5
522.406	389.5
522.621	139.5
522.836	113.5
523.052	93.5
523.267	83.5
523.482	87.5
523.698	89.5
523.913	101.5
524.128	101.5
524.343	116.5
524.559	79.5
524.774	79.5
524.989	93.5
525.204	87.5
525.419	97.5
525.634	82.5
525.849	89.5
526.064	79.5
526.28	89.5
526.495	86.5
526.71	94.5
526.925	85.5
527.14	77.5
527.355	82.5
527.57	80.5
527.785	110.5
527.999	88.5
528.214	103.5
528.429	91.5
528.644	88.5
528.859	93.5
529.074	88.5
529.289	129.5
529.503	201.5
529.718	87.5
529.933	81.5
530.148	73.5
530.363	85.5
530.577	89.5
530.792	95.5
531.007	85.5
531.221	90.5
531.436	103.5
531.651	85.5
531.865	95.5
532.08	99.5
532.295	86.5
532.509	87.5
532.724	88.5
532.938	79.5
533.153	87.5
533.367	110.5
533.582	84.5
533.796	85.5
534.011	85.5
534.225	87.5
534.44	85.5
534.654	76.5
534.868	89.5
535.083	78.5
535.297	90.5
535.511	90.5
535.726	111.5
535.94	100.5
536.154	97.5
536.369	84.5
