Data from Circ_2014_H10_HRD10591_00038.txt Node
Date: Wed Jan 03 10:02:16 EST 2024
User: Yrep
Spectrometer: HR+D1059
Trigger mode: 1
Integration Time (sec): 1.000000E-1
Scans to average: 1
Electric dark correction enabled: true
Nonlinearity correction enabled: false
Boxcar width: 0
XAxis mode: Wavelengths
Number of Pixels in Spectrum: 2048
>>>>>Begin Spectral Data<<<<<
223.165	-19.69
223.4	-19.69
223.635	-19.69
223.869	-21.69
224.104	-18.69
224.338	-10.69
224.573	-10.69
224.808	-15.69
225.042	-2.69
225.277	-18.69
225.511	-0.69
225.746	13.31
225.98	3.31
226.215	13.31
226.449	29.31
226.683	11.31
226.918	20.31
227.152	28.31
227.387	50.31
227.621	40.31
227.856	39.31
228.09	49.31
228.324	43.31
228.559	59.31
228.793	51.31
229.027	70.31
229.262	62.31
229.496	70.31
229.73	80.31
229.964	72.31
230.199	78.31
230.433	74.31
230.667	92.31
230.901	82.31
231.136	73.31
231.37	77.31
231.604	79.31
231.838	75.31
232.072	71.31
232.306	66.31
232.541	88.31
232.775	82.31
233.009	92.31
233.243	74.31
233.477	82.31
233.711	66.31
233.945	92.31
234.179	78.31
234.413	79.31
234.647	87.31
234.881	80.31
235.115	86.31
235.349	81.31
235.583	82.31
235.817	75.31
236.051	76.31
236.285	87.31
236.519	78.31
236.753	82.31
236.987	83.31
237.221	76.31
237.455	91.31
237.689	73.31
237.922	86.31
238.156	66.31
238.39	65.31
238.624	65.31
238.858	95.31
239.091	74.31
239.325	81.31
239.559	91.31
239.793	79.31
240.027	74.31
240.26	78.31
240.494	88.31
240.728	70.31
240.961	79.31
241.195	70.31
241.429	73.31
241.662	70.31
241.896	65.31
242.13	87.31
242.363	83.31
242.597	69.31
242.83	76.31
243.064	83.31
243.298	74.31
243.531	87.31
243.765	77.31
243.998	72.31
244.232	74.31
244.465	80.31
244.699	76.31
244.932	74.31
245.166	70.31
245.399	82.31
245.633	65.31
245.866	88.31
246.099	71.31
246.333	78.31
246.566	66.31
246.8	79.31
247.033	85.31
247.266	93.31
247.5	79.31
247.733	84.31
247.966	83.31
248.2	90.31
248.433	75.31
248.666	93.31
248.899	89.31
249.133	88.31
249.366	106.31
249.599	95.31
249.832	87.31
250.066	82.31
250.299	73.31
250.532	70.31
250.765	71.31
250.998	67.31
251.231	77.31
251.465	78.31
251.698	82.31
251.931	84.31
252.164	83.31
252.397	83.31
252.63	79.31
252.863	74.31
253.096	75.31
253.329	84.31
253.562	75.31
253.795	79.31
254.028	102.31
254.261	75.31
254.494	74.31
254.727	84.31
254.96	72.31
255.193	80.31
255.426	71.31
255.659	83.31
255.892	83.31
256.124	78.31
256.357	82.31
256.59	80.31
256.823	95.31
257.056	81.31
257.289	74.31
257.521	78.31
257.754	69.31
257.987	78.31
258.22	86.31
258.452	81.31
258.685	95.31
258.918	82.31
259.151	83.31
259.383	75.31
259.616	85.31
259.849	65.31
260.081	90.31
260.314	85.31
260.547	76.31
260.779	81.31
261.012	86.31
261.244	87.31
261.477	94.31
261.71	97.31
261.942	108.31
262.175	106.31
262.407	94.31
262.64	82.31
262.872	85.31
263.105	82.31
263.337	73.31
263.57	65.31
263.802	80.31
264.035	84.31
264.267	78.31
264.499	79.31
264.732	88.31
264.964	93.31
265.197	97.31
265.429	78.31
265.661	83.31
265.894	83.31
266.126	89.31
266.358	76.31
266.591	86.31
266.823	83.31
267.055	92.31
267.287	83.31
267.52	86.31
267.752	84.31
267.984	85.31
268.216	89.31
268.448	72.31
268.681	82.31
268.913	71.31
269.145	83.31
269.377	90.31
269.609	84.31
269.841	78.31
270.073	90.31
270.306	81.31
270.538	85.31
270.77	85.31
271.002	106.31
271.234	94.31
271.466	85.31
271.698	83.31
271.93	85.31
272.162	87.31
272.394	81.31
272.626	79.31
272.858	74.31
273.09	103.31
273.322	91.31
273.553	78.31
273.785	77.31
274.017	81.31
274.249	81.31
274.481	98.31
274.713	90.31
274.945	103.31
275.176	82.31
275.408	81.31
275.64	84.31
275.872	75.31
276.104	89.31
276.335	97.31
276.567	98.31
276.799	97.31
277.031	92.31
277.262	83.31
277.494	96.31
277.726	90.31
277.957	84.31
278.189	89.31
278.421	93.31
278.652	79.31
278.884	90.31
279.115	92.31
279.347	82.31
279.579	85.31
279.81	71.31
280.042	73.31
280.273	79.31
280.505	69.31
280.736	83.31
280.968	90.31
281.199	81.31
281.431	80.31
281.662	81.31
281.894	84.31
282.125	86.31
282.356	118.31
282.588	150.31
282.819	115.31
283.051	93.31
283.282	77.31
283.513	87.31
283.745	72.31
283.976	86.31
284.207	79.31
284.439	82.31
284.67	87.31
284.901	83.31
285.132	92.31
285.364	81.31
285.595	75.31
285.826	86.31
286.057	82.31
286.288	82.31
286.52	89.31
286.751	93.31
286.982	77.31
287.213	91.31
287.444	94.31
287.675	86.31
287.906	103.31
288.138	91.31
288.369	105.31
288.6	99.31
288.831	91.31
289.062	77.31
289.293	86.31
289.524	87.31
289.755	92.31
289.986	89.31
290.217	69.31
290.448	87.31
290.679	95.31
290.91	80.31
291.141	87.31
291.371	79.31
291.602	87.31
291.833	92.31
292.064	87.31
292.295	104.31
292.526	76.31
292.757	94.31
292.987	88.31
293.218	97.31
293.449	79.31
293.68	99.31
293.91	93.31
294.141	75.31
294.372	88.31
294.603	85.31
294.833	97.31
295.064	91.31
295.295	92.31
295.525	94.31
295.756	98.31
295.987	110.31
296.217	135.31
296.448	114.31
296.679	90.31
296.909	87.31
297.14	87.31
297.37	84.31
297.601	90.31
297.831	95.31
298.062	87.31
298.292	89.31
298.523	71.31
298.753	95.31
298.984	98.31
299.214	86.31
299.445	95.31
299.675	91.31
299.905	90.31
300.136	87.31
300.366	88.31
300.597	101.31
300.827	93.31
301.057	101.31
301.288	116.31
301.518	87.31
301.748	86.31
301.979	101.31
302.209	98.31
302.439	101.31
302.669	80.31
302.9	92.31
303.13	98.31
303.36	85.31
303.59	95.31
303.82	109.31
304.051	90.31
304.281	88.31
304.511	92.31
304.741	87.31
304.971	89.31
305.201	76.31
305.431	90.31
305.661	81.31
305.891	99.31
306.121	103.31
306.352	102.31
306.582	87.31
306.812	89.31
307.042	91.31
307.272	98.31
307.502	92.31
307.731	103.31
307.961	102.31
308.191	94.31
308.421	82.31
308.651	89.31
308.881	108.31
309.111	85.31
309.341	93.31
309.571	98.31
309.8	105.31
310.03	106.31
310.26	95.31
310.49	101.31
310.72	90.31
310.949	102.31
311.179	105.31
311.409	83.31
311.639	93.31
311.868	79.31
312.098	93.31
312.328	95.31
312.557	90.31
312.787	104.31
313.017	85.31
313.246	96.31
313.476	101.31
313.706	86.31
313.935	77.31
314.165	86.31
314.394	86.31
314.624	94.31
314.853	102.31
315.083	87.31
315.312	90.31
315.542	92.31
315.771	98.31
316.001	88.31
316.23	82.31
316.46	102.31
316.689	85.31
316.919	104.31
317.148	101.31
317.377	90.31
317.607	89.31
317.836	99.31
318.065	88.31
318.295	97.31
318.524	89.31
318.753	95.31
318.983	91.31
319.212	116.31
319.441	111.31
319.67	120.31
319.9	92.31
320.129	85.31
320.358	82.31
320.587	83.31
320.816	97.31
321.046	94.31
321.275	97.31
321.504	83.31
321.733	92.31
321.962	98.31
322.191	97.31
322.42	94.31
322.649	102.31
322.878	111.31
323.108	107.31
323.337	120.31
323.566	133.31
323.795	151.31
324.024	215.31
324.253	411.31
324.482	813.31
324.71	1669.31
324.939	2182.31
325.168	825.31
325.397	243.31
325.626	149.31
325.855	127.31
326.084	124.31
326.313	124.31
326.542	157.31
326.77	231.31
326.999	444.31
327.228	940.31
327.457	1688.31
327.686	1330.31
327.914	379.31
328.143	188.31
328.372	168.31
328.6	119.31
328.829	124.31
329.058	130.31
329.287	128.31
329.515	110.31
329.744	96.31
329.972	90.31
330.201	119.31
330.43	139.31
330.658	129.31
330.887	125.31
331.115	127.31
331.344	88.31
331.572	99.31
331.801	91.31
332.03	96.31
332.258	102.31
332.486	102.31
332.715	105.31
332.943	109.31
333.172	98.31
333.4	93.31
333.629	104.31
333.857	118.31
334.085	128.31
334.314	108.31
334.542	124.31
334.771	115.31
334.999	109.31
335.227	79.31
335.455	84.31
335.684	86.31
335.912	93.31
336.14	101.31
336.369	114.31
336.597	99.31
336.825	101.31
337.053	94.31
337.281	93.31
337.51	81.31
337.738	90.31
337.966	78.31
338.194	94.31
338.422	91.31
338.65	84.31
338.878	92.31
339.106	94.31
339.334	85.31
339.562	87.31
339.79	90.31
340.018	107.31
340.246	91.31
340.474	102.31
340.702	80.31
340.93	98.31
341.158	98.31
341.386	81.31
341.614	87.31
341.842	99.31
342.07	90.31
342.298	78.31
342.526	88.31
342.754	86.31
342.981	84.31
343.209	85.31
343.437	105.31
343.665	80.31
343.893	83.31
344.12	89.31
344.348	99.31
344.576	100.31
344.804	78.31
345.031	110.31
345.259	107.31
345.487	87.31
345.714	91.31
345.942	98.31
346.17	92.31
346.397	83.31
346.625	95.31
346.853	98.31
347.08	84.31
347.308	76.31
347.535	88.31
347.763	98.31
347.99	100.31
348.218	103.31
348.445	103.31
348.673	100.31
348.9	92.31
349.128	96.31
349.355	75.31
349.583	89.31
349.81	96.31
350.037	97.31
350.265	106.31
350.492	86.31
350.72	93.31
350.947	117.31
351.174	115.31
351.402	119.31
351.629	97.31
351.856	100.31
352.083	106.31
352.311	101.31
352.538	108.31
352.765	106.31
352.992	118.31
353.22	120.31
353.447	99.31
353.674	103.31
353.901	91.31
354.128	95.31
354.355	91.31
354.583	99.31
354.81	82.31
355.037	82.31
355.264	105.31
355.491	95.31
355.718	92.31
355.945	82.31
356.172	94.31
356.399	90.31
356.626	100.31
356.853	85.31
357.08	93.31
357.307	90.31
357.534	79.31
357.761	87.31
357.988	92.31
358.215	85.31
358.441	106.31
358.668	85.31
358.895	85.31
359.122	77.31
359.349	97.31
359.576	103.31
359.802	92.31
360.029	119.31
360.256	115.31
360.483	85.31
360.709	92.31
360.936	91.31
361.163	97.31
361.39	99.31
361.616	95.31
361.843	82.31
362.07	94.31
362.296	95.31
362.523	85.31
362.749	112.31
362.976	94.31
363.203	89.31
363.429	83.31
363.656	79.31
363.882	76.31
364.109	84.31
364.335	92.31
364.562	90.31
364.788	94.31
365.015	86.31
365.241	96.31
365.468	116.31
365.694	95.31
365.92	108.31
366.147	80.31
366.373	82.31
366.599	97.31
366.826	86.31
367.052	92.31
367.278	79.31
367.505	79.31
367.731	92.31
367.957	104.31
368.184	90.31
368.41	105.31
368.636	120.31
368.862	120.31
369.089	101.31
369.315	86.31
369.541	83.31
369.767	89.31
369.993	89.31
370.219	83.31
370.445	82.31
370.672	87.31
370.898	75.31
371.124	90.31
371.35	84.31
371.576	90.31
371.802	88.31
372.028	79.31
372.254	79.31
372.48	93.31
372.706	85.31
372.932	87.31
373.158	76.31
373.384	93.31
373.61	72.31
373.835	75.31
374.061	100.31
374.287	81.31
374.513	94.31
374.739	86.31
374.965	96.31
375.191	87.31
375.416	98.31
375.642	77.31
375.868	96.31
376.094	93.31
376.319	105.31
376.545	90.31
376.771	95.31
376.997	85.31
377.222	76.31
377.448	77.31
377.674	76.31
377.899	93.31
378.125	83.31
378.35	82.31
378.576	93.31
378.802	96.31
379.027	100.31
379.253	84.31
379.478	95.31
379.704	96.31
379.929	85.31
380.155	85.31
380.38	96.31
380.606	115.31
380.831	88.31
381.057	99.31
381.282	86.31
381.507	105.31
381.733	85.31
381.958	86.31
382.184	101.31
382.409	95.31
382.634	92.31
382.86	102.31
383.085	94.31
383.31	97.31
383.535	105.31
383.761	98.31
383.986	83.31
384.211	104.31
384.436	94.31
384.662	102.31
384.887	115.31
385.112	106.31
385.337	80.31
385.562	97.31
385.787	102.31
386.013	100.31
386.238	120.31
386.463	100.31
386.688	103.31
386.913	110.31
387.138	108.31
387.363	111.31
387.588	86.31
387.813	103.31
388.038	106.31
388.263	139.31
388.488	128.31
388.713	100.31
388.938	99.31
389.163	100.31
389.387	80.31
389.612	103.31
389.837	100.31
390.062	99.31
390.287	92.31
390.512	85.31
390.736	90.31
390.961	90.31
391.186	105.31
391.411	87.31
391.636	86.31
391.86	82.31
392.085	91.31
392.31	92.31
392.534	76.31
392.759	98.31
392.984	95.31
393.208	80.31
393.433	94.31
393.658	84.31
393.882	92.31
394.107	81.31
394.331	84.31
394.556	93.31
394.78	87.31
395.005	84.31
395.229	81.31
395.454	88.31
395.678	96.31
395.903	100.31
396.127	77.31
396.352	94.31
396.576	76.31
396.801	78.31
397.025	99.31
397.249	93.31
397.474	77.31
397.698	85.31
397.922	94.31
398.147	86.31
398.371	77.31
398.595	97.31
398.82	74.31
399.044	79.31
399.268	99.31
399.492	85.31
399.717	100.31
399.941	91.31
400.165	88.31
400.389	101.31
400.613	83.31
400.837	86.31
401.062	94.31
401.286	85.31
401.51	99.31
401.734	90.31
401.958	104.31
402.182	135.31
402.406	163.31
402.63	111.31
402.854	92.31
403.078	77.31
403.302	78.31
403.526	77.31
403.75	82.31
403.974	86.31
404.198	73.31
404.422	83.31
404.645	70.31
404.869	97.31
405.093	84.31
405.317	87.31
405.541	102.31
405.765	97.31
405.988	133.31
406.212	181.31
406.436	246.31
406.66	147.31
406.883	94.31
407.107	91.31
407.331	88.31
407.555	108.31
407.778	83.31
408.002	89.31
408.226	62.31
408.449	90.31
408.673	73.31
408.896	80.31
409.12	97.31
409.344	98.31
409.567	83.31
409.791	95.31
410.014	94.31
410.238	102.31
410.461	88.31
410.685	93.31
410.908	97.31
411.132	114.31
411.355	102.31
411.578	88.31
411.802	105.31
412.025	90.31
412.249	72.31
412.472	73.31
412.695	85.31
412.919	80.31
413.142	84.31
413.365	91.31
413.589	98.31
413.812	78.31
414.035	106.31
414.258	68.31
414.482	78.31
414.705	97.31
414.928	81.31
415.151	86.31
415.374	88.31
415.597	89.31
415.821	88.31
416.044	81.31
416.267	89.31
416.49	81.31
416.713	91.31
416.936	78.31
417.159	70.31
417.382	98.31
417.605	88.31
417.828	85.31
418.051	95.31
418.274	92.31
418.497	76.31
418.72	95.31
418.943	100.31
419.166	86.31
419.389	77.31
419.611	76.31
419.834	83.31
420.057	78.31
420.28	89.31
420.503	79.31
420.726	75.31
420.948	95.31
421.171	101.31
421.394	93.31
421.617	109.31
421.839	86.31
422.062	89.31
422.285	76.31
422.507	94.31
422.73	98.31
422.953	92.31
423.175	87.31
423.398	94.31
423.621	86.31
423.843	84.31
424.066	78.31
424.288	85.31
424.511	106.31
424.733	93.31
424.956	113.31
425.178	76.31
425.401	95.31
425.623	95.31
425.846	88.31
426.068	94.31
426.291	100.31
426.513	92.31
426.735	95.31
426.958	96.31
427.18	113.31
427.402	139.31
427.625	174.31
427.847	122.31
428.069	118.31
428.292	85.31
428.514	91.31
428.736	88.31
428.958	94.31
429.181	97.31
429.403	96.31
429.625	78.31
429.847	82.31
430.069	113.31
430.292	99.31
430.514	100.31
430.736	91.31
430.958	97.31
431.18	81.31
431.402	74.31
431.624	81.31
431.846	77.31
432.068	77.31
432.29	88.31
432.512	95.31
432.734	82.31
432.956	102.31
433.178	96.31
433.4	99.31
433.622	104.31
433.844	94.31
434.066	90.31
434.287	93.31
434.509	93.31
434.731	70.31
434.953	89.31
435.175	86.31
435.397	91.31
435.618	99.31
435.84	107.31
436.062	119.31
436.284	105.31
436.505	122.31
436.727	94.31
436.949	103.31
437.17	79.31
437.392	96.31
437.614	104.31
437.835	124.31
438.057	125.31
438.278	122.31
438.5	109.31
438.721	127.31
438.943	104.31
439.165	92.31
439.386	77.31
439.608	92.31
439.829	107.31
440.05	109.31
440.272	139.31
440.493	115.31
440.715	98.31
440.936	83.31
441.158	90.31
441.379	82.31
441.6	94.31
441.822	85.31
442.043	83.31
442.264	98.31
442.486	101.31
442.707	94.31
442.928	100.31
443.149	130.31
443.371	141.31
443.592	125.31
443.813	127.31
444.034	119.31
444.255	83.31
444.476	79.31
444.698	85.31
444.919	82.31
445.14	138.31
445.361	125.31
445.582	123.31
445.803	154.31
446.024	136.31
446.245	140.31
446.466	114.31
446.687	96.31
446.908	87.31
447.129	100.31
447.35	102.31
447.571	87.31
447.792	95.31
448.013	89.31
448.234	93.31
448.455	81.31
448.675	95.31
448.896	108.31
449.117	109.31
449.338	100.31
449.559	133.31
449.779	118.31
450	96.31
450.221	84.31
450.442	94.31
450.662	97.31
450.883	114.31
451.104	105.31
451.324	115.31
451.545	88.31
451.766	89.31
451.986	86.31
452.207	91.31
452.428	77.31
452.648	85.31
452.869	107.31
453.089	98.31
453.31	123.31
453.53	95.31
453.751	92.31
453.971	103.31
454.192	110.31
454.412	99.31
454.633	90.31
454.853	86.31
455.073	84.31
455.294	96.31
455.514	102.31
455.734	75.31
455.955	89.31
456.175	90.31
456.395	88.31
456.616	90.31
456.836	99.31
457.056	85.31
457.276	90.31
457.497	103.31
457.717	85.31
457.937	99.31
458.157	87.31
458.377	90.31
458.598	98.31
458.818	155.31
459.038	157.31
459.258	115.31
459.478	84.31
459.698	77.31
459.918	80.31
460.138	89.31
460.358	73.31
460.578	87.31
460.798	85.31
461.018	85.31
461.238	90.31
461.458	95.31
461.678	72.31
461.898	79.31
462.118	83.31
462.338	85.31
462.558	92.31
462.777	89.31
462.997	94.31
463.217	100.31
463.437	71.31
463.657	74.31
463.876	79.31
464.096	95.31
464.316	85.31
464.536	95.31
464.755	92.31
464.975	103.31
465.195	173.31
465.414	170.31
465.634	92.31
465.854	88.31
466.073	84.31
466.293	78.31
466.512	102.31
466.732	78.31
466.951	97.31
467.171	106.31
467.391	71.31
467.61	110.31
467.829	82.31
468.049	110.31
468.268	103.31
468.488	110.31
468.707	88.31
468.927	96.31
469.146	91.31
469.365	90.31
469.585	86.31
469.804	104.31
470.023	97.31
470.243	102.31
470.462	105.31
470.681	105.31
470.901	80.31
471.12	96.31
471.339	83.31
471.558	75.31
471.777	75.31
471.997	89.31
472.216	113.31
472.435	148.31
472.654	91.31
472.873	97.31
473.092	78.31
473.311	86.31
473.53	73.31
473.749	85.31
473.968	86.31
474.187	107.31
474.406	104.31
474.625	75.31
474.844	86.31
475.063	85.31
475.282	74.31
475.501	89.31
475.72	84.31
475.939	95.31
476.158	85.31
476.377	96.31
476.596	88.31
476.814	84.31
477.033	89.31
477.252	82.31
477.471	77.31
477.69	88.31
477.908	84.31
478.127	76.31
478.346	86.31
478.564	79.31
478.783	94.31
479.002	102.31
479.22	97.31
479.439	104.31
479.658	117.31
479.876	103.31
480.095	86.31
480.313	97.31
480.532	89.31
480.751	83.31
480.969	106.31
481.188	183.31
481.406	143.31
481.624	98.31
481.843	87.31
482.061	72.31
482.28	74.31
482.498	81.31
482.717	84.31
482.935	88.31
483.153	97.31
483.372	103.31
483.59	93.31
483.808	93.31
484.027	89.31
484.245	98.31
484.463	103.31
484.681	104.31
484.9	97.31
485.118	91.31
485.336	93.31
485.554	104.31
485.772	104.31
485.99	99.31
486.209	99.31
486.427	94.31
486.645	113.31
486.863	114.31
487.081	113.31
487.299	96.31
487.517	94.31
487.735	83.31
487.953	92.31
488.171	77.31
488.389	98.31
488.607	103.31
488.825	99.31
489.043	87.31
489.261	99.31
489.479	84.31
489.696	92.31
489.914	96.31
490.132	89.31
490.35	87.31
490.568	83.31
490.786	96.31
491.003	95.31
491.221	98.31
491.439	91.31
491.657	90.31
491.874	96.31
492.092	89.31
492.31	106.31
492.527	80.31
492.745	89.31
492.963	83.31
493.18	99.31
493.398	92.31
493.615	89.31
493.833	82.31
494.05	86.31
494.268	100.31
494.485	86.31
494.703	97.31
494.92	81.31
495.138	86.31
495.355	102.31
495.573	88.31
495.79	96.31
496.008	100.31
496.225	87.31
496.442	86.31
496.66	102.31
496.877	84.31
497.094	81.31
497.312	93.31
497.529	98.31
497.746	84.31
497.963	100.31
498.181	88.31
498.398	87.31
498.615	106.31
498.832	127.31
499.049	81.31
499.267	92.31
499.484	94.31
499.701	107.31
499.918	90.31
500.135	87.31
500.352	102.31
500.569	95.31
500.786	91.31
501.003	90.31
501.22	91.31
501.437	88.31
501.654	98.31
501.871	100.31
502.088	91.31
502.305	83.31
502.522	80.31
502.739	102.31
502.956	87.31
503.172	87.31
503.389	100.31
503.606	131.31
503.823	113.31
504.04	86.31
504.256	99.31
504.473	88.31
504.69	92.31
504.907	91.31
505.123	87.31
505.34	98.31
505.557	90.31
505.773	90.31
505.99	93.31
506.207	94.31
506.423	79.31
506.64	97.31
506.856	92.31
507.073	88.31
507.289	88.31
507.506	86.31
507.722	104.31
507.939	124.31
508.155	102.31
508.372	85.31
508.588	102.31
508.805	84.31
509.021	89.31
509.238	95.31
509.454	87.31
509.67	110.31
509.887	105.31
510.103	131.31
510.319	211.31
510.536	797.31
510.752	2680.31
510.968	767.31
511.184	171.31
511.401	129.31
511.617	99.31
511.833	89.31
512.049	94.31
512.265	88.31
512.481	83.31
512.698	107.31
512.914	94.31
513.13	97.31
513.346	92.31
513.562	96.31
513.778	100.31
513.994	107.31
514.21	117.31
514.426	107.31
514.642	138.31
514.858	130.31
515.074	167.31
515.29	501.31
515.506	1692.31
515.721	640.31
