Data from Circ_2014_H10_HRD10591_00032.txt Node
Date: Wed Jan 03 10:02:15 EST 2024
User: Yrep
Spectrometer: HR+D1059
Trigger mode: 1
Integration Time (sec): 1.000000E-1
Scans to average: 1
Electric dark correction enabled: true
Nonlinearity correction enabled: false
Boxcar width: 0
XAxis mode: Wavelengths
Number of Pixels in Spectrum: 2048
>>>>>Begin Spectral Data<<<<<
223.165	-11.5
223.4	-11.5
223.635	-11.5
223.869	-3.5
224.104	-16.5
224.338	-15.5
224.573	-25.5
224.808	-16.5
225.042	-5.5
225.277	-11.5
225.511	-2.5
225.746	5.5
225.98	7.5
226.215	2.5
226.449	10.5
226.683	25.5
226.918	22.5
227.152	34.5
227.387	49.5
227.621	47.5
227.856	50.5
228.09	56.5
228.324	62.5
228.559	64.5
228.793	44.5
229.027	56.5
229.262	68.5
229.496	65.5
229.73	87.5
229.964	82.5
230.199	78.5
230.433	73.5
230.667	82.5
230.901	75.5
231.136	72.5
231.37	86.5
231.604	86.5
231.838	70.5
232.072	81.5
232.306	86.5
232.541	92.5
232.775	82.5
233.009	77.5
233.243	85.5
233.477	89.5
233.711	83.5
233.945	95.5
234.179	77.5
234.413	77.5
234.647	73.5
234.881	81.5
235.115	90.5
235.349	77.5
235.583	71.5
235.817	75.5
236.051	82.5
236.285	79.5
236.519	87.5
236.753	65.5
236.987	84.5
237.221	91.5
237.455	95.5
237.689	63.5
237.922	57.5
238.156	79.5
238.39	86.5
238.624	71.5
238.858	96.5
239.091	84.5
239.325	80.5
239.559	86.5
239.793	80.5
240.027	86.5
240.26	79.5
240.494	80.5
240.728	75.5
240.961	77.5
241.195	77.5
241.429	77.5
241.662	77.5
241.896	56.5
242.13	70.5
242.363	73.5
242.597	80.5
242.83	71.5
243.064	75.5
243.298	81.5
243.531	84.5
243.765	87.5
243.998	86.5
244.232	79.5
244.465	82.5
244.699	86.5
244.932	79.5
245.166	81.5
245.399	72.5
245.633	77.5
245.866	71.5
246.099	71.5
246.333	75.5
246.566	77.5
246.8	91.5
247.033	75.5
247.266	82.5
247.5	86.5
247.733	82.5
247.966	80.5
248.2	93.5
248.433	74.5
248.666	83.5
248.899	87.5
249.133	75.5
249.366	101.5
249.599	89.5
249.832	88.5
250.066	82.5
250.299	83.5
250.532	89.5
250.765	71.5
250.998	53.5
251.231	82.5
251.465	75.5
251.698	82.5
251.931	70.5
252.164	78.5
252.397	88.5
252.63	72.5
252.863	77.5
253.096	74.5
253.329	76.5
253.562	74.5
253.795	85.5
254.028	88.5
254.261	71.5
254.494	82.5
254.727	80.5
254.96	75.5
255.193	96.5
255.426	70.5
255.659	87.5
255.892	81.5
256.124	67.5
256.357	74.5
256.59	87.5
256.823	76.5
257.056	85.5
257.289	80.5
257.521	81.5
257.754	87.5
257.987	72.5
258.22	72.5
258.452	83.5
258.685	86.5
258.918	80.5
259.151	88.5
259.383	75.5
259.616	77.5
259.849	97.5
260.081	78.5
260.314	99.5
260.547	84.5
260.779	88.5
261.012	77.5
261.244	89.5
261.477	97.5
261.71	109.5
261.942	112.5
262.175	125.5
262.407	93.5
262.64	79.5
262.872	93.5
263.105	83.5
263.337	80.5
263.57	92.5
263.802	94.5
264.035	84.5
264.267	77.5
264.499	76.5
264.732	76.5
264.964	78.5
265.197	66.5
265.429	69.5
265.661	78.5
265.894	76.5
266.126	72.5
266.358	89.5
266.591	88.5
266.823	90.5
267.055	75.5
267.287	74.5
267.52	82.5
267.752	88.5
267.984	71.5
268.216	81.5
268.448	82.5
268.681	91.5
268.913	72.5
269.145	87.5
269.377	94.5
269.609	83.5
269.841	97.5
270.073	83.5
270.306	88.5
270.538	87.5
270.77	80.5
271.002	78.5
271.234	78.5
271.466	90.5
271.698	78.5
271.93	81.5
272.162	74.5
272.394	84.5
272.626	81.5
272.858	98.5
273.09	100.5
273.322	89.5
273.553	81.5
273.785	75.5
274.017	82.5
274.249	84.5
274.481	65.5
274.713	83.5
274.945	74.5
275.176	86.5
275.408	98.5
275.64	88.5
275.872	84.5
276.104	76.5
276.335	87.5
276.567	105.5
276.799	104.5
277.031	113.5
277.262	103.5
277.494	98.5
277.726	89.5
277.957	85.5
278.189	73.5
278.421	66.5
278.652	84.5
278.884	87.5
279.115	78.5
279.347	77.5
279.579	75.5
279.81	83.5
280.042	85.5
280.273	84.5
280.505	96.5
280.736	88.5
280.968	102.5
281.199	75.5
281.431	72.5
281.662	71.5
281.894	88.5
282.125	94.5
282.356	113.5
282.588	157.5
282.819	127.5
283.051	89.5
283.282	84.5
283.513	97.5
283.745	79.5
283.976	87.5
284.207	80.5
284.439	87.5
284.67	90.5
284.901	90.5
285.132	85.5
285.364	84.5
285.595	88.5
285.826	92.5
286.057	81.5
286.288	86.5
286.52	91.5
286.751	85.5
286.982	76.5
287.213	83.5
287.444	75.5
287.675	80.5
287.906	85.5
288.138	81.5
288.369	91.5
288.6	90.5
288.831	80.5
289.062	92.5
289.293	77.5
289.524	82.5
289.755	83.5
289.986	92.5
290.217	76.5
290.448	86.5
290.679	100.5
290.91	89.5
291.141	66.5
291.371	91.5
291.602	79.5
291.833	77.5
292.064	98.5
292.295	95.5
292.526	74.5
292.757	76.5
292.987	84.5
293.218	89.5
293.449	98.5
293.68	90.5
293.91	64.5
294.141	90.5
294.372	97.5
294.603	89.5
294.833	91.5
295.064	88.5
295.295	84.5
295.525	76.5
295.756	96.5
295.987	113.5
296.217	165.5
296.448	137.5
296.679	89.5
296.909	87.5
297.14	102.5
297.37	95.5
297.601	88.5
297.831	87.5
298.062	95.5
298.292	91.5
298.523	76.5
298.753	95.5
298.984	98.5
299.214	91.5
299.445	91.5
299.675	91.5
299.905	88.5
300.136	82.5
300.366	88.5
300.597	96.5
300.827	85.5
301.057	102.5
301.288	106.5
301.518	101.5
301.748	98.5
301.979	85.5
302.209	83.5
302.439	91.5
302.669	86.5
302.9	101.5
303.13	98.5
303.36	93.5
303.59	106.5
303.82	97.5
304.051	85.5
304.281	97.5
304.511	91.5
304.741	81.5
304.971	80.5
305.201	96.5
305.431	95.5
305.661	89.5
305.891	91.5
306.121	103.5
306.352	106.5
306.582	92.5
306.812	89.5
307.042	100.5
307.272	99.5
307.502	114.5
307.731	109.5
307.961	102.5
308.191	97.5
308.421	87.5
308.651	76.5
308.881	90.5
309.111	86.5
309.341	101.5
309.571	101.5
309.8	92.5
310.03	112.5
310.26	100.5
310.49	92.5
310.72	105.5
310.949	99.5
311.179	105.5
311.409	90.5
311.639	86.5
311.868	103.5
312.098	97.5
312.328	68.5
312.557	102.5
312.787	102.5
313.017	103.5
313.246	101.5
313.476	89.5
313.706	82.5
313.935	97.5
314.165	95.5
314.394	107.5
314.624	101.5
314.853	100.5
315.083	90.5
315.312	81.5
315.542	92.5
315.771	95.5
316.001	100.5
316.23	95.5
316.46	83.5
316.689	91.5
316.919	91.5
317.148	115.5
317.377	96.5
317.607	105.5
317.836	87.5
318.065	84.5
318.295	92.5
318.524	92.5
318.753	106.5
318.983	84.5
319.212	113.5
319.441	115.5
319.67	96.5
319.9	95.5
320.129	69.5
320.358	96.5
320.587	105.5
320.816	90.5
321.046	111.5
321.275	120.5
321.504	93.5
321.733	88.5
321.962	101.5
322.191	117.5
322.42	109.5
322.649	119.5
322.878	118.5
323.108	123.5
323.337	143.5
323.566	132.5
323.795	167.5
324.024	210.5
324.253	445.5
324.482	963.5
324.71	1924.5
324.939	2520.5
325.168	961.5
325.397	283.5
325.626	156.5
325.855	126.5
326.084	133.5
326.313	140.5
326.542	161.5
326.77	249.5
326.999	486.5
327.228	1034.5
327.457	1897.5
327.686	1499.5
327.914	401.5
328.143	240.5
328.372	163.5
328.6	138.5
328.829	139.5
329.058	138.5
329.287	143.5
329.515	107.5
329.744	93.5
329.972	93.5
330.201	121.5
330.43	135.5
330.658	114.5
330.887	165.5
331.115	137.5
331.344	111.5
331.572	114.5
331.801	107.5
332.03	112.5
332.258	106.5
332.486	99.5
332.715	82.5
332.943	93.5
333.172	111.5
333.4	90.5
333.629	108.5
333.857	113.5
334.085	111.5
334.314	111.5
334.542	98.5
334.771	135.5
334.999	102.5
335.227	94.5
335.455	84.5
335.684	83.5
335.912	111.5
336.14	95.5
336.369	103.5
336.597	105.5
336.825	95.5
337.053	98.5
337.281	85.5
337.51	85.5
337.738	93.5
337.966	106.5
338.194	99.5
338.422	91.5
338.65	112.5
338.878	93.5
339.106	104.5
339.334	85.5
339.562	74.5
339.79	89.5
340.018	89.5
340.246	96.5
340.474	76.5
340.702	90.5
340.93	89.5
341.158	72.5
341.386	101.5
341.614	95.5
341.842	89.5
342.07	88.5
342.298	96.5
342.526	87.5
342.754	83.5
342.981	84.5
343.209	74.5
343.437	100.5
343.665	87.5
343.893	88.5
344.12	95.5
344.348	90.5
344.576	88.5
344.804	78.5
345.031	113.5
345.259	102.5
345.487	87.5
345.714	89.5
345.942	113.5
346.17	75.5
346.397	93.5
346.625	96.5
346.853	84.5
347.08	89.5
347.308	90.5
347.535	110.5
347.763	100.5
347.99	104.5
348.218	115.5
348.445	99.5
348.673	88.5
348.9	81.5
349.128	98.5
349.355	72.5
349.583	88.5
349.81	93.5
350.037	88.5
350.265	96.5
350.492	78.5
350.72	88.5
350.947	99.5
351.174	104.5
351.402	111.5
351.629	93.5
351.856	88.5
352.083	112.5
352.311	102.5
352.538	113.5
352.765	108.5
352.992	112.5
353.22	100.5
353.447	100.5
353.674	106.5
353.901	102.5
354.128	105.5
354.355	76.5
354.583	95.5
354.81	87.5
355.037	102.5
355.264	88.5
355.491	107.5
355.718	92.5
355.945	90.5
356.172	95.5
356.399	96.5
356.626	88.5
356.853	89.5
357.08	90.5
357.307	94.5
357.534	88.5
357.761	85.5
357.988	102.5
358.215	93.5
358.441	87.5
358.668	83.5
358.895	88.5
359.122	80.5
359.349	92.5
359.576	79.5
359.802	100.5
360.029	109.5
360.256	108.5
360.483	96.5
360.709	88.5
360.936	101.5
361.163	101.5
361.39	99.5
361.616	108.5
361.843	83.5
362.07	96.5
362.296	92.5
362.523	89.5
362.749	101.5
362.976	82.5
363.203	92.5
363.429	94.5
363.656	99.5
363.882	85.5
364.109	100.5
364.335	80.5
364.562	86.5
364.788	88.5
365.015	90.5
365.241	94.5
365.468	118.5
365.694	120.5
365.92	99.5
366.147	84.5
366.373	81.5
366.599	93.5
366.826	93.5
367.052	82.5
367.278	93.5
367.505	90.5
367.731	98.5
367.957	83.5
368.184	102.5
368.41	83.5
368.636	111.5
368.862	134.5
369.089	106.5
369.315	83.5
369.541	85.5
369.767	83.5
369.993	88.5
370.219	98.5
370.445	95.5
370.672	90.5
370.898	81.5
371.124	91.5
371.35	91.5
371.576	99.5
371.802	77.5
372.028	87.5
372.254	80.5
372.48	91.5
372.706	86.5
372.932	66.5
373.158	85.5
373.384	80.5
373.61	91.5
373.835	84.5
374.061	84.5
374.287	89.5
374.513	80.5
374.739	77.5
374.965	87.5
375.191	72.5
375.416	83.5
375.642	89.5
375.868	84.5
376.094	88.5
376.319	84.5
376.545	76.5
376.771	103.5
376.997	84.5
377.222	86.5
377.448	95.5
377.674	91.5
377.899	90.5
378.125	80.5
378.35	91.5
378.576	90.5
378.802	85.5
379.027	97.5
379.253	85.5
379.478	84.5
379.704	104.5
379.929	77.5
380.155	67.5
380.38	91.5
380.606	96.5
380.831	103.5
381.057	99.5
381.282	104.5
381.507	99.5
381.733	100.5
381.958	91.5
382.184	105.5
382.409	97.5
382.634	92.5
382.86	107.5
383.085	100.5
383.31	112.5
383.535	106.5
383.761	92.5
383.986	85.5
384.211	84.5
384.436	91.5
384.662	113.5
384.887	106.5
385.112	102.5
385.337	100.5
385.562	87.5
385.787	87.5
386.013	101.5
386.238	120.5
386.463	101.5
386.688	116.5
386.913	94.5
387.138	102.5
387.363	106.5
387.588	97.5
387.813	102.5
388.038	118.5
388.263	102.5
388.488	108.5
388.713	93.5
388.938	95.5
389.163	93.5
389.387	78.5
389.612	96.5
389.837	89.5
390.062	89.5
390.287	85.5
390.512	90.5
390.736	86.5
390.961	95.5
391.186	92.5
391.411	89.5
391.636	91.5
391.86	91.5
392.085	72.5
392.31	87.5
392.534	83.5
392.759	95.5
392.984	84.5
393.208	87.5
393.433	83.5
393.658	80.5
393.882	72.5
394.107	80.5
394.331	82.5
394.556	88.5
394.78	74.5
395.005	83.5
395.229	104.5
395.454	76.5
395.678	84.5
395.903	87.5
396.127	84.5
396.352	99.5
396.576	89.5
396.801	83.5
397.025	90.5
397.249	79.5
397.474	83.5
397.698	95.5
397.922	97.5
398.147	91.5
398.371	89.5
398.595	102.5
398.82	77.5
399.044	88.5
399.268	74.5
399.492	83.5
399.717	101.5
399.941	88.5
400.165	91.5
400.389	82.5
400.613	86.5
400.837	76.5
401.062	77.5
401.286	86.5
401.51	82.5
401.734	77.5
401.958	103.5
402.182	126.5
402.406	185.5
402.63	132.5
402.854	97.5
403.078	77.5
403.302	99.5
403.526	77.5
403.75	87.5
403.974	81.5
404.198	82.5
404.422	85.5
404.645	89.5
404.869	91.5
405.093	86.5
405.317	97.5
405.541	101.5
405.765	106.5
405.988	127.5
406.212	191.5
406.436	269.5
406.66	169.5
406.883	99.5
407.107	90.5
407.331	90.5
407.555	104.5
407.778	81.5
408.002	99.5
408.226	92.5
408.449	85.5
408.673	86.5
408.896	79.5
409.12	90.5
409.344	104.5
409.567	74.5
409.791	88.5
410.014	94.5
410.238	98.5
410.461	90.5
410.685	91.5
410.908	91.5
411.132	103.5
411.355	106.5
411.578	92.5
411.802	73.5
412.025	88.5
412.249	85.5
412.472	81.5
412.695	82.5
412.919	90.5
413.142	81.5
413.365	90.5
413.589	101.5
413.812	87.5
414.035	88.5
414.258	91.5
414.482	95.5
414.705	85.5
414.928	88.5
415.151	92.5
415.374	88.5
415.597	89.5
415.821	96.5
416.044	96.5
416.267	84.5
416.49	80.5
416.713	87.5
416.936	82.5
417.159	79.5
417.382	88.5
417.605	88.5
417.828	105.5
418.051	86.5
418.274	88.5
418.497	84.5
418.72	98.5
418.943	87.5
419.166	78.5
419.389	89.5
419.611	97.5
419.834	87.5
420.057	67.5
420.28	89.5
420.503	84.5
420.726	92.5
420.948	82.5
421.171	80.5
421.394	86.5
421.617	103.5
421.839	77.5
422.062	84.5
422.285	87.5
422.507	97.5
422.73	98.5
422.953	91.5
423.175	95.5
423.398	81.5
423.621	84.5
423.843	87.5
424.066	79.5
424.288	71.5
424.511	75.5
424.733	97.5
424.956	97.5
425.178	102.5
425.401	97.5
425.623	101.5
425.846	92.5
426.068	90.5
426.291	93.5
426.513	88.5
426.735	79.5
426.958	94.5
427.18	100.5
427.402	153.5
427.625	189.5
427.847	136.5
428.069	116.5
428.292	85.5
428.514	81.5
428.736	71.5
428.958	73.5
429.181	75.5
429.403	75.5
429.625	76.5
429.847	78.5
430.069	95.5
430.292	87.5
430.514	75.5
430.736	81.5
430.958	81.5
431.18	72.5
431.402	84.5
431.624	91.5
431.846	87.5
432.068	83.5
432.29	98.5
432.512	89.5
432.734	77.5
432.956	93.5
433.178	87.5
433.4	112.5
433.622	89.5
433.844	81.5
434.066	99.5
434.287	87.5
434.509	76.5
434.731	102.5
434.953	84.5
435.175	97.5
435.397	95.5
435.618	100.5
435.84	106.5
436.062	115.5
436.284	118.5
436.505	106.5
436.727	101.5
436.949	93.5
437.17	71.5
437.392	83.5
437.614	90.5
437.835	110.5
438.057	116.5
438.278	113.5
438.5	105.5
438.721	117.5
438.943	92.5
439.165	84.5
439.386	87.5
439.608	112.5
439.829	99.5
440.05	115.5
440.272	148.5
440.493	96.5
440.715	95.5
440.936	84.5
441.158	81.5
441.379	95.5
441.6	84.5
441.822	100.5
442.043	91.5
442.264	97.5
442.486	92.5
442.707	88.5
442.928	97.5
443.149	130.5
443.371	153.5
443.592	117.5
443.813	115.5
444.034	107.5
444.255	88.5
444.476	96.5
444.698	90.5
444.919	86.5
445.14	126.5
445.361	138.5
445.582	118.5
445.803	153.5
446.024	149.5
446.245	140.5
446.466	124.5
446.687	98.5
446.908	81.5
447.129	79.5
447.35	81.5
447.571	102.5
447.792	96.5
448.013	98.5
448.234	102.5
448.455	104.5
448.675	93.5
448.896	120.5
449.117	113.5
449.338	108.5
449.559	117.5
449.779	138.5
450	104.5
450.221	94.5
450.442	97.5
450.662	88.5
450.883	101.5
451.104	104.5
451.324	98.5
451.545	83.5
451.766	83.5
451.986	102.5
452.207	76.5
452.428	85.5
452.648	109.5
452.869	116.5
453.089	127.5
453.31	117.5
453.53	99.5
453.751	92.5
453.971	104.5
454.192	122.5
454.412	76.5
454.633	80.5
454.853	91.5
455.073	84.5
455.294	98.5
455.514	106.5
455.734	101.5
455.955	80.5
456.175	84.5
456.395	77.5
456.616	86.5
456.836	81.5
457.056	89.5
457.276	87.5
457.497	79.5
457.717	69.5
457.937	80.5
458.157	86.5
458.377	85.5
458.598	113.5
458.818	167.5
459.038	186.5
459.258	115.5
459.478	106.5
459.698	89.5
459.918	88.5
460.138	88.5
460.358	83.5
460.578	68.5
460.798	104.5
461.018	85.5
461.238	94.5
461.458	101.5
461.678	89.5
461.898	77.5
462.118	84.5
462.338	78.5
462.558	73.5
462.777	90.5
462.997	75.5
463.217	90.5
463.437	92.5
463.657	89.5
463.876	90.5
464.096	95.5
464.316	92.5
464.536	87.5
464.755	74.5
464.975	111.5
465.195	187.5
465.414	179.5
465.634	90.5
465.854	59.5
466.073	87.5
466.293	78.5
466.512	94.5
466.732	85.5
466.951	78.5
467.171	96.5
467.391	100.5
467.61	98.5
467.829	92.5
468.049	108.5
468.268	100.5
468.488	87.5
468.707	69.5
468.927	71.5
469.146	77.5
469.365	76.5
469.585	80.5
469.804	80.5
470.023	96.5
470.243	81.5
470.462	112.5
470.681	128.5
470.901	86.5
471.12	81.5
471.339	71.5
471.558	76.5
471.777	90.5
471.997	88.5
472.216	108.5
472.435	129.5
472.654	94.5
472.873	99.5
473.092	90.5
473.311	91.5
473.53	76.5
473.749	67.5
473.968	100.5
474.187	116.5
474.406	91.5
474.625	80.5
474.844	76.5
475.063	79.5
475.282	75.5
475.501	85.5
475.72	77.5
475.939	88.5
476.158	82.5
476.377	97.5
476.596	84.5
476.814	85.5
477.033	96.5
477.252	95.5
477.471	87.5
477.69	93.5
477.908	77.5
478.127	95.5
478.346	77.5
478.564	74.5
478.783	96.5
479.002	96.5
479.22	92.5
479.439	98.5
479.658	90.5
479.876	100.5
480.095	99.5
480.313	90.5
480.532	94.5
480.751	87.5
480.969	114.5
481.188	169.5
481.406	149.5
481.624	110.5
481.843	97.5
482.061	83.5
482.28	87.5
482.498	83.5
482.717	90.5
482.935	72.5
483.153	82.5
483.372	99.5
483.59	89.5
483.808	88.5
484.027	81.5
484.245	106.5
484.463	81.5
484.681	81.5
484.9	89.5
485.118	90.5
485.336	90.5
485.554	81.5
485.772	81.5
485.99	83.5
486.209	92.5
486.427	116.5
486.645	117.5
486.863	106.5
487.081	86.5
487.299	111.5
487.517	104.5
487.735	90.5
487.953	95.5
488.171	97.5
488.389	89.5
488.607	86.5
488.825	102.5
489.043	73.5
489.261	95.5
489.479	86.5
489.696	84.5
489.914	83.5
490.132	75.5
490.35	87.5
490.568	83.5
490.786	94.5
491.003	94.5
491.221	84.5
491.439	90.5
491.657	95.5
491.874	93.5
492.092	91.5
492.31	71.5
492.527	79.5
492.745	90.5
492.963	76.5
493.18	89.5
493.398	102.5
493.615	92.5
493.833	87.5
494.05	94.5
494.268	85.5
494.485	79.5
494.703	87.5
494.92	85.5
495.138	95.5
495.355	84.5
495.573	84.5
495.79	90.5
496.008	91.5
496.225	72.5
496.442	95.5
496.66	84.5
496.877	78.5
497.094	96.5
497.312	96.5
497.529	88.5
497.746	94.5
497.963	72.5
498.181	81.5
498.398	101.5
498.615	114.5
498.832	111.5
499.049	94.5
499.267	91.5
499.484	84.5
499.701	94.5
499.918	92.5
500.135	88.5
500.352	103.5
500.569	84.5
500.786	93.5
501.003	90.5
501.22	103.5
501.437	96.5
501.654	90.5
501.871	100.5
502.088	90.5
502.305	94.5
502.522	77.5
502.739	96.5
502.956	86.5
503.172	91.5
503.389	99.5
503.606	105.5
503.823	107.5
504.04	96.5
504.256	97.5
504.473	101.5
504.69	105.5
504.907	104.5
505.123	89.5
505.34	69.5
505.557	86.5
505.773	87.5
505.99	93.5
506.207	99.5
506.423	104.5
506.64	102.5
506.856	82.5
507.073	95.5
507.289	82.5
507.506	95.5
507.722	116.5
507.939	113.5
508.155	86.5
508.372	97.5
508.588	96.5
508.805	104.5
509.021	95.5
509.238	100.5
509.454	98.5
509.67	99.5
509.887	103.5
510.103	140.5
510.319	243.5
510.536	897.5
510.752	2997.5
510.968	868.5
511.184	186.5
511.401	116.5
511.617	107.5
511.833	89.5
512.049	76.5
512.265	92.5
512.481	95.5
512.698	83.5
512.914	88.5
513.13	83.5
513.346	83.5
513.562	88.5
513.778	104.5
513.994	94.5
514.21	102.5
514.426	131.5
514.642	150.5
514.858	145.5
515.074	187.5
515.29	548.5
515.506	1971.5
515.721	735.5
515.937	175.5
516.153	121.5
516.369	101.5
516.585	94.5
516.801	94.5
517.016	104.5
517.232	85.5
517.448	95.5
517.664	79.5
517.879	92.5
518.095	85.5
518.311	95.5
518.527	92.5
518.742	91.5
518.958	88.5
519.173	87.5
519.389	81.5
519.605	91.5
519.82	100.5
520.036	117.5
520.251	131.5
520.467	120.5
520.682	113.5
520.898	95.5
521.113	115.5
521.329	152.5
521.544	240.5
521.76	688.5
521.975	3244.5
522.19	1978.5
522.406	389.5
522.621	143.5
522.836	111.5
523.052	111.5
523.267	85.5
523.482	103.5
523.698	86.5
523.913	128.5
524.128	96.5
524.343	111.5
524.559	77.5
524.774	84.5
524.989	102.5
525.204	120.5
525.419	105.5
525.634	95.5
525.849	96.5
526.064	83.5
526.28	90.5
526.495	82.5
526.71	104.5
526.925	92.5
527.14	92.5
527.355	96.5
527.57	89.5
527.785	87.5
527.999	90.5
528.214	87.5
528.429	90.5
528.644	88.5
528.859	98.5
529.074	102.5
529.289	130.5
529.503	199.5
529.718	137.5
529.933	84.5
530.148	91.5
530.363	95.5
530.577	87.5
530.792	86.5
531.007	95.5
531.221	77.5
531.436	86.5
531.651	88.5
531.865	86.5
532.08	111.5
532.295	97.5
532.509	104.5
532.724	93.5
532.938	88.5
533.153	93.5
533.367	82.5
533.582	111.5
533.796	95.5
534.011	81.5
534.225	87.5
534.44	82.5
534.654	93.5
534.868	98.5
535.083	92.5
