Data from Circ_2014_H10_HRD10591_00021.txt Node
Date: Wed Jan 03 10:02:13 EST 2024
User: Yrep
Spectrometer: HR+D1059
Trigger mode: 1
Integration Time (sec): 1.000000E-1
Scans to average: 1
Electric dark correction enabled: true
Nonlinearity correction enabled: false
Boxcar width: 0
XAxis mode: Wavelengths
Number of Pixels in Spectrum: 2048
>>>>>Begin Spectral Data<<<<<
223.165	-8.44
223.4	-8.44
223.635	-8.44
223.869	-5.44
224.104	-17.44
224.338	-17.44
224.573	-25.44
224.808	-10.44
225.042	-0.44
225.277	-5.44
225.511	-1.44
225.746	-3.44
225.98	8.56
226.215	6.56
226.449	11.56
226.683	18.56
226.918	18.56
227.152	31.56
227.387	55.56
227.621	43.56
227.856	42.56
228.09	52.56
228.324	62.56
228.559	63.56
228.793	66.56
229.027	60.56
229.262	64.56
229.496	77.56
229.73	96.56
229.964	107.56
230.199	67.56
230.433	82.56
230.667	95.56
230.901	86.56
231.136	83.56
231.37	86.56
231.604	77.56
231.838	75.56
232.072	88.56
232.306	88.56
232.541	94.56
232.775	92.56
233.009	82.56
233.243	79.56
233.477	88.56
233.711	86.56
233.945	88.56
234.179	77.56
234.413	77.56
234.647	90.56
234.881	80.56
235.115	87.56
235.349	87.56
235.583	79.56
235.817	86.56
236.051	75.56
236.285	86.56
236.519	74.56
236.753	71.56
236.987	87.56
237.221	94.56
237.455	86.56
237.689	76.56
237.922	84.56
238.156	67.56
238.39	77.56
238.624	85.56
238.858	75.56
239.091	81.56
239.325	70.56
239.559	85.56
239.793	82.56
240.027	81.56
240.26	63.56
240.494	80.56
240.728	68.56
240.961	81.56
241.195	84.56
241.429	67.56
241.662	75.56
241.896	84.56
242.13	69.56
242.363	76.56
242.597	93.56
242.83	79.56
243.064	83.56
243.298	80.56
243.531	83.56
243.765	76.56
243.998	79.56
244.232	85.56
244.465	88.56
244.699	91.56
244.932	77.56
245.166	89.56
245.399	92.56
245.633	81.56
245.866	78.56
246.099	81.56
246.333	81.56
246.566	93.56
246.8	79.56
247.033	76.56
247.266	72.56
247.5	94.56
247.733	80.56
247.966	68.56
248.2	82.56
248.433	80.56
248.666	93.56
248.899	91.56
249.133	91.56
249.366	92.56
249.599	105.56
249.832	88.56
250.066	81.56
250.299	94.56
250.532	91.56
250.765	88.56
250.998	96.56
251.231	78.56
251.465	88.56
251.698	90.56
251.931	88.56
252.164	81.56
252.397	85.56
252.63	72.56
252.863	76.56
253.096	78.56
253.329	90.56
253.562	83.56
253.795	86.56
254.028	90.56
254.261	82.56
254.494	81.56
254.727	85.56
254.96	85.56
255.193	91.56
255.426	94.56
255.659	77.56
255.892	101.56
256.124	78.56
256.357	92.56
256.59	84.56
256.823	108.56
257.056	78.56
257.289	82.56
257.521	97.56
257.754	88.56
257.987	73.56
258.22	80.56
258.452	86.56
258.685	91.56
258.918	93.56
259.151	84.56
259.383	94.56
259.616	73.56
259.849	92.56
260.081	93.56
260.314	76.56
260.547	92.56
260.779	87.56
261.012	84.56
261.244	82.56
261.477	100.56
261.71	90.56
261.942	125.56
262.175	118.56
262.407	84.56
262.64	99.56
262.872	81.56
263.105	98.56
263.337	80.56
263.57	77.56
263.802	90.56
264.035	93.56
264.267	90.56
264.499	88.56
264.732	79.56
264.964	77.56
265.197	88.56
265.429	86.56
265.661	87.56
265.894	90.56
266.126	82.56
266.358	86.56
266.591	96.56
266.823	81.56
267.055	92.56
267.287	88.56
267.52	85.56
267.752	75.56
267.984	73.56
268.216	94.56
268.448	88.56
268.681	92.56
268.913	81.56
269.145	87.56
269.377	81.56
269.609	101.56
269.841	90.56
270.073	97.56
270.306	94.56
270.538	90.56
270.77	87.56
271.002	82.56
271.234	74.56
271.466	71.56
271.698	80.56
271.93	89.56
272.162	71.56
272.394	84.56
272.626	88.56
272.858	86.56
273.09	93.56
273.322	89.56
273.553	86.56
273.785	80.56
274.017	82.56
274.249	87.56
274.481	104.56
274.713	79.56
274.945	79.56
275.176	83.56
275.408	92.56
275.64	95.56
275.872	87.56
276.104	101.56
276.335	90.56
276.567	110.56
276.799	110.56
277.031	122.56
277.262	93.56
277.494	100.56
277.726	80.56
277.957	88.56
278.189	92.56
278.421	102.56
278.652	72.56
278.884	93.56
279.115	85.56
279.347	100.56
279.579	96.56
279.81	93.56
280.042	93.56
280.273	82.56
280.505	95.56
280.736	84.56
280.968	96.56
281.199	100.56
281.431	92.56
281.662	82.56
281.894	88.56
282.125	103.56
282.356	122.56
282.588	150.56
282.819	114.56
283.051	87.56
283.282	86.56
283.513	90.56
283.745	83.56
283.976	90.56
284.207	95.56
284.439	90.56
284.67	86.56
284.901	95.56
285.132	90.56
285.364	97.56
285.595	75.56
285.826	98.56
286.057	81.56
286.288	100.56
286.52	88.56
286.751	84.56
286.982	70.56
287.213	74.56
287.444	87.56
287.675	94.56
287.906	103.56
288.138	92.56
288.369	115.56
288.6	106.56
288.831	96.56
289.062	100.56
289.293	93.56
289.524	86.56
289.755	82.56
289.986	81.56
290.217	91.56
290.448	96.56
290.679	89.56
290.91	103.56
291.141	100.56
291.371	97.56
291.602	86.56
291.833	92.56
292.064	100.56
292.295	90.56
292.526	92.56
292.757	95.56
292.987	91.56
293.218	109.56
293.449	79.56
293.68	85.56
293.91	104.56
294.141	89.56
294.372	95.56
294.603	93.56
294.833	82.56
295.064	81.56
295.295	96.56
295.525	100.56
295.756	104.56
295.987	133.56
296.217	144.56
296.448	143.56
296.679	117.56
296.909	100.56
297.14	93.56
297.37	98.56
297.601	97.56
297.831	89.56
298.062	111.56
298.292	99.56
298.523	93.56
298.753	93.56
298.984	61.56
299.214	91.56
299.445	93.56
299.675	117.56
299.905	111.56
300.136	98.56
300.366	86.56
300.597	91.56
300.827	93.56
301.057	112.56
301.288	107.56
301.518	98.56
301.748	95.56
301.979	101.56
302.209	99.56
302.439	89.56
302.669	87.56
302.9	95.56
303.13	100.56
303.36	94.56
303.59	117.56
303.82	114.56
304.051	89.56
304.281	89.56
304.511	93.56
304.741	92.56
304.971	90.56
305.201	100.56
305.431	88.56
305.661	92.56
305.891	105.56
306.121	104.56
306.352	108.56
306.582	104.56
306.812	73.56
307.042	84.56
307.272	91.56
307.502	101.56
307.731	97.56
307.961	104.56
308.191	98.56
308.421	88.56
308.651	110.56
308.881	100.56
309.111	88.56
309.341	102.56
309.571	100.56
309.8	104.56
310.03	108.56
310.26	120.56
310.49	97.56
310.72	108.56
310.949	109.56
311.179	108.56
311.409	98.56
311.639	107.56
311.868	110.56
312.098	90.56
312.328	98.56
312.557	108.56
312.787	112.56
313.017	112.56
313.246	94.56
313.476	102.56
313.706	105.56
313.935	96.56
314.165	96.56
314.394	116.56
314.624	104.56
314.853	109.56
315.083	106.56
315.312	93.56
315.542	79.56
315.771	103.56
316.001	100.56
316.23	96.56
316.46	94.56
316.689	93.56
316.919	94.56
317.148	96.56
317.377	91.56
317.607	93.56
317.836	101.56
318.065	92.56
318.295	90.56
318.524	96.56
318.753	96.56
318.983	104.56
319.212	111.56
319.441	124.56
319.67	120.56
319.9	83.56
320.129	101.56
320.358	99.56
320.587	108.56
320.816	98.56
321.046	111.56
321.275	116.56
321.504	103.56
321.733	94.56
321.962	103.56
322.191	113.56
322.42	102.56
322.649	111.56
322.878	125.56
323.108	136.56
323.337	126.56
323.566	149.56
323.795	162.56
324.024	239.56
324.253	472.56
324.482	985.56
324.71	2021.56
324.939	2664.56
325.168	957.56
325.397	289.56
325.626	159.56
325.855	143.56
326.084	142.56
326.313	143.56
326.542	164.56
326.77	242.56
326.999	529.56
327.228	1113.56
327.457	1998.56
327.686	1592.56
327.914	436.56
328.143	234.56
328.372	170.56
328.6	130.56
328.829	121.56
329.058	148.56
329.287	148.56
329.515	141.56
329.744	126.56
329.972	97.56
330.201	102.56
330.43	122.56
330.658	134.56
330.887	162.56
331.115	137.56
331.344	115.56
331.572	102.56
331.801	108.56
332.03	104.56
332.258	101.56
332.486	96.56
332.715	93.56
332.943	104.56
333.172	95.56
333.4	108.56
333.629	119.56
333.857	126.56
334.085	107.56
334.314	103.56
334.542	118.56
334.771	121.56
334.999	110.56
335.227	106.56
335.455	104.56
335.684	108.56
335.912	105.56
336.14	99.56
336.369	90.56
336.597	106.56
336.825	94.56
337.053	92.56
337.281	86.56
337.51	94.56
337.738	91.56
337.966	93.56
338.194	99.56
338.422	102.56
338.65	94.56
338.878	111.56
339.106	86.56
339.334	77.56
339.562	97.56
339.79	94.56
340.018	98.56
340.246	84.56
340.474	87.56
340.702	94.56
340.93	105.56
341.158	97.56
341.386	102.56
341.614	97.56
341.842	111.56
342.07	97.56
342.298	89.56
342.526	92.56
342.754	89.56
342.981	81.56
343.209	97.56
343.437	106.56
343.665	92.56
343.893	98.56
344.12	99.56
344.348	103.56
344.576	88.56
344.804	96.56
345.031	99.56
345.259	104.56
345.487	119.56
345.714	98.56
345.942	105.56
346.17	93.56
346.397	91.56
346.625	105.56
346.853	102.56
347.08	99.56
347.308	106.56
347.535	95.56
347.763	108.56
347.99	91.56
348.218	95.56
348.445	99.56
348.673	107.56
348.9	109.56
349.128	103.56
349.355	93.56
349.583	108.56
349.81	97.56
350.037	102.56
350.265	94.56
350.492	105.56
350.72	98.56
350.947	123.56
351.174	100.56
351.402	127.56
351.629	111.56
351.856	113.56
352.083	105.56
352.311	104.56
352.538	117.56
352.765	114.56
352.992	111.56
353.22	128.56
353.447	104.56
353.674	100.56
353.901	96.56
354.128	104.56
354.355	97.56
354.583	96.56
354.81	88.56
355.037	106.56
355.264	103.56
355.491	91.56
355.718	105.56
355.945	106.56
356.172	105.56
356.399	88.56
356.626	105.56
356.853	102.56
357.08	103.56
357.307	92.56
357.534	97.56
357.761	88.56
357.988	92.56
358.215	116.56
358.441	102.56
358.668	90.56
358.895	92.56
359.122	101.56
359.349	98.56
359.576	98.56
359.802	98.56
360.029	120.56
360.256	132.56
360.483	120.56
360.709	108.56
360.936	94.56
361.163	104.56
361.39	109.56
361.616	104.56
361.843	96.56
362.07	99.56
362.296	107.56
362.523	96.56
362.749	104.56
362.976	87.56
363.203	100.56
363.429	95.56
363.656	103.56
363.882	96.56
364.109	87.56
364.335	86.56
364.562	90.56
364.788	80.56
365.015	96.56
365.241	92.56
365.468	120.56
365.694	123.56
365.92	111.56
366.147	91.56
366.373	88.56
366.599	105.56
366.826	82.56
367.052	100.56
367.278	96.56
367.505	97.56
367.731	106.56
367.957	87.56
368.184	106.56
368.41	116.56
368.636	136.56
368.862	135.56
369.089	110.56
369.315	104.56
369.541	102.56
369.767	94.56
369.993	90.56
370.219	102.56
370.445	90.56
370.672	91.56
370.898	92.56
371.124	93.56
371.35	91.56
371.576	85.56
371.802	89.56
372.028	95.56
372.254	97.56
372.48	101.56
372.706	96.56
372.932	110.56
373.158	88.56
373.384	95.56
373.61	102.56
373.835	98.56
374.061	100.56
374.287	98.56
374.513	110.56
374.739	95.56
374.965	72.56
375.191	103.56
375.416	102.56
375.642	86.56
375.868	112.56
376.094	90.56
376.319	82.56
376.545	107.56
376.771	98.56
376.997	90.56
377.222	98.56
377.448	99.56
377.674	82.56
377.899	80.56
378.125	83.56
378.35	99.56
378.576	96.56
378.802	85.56
379.027	93.56
379.253	96.56
379.478	99.56
379.704	99.56
379.929	105.56
380.155	110.56
380.38	89.56
380.606	112.56
380.831	102.56
381.057	117.56
381.282	93.56
381.507	98.56
381.733	118.56
381.958	102.56
382.184	117.56
382.409	111.56
382.634	116.56
382.86	109.56
383.085	111.56
383.31	102.56
383.535	106.56
383.761	97.56
383.986	108.56
384.211	100.56
384.436	112.56
384.662	103.56
384.887	114.56
385.112	118.56
385.337	112.56
385.562	113.56
385.787	117.56
386.013	128.56
386.238	147.56
386.463	113.56
386.688	113.56
386.913	109.56
387.138	133.56
387.363	105.56
387.588	101.56
387.813	101.56
388.038	117.56
388.263	134.56
388.488	136.56
388.713	106.56
388.938	105.56
389.163	95.56
389.387	98.56
389.612	95.56
389.837	103.56
390.062	87.56
390.287	105.56
390.512	118.56
390.736	100.56
390.961	109.56
391.186	91.56
391.411	94.56
391.636	96.56
391.86	93.56
392.085	104.56
392.31	89.56
392.534	96.56
392.759	86.56
392.984	98.56
393.208	89.56
393.433	104.56
393.658	100.56
393.882	93.56
394.107	85.56
394.331	78.56
394.556	82.56
394.78	88.56
395.005	87.56
395.229	90.56
395.454	103.56
395.678	98.56
395.903	98.56
396.127	94.56
396.352	97.56
396.576	87.56
396.801	98.56
397.025	100.56
397.249	89.56
397.474	88.56
397.698	96.56
397.922	94.56
398.147	87.56
398.371	88.56
398.595	91.56
398.82	88.56
399.044	79.56
399.268	100.56
399.492	92.56
399.717	85.56
399.941	89.56
400.165	97.56
400.389	105.56
400.613	93.56
400.837	86.56
401.062	93.56
401.286	82.56
401.51	92.56
401.734	85.56
401.958	109.56
402.182	146.56
402.406	186.56
402.63	140.56
402.854	95.56
403.078	96.56
403.302	95.56
403.526	84.56
403.75	116.56
403.974	82.56
404.198	87.56
404.422	82.56
404.645	88.56
404.869	95.56
405.093	90.56
405.317	86.56
405.541	100.56
405.765	129.56
405.988	142.56
406.212	197.56
406.436	286.56
406.66	192.56
406.883	114.56
407.107	92.56
407.331	93.56
407.555	118.56
407.778	111.56
408.002	110.56
408.226	96.56
408.449	100.56
408.673	87.56
408.896	95.56
409.12	103.56
409.344	87.56
409.567	86.56
409.791	104.56
410.014	83.56
410.238	100.56
410.461	92.56
410.685	98.56
410.908	94.56
411.132	101.56
411.355	113.56
411.578	92.56
411.802	88.56
412.025	101.56
412.249	81.56
412.472	99.56
412.695	86.56
412.919	93.56
413.142	90.56
413.365	87.56
413.589	96.56
413.812	76.56
414.035	97.56
414.258	104.56
414.482	98.56
414.705	108.56
414.928	87.56
415.151	94.56
415.374	94.56
415.597	96.56
415.821	90.56
416.044	86.56
416.267	102.56
416.49	97.56
416.713	87.56
416.936	93.56
417.159	81.56
417.382	85.56
417.605	81.56
417.828	91.56
418.051	96.56
418.274	82.56
418.497	96.56
418.72	97.56
418.943	87.56
419.166	94.56
419.389	99.56
419.611	91.56
419.834	90.56
420.057	87.56
420.28	96.56
420.503	94.56
420.726	81.56
420.948	93.56
421.171	97.56
421.394	93.56
421.617	107.56
421.839	77.56
422.062	96.56
422.285	82.56
422.507	97.56
422.73	111.56
422.953	96.56
423.175	97.56
423.398	90.56
423.621	86.56
423.843	73.56
424.066	89.56
424.288	84.56
424.511	95.56
424.733	106.56
424.956	138.56
425.178	92.56
425.401	105.56
425.623	103.56
425.846	101.56
426.068	96.56
426.291	77.56
426.513	104.56
426.735	82.56
426.958	94.56
427.18	105.56
427.402	138.56
427.625	190.56
427.847	151.56
428.069	117.56
428.292	81.56
428.514	93.56
428.736	84.56
428.958	95.56
429.181	95.56
429.403	86.56
429.625	82.56
429.847	97.56
430.069	106.56
430.292	95.56
430.514	96.56
430.736	88.56
430.958	105.56
431.18	101.56
431.402	88.56
431.624	93.56
431.846	85.56
432.068	75.56
432.29	95.56
432.512	100.56
432.734	92.56
432.956	87.56
433.178	106.56
433.4	97.56
433.622	98.56
433.844	94.56
434.066	96.56
434.287	77.56
434.509	99.56
434.731	100.56
434.953	92.56
435.175	92.56
435.397	79.56
435.618	108.56
435.84	112.56
436.062	129.56
436.284	108.56
436.505	110.56
436.727	100.56
436.949	80.56
437.17	101.56
437.392	99.56
437.614	85.56
437.835	95.56
438.057	127.56
438.278	110.56
438.5	108.56
438.721	120.56
438.943	120.56
439.165	97.56
439.386	100.56
439.608	88.56
439.829	111.56
440.05	120.56
440.272	138.56
440.493	90.56
440.715	82.56
440.936	87.56
441.158	93.56
441.379	88.56
441.6	109.56
441.822	95.56
442.043	114.56
442.264	118.56
442.486	95.56
442.707	109.56
442.928	113.56
443.149	141.56
443.371	138.56
443.592	107.56
443.813	112.56
444.034	102.56
444.255	98.56
444.476	104.56
444.698	92.56
444.919	102.56
445.14	140.56
445.361	138.56
445.582	122.56
445.803	144.56
446.024	145.56
446.245	147.56
446.466	120.56
446.687	92.56
446.908	90.56
447.129	80.56
447.35	102.56
447.571	102.56
447.792	98.56
448.013	109.56
448.234	113.56
448.455	106.56
448.675	116.56
448.896	122.56
449.117	114.56
449.338	105.56
449.559	138.56
449.779	129.56
450	108.56
450.221	97.56
450.442	80.56
450.662	96.56
450.883	99.56
451.104	134.56
451.324	93.56
451.545	90.56
451.766	104.56
451.986	93.56
452.207	91.56
452.428	102.56
452.648	103.56
452.869	118.56
453.089	140.56
453.31	141.56
453.53	77.56
453.751	102.56
453.971	122.56
454.192	127.56
454.412	91.56
454.633	91.56
454.853	91.56
455.073	79.56
455.294	91.56
455.514	109.56
455.734	110.56
455.955	85.56
456.175	95.56
456.395	77.56
456.616	93.56
456.836	97.56
457.056	81.56
457.276	89.56
457.497	95.56
457.717	89.56
457.937	92.56
458.157	85.56
458.377	101.56
458.598	117.56
458.818	174.56
459.038	190.56
459.258	133.56
459.478	86.56
459.698	83.56
459.918	91.56
460.138	101.56
460.358	77.56
460.578	69.56
460.798	96.56
461.018	96.56
461.238	88.56
461.458	83.56
461.678	82.56
461.898	93.56
462.118	81.56
462.338	94.56
462.558	81.56
462.777	82.56
462.997	88.56
463.217	88.56
463.437	95.56
463.657	82.56
463.876	87.56
464.096	80.56
464.316	100.56
464.536	97.56
464.755	94.56
464.975	135.56
465.195	190.56
465.414	178.56
465.634	85.56
465.854	86.56
466.073	93.56
466.293	86.56
466.512	101.56
466.732	76.56
466.951	84.56
467.171	92.56
467.391	88.56
467.61	124.56
467.829	115.56
468.049	98.56
468.268	89.56
468.488	103.56
468.707	90.56
468.927	84.56
469.146	86.56
469.365	87.56
469.585	86.56
469.804	106.56
470.023	100.56
470.243	96.56
470.462	96.56
470.681	111.56
470.901	92.56
471.12	86.56
471.339	94.56
471.558	101.56
471.777	91.56
471.997	82.56
472.216	97.56
472.435	125.56
472.654	102.56
472.873	93.56
473.092	85.56
473.311	90.56
473.53	103.56
473.749	90.56
473.968	108.56
474.187	101.56
474.406	88.56
474.625	92.56
474.844	78.56
475.063	91.56
475.282	98.56
475.501	89.56
475.72	82.56
475.939	95.56
476.158	93.56
476.377	97.56
476.596	90.56
476.814	89.56
477.033	106.56
477.252	87.56
477.471	89.56
477.69	103.56
477.908	98.56
478.127	93.56
478.346	95.56
478.564	93.56
478.783	107.56
479.002	91.56
479.22	108.56
479.439	97.56
479.658	117.56
479.876	120.56
480.095	97.56
480.313	95.56
480.532	97.56
480.751	99.56
480.969	102.56
481.188	136.56
481.406	123.56
481.624	96.56
481.843	94.56
482.061	108.56
482.28	97.56
482.498	103.56
482.717	88.56
482.935	88.56
483.153	88.56
483.372	96.56
483.59	89.56
483.808	82.56
484.027	88.56
484.245	89.56
484.463	89.56
484.681	101.56
484.9	100.56
485.118	115.56
485.336	79.56
485.554	105.56
485.772	105.56
485.99	97.56
486.209	113.56
486.427	111.56
486.645	119.56
486.863	114.56
487.081	103.56
487.299	104.56
487.517	94.56
487.735	95.56
487.953	98.56
488.171	94.56
488.389	101.56
488.607	96.56
488.825	86.56
489.043	98.56
489.261	102.56
489.479	113.56
489.696	96.56
489.914	93.56
490.132	88.56
490.35	94.56
490.568	94.56
490.786	100.56
491.003	90.56
491.221	89.56
491.439	106.56
491.657	102.56
491.874	100.56
492.092	97.56
492.31	83.56
492.527	91.56
492.745	87.56
492.963	111.56
493.18	86.56
493.398	83.56
493.615	94.56
493.833	82.56
494.05	93.56
494.268	96.56
494.485	91.56
494.703	96.56
494.92	87.56
495.138	100.56
495.355	100.56
495.573	105.56
495.79	86.56
496.008	92.56
496.225	96.56
496.442	101.56
496.66	95.56
496.877	94.56
497.094	98.56
497.312	90.56
497.529	95.56
497.746	95.56
497.963	88.56
498.181	100.56
498.398	90.56
498.615	120.56
498.832	104.56
499.049	112.56
499.267	93.56
499.484	91.56
499.701	86.56
499.918	98.56
500.135	88.56
500.352	92.56
500.569	85.56
500.786	100.56
501.003	95.56
501.22	96.56
501.437	87.56
501.654	90.56
501.871	121.56
502.088	107.56
502.305	105.56
502.522	98.56
502.739	101.56
502.956	92.56
503.172	101.56
503.389	99.56
503.606	130.56
503.823	119.56
504.04	82.56
504.256	98.56
504.473	78.56
504.69	95.56
504.907	88.56
505.123	105.56
505.34	98.56
505.557	86.56
505.773	97.56
505.99	107.56
506.207	102.56
506.423	92.56
506.64	110.56
506.856	85.56
507.073	83.56
507.289	98.56
507.506	98.56
507.722	126.56
507.939	121.56
508.155	95.56
508.372	89.56
508.588	97.56
508.805	82.56
509.021	104.56
509.238	92.56
509.454	117.56
509.67	116.56
509.887	110.56
510.103	146.56
510.319	241.56
510.536	943.56
510.752	3246.56
510.968	904.56
511.184	169.56
511.401	122.56
511.617	103.56
511.833	100.56
512.049	88.56
512.265	93.56
512.481	99.56
512.698	93.56
512.914	102.56
513.13	87.56
513.346	104.56
