Data from Circ_2014_H10_HRD10591_00004.txt Node
Date: Wed Jan 03 10:02:10 EST 2024
User: Yrep
Spectrometer: HR+D1059
Trigger mode: 1
Integration Time (sec): 1.000000E-1
Scans to average: 1
Electric dark correction enabled: true
Nonlinearity correction enabled: false
Boxcar width: 0
XAxis mode: Wavelengths
Number of Pixels in Spectrum: 2048
>>>>>Begin Spectral Data<<<<<
223.165	-25.62
223.4	-25.62
223.635	-25.62
223.869	-21.62
224.104	-20.62
224.338	-12.62
224.573	-12.62
224.808	-8.62
225.042	14.38
225.277	-16.62
225.511	2.38
225.746	-0.62
225.98	0.38
226.215	8.38
226.449	20.38
226.683	21.38
226.918	32.38
227.152	19.38
227.387	34.38
227.621	58.38
227.856	36.38
228.09	43.38
228.324	64.38
228.559	62.38
228.793	51.38
229.027	68.38
229.262	77.38
229.496	86.38
229.73	103.38
229.964	98.38
230.199	75.38
230.433	80.38
230.667	86.38
230.901	76.38
231.136	89.38
231.37	79.38
231.604	74.38
231.838	74.38
232.072	77.38
232.306	79.38
232.541	90.38
232.775	90.38
233.009	80.38
233.243	79.38
233.477	87.38
233.711	75.38
233.945	84.38
234.179	89.38
234.413	87.38
234.647	92.38
234.881	92.38
235.115	84.38
235.349	75.38
235.583	75.38
235.817	73.38
236.051	93.38
236.285	72.38
236.519	77.38
236.753	91.38
236.987	83.38
237.221	80.38
237.455	98.38
237.689	88.38
237.922	83.38
238.156	72.38
238.39	80.38
238.624	80.38
238.858	73.38
239.091	79.38
239.325	74.38
239.559	83.38
239.793	85.38
240.027	76.38
240.26	80.38
240.494	89.38
240.728	61.38
240.961	83.38
241.195	78.38
241.429	88.38
241.662	73.38
241.896	76.38
242.13	71.38
242.363	76.38
242.597	80.38
242.83	83.38
243.064	83.38
243.298	81.38
243.531	67.38
243.765	81.38
243.998	82.38
244.232	89.38
244.465	76.38
244.699	75.38
244.932	79.38
245.166	81.38
245.399	75.38
245.633	86.38
245.866	74.38
246.099	86.38
246.333	89.38
246.566	84.38
246.8	91.38
247.033	68.38
247.266	78.38
247.5	79.38
247.733	84.38
247.966	94.38
248.2	88.38
248.433	81.38
248.666	76.38
248.899	79.38
249.133	90.38
249.366	108.38
249.599	101.38
249.832	84.38
250.066	88.38
250.299	77.38
250.532	89.38
250.765	90.38
250.998	89.38
251.231	98.38
251.465	77.38
251.698	62.38
251.931	79.38
252.164	80.38
252.397	80.38
252.63	86.38
252.863	87.38
253.096	87.38
253.329	76.38
253.562	79.38
253.795	62.38
254.028	77.38
254.261	83.38
254.494	87.38
254.727	79.38
254.96	80.38
255.193	90.38
255.426	84.38
255.659	77.38
255.892	90.38
256.124	79.38
256.357	89.38
256.59	94.38
256.823	82.38
257.056	66.38
257.289	79.38
257.521	79.38
257.754	76.38
257.987	76.38
258.22	92.38
258.452	78.38
258.685	99.38
258.918	86.38
259.151	86.38
259.383	79.38
259.616	80.38
259.849	84.38
260.081	86.38
260.314	85.38
260.547	83.38
260.779	90.38
261.012	80.38
261.244	76.38
261.477	91.38
261.71	108.38
261.942	141.38
262.175	154.38
262.407	94.38
262.64	93.38
262.872	89.38
263.105	79.38
263.337	79.38
263.57	88.38
263.802	103.38
264.035	92.38
264.267	81.38
264.499	101.38
264.732	86.38
264.964	88.38
265.197	86.38
265.429	79.38
265.661	80.38
265.894	95.38
266.126	83.38
266.358	88.38
266.591	89.38
266.823	84.38
267.055	78.38
267.287	85.38
267.52	87.38
267.752	84.38
267.984	71.38
268.216	93.38
268.448	92.38
268.681	100.38
268.913	86.38
269.145	81.38
269.377	80.38
269.609	75.38
269.841	93.38
270.073	100.38
270.306	97.38
270.538	90.38
270.77	86.38
271.002	87.38
271.234	83.38
271.466	90.38
271.698	90.38
271.93	83.38
272.162	95.38
272.394	100.38
272.626	83.38
272.858	92.38
273.09	94.38
273.322	86.38
273.553	88.38
273.785	95.38
274.017	94.38
274.249	101.38
274.481	91.38
274.713	92.38
274.945	93.38
275.176	91.38
275.408	90.38
275.64	89.38
275.872	94.38
276.104	92.38
276.335	106.38
276.567	107.38
276.799	135.38
277.031	132.38
277.262	100.38
277.494	82.38
277.726	85.38
277.957	86.38
278.189	87.38
278.421	85.38
278.652	101.38
278.884	87.38
279.115	77.38
279.347	78.38
279.579	80.38
279.81	80.38
280.042	92.38
280.273	93.38
280.505	94.38
280.736	87.38
280.968	94.38
281.199	85.38
281.431	90.38
281.662	84.38
281.894	94.38
282.125	108.38
282.356	137.38
282.588	195.38
282.819	152.38
283.051	105.38
283.282	89.38
283.513	82.38
283.745	81.38
283.976	88.38
284.207	84.38
284.439	108.38
284.67	85.38
284.901	92.38
285.132	83.38
285.364	84.38
285.595	87.38
285.826	88.38
286.057	99.38
286.288	94.38
286.52	79.38
286.751	90.38
286.982	96.38
287.213	101.38
287.444	74.38
287.675	88.38
287.906	89.38
288.138	93.38
288.369	100.38
288.6	103.38
288.831	80.38
289.062	95.38
289.293	105.38
289.524	85.38
289.755	107.38
289.986	91.38
290.217	82.38
290.448	86.38
290.679	84.38
290.91	107.38
291.141	88.38
291.371	89.38
291.602	93.38
291.833	94.38
292.064	90.38
292.295	83.38
292.526	89.38
292.757	108.38
292.987	86.38
293.218	81.38
293.449	92.38
293.68	77.38
293.91	83.38
294.141	107.38
294.372	83.38
294.603	78.38
294.833	80.38
295.064	83.38
295.295	102.38
295.525	96.38
295.756	117.38
295.987	149.38
296.217	192.38
296.448	168.38
296.679	110.38
296.909	89.38
297.14	102.38
297.37	79.38
297.601	88.38
297.831	91.38
298.062	91.38
298.292	88.38
298.523	77.38
298.753	94.38
298.984	91.38
299.214	96.38
299.445	91.38
299.675	104.38
299.905	106.38
300.136	111.38
300.366	90.38
300.597	93.38
300.827	96.38
301.057	123.38
301.288	115.38
301.518	126.38
301.748	93.38
301.979	92.38
302.209	99.38
302.439	109.38
302.669	81.38
302.9	90.38
303.13	96.38
303.36	93.38
303.59	119.38
303.82	114.38
304.051	108.38
304.281	82.38
304.511	94.38
304.741	84.38
304.971	87.38
305.201	82.38
305.431	91.38
305.661	91.38
305.891	95.38
306.121	117.38
306.352	97.38
306.582	116.38
306.812	104.38
307.042	99.38
307.272	86.38
307.502	102.38
307.731	85.38
307.961	94.38
308.191	86.38
308.421	106.38
308.651	106.38
308.881	104.38
309.111	94.38
309.341	106.38
309.571	108.38
309.8	111.38
310.03	102.38
310.26	96.38
310.49	88.38
310.72	121.38
310.949	112.38
311.179	111.38
311.409	96.38
311.639	98.38
311.868	99.38
312.098	93.38
312.328	112.38
312.557	119.38
312.787	115.38
313.017	110.38
313.246	93.38
313.476	96.38
313.706	90.38
313.935	117.38
314.165	113.38
314.394	114.38
314.624	94.38
314.853	110.38
315.083	91.38
315.312	88.38
315.542	99.38
315.771	97.38
316.001	95.38
316.23	94.38
316.46	110.38
316.689	92.38
316.919	117.38
317.148	100.38
317.377	87.38
317.607	88.38
317.836	102.38
318.065	93.38
318.295	101.38
318.524	103.38
318.753	84.38
318.983	109.38
319.212	110.38
319.441	143.38
319.67	139.38
319.9	103.38
320.129	97.38
320.358	91.38
320.587	114.38
320.816	123.38
321.046	116.38
321.275	116.38
321.504	104.38
321.733	99.38
321.962	96.38
322.191	121.38
322.42	128.38
322.649	156.38
322.878	123.38
323.108	152.38
323.337	147.38
323.566	180.38
323.795	201.38
324.024	310.38
324.253	627.38
324.482	1368.38
324.71	2885.38
324.939	3778.38
325.168	1334.38
325.397	358.38
325.626	204.38
325.855	160.38
326.084	165.38
326.313	175.38
326.542	210.38
326.77	334.38
326.999	698.38
327.228	1490.38
327.457	2739.38
327.686	2137.38
327.914	560.38
328.143	276.38
328.372	184.38
328.6	158.38
328.829	157.38
329.058	156.38
329.287	178.38
329.515	136.38
329.744	105.38
329.972	103.38
330.201	134.38
330.43	122.38
330.658	174.38
330.887	212.38
331.115	157.38
331.344	117.38
331.572	118.38
331.801	120.38
332.03	132.38
332.258	108.38
332.486	84.38
332.715	95.38
332.943	98.38
333.172	106.38
333.4	102.38
333.629	123.38
333.857	142.38
334.085	132.38
334.314	104.38
334.542	108.38
334.771	94.38
334.999	104.38
335.227	95.38
335.455	118.38
335.684	98.38
335.912	98.38
336.14	105.38
336.369	106.38
336.597	106.38
336.825	108.38
337.053	111.38
337.281	114.38
337.51	90.38
337.738	94.38
337.966	115.38
338.194	111.38
338.422	110.38
338.65	109.38
338.878	98.38
339.106	92.38
339.334	90.38
339.562	104.38
339.79	94.38
340.018	96.38
340.246	100.38
340.474	105.38
340.702	115.38
340.93	88.38
341.158	88.38
341.386	85.38
341.614	104.38
341.842	88.38
342.07	111.38
342.298	104.38
342.526	80.38
342.754	85.38
342.981	91.38
343.209	91.38
343.437	89.38
343.665	100.38
343.893	106.38
344.12	89.38
344.348	96.38
344.576	92.38
344.804	106.38
345.031	118.38
345.259	112.38
345.487	97.38
345.714	102.38
345.942	102.38
346.17	102.38
346.397	105.38
346.625	98.38
346.853	103.38
347.08	107.38
347.308	112.38
347.535	114.38
347.763	123.38
347.99	109.38
348.218	132.38
348.445	142.38
348.673	121.38
348.9	92.38
349.128	111.38
349.355	97.38
349.583	98.38
349.81	97.38
350.037	96.38
350.265	94.38
350.492	97.38
350.72	103.38
350.947	113.38
351.174	129.38
351.402	130.38
351.629	121.38
351.856	107.38
352.083	106.38
352.311	108.38
352.538	125.38
352.765	124.38
352.992	132.38
353.22	146.38
353.447	118.38
353.674	112.38
353.901	104.38
354.128	91.38
354.355	90.38
354.583	97.38
354.81	110.38
355.037	102.38
355.264	98.38
355.491	100.38
355.718	91.38
355.945	96.38
356.172	104.38
356.399	95.38
356.626	90.38
356.853	100.38
357.08	84.38
357.307	113.38
357.534	101.38
357.761	100.38
357.988	90.38
358.215	94.38
358.441	98.38
358.668	102.38
358.895	103.38
359.122	88.38
359.349	93.38
359.576	97.38
359.802	122.38
360.029	143.38
360.256	156.38
360.483	134.38
360.709	109.38
360.936	105.38
361.163	95.38
361.39	105.38
361.616	98.38
361.843	112.38
362.07	88.38
362.296	101.38
362.523	107.38
362.749	99.38
362.976	107.38
363.203	103.38
363.429	92.38
363.656	93.38
363.882	86.38
364.109	99.38
364.335	99.38
364.562	107.38
364.788	103.38
365.015	97.38
365.241	95.38
365.468	117.38
365.694	125.38
365.92	116.38
366.147	79.38
366.373	99.38
366.599	90.38
366.826	89.38
367.052	80.38
367.278	113.38
367.505	86.38
367.731	88.38
367.957	116.38
368.184	91.38
368.41	104.38
368.636	134.38
368.862	143.38
369.089	122.38
369.315	128.38
369.541	99.38
369.767	100.38
369.993	98.38
370.219	114.38
370.445	110.38
370.672	83.38
370.898	88.38
371.124	94.38
371.35	103.38
371.576	99.38
371.802	80.38
372.028	89.38
372.254	107.38
372.48	88.38
372.706	101.38
372.932	103.38
373.158	86.38
373.384	98.38
373.61	93.38
373.835	93.38
374.061	108.38
374.287	103.38
374.513	90.38
374.739	84.38
374.965	95.38
375.191	99.38
375.416	80.38
375.642	90.38
375.868	103.38
376.094	102.38
376.319	110.38
376.545	81.38
376.771	88.38
376.997	102.38
377.222	93.38
377.448	106.38
377.674	96.38
377.899	92.38
378.125	96.38
378.35	104.38
378.576	109.38
378.802	108.38
379.027	97.38
379.253	100.38
379.478	100.38
379.704	102.38
379.929	95.38
380.155	91.38
380.38	101.38
380.606	109.38
380.831	101.38
381.057	95.38
381.282	98.38
381.507	95.38
381.733	116.38
381.958	98.38
382.184	114.38
382.409	103.38
382.634	105.38
382.86	119.38
383.085	132.38
383.31	128.38
383.535	105.38
383.761	98.38
383.986	109.38
384.211	113.38
384.436	100.38
384.662	94.38
384.887	108.38
385.112	122.38
385.337	130.38
385.562	118.38
385.787	112.38
386.013	148.38
386.238	145.38
386.463	122.38
386.688	112.38
386.913	110.38
387.138	115.38
387.363	121.38
387.588	115.38
387.813	125.38
388.038	104.38
388.263	135.38
388.488	114.38
388.713	101.38
388.938	97.38
389.163	95.38
389.387	114.38
389.612	95.38
389.837	106.38
390.062	90.38
390.287	96.38
390.512	84.38
390.736	97.38
390.961	92.38
391.186	97.38
391.411	93.38
391.636	86.38
391.86	97.38
392.085	82.38
392.31	77.38
392.534	108.38
392.759	101.38
392.984	102.38
393.208	94.38
393.433	98.38
393.658	92.38
393.882	75.38
394.107	98.38
394.331	91.38
394.556	89.38
394.78	87.38
395.005	91.38
395.229	85.38
395.454	80.38
395.678	98.38
395.903	91.38
396.127	84.38
396.352	87.38
396.576	108.38
396.801	91.38
397.025	100.38
397.249	80.38
397.474	79.38
397.698	87.38
397.922	98.38
398.147	85.38
398.371	91.38
398.595	77.38
398.82	84.38
399.044	84.38
399.268	106.38
399.492	94.38
399.717	91.38
399.941	83.38
400.165	103.38
400.389	92.38
400.613	99.38
400.837	103.38
401.062	98.38
401.286	84.38
401.51	106.38
401.734	105.38
401.958	133.38
402.182	173.38
402.406	213.38
402.63	178.38
402.854	100.38
403.078	84.38
403.302	88.38
403.526	99.38
403.75	99.38
403.974	95.38
404.198	94.38
404.422	80.38
404.645	111.38
404.869	95.38
405.093	110.38
405.317	115.38
405.541	112.38
405.765	140.38
405.988	152.38
406.212	252.38
406.436	363.38
406.66	223.38
406.883	112.38
407.107	103.38
407.331	105.38
407.555	108.38
407.778	112.38
408.002	100.38
408.226	100.38
408.449	88.38
408.673	91.38
408.896	100.38
409.12	105.38
409.344	80.38
409.567	114.38
409.791	94.38
410.014	84.38
410.238	108.38
410.461	93.38
410.685	99.38
410.908	108.38
411.132	117.38
411.355	106.38
411.578	96.38
411.802	89.38
412.025	102.38
412.249	66.38
412.472	106.38
412.695	98.38
412.919	85.38
413.142	103.38
413.365	91.38
413.589	113.38
413.812	95.38
414.035	76.38
414.258	94.38
414.482	90.38
414.705	100.38
414.928	92.38
415.151	104.38
415.374	92.38
415.597	101.38
415.821	90.38
416.044	92.38
416.267	94.38
416.49	80.38
416.713	99.38
416.936	89.38
417.159	100.38
417.382	88.38
417.605	101.38
417.828	84.38
418.051	83.38
418.274	87.38
418.497	103.38
418.72	84.38
418.943	110.38
419.166	89.38
419.389	90.38
419.611	77.38
419.834	83.38
420.057	99.38
420.28	84.38
420.503	88.38
420.726	92.38
420.948	100.38
421.171	100.38
421.394	97.38
421.617	90.38
421.839	100.38
422.062	99.38
422.285	96.38
422.507	104.38
422.73	102.38
422.953	90.38
423.175	95.38
423.398	93.38
423.621	89.38
423.843	86.38
424.066	79.38
424.288	76.38
424.511	102.38
424.733	95.38
424.956	123.38
425.178	110.38
425.401	114.38
425.623	114.38
425.846	95.38
426.068	99.38
426.291	99.38
426.513	89.38
426.735	95.38
426.958	104.38
427.18	110.38
427.402	168.38
427.625	234.38
427.847	162.38
428.069	120.38
428.292	95.38
428.514	88.38
428.736	93.38
428.958	103.38
429.181	83.38
429.403	94.38
429.625	90.38
429.847	100.38
430.069	116.38
430.292	90.38
430.514	90.38
430.736	90.38
430.958	102.38
431.18	96.38
431.402	84.38
431.624	82.38
431.846	93.38
432.068	101.38
432.29	77.38
432.512	86.38
432.734	84.38
432.956	86.38
433.178	114.38
433.4	126.38
433.622	84.38
433.844	101.38
434.066	101.38
434.287	94.38
434.509	85.38
434.731	88.38
434.953	92.38
435.175	93.38
435.397	90.38
435.618	94.38
435.84	108.38
436.062	133.38
436.284	129.38
436.505	110.38
436.727	125.38
436.949	102.38
437.17	95.38
437.392	91.38
437.614	96.38
437.835	127.38
438.057	159.38
438.278	138.38
438.5	121.38
438.721	148.38
438.943	108.38
439.165	94.38
439.386	94.38
439.608	107.38
439.829	106.38
440.05	158.38
440.272	185.38
440.493	118.38
440.715	99.38
440.936	88.38
441.158	93.38
441.379	85.38
441.6	106.38
441.822	106.38
442.043	127.38
442.264	115.38
442.486	102.38
442.707	100.38
442.928	135.38
443.149	197.38
443.371	170.38
443.592	136.38
443.813	132.38
444.034	122.38
444.255	93.38
444.476	94.38
444.698	98.38
444.919	91.38
445.14	130.38
445.361	128.38
445.582	152.38
445.803	187.38
446.024	194.38
446.245	186.38
446.466	138.38
446.687	117.38
446.908	101.38
447.129	118.38
447.35	108.38
447.571	94.38
447.792	89.38
448.013	107.38
448.234	133.38
448.455	115.38
448.675	109.38
448.896	134.38
449.117	124.38
449.338	125.38
449.559	141.38
449.779	153.38
450	95.38
450.221	104.38
450.442	92.38
450.662	109.38
450.883	131.38
451.104	132.38
451.324	110.38
451.545	92.38
451.766	99.38
451.986	89.38
452.207	103.38
452.428	101.38
452.648	115.38
452.869	135.38
453.089	142.38
453.31	144.38
453.53	112.38
453.751	105.38
453.971	131.38
454.192	157.38
454.412	117.38
454.633	92.38
454.853	104.38
455.073	93.38
455.294	95.38
455.514	98.38
455.734	83.38
455.955	100.38
456.175	92.38
456.395	91.38
456.616	79.38
456.836	85.38
457.056	91.38
457.276	94.38
457.497	83.38
457.717	89.38
457.937	101.38
458.157	105.38
458.377	90.38
458.598	134.38
458.818	221.38
459.038	236.38
459.258	144.38
459.478	98.38
459.698	94.38
459.918	95.38
460.138	89.38
460.358	79.38
460.578	90.38
460.798	100.38
461.018	95.38
461.238	86.38
461.458	100.38
461.678	77.38
461.898	85.38
462.118	89.38
462.338	75.38
462.558	81.38
462.777	86.38
462.997	80.38
463.217	89.38
463.437	88.38
463.657	86.38
463.876	95.38
464.096	82.38
464.316	104.38
464.536	109.38
464.755	96.38
464.975	148.38
465.195	258.38
465.414	252.38
465.634	94.38
465.854	84.38
466.073	90.38
466.293	104.38
466.512	93.38
466.732	75.38
466.951	96.38
467.171	104.38
467.391	105.38
467.61	115.38
467.829	126.38
468.049	89.38
468.268	93.38
468.488	83.38
468.707	92.38
468.927	85.38
469.146	78.38
469.365	80.38
469.585	92.38
469.804	94.38
470.023	116.38
470.243	100.38
470.462	95.38
470.681	143.38
470.901	87.38
471.12	87.38
471.339	91.38
471.558	83.38
471.777	95.38
471.997	83.38
472.216	95.38
472.435	101.38
472.654	77.38
472.873	100.38
473.092	78.38
473.311	88.38
473.53	91.38
473.749	98.38
473.968	111.38
474.187	116.38
474.406	116.38
474.625	85.38
474.844	81.38
475.063	84.38
475.282	94.38
475.501	91.38
475.72	102.38
475.939	82.38
476.158	88.38
476.377	91.38
476.596	94.38
476.814	101.38
477.033	104.38
477.252	91.38
477.471	89.38
477.69	100.38
477.908	96.38
478.127	98.38
478.346	96.38
478.564	91.38
478.783	116.38
479.002	107.38
479.22	91.38
479.439	129.38
479.658	101.38
479.876	103.38
480.095	103.38
480.313	80.38
480.532	88.38
480.751	86.38
480.969	97.38
481.188	119.38
481.406	109.38
481.624	98.38
481.843	91.38
482.061	90.38
482.28	78.38
482.498	69.38
482.717	79.38
482.935	81.38
483.153	87.38
483.372	75.38
483.59	85.38
483.808	82.38
484.027	97.38
484.245	100.38
484.463	85.38
484.681	96.38
484.9	80.38
485.118	93.38
485.336	90.38
485.554	94.38
485.772	106.38
485.99	94.38
486.209	120.38
486.427	109.38
486.645	114.38
486.863	127.38
487.081	107.38
487.299	102.38
487.517	81.38
487.735	98.38
487.953	93.38
488.171	98.38
488.389	98.38
488.607	111.38
488.825	88.38
489.043	92.38
489.261	107.38
489.479	96.38
489.696	85.38
489.914	107.38
490.132	95.38
490.35	76.38
490.568	84.38
490.786	95.38
491.003	83.38
491.221	86.38
491.439	97.38
491.657	90.38
491.874	87.38
492.092	97.38
492.31	95.38
492.527	87.38
492.745	97.38
492.963	94.38
493.18	89.38
493.398	90.38
493.615	98.38
493.833	93.38
494.05	93.38
494.268	73.38
494.485	90.38
494.703	79.38
494.92	98.38
495.138	102.38
495.355	92.38
495.573	77.38
495.79	88.38
496.008	106.38
496.225	90.38
496.442	95.38
496.66	87.38
496.877	90.38
497.094	101.38
497.312	74.38
497.529	116.38
497.746	88.38
497.963	86.38
498.181	91.38
498.398	103.38
498.615	119.38
498.832	108.38
499.049	92.38
499.267	104.38
499.484	91.38
499.701	95.38
499.918	92.38
500.135	93.38
500.352	88.38
500.569	102.38
500.786	79.38
501.003	96.38
501.22	79.38
501.437	88.38
501.654	109.38
501.871	134.38
502.088	96.38
502.305	100.38
502.522	93.38
502.739	87.38
502.956	83.38
503.172	94.38
503.389	104.38
503.606	123.38
503.823	107.38
504.04	105.38
504.256	101.38
504.473	78.38
504.69	87.38
504.907	89.38
505.123	91.38
505.34	92.38
505.557	96.38
505.773	93.38
505.99	83.38
506.207	94.38
506.423	86.38
506.64	77.38
506.856	94.38
507.073	88.38
507.289	104.38
507.506	101.38
507.722	130.38
507.939	148.38
508.155	102.38
508.372	98.38
508.588	96.38
508.805	83.38
509.021	110.38
509.238	93.38
509.454	99.38
509.67	115.38
509.887	124.38
510.103	144.38
510.319	266.38
510.536	1133.38
510.752	4077.38
510.968	1125.38
511.184	205.38
511.401	140.38
511.617	114.38
511.833	107.38
512.049	86.38
512.265	93.38
512.481	88.38
512.698	83.38
