Data from Circ_2014_H10_HRD10591_00025.txt Node
Date: Wed Jan 03 10:02:14 EST 2024
User: Yrep
Spectrometer: HR+D1059
Trigger mode: 1
Integration Time (sec): 1.000000E-1
Scans to average: 1
Electric dark correction enabled: true
Nonlinearity correction enabled: false
Boxcar width: 0
XAxis mode: Wavelengths
Number of Pixels in Spectrum: 2048
>>>>>Begin Spectral Data<<<<<
223.165	-10.38
223.4	-10.38
223.635	-10.38
223.869	-30.38
224.104	-22.38
224.338	-11.38
224.573	-13.38
224.808	-8.38
225.042	-7.38
225.277	0.62
225.511	2.62
225.746	-2.38
225.98	11.62
226.215	17.62
226.449	12.62
226.683	10.62
226.918	20.62
227.152	29.62
227.387	54.62
227.621	34.62
227.856	39.62
228.09	62.62
228.324	41.62
228.559	40.62
228.793	59.62
229.027	63.62
229.262	76.62
229.496	86.62
229.73	75.62
229.964	91.62
230.199	76.62
230.433	68.62
230.667	76.62
230.901	77.62
231.136	63.62
231.37	91.62
231.604	72.62
231.838	70.62
232.072	87.62
232.306	78.62
232.541	82.62
232.775	76.62
233.009	76.62
233.243	88.62
233.477	91.62
233.711	91.62
233.945	77.62
234.179	91.62
234.413	65.62
234.647	74.62
234.881	74.62
235.115	79.62
235.349	83.62
235.583	79.62
235.817	79.62
236.051	83.62
236.285	68.62
236.519	69.62
236.753	73.62
236.987	80.62
237.221	72.62
237.455	65.62
237.689	72.62
237.922	65.62
238.156	65.62
238.39	64.62
238.624	66.62
238.858	80.62
239.091	77.62
239.325	63.62
239.559	61.62
239.793	67.62
240.027	80.62
240.26	91.62
240.494	85.62
240.728	73.62
240.961	75.62
241.195	89.62
241.429	87.62
241.662	66.62
241.896	75.62
242.13	74.62
242.363	65.62
242.597	53.62
242.83	82.62
243.064	76.62
243.298	70.62
243.531	76.62
243.765	67.62
243.998	75.62
244.232	83.62
244.465	87.62
244.699	79.62
244.932	85.62
245.166	72.62
245.399	64.62
245.633	60.62
245.866	77.62
246.099	63.62
246.333	68.62
246.566	75.62
246.8	73.62
247.033	87.62
247.266	72.62
247.5	80.62
247.733	71.62
247.966	83.62
248.2	64.62
248.433	79.62
248.666	79.62
248.899	82.62
249.133	92.62
249.366	95.62
249.599	96.62
249.832	71.62
250.066	79.62
250.299	62.62
250.532	65.62
250.765	87.62
250.998	88.62
251.231	79.62
251.465	91.62
251.698	74.62
251.931	73.62
252.164	75.62
252.397	88.62
252.63	65.62
252.863	94.62
253.096	80.62
253.329	84.62
253.562	76.62
253.795	82.62
254.028	89.62
254.261	88.62
254.494	76.62
254.727	82.62
254.96	75.62
255.193	70.62
255.426	74.62
255.659	79.62
255.892	73.62
256.124	80.62
256.357	78.62
256.59	69.62
256.823	92.62
257.056	78.62
257.289	71.62
257.521	80.62
257.754	81.62
257.987	96.62
258.22	78.62
258.452	68.62
258.685	75.62
258.918	87.62
259.151	90.62
259.383	87.62
259.616	83.62
259.849	79.62
260.081	78.62
260.314	71.62
260.547	75.62
260.779	83.62
261.012	84.62
261.244	89.62
261.477	85.62
261.71	90.62
261.942	135.62
262.175	146.62
262.407	99.62
262.64	75.62
262.872	82.62
263.105	83.62
263.337	96.62
263.57	90.62
263.802	80.62
264.035	83.62
264.267	80.62
264.499	79.62
264.732	75.62
264.964	80.62
265.197	81.62
265.429	76.62
265.661	85.62
265.894	94.62
266.126	91.62
266.358	77.62
266.591	87.62
266.823	83.62
267.055	75.62
267.287	79.62
267.52	86.62
267.752	88.62
267.984	83.62
268.216	73.62
268.448	71.62
268.681	80.62
268.913	73.62
269.145	87.62
269.377	82.62
269.609	81.62
269.841	76.62
270.073	84.62
270.306	72.62
270.538	102.62
270.77	89.62
271.002	93.62
271.234	83.62
271.466	94.62
271.698	71.62
271.93	95.62
272.162	79.62
272.394	84.62
272.626	78.62
272.858	75.62
273.09	77.62
273.322	76.62
273.553	81.62
273.785	81.62
274.017	81.62
274.249	85.62
274.481	88.62
274.713	86.62
274.945	82.62
275.176	89.62
275.408	104.62
275.64	92.62
275.872	102.62
276.104	82.62
276.335	90.62
276.567	108.62
276.799	114.62
277.031	105.62
277.262	92.62
277.494	79.62
277.726	90.62
277.957	83.62
278.189	84.62
278.421	91.62
278.652	94.62
278.884	86.62
279.115	74.62
279.347	74.62
279.579	68.62
279.81	83.62
280.042	86.62
280.273	79.62
280.505	97.62
280.736	89.62
280.968	88.62
281.199	85.62
281.431	66.62
281.662	76.62
281.894	98.62
282.125	119.62
282.356	150.62
282.588	165.62
282.819	131.62
283.051	85.62
283.282	105.62
283.513	84.62
283.745	97.62
283.976	82.62
284.207	99.62
284.439	85.62
284.67	94.62
284.901	96.62
285.132	86.62
285.364	88.62
285.595	74.62
285.826	80.62
286.057	91.62
286.288	86.62
286.52	91.62
286.751	88.62
286.982	83.62
287.213	81.62
287.444	87.62
287.675	87.62
287.906	88.62
288.138	91.62
288.369	84.62
288.6	95.62
288.831	74.62
289.062	70.62
289.293	79.62
289.524	83.62
289.755	94.62
289.986	83.62
290.217	78.62
290.448	76.62
290.679	81.62
290.91	88.62
291.141	83.62
291.371	81.62
291.602	76.62
291.833	90.62
292.064	92.62
292.295	77.62
292.526	76.62
292.757	69.62
292.987	88.62
293.218	79.62
293.449	95.62
293.68	89.62
293.91	91.62
294.141	81.62
294.372	76.62
294.603	80.62
294.833	92.62
295.064	77.62
295.295	94.62
295.525	97.62
295.756	115.62
295.987	130.62
296.217	178.62
296.448	149.62
296.679	91.62
296.909	97.62
297.14	93.62
297.37	98.62
297.601	87.62
297.831	91.62
298.062	95.62
298.292	81.62
298.523	78.62
298.753	93.62
298.984	85.62
299.214	107.62
299.445	91.62
299.675	95.62
299.905	105.62
300.136	89.62
300.366	76.62
300.597	92.62
300.827	101.62
301.057	113.62
301.288	110.62
301.518	90.62
301.748	88.62
301.979	103.62
302.209	96.62
302.439	88.62
302.669	77.62
302.9	81.62
303.13	83.62
303.36	106.62
303.59	107.62
303.82	99.62
304.051	99.62
304.281	90.62
304.511	86.62
304.741	84.62
304.971	101.62
305.201	91.62
305.431	71.62
305.661	80.62
305.891	96.62
306.121	84.62
306.352	101.62
306.582	101.62
306.812	99.62
307.042	96.62
307.272	104.62
307.502	106.62
307.731	100.62
307.961	78.62
308.191	85.62
308.421	84.62
308.651	82.62
308.881	99.62
309.111	101.62
309.341	92.62
309.571	100.62
309.8	88.62
310.03	101.62
310.26	97.62
310.49	109.62
310.72	94.62
310.949	108.62
311.179	104.62
311.409	96.62
311.639	98.62
311.868	97.62
312.098	95.62
312.328	90.62
312.557	114.62
312.787	111.62
313.017	111.62
313.246	87.62
313.476	96.62
313.706	86.62
313.935	100.62
314.165	99.62
314.394	110.62
314.624	93.62
314.853	90.62
315.083	88.62
315.312	79.62
315.542	83.62
315.771	102.62
316.001	91.62
316.23	89.62
316.46	88.62
316.689	78.62
316.919	84.62
317.148	103.62
317.377	88.62
317.607	114.62
317.836	95.62
318.065	85.62
318.295	97.62
318.524	94.62
318.753	87.62
318.983	91.62
319.212	109.62
319.441	114.62
319.67	113.62
319.9	77.62
320.129	95.62
320.358	97.62
320.587	95.62
320.816	111.62
321.046	128.62
321.275	93.62
321.504	94.62
321.733	95.62
321.962	100.62
322.191	91.62
322.42	113.62
322.649	112.62
322.878	133.62
323.108	128.62
323.337	140.62
323.566	162.62
323.795	182.62
324.024	276.62
324.253	519.62
324.482	1157.62
324.71	2487.62
324.939	3186.62
325.168	1178.62
325.397	326.62
325.626	181.62
325.855	153.62
326.084	151.62
326.313	156.62
326.542	195.62
326.77	281.62
326.999	608.62
327.228	1268.62
327.457	2376.62
327.686	1850.62
327.914	484.62
328.143	261.62
328.372	186.62
328.6	162.62
328.829	134.62
329.058	153.62
329.287	139.62
329.515	112.62
329.744	114.62
329.972	97.62
330.201	117.62
330.43	120.62
330.658	151.62
330.887	196.62
331.115	153.62
331.344	97.62
331.572	100.62
331.801	106.62
332.03	104.62
332.258	83.62
332.486	97.62
332.715	86.62
332.943	92.62
333.172	110.62
333.4	106.62
333.629	112.62
333.857	124.62
334.085	115.62
334.314	113.62
334.542	113.62
334.771	120.62
334.999	90.62
335.227	116.62
335.455	112.62
335.684	95.62
335.912	110.62
336.14	88.62
336.369	90.62
336.597	111.62
336.825	112.62
337.053	95.62
337.281	82.62
337.51	92.62
337.738	75.62
337.966	99.62
338.194	117.62
338.422	102.62
338.65	102.62
338.878	85.62
339.106	81.62
339.334	91.62
339.562	98.62
339.79	107.62
340.018	94.62
340.246	105.62
340.474	97.62
340.702	82.62
340.93	101.62
341.158	102.62
341.386	106.62
341.614	102.62
341.842	84.62
342.07	90.62
342.298	100.62
342.526	82.62
342.754	85.62
342.981	87.62
343.209	82.62
343.437	76.62
343.665	70.62
343.893	92.62
344.12	87.62
344.348	90.62
344.576	86.62
344.804	78.62
345.031	99.62
345.259	97.62
345.487	96.62
345.714	102.62
345.942	100.62
346.17	95.62
346.397	104.62
346.625	95.62
346.853	91.62
347.08	94.62
347.308	95.62
347.535	97.62
347.763	95.62
347.99	105.62
348.218	116.62
348.445	118.62
348.673	96.62
348.9	107.62
349.128	103.62
349.355	84.62
349.583	92.62
349.81	103.62
350.037	97.62
350.265	106.62
350.492	94.62
350.72	90.62
350.947	99.62
351.174	100.62
351.402	124.62
351.629	114.62
351.856	102.62
352.083	107.62
352.311	116.62
352.538	122.62
352.765	121.62
352.992	126.62
353.22	120.62
353.447	110.62
353.674	95.62
353.901	118.62
354.128	94.62
354.355	105.62
354.583	100.62
354.81	88.62
355.037	99.62
355.264	90.62
355.491	82.62
355.718	87.62
355.945	95.62
356.172	98.62
356.399	107.62
356.626	78.62
356.853	69.62
357.08	89.62
357.307	95.62
357.534	95.62
357.761	91.62
357.988	100.62
358.215	100.62
358.441	91.62
358.668	91.62
358.895	84.62
359.122	87.62
359.349	83.62
359.576	95.62
359.802	106.62
360.029	116.62
360.256	123.62
360.483	91.62
360.709	92.62
360.936	89.62
361.163	93.62
361.39	103.62
361.616	95.62
361.843	85.62
362.07	74.62
362.296	98.62
362.523	90.62
362.749	93.62
362.976	85.62
363.203	92.62
363.429	99.62
363.656	79.62
363.882	91.62
364.109	90.62
364.335	95.62
364.562	91.62
364.788	86.62
365.015	106.62
365.241	119.62
365.468	134.62
365.694	120.62
365.92	108.62
366.147	87.62
366.373	84.62
366.599	99.62
366.826	94.62
367.052	86.62
367.278	83.62
367.505	112.62
367.731	106.62
367.957	82.62
368.184	96.62
368.41	113.62
368.636	120.62
368.862	145.62
369.089	111.62
369.315	103.62
369.541	83.62
369.767	94.62
369.993	82.62
370.219	91.62
370.445	91.62
370.672	97.62
370.898	76.62
371.124	89.62
371.35	87.62
371.576	89.62
371.802	88.62
372.028	87.62
372.254	74.62
372.48	89.62
372.706	86.62
372.932	84.62
373.158	92.62
373.384	100.62
373.61	89.62
373.835	100.62
374.061	91.62
374.287	101.62
374.513	82.62
374.739	75.62
374.965	87.62
375.191	85.62
375.416	93.62
375.642	81.62
375.868	92.62
376.094	84.62
376.319	69.62
376.545	86.62
376.771	78.62
376.997	95.62
377.222	87.62
377.448	87.62
377.674	91.62
377.899	87.62
378.125	80.62
378.35	90.62
378.576	84.62
378.802	98.62
379.027	87.62
379.253	91.62
379.478	107.62
379.704	76.62
379.929	95.62
380.155	90.62
380.38	90.62
380.606	99.62
380.831	88.62
381.057	99.62
381.282	91.62
381.507	95.62
381.733	104.62
381.958	79.62
382.184	101.62
382.409	90.62
382.634	93.62
382.86	114.62
383.085	101.62
383.31	106.62
383.535	101.62
383.761	92.62
383.986	99.62
384.211	87.62
384.436	92.62
384.662	107.62
384.887	114.62
385.112	116.62
385.337	106.62
385.562	110.62
385.787	104.62
386.013	123.62
386.238	131.62
386.463	109.62
386.688	106.62
386.913	112.62
387.138	102.62
387.363	104.62
387.588	100.62
387.813	100.62
388.038	114.62
388.263	119.62
388.488	111.62
388.713	90.62
388.938	89.62
389.163	92.62
389.387	89.62
389.612	96.62
389.837	90.62
390.062	95.62
390.287	82.62
390.512	91.62
390.736	85.62
390.961	94.62
391.186	85.62
391.411	86.62
391.636	75.62
391.86	88.62
392.085	75.62
392.31	75.62
392.534	86.62
392.759	89.62
392.984	80.62
393.208	79.62
393.433	92.62
393.658	82.62
393.882	93.62
394.107	90.62
394.331	79.62
394.556	79.62
394.78	81.62
395.005	78.62
395.229	89.62
395.454	82.62
395.678	82.62
395.903	64.62
396.127	86.62
396.352	84.62
396.576	80.62
396.801	101.62
397.025	93.62
397.249	91.62
397.474	83.62
397.698	84.62
397.922	83.62
398.147	91.62
398.371	87.62
398.595	96.62
398.82	74.62
399.044	80.62
399.268	85.62
399.492	85.62
399.717	82.62
399.941	92.62
400.165	85.62
400.389	100.62
400.613	94.62
400.837	75.62
401.062	95.62
401.286	92.62
401.51	97.62
401.734	88.62
401.958	122.62
402.182	154.62
402.406	207.62
402.63	148.62
402.854	107.62
403.078	80.62
403.302	81.62
403.526	80.62
403.75	82.62
403.974	77.62
404.198	82.62
404.422	95.62
404.645	89.62
404.869	96.62
405.093	91.62
405.317	87.62
405.541	94.62
405.765	99.62
405.988	131.62
406.212	220.62
406.436	333.62
406.66	212.62
406.883	124.62
407.107	88.62
407.331	105.62
407.555	107.62
407.778	96.62
408.002	83.62
408.226	86.62
408.449	96.62
408.673	93.62
408.896	99.62
409.12	90.62
409.344	73.62
409.567	86.62
409.791	101.62
410.014	95.62
410.238	91.62
410.461	79.62
410.685	90.62
410.908	98.62
411.132	94.62
411.355	90.62
411.578	93.62
411.802	98.62
412.025	89.62
412.249	87.62
412.472	105.62
412.695	91.62
412.919	70.62
413.142	95.62
413.365	71.62
413.589	96.62
413.812	87.62
414.035	102.62
414.258	94.62
414.482	99.62
414.705	79.62
414.928	81.62
415.151	81.62
415.374	84.62
415.597	76.62
415.821	90.62
416.044	103.62
416.267	82.62
416.49	80.62
416.713	91.62
416.936	84.62
417.159	88.62
417.382	87.62
417.605	82.62
417.828	101.62
418.051	86.62
418.274	82.62
418.497	81.62
418.72	83.62
418.943	73.62
419.166	82.62
419.389	88.62
419.611	101.62
419.834	91.62
420.057	88.62
420.28	76.62
420.503	91.62
420.726	70.62
420.948	76.62
421.171	76.62
421.394	105.62
421.617	83.62
421.839	86.62
422.062	74.62
422.285	85.62
422.507	95.62
422.73	101.62
422.953	88.62
423.175	83.62
423.398	85.62
423.621	108.62
423.843	72.62
424.066	88.62
424.288	87.62
424.511	85.62
424.733	98.62
424.956	109.62
425.178	104.62
425.401	100.62
425.623	101.62
425.846	86.62
426.068	102.62
426.291	101.62
426.513	87.62
426.735	88.62
426.958	82.62
427.18	110.62
427.402	148.62
427.625	213.62
427.847	166.62
428.069	97.62
428.292	99.62
428.514	98.62
428.736	88.62
428.958	89.62
429.181	83.62
429.403	80.62
429.625	83.62
429.847	87.62
430.069	98.62
430.292	101.62
430.514	79.62
430.736	69.62
430.958	87.62
431.18	84.62
431.402	79.62
431.624	90.62
431.846	85.62
432.068	81.62
432.29	82.62
432.512	79.62
432.734	78.62
432.956	95.62
433.178	99.62
433.4	109.62
433.622	81.62
433.844	104.62
434.066	90.62
434.287	96.62
434.509	87.62
434.731	91.62
434.953	88.62
435.175	93.62
435.397	91.62
435.618	96.62
435.84	106.62
436.062	128.62
436.284	118.62
436.505	94.62
436.727	94.62
436.949	89.62
437.17	86.62
437.392	88.62
437.614	85.62
437.835	121.62
438.057	146.62
438.278	118.62
438.5	102.62
438.721	137.62
438.943	114.62
439.165	92.62
439.386	97.62
439.608	87.62
439.829	102.62
440.05	145.62
440.272	168.62
440.493	113.62
440.715	85.62
440.936	89.62
441.158	87.62
441.379	74.62
441.6	97.62
441.822	103.62
442.043	87.62
442.264	106.62
442.486	107.62
442.707	106.62
442.928	117.62
443.149	163.62
443.371	160.62
443.592	122.62
443.813	123.62
444.034	116.62
444.255	81.62
444.476	81.62
444.698	81.62
444.919	91.62
445.14	128.62
445.361	139.62
445.582	131.62
445.803	155.62
446.024	165.62
446.245	147.62
446.466	131.62
446.687	95.62
446.908	88.62
447.129	82.62
447.35	95.62
447.571	89.62
447.792	94.62
448.013	96.62
448.234	108.62
448.455	112.62
448.675	124.62
448.896	133.62
449.117	104.62
449.338	119.62
449.559	142.62
449.779	138.62
450	97.62
450.221	88.62
450.442	94.62
450.662	121.62
450.883	126.62
451.104	143.62
451.324	98.62
451.545	84.62
451.766	76.62
451.986	79.62
452.207	93.62
452.428	91.62
452.648	112.62
452.869	128.62
453.089	126.62
453.31	147.62
453.53	90.62
453.751	92.62
453.971	122.62
454.192	132.62
454.412	96.62
454.633	74.62
454.853	73.62
455.073	84.62
455.294	87.62
455.514	98.62
455.734	87.62
455.955	90.62
456.175	80.62
456.395	77.62
456.616	72.62
456.836	84.62
457.056	91.62
457.276	85.62
457.497	73.62
457.717	71.62
457.937	82.62
458.157	95.62
458.377	91.62
458.598	119.62
458.818	200.62
459.038	201.62
459.258	121.62
459.478	83.62
459.698	83.62
459.918	80.62
460.138	91.62
460.358	82.62
460.578	84.62
460.798	94.62
461.018	89.62
461.238	80.62
461.458	91.62
461.678	80.62
461.898	74.62
462.118	80.62
462.338	86.62
462.558	79.62
462.777	98.62
462.997	80.62
463.217	87.62
463.437	78.62
463.657	80.62
463.876	85.62
464.096	88.62
464.316	89.62
464.536	102.62
464.755	82.62
464.975	119.62
465.195	211.62
465.414	227.62
465.634	98.62
465.854	76.62
466.073	93.62
466.293	84.62
466.512	79.62
466.732	95.62
466.951	86.62
467.171	83.62
467.391	84.62
467.61	123.62
467.829	104.62
468.049	97.62
468.268	97.62
468.488	91.62
468.707	84.62
468.927	93.62
469.146	92.62
469.365	76.62
469.585	91.62
469.804	98.62
470.023	91.62
470.243	89.62
470.462	111.62
470.681	122.62
470.901	86.62
471.12	91.62
471.339	75.62
471.558	80.62
471.777	83.62
471.997	78.62
472.216	108.62
472.435	131.62
472.654	81.62
472.873	80.62
473.092	78.62
473.311	88.62
473.53	90.62
473.749	89.62
473.968	87.62
474.187	115.62
474.406	105.62
474.625	83.62
474.844	99.62
475.063	83.62
475.282	85.62
475.501	81.62
475.72	86.62
475.939	82.62
476.158	92.62
476.377	77.62
476.596	74.62
476.814	90.62
477.033	96.62
477.252	92.62
477.471	87.62
477.69	90.62
477.908	80.62
478.127	89.62
478.346	91.62
478.564	79.62
478.783	96.62
479.002	80.62
479.22	105.62
479.439	97.62
479.658	126.62
479.876	92.62
480.095	85.62
480.313	97.62
480.532	102.62
480.751	85.62
480.969	110.62
481.188	169.62
481.406	136.62
481.624	84.62
481.843	105.62
482.061	88.62
482.28	76.62
482.498	90.62
482.717	94.62
482.935	95.62
483.153	95.62
483.372	83.62
483.59	84.62
483.808	81.62
484.027	82.62
484.245	95.62
484.463	94.62
484.681	104.62
484.9	75.62
485.118	78.62
485.336	89.62
485.554	87.62
485.772	90.62
485.99	94.62
486.209	88.62
486.427	98.62
486.645	106.62
486.863	115.62
487.081	97.62
487.299	85.62
487.517	104.62
487.735	96.62
487.953	100.62
488.171	97.62
488.389	106.62
488.607	95.62
488.825	85.62
489.043	95.62
489.261	79.62
489.479	92.62
489.696	90.62
489.914	87.62
490.132	77.62
490.35	81.62
490.568	94.62
490.786	80.62
491.003	82.62
491.221	94.62
491.439	95.62
491.657	88.62
491.874	98.62
492.092	91.62
492.31	87.62
492.527	92.62
492.745	82.62
492.963	82.62
493.18	92.62
493.398	106.62
493.615	94.62
493.833	83.62
494.05	101.62
494.268	75.62
494.485	95.62
494.703	87.62
494.92	83.62
495.138	85.62
495.355	101.62
495.573	89.62
495.79	93.62
496.008	86.62
496.225	78.62
496.442	95.62
496.66	92.62
496.877	87.62
497.094	74.62
497.312	77.62
497.529	89.62
497.746	74.62
497.963	76.62
498.181	101.62
498.398	90.62
498.615	100.62
498.832	97.62
499.049	90.62
499.267	77.62
499.484	78.62
499.701	71.62
499.918	96.62
500.135	93.62
500.352	94.62
500.569	103.62
500.786	94.62
501.003	88.62
501.22	86.62
501.437	77.62
501.654	91.62
501.871	114.62
502.088	92.62
502.305	75.62
502.522	85.62
502.739	91.62
502.956	92.62
503.172	99.62
503.389	78.62
503.606	102.62
503.823	104.62
504.04	92.62
504.256	88.62
504.473	96.62
504.69	106.62
504.907	103.62
505.123	96.62
505.34	92.62
505.557	83.62
505.773	101.62
505.99	88.62
506.207	94.62
506.423	91.62
506.64	93.62
506.856	85.62
507.073	90.62
507.289	79.62
507.506	103.62
507.722	121.62
507.939	127.62
508.155	102.62
508.372	102.62
508.588	98.62
508.805	89.62
509.021	110.62
509.238	107.62
509.454	97.62
509.67	114.62
509.887	130.62
510.103	160.62
510.319	269.62
510.536	1120.62
510.752	3888.62
510.968	1040.62
511.184	205.62
511.401	151.62
511.617	101.62
511.833	100.62
512.049	94.62
512.265	88.62
512.481	94.62
512.698	96.62
512.914	90.62
513.13	95.62
513.346	96.62
513.562	93.62
513.778	86.62
513.994	114.62
514.21	106.62
514.426	143.62
514.642	178.62
514.858	151.62
515.074	230.62
515.29	765.62
