Data from Circ_2014_H10_HRD10591_00073.txt Node
Date: Wed Jan 03 10:02:23 EST 2024
User: Yrep
Spectrometer: HR+D1059
Trigger mode: 1
Integration Time (sec): 1.000000E-1
Scans to average: 1
Electric dark correction enabled: true
Nonlinearity correction enabled: false
Boxcar width: 0
XAxis mode: Wavelengths
Number of Pixels in Spectrum: 2048
>>>>>Begin Spectral Data<<<<<
223.165	-16.38
223.4	-16.38
223.635	-16.38
223.869	-17.38
224.104	-3.38
224.338	-19.38
224.573	-4.38
224.808	-12.38
225.042	-12.38
225.277	-5.38
225.511	2.62
225.746	-4.38
225.98	-5.38
226.215	9.62
226.449	19.62
226.683	24.62
226.918	19.62
227.152	24.62
227.387	20.62
227.621	40.62
227.856	46.62
228.09	49.62
228.324	40.62
228.559	45.62
228.793	57.62
229.027	60.62
229.262	57.62
229.496	68.62
229.73	80.62
229.964	78.62
230.199	71.62
230.433	78.62
230.667	86.62
230.901	68.62
231.136	75.62
231.37	86.62
231.604	83.62
231.838	89.62
232.072	91.62
232.306	85.62
232.541	77.62
232.775	85.62
233.009	79.62
233.243	80.62
233.477	88.62
233.711	76.62
233.945	86.62
234.179	82.62
234.413	76.62
234.647	83.62
234.881	86.62
235.115	70.62
235.349	73.62
235.583	79.62
235.817	92.62
236.051	75.62
236.285	84.62
236.519	67.62
236.753	89.62
236.987	90.62
237.221	74.62
237.455	75.62
237.689	65.62
237.922	75.62
238.156	77.62
238.39	90.62
238.624	86.62
238.858	73.62
239.091	82.62
239.325	79.62
239.559	85.62
239.793	79.62
240.027	95.62
240.26	78.62
240.494	74.62
240.728	76.62
240.961	72.62
241.195	77.62
241.429	73.62
241.662	76.62
241.896	82.62
242.13	82.62
242.363	83.62
242.597	90.62
242.83	86.62
243.064	79.62
243.298	78.62
243.531	69.62
243.765	85.62
243.998	81.62
244.232	83.62
244.465	91.62
244.699	90.62
244.932	72.62
245.166	80.62
245.399	85.62
245.633	75.62
245.866	89.62
246.099	86.62
246.333	89.62
246.566	74.62
246.8	81.62
247.033	82.62
247.266	85.62
247.5	69.62
247.733	80.62
247.966	95.62
248.2	84.62
248.433	78.62
248.666	89.62
248.899	93.62
249.133	94.62
249.366	100.62
249.599	86.62
249.832	87.62
250.066	88.62
250.299	77.62
250.532	92.62
250.765	87.62
250.998	76.62
251.231	90.62
251.465	88.62
251.698	73.62
251.931	97.62
252.164	91.62
252.397	82.62
252.63	77.62
252.863	80.62
253.096	83.62
253.329	85.62
253.562	73.62
253.795	81.62
254.028	78.62
254.261	93.62
254.494	97.62
254.727	81.62
254.96	80.62
255.193	86.62
255.426	87.62
255.659	66.62
255.892	90.62
256.124	88.62
256.357	77.62
256.59	89.62
256.823	78.62
257.056	92.62
257.289	91.62
257.521	90.62
257.754	73.62
257.987	72.62
258.22	94.62
258.452	75.62
258.685	87.62
258.918	79.62
259.151	79.62
259.383	89.62
259.616	86.62
259.849	81.62
260.081	86.62
260.314	76.62
260.547	80.62
260.779	91.62
261.012	80.62
261.244	89.62
261.477	95.62
261.71	85.62
261.942	120.62
262.175	132.62
262.407	97.62
262.64	84.62
262.872	82.62
263.105	88.62
263.337	76.62
263.57	87.62
263.802	84.62
264.035	86.62
264.267	78.62
264.499	85.62
264.732	86.62
264.964	87.62
265.197	84.62
265.429	78.62
265.661	77.62
265.894	96.62
266.126	84.62
266.358	84.62
266.591	96.62
266.823	82.62
267.055	66.62
267.287	88.62
267.52	89.62
267.752	80.62
267.984	76.62
268.216	85.62
268.448	66.62
268.681	88.62
268.913	86.62
269.145	84.62
269.377	75.62
269.609	85.62
269.841	100.62
270.073	101.62
270.306	81.62
270.538	79.62
270.77	85.62
271.002	84.62
271.234	74.62
271.466	98.62
271.698	80.62
271.93	92.62
272.162	85.62
272.394	86.62
272.626	85.62
272.858	86.62
273.09	79.62
273.322	75.62
273.553	80.62
273.785	92.62
274.017	102.62
274.249	98.62
274.481	91.62
274.713	84.62
274.945	95.62
275.176	93.62
275.408	94.62
275.64	79.62
275.872	84.62
276.104	97.62
276.335	82.62
276.567	107.62
276.799	118.62
277.031	102.62
277.262	104.62
277.494	95.62
277.726	92.62
277.957	82.62
278.189	84.62
278.421	72.62
278.652	90.62
278.884	83.62
279.115	101.62
279.347	89.62
279.579	91.62
279.81	93.62
280.042	90.62
280.273	89.62
280.505	88.62
280.736	86.62
280.968	86.62
281.199	90.62
281.431	94.62
281.662	101.62
281.894	87.62
282.125	91.62
282.356	123.62
282.588	136.62
282.819	123.62
283.051	92.62
283.282	66.62
283.513	87.62
283.745	77.62
283.976	90.62
284.207	84.62
284.439	94.62
284.67	88.62
284.901	73.62
285.132	81.62
285.364	94.62
285.595	88.62
285.826	98.62
286.057	88.62
286.288	107.62
286.52	79.62
286.751	82.62
286.982	79.62
287.213	85.62
287.444	90.62
287.675	78.62
287.906	98.62
288.138	96.62
288.369	92.62
288.6	95.62
288.831	98.62
289.062	82.62
289.293	96.62
289.524	85.62
289.755	90.62
289.986	94.62
290.217	101.62
290.448	81.62
290.679	83.62
290.91	109.62
291.141	80.62
291.371	82.62
291.602	101.62
291.833	81.62
292.064	86.62
292.295	99.62
292.526	85.62
292.757	95.62
292.987	76.62
293.218	74.62
293.449	92.62
293.68	93.62
293.91	82.62
294.141	90.62
294.372	96.62
294.603	89.62
294.833	87.62
295.064	93.62
295.295	104.62
295.525	85.62
295.756	99.62
295.987	114.62
296.217	137.62
296.448	144.62
296.679	96.62
296.909	87.62
297.14	109.62
297.37	81.62
297.601	89.62
297.831	86.62
298.062	99.62
298.292	98.62
298.523	89.62
298.753	94.62
298.984	77.62
299.214	84.62
299.445	87.62
299.675	93.62
299.905	83.62
300.136	99.62
300.366	91.62
300.597	96.62
300.827	102.62
301.057	106.62
301.288	110.62
301.518	104.62
301.748	96.62
301.979	99.62
302.209	111.62
302.439	94.62
302.669	95.62
302.9	91.62
303.13	94.62
303.36	94.62
303.59	90.62
303.82	119.62
304.051	101.62
304.281	82.62
304.511	90.62
304.741	83.62
304.971	94.62
305.201	106.62
305.431	72.62
305.661	100.62
305.891	75.62
306.121	96.62
306.352	105.62
306.582	106.62
306.812	86.62
307.042	93.62
307.272	103.62
307.502	92.62
307.731	94.62
307.961	97.62
308.191	95.62
308.421	99.62
308.651	87.62
308.881	93.62
309.111	84.62
309.341	103.62
309.571	102.62
309.8	102.62
310.03	105.62
310.26	106.62
310.49	92.62
310.72	102.62
310.949	97.62
311.179	84.62
311.409	81.62
311.639	90.62
311.868	88.62
312.098	87.62
312.328	93.62
312.557	105.62
312.787	107.62
313.017	102.62
313.246	108.62
313.476	85.62
313.706	98.62
313.935	112.62
314.165	91.62
314.394	92.62
314.624	82.62
314.853	95.62
315.083	89.62
315.312	91.62
315.542	99.62
315.771	90.62
316.001	78.62
316.23	83.62
316.46	94.62
316.689	92.62
316.919	100.62
317.148	91.62
317.377	103.62
317.607	109.62
317.836	107.62
318.065	95.62
318.295	98.62
318.524	92.62
318.753	91.62
318.983	82.62
319.212	103.62
319.441	107.62
319.67	100.62
319.9	84.62
320.129	95.62
320.358	101.62
320.587	98.62
320.816	96.62
321.046	94.62
321.275	100.62
321.504	96.62
321.733	88.62
321.962	116.62
322.191	109.62
322.42	100.62
322.649	114.62
322.878	126.62
323.108	106.62
323.337	133.62
323.566	141.62
323.795	170.62
324.024	213.62
324.253	379.62
324.482	758.62
324.71	1544.62
324.939	2050.62
325.168	778.62
325.397	256.62
325.626	150.62
325.855	137.62
326.084	121.62
326.313	127.62
326.542	143.62
326.77	218.62
326.999	424.62
327.228	854.62
327.457	1543.62
327.686	1258.62
327.914	372.62
328.143	214.62
328.372	165.62
328.6	142.62
328.829	126.62
329.058	121.62
329.287	140.62
329.515	104.62
329.744	116.62
329.972	127.62
330.201	158.62
330.43	189.62
330.658	134.62
330.887	149.62
331.115	137.62
331.344	104.62
331.572	119.62
331.801	104.62
332.03	111.62
332.258	101.62
332.486	105.62
332.715	88.62
332.943	101.62
333.172	99.62
333.4	95.62
333.629	116.62
333.857	111.62
334.085	125.62
334.314	158.62
334.542	202.62
334.771	212.62
334.999	124.62
335.227	114.62
335.455	93.62
335.684	99.62
335.912	98.62
336.14	97.62
336.369	96.62
336.597	109.62
336.825	96.62
337.053	99.62
337.281	95.62
337.51	87.62
337.738	92.62
337.966	86.62
338.194	111.62
338.422	77.62
338.65	85.62
338.878	96.62
339.106	89.62
339.334	105.62
339.562	90.62
339.79	78.62
340.018	93.62
340.246	87.62
340.474	100.62
340.702	75.62
340.93	89.62
341.158	106.62
341.386	95.62
341.614	96.62
341.842	83.62
342.07	107.62
342.298	90.62
342.526	101.62
342.754	79.62
342.981	90.62
343.209	90.62
343.437	101.62
343.665	109.62
343.893	94.62
344.12	75.62
344.348	84.62
344.576	83.62
344.804	95.62
345.031	96.62
345.259	96.62
345.487	88.62
345.714	103.62
345.942	95.62
346.17	99.62
346.397	97.62
346.625	95.62
346.853	95.62
347.08	91.62
347.308	96.62
347.535	97.62
347.763	115.62
347.99	110.62
348.218	95.62
348.445	106.62
348.673	99.62
348.9	84.62
349.128	91.62
349.355	88.62
349.583	88.62
349.81	90.62
350.037	86.62
350.265	94.62
350.492	94.62
350.72	104.62
350.947	99.62
351.174	112.62
351.402	103.62
351.629	89.62
351.856	95.62
352.083	115.62
352.311	102.62
352.538	110.62
352.765	127.62
352.992	110.62
353.22	132.62
353.447	99.62
353.674	93.62
353.901	101.62
354.128	95.62
354.355	89.62
354.583	86.62
354.81	79.62
355.037	102.62
355.264	97.62
355.491	103.62
355.718	96.62
355.945	90.62
356.172	98.62
356.399	83.62
356.626	97.62
356.853	96.62
357.08	98.62
357.307	91.62
357.534	87.62
357.761	98.62
357.988	85.62
358.215	104.62
358.441	96.62
358.668	101.62
358.895	98.62
359.122	90.62
359.349	78.62
359.576	93.62
359.802	107.62
360.029	104.62
360.256	117.62
360.483	102.62
360.709	90.62
360.936	80.62
361.163	102.62
361.39	98.62
361.616	102.62
361.843	82.62
362.07	93.62
362.296	94.62
362.523	92.62
362.749	105.62
362.976	105.62
363.203	99.62
363.429	102.62
363.656	86.62
363.882	100.62
364.109	88.62
364.335	89.62
364.562	95.62
364.788	107.62
365.015	108.62
365.241	103.62
365.468	113.62
365.694	94.62
365.92	91.62
366.147	92.62
366.373	89.62
366.599	91.62
366.826	99.62
367.052	103.62
367.278	105.62
367.505	103.62
367.731	86.62
367.957	93.62
368.184	88.62
368.41	106.62
368.636	102.62
368.862	131.62
369.089	108.62
369.315	99.62
369.541	102.62
369.767	85.62
369.993	95.62
370.219	85.62
370.445	98.62
370.672	77.62
370.898	77.62
371.124	91.62
371.35	86.62
371.576	89.62
371.802	91.62
372.028	93.62
372.254	94.62
372.48	95.62
372.706	91.62
372.932	86.62
373.158	90.62
373.384	85.62
373.61	90.62
373.835	90.62
374.061	96.62
374.287	96.62
374.513	88.62
374.739	85.62
374.965	91.62
375.191	88.62
375.416	92.62
375.642	88.62
375.868	93.62
376.094	99.62
376.319	88.62
376.545	95.62
376.771	92.62
376.997	95.62
377.222	98.62
377.448	87.62
377.674	95.62
377.899	78.62
378.125	95.62
378.35	96.62
378.576	101.62
378.802	98.62
379.027	90.62
379.253	86.62
379.478	98.62
379.704	99.62
379.929	104.62
380.155	108.62
380.38	95.62
380.606	96.62
380.831	95.62
381.057	98.62
381.282	100.62
381.507	89.62
381.733	94.62
381.958	95.62
382.184	92.62
382.409	93.62
382.634	98.62
382.86	90.62
383.085	102.62
383.31	87.62
383.535	101.62
383.761	101.62
383.986	94.62
384.211	101.62
384.436	84.62
384.662	97.62
384.887	109.62
385.112	110.62
385.337	99.62
385.562	94.62
385.787	103.62
386.013	106.62
386.238	124.62
386.463	104.62
386.688	97.62
386.913	104.62
387.138	94.62
387.363	103.62
387.588	98.62
387.813	101.62
388.038	87.62
388.263	118.62
388.488	106.62
388.713	100.62
388.938	86.62
389.163	86.62
389.387	100.62
389.612	97.62
389.837	74.62
390.062	89.62
390.287	84.62
390.512	94.62
390.736	76.62
390.961	98.62
391.186	102.62
391.411	87.62
391.636	89.62
391.86	92.62
392.085	82.62
392.31	83.62
392.534	80.62
392.759	92.62
392.984	92.62
393.208	92.62
393.433	91.62
393.658	92.62
393.882	96.62
394.107	91.62
394.331	84.62
394.556	87.62
394.78	92.62
395.005	95.62
395.229	81.62
395.454	85.62
395.678	85.62
395.903	84.62
396.127	94.62
396.352	92.62
396.576	95.62
396.801	80.62
397.025	87.62
397.249	78.62
397.474	93.62
397.698	79.62
397.922	87.62
398.147	82.62
398.371	96.62
398.595	80.62
398.82	83.62
399.044	94.62
399.268	84.62
399.492	86.62
399.717	80.62
399.941	93.62
400.165	101.62
400.389	102.62
400.613	101.62
400.837	85.62
401.062	82.62
401.286	92.62
401.51	83.62
401.734	93.62
401.958	99.62
402.182	137.62
402.406	147.62
402.63	130.62
402.854	104.62
403.078	81.62
403.302	90.62
403.526	92.62
403.75	89.62
403.974	89.62
404.198	94.62
404.422	88.62
404.645	92.62
404.869	88.62
405.093	100.62
405.317	104.62
405.541	100.62
405.765	105.62
405.988	112.62
406.212	178.62
406.436	234.62
406.66	170.62
406.883	105.62
407.107	89.62
407.331	87.62
407.555	103.62
407.778	106.62
408.002	85.62
408.226	94.62
408.449	82.62
408.673	89.62
408.896	93.62
409.12	102.62
409.344	90.62
409.567	104.62
409.791	92.62
410.014	90.62
410.238	104.62
410.461	92.62
410.685	90.62
410.908	97.62
411.132	103.62
411.355	99.62
411.578	92.62
411.802	87.62
412.025	88.62
412.249	93.62
412.472	85.62
412.695	90.62
412.919	92.62
413.142	94.62
413.365	80.62
413.589	98.62
413.812	85.62
414.035	94.62
414.258	94.62
414.482	87.62
414.705	93.62
414.928	94.62
415.151	82.62
415.374	102.62
415.597	74.62
415.821	84.62
416.044	102.62
416.267	74.62
416.49	96.62
416.713	92.62
416.936	100.62
417.159	97.62
417.382	92.62
417.605	98.62
417.828	97.62
418.051	109.62
418.274	90.62
418.497	77.62
418.72	76.62
418.943	87.62
419.166	105.62
419.389	98.62
419.611	96.62
419.834	87.62
420.057	96.62
420.28	90.62
420.503	93.62
420.726	88.62
420.948	91.62
421.171	96.62
421.394	103.62
421.617	79.62
421.839	83.62
422.062	91.62
422.285	91.62
422.507	99.62
422.73	108.62
422.953	88.62
423.175	99.62
423.398	98.62
423.621	79.62
423.843	89.62
424.066	99.62
424.288	90.62
424.511	89.62
424.733	95.62
424.956	98.62
425.178	89.62
425.401	87.62
425.623	95.62
425.846	87.62
426.068	93.62
426.291	83.62
426.513	93.62
426.735	101.62
426.958	93.62
427.18	99.62
427.402	137.62
427.625	173.62
427.847	142.62
428.069	114.62
428.292	88.62
428.514	97.62
428.736	85.62
428.958	88.62
429.181	98.62
429.403	85.62
429.625	86.62
429.847	97.62
430.069	91.62
430.292	86.62
430.514	67.62
430.736	96.62
430.958	98.62
431.18	75.62
431.402	82.62
431.624	78.62
431.846	77.62
432.068	81.62
432.29	84.62
432.512	87.62
432.734	79.62
432.956	97.62
433.178	100.62
433.4	110.62
433.622	88.62
433.844	99.62
434.066	93.62
434.287	99.62
434.509	93.62
434.731	90.62
434.953	87.62
435.175	97.62
435.397	101.62
435.618	87.62
435.84	99.62
436.062	124.62
436.284	112.62
436.505	104.62
436.727	95.62
436.949	102.62
437.17	78.62
437.392	84.62
437.614	89.62
437.835	107.62
438.057	117.62
438.278	107.62
438.5	90.62
438.721	109.62
438.943	101.62
439.165	94.62
439.386	92.62
439.608	83.62
439.829	95.62
440.05	116.62
440.272	129.62
440.493	109.62
440.715	85.62
440.936	94.62
441.158	102.62
441.379	102.62
441.6	89.62
441.822	98.62
442.043	106.62
442.264	100.62
442.486	110.62
442.707	90.62
442.928	104.62
443.149	132.62
443.371	133.62
443.592	100.62
443.813	116.62
444.034	109.62
444.255	84.62
444.476	80.62
444.698	89.62
444.919	100.62
445.14	143.62
445.361	120.62
445.582	110.62
445.803	126.62
446.024	122.62
446.245	131.62
446.466	117.62
446.687	106.62
446.908	97.62
447.129	90.62
447.35	98.62
447.571	91.62
447.792	83.62
448.013	109.62
448.234	104.62
448.455	107.62
448.675	97.62
448.896	107.62
449.117	113.62
449.338	111.62
449.559	110.62
449.779	106.62
450	102.62
450.221	103.62
450.442	96.62
450.662	79.62
450.883	99.62
451.104	119.62
451.324	103.62
451.545	86.62
451.766	77.62
451.986	99.62
452.207	105.62
452.428	97.62
452.648	94.62
452.869	116.62
453.089	111.62
453.31	122.62
453.53	117.62
453.751	94.62
453.971	101.62
454.192	107.62
454.412	109.62
454.633	100.62
454.853	84.62
455.073	99.62
455.294	93.62
455.514	94.62
455.734	67.62
455.955	80.62
456.175	90.62
456.395	97.62
456.616	85.62
456.836	77.62
457.056	83.62
457.276	91.62
457.497	80.62
457.717	84.62
457.937	95.62
458.157	95.62
458.377	99.62
458.598	109.62
458.818	144.62
459.038	160.62
459.258	105.62
459.478	94.62
459.698	71.62
459.918	86.62
460.138	83.62
460.358	92.62
460.578	89.62
460.798	94.62
461.018	95.62
461.238	96.62
461.458	76.62
461.678	89.62
461.898	96.62
462.118	92.62
462.338	87.62
462.558	77.62
462.777	85.62
462.997	82.62
463.217	95.62
463.437	72.62
463.657	88.62
463.876	89.62
464.096	83.62
464.316	93.62
464.536	87.62
464.755	91.62
464.975	101.62
465.195	142.62
465.414	162.62
465.634	104.62
465.854	83.62
466.073	84.62
466.293	86.62
466.512	81.62
466.732	80.62
466.951	98.62
467.171	86.62
467.391	93.62
467.61	124.62
467.829	104.62
468.049	111.62
468.268	135.62
468.488	83.62
468.707	92.62
468.927	85.62
469.146	92.62
469.365	91.62
469.585	95.62
469.804	93.62
470.023	89.62
470.243	116.62
470.462	113.62
470.681	107.62
470.901	95.62
471.12	93.62
471.339	95.62
471.558	88.62
471.777	89.62
471.997	94.62
472.216	163.62
472.435	264.62
472.654	125.62
472.873	93.62
473.092	103.62
473.311	85.62
473.53	99.62
473.749	96.62
473.968	91.62
474.187	100.62
474.406	96.62
474.625	90.62
474.844	87.62
475.063	83.62
475.282	92.62
475.501	93.62
475.72	104.62
475.939	92.62
476.158	97.62
476.377	83.62
476.596	76.62
476.814	98.62
477.033	77.62
477.252	98.62
477.471	80.62
477.69	79.62
477.908	85.62
478.127	96.62
478.346	93.62
478.564	90.62
478.783	115.62
479.002	94.62
479.22	95.62
479.439	110.62
479.658	99.62
479.876	107.62
480.095	85.62
480.313	95.62
480.532	99.62
480.751	119.62
480.969	159.62
481.188	416.62
481.406	271.62
481.624	118.62
481.843	102.62
482.061	81.62
482.28	91.62
482.498	91.62
482.717	90.62
482.935	91.62
483.153	82.62
483.372	101.62
483.59	92.62
483.808	94.62
484.027	72.62
484.245	87.62
484.463	77.62
484.681	91.62
484.9	89.62
485.118	105.62
485.336	98.62
485.554	96.62
485.772	107.62
485.99	93.62
486.209	104.62
486.427	103.62
486.645	98.62
486.863	103.62
487.081	103.62
487.299	95.62
487.517	95.62
487.735	87.62
487.953	81.62
488.171	83.62
488.389	110.62
488.607	105.62
488.825	106.62
489.043	97.62
489.261	97.62
489.479	91.62
489.696	89.62
489.914	102.62
490.132	93.62
490.35	94.62
490.568	86.62
490.786	86.62
491.003	99.62
491.221	91.62
491.439	89.62
491.657	91.62
491.874	95.62
492.092	92.62
492.31	81.62
492.527	90.62
492.745	91.62
492.963	94.62
493.18	101.62
493.398	87.62
493.615	100.62
493.833	94.62
494.05	86.62
494.268	79.62
494.485	87.62
494.703	87.62
494.92	87.62
495.138	96.62
495.355	95.62
495.573	97.62
495.79	100.62
496.008	89.62
496.225	97.62
496.442	98.62
496.66	89.62
496.877	83.62
497.094	92.62
497.312	95.62
497.529	109.62
497.746	94.62
497.963	92.62
498.181	96.62
498.398	98.62
498.615	111.62
498.832	103.62
499.049	104.62
499.267	98.62
499.484	96.62
499.701	94.62
499.918	91.62
500.135	95.62
500.352	99.62
500.569	91.62
500.786	84.62
501.003	97.62
501.22	96.62
501.437	85.62
501.654	112.62
501.871	100.62
502.088	88.62
502.305	91.62
502.522	88.62
502.739	89.62
502.956	100.62
503.172	98.62
503.389	100.62
503.606	103.62
503.823	106.62
504.04	80.62
504.256	86.62
504.473	91.62
504.69	85.62
504.907	95.62
505.123	88.62
505.34	93.62
505.557	89.62
505.773	94.62
505.99	104.62
506.207	94.62
506.423	92.62
506.64	99.62
506.856	93.62
507.073	83.62
507.289	95.62
507.506	99.62
507.722	104.62
507.939	106.62
508.155	95.62
508.372	97.62
508.588	91.62
508.805	104.62
509.021	101.62
509.238	101.62
509.454	101.62
509.67	116.62
509.887	103.62
510.103	126.62
510.319	215.62
510.536	761.62
510.752	2590.62
510.968	744.62
511.184	182.62
511.401	117.62
511.617	91.62
511.833	93.62
512.049	97.62
512.265	88.62
512.481	89.62
512.698	105.62
512.914	91.62
513.13	106.62
513.346	91.62
513.562	115.62
513.778	91.62
513.994	96.62
514.21	108.62
514.426	113.62
514.642	146.62
514.858	132.62
515.074	170.62
