Data from Circ_2014_H10_HRD10591_00075.txt Node
Date: Wed Jan 03 10:02:24 EST 2024
User: Yrep
Spectrometer: HR+D1059
Trigger mode: 1
Integration Time (sec): 1.000000E-1
Scans to average: 1
Electric dark correction enabled: true
Nonlinearity correction enabled: false
Boxcar width: 0
XAxis mode: Wavelengths
Number of Pixels in Spectrum: 2048
>>>>>Begin Spectral Data<<<<<
223.165	-14.38
223.4	-14.38
223.635	-14.38
223.869	-5.38
224.104	-12.38
224.338	-2.38
224.573	-11.38
224.808	-7.38
225.042	-26.38
225.277	-5.38
225.511	-0.38
225.746	-11.38
225.98	11.62
226.215	13.62
226.449	11.62
226.683	10.62
226.918	11.62
227.152	37.62
227.387	32.62
227.621	42.62
227.856	31.62
228.09	43.62
228.324	47.62
228.559	50.62
228.793	44.62
229.027	79.62
229.262	70.62
229.496	59.62
229.73	76.62
229.964	80.62
230.199	76.62
230.433	71.62
230.667	70.62
230.901	80.62
231.136	73.62
231.37	72.62
231.604	72.62
231.838	63.62
232.072	76.62
232.306	77.62
232.541	74.62
232.775	78.62
233.009	75.62
233.243	78.62
233.477	69.62
233.711	75.62
233.945	81.62
234.179	75.62
234.413	76.62
234.647	83.62
234.881	70.62
235.115	72.62
235.349	88.62
235.583	85.62
235.817	68.62
236.051	77.62
236.285	81.62
236.519	77.62
236.753	70.62
236.987	72.62
237.221	80.62
237.455	85.62
237.689	85.62
237.922	70.62
238.156	85.62
238.39	77.62
238.624	67.62
238.858	76.62
239.091	84.62
239.325	74.62
239.559	84.62
239.793	77.62
240.027	64.62
240.26	89.62
240.494	87.62
240.728	68.62
240.961	70.62
241.195	75.62
241.429	71.62
241.662	69.62
241.896	60.62
242.13	68.62
242.363	85.62
242.597	83.62
242.83	58.62
243.064	84.62
243.298	85.62
243.531	85.62
243.765	68.62
243.998	68.62
244.232	76.62
244.465	80.62
244.699	70.62
244.932	73.62
245.166	80.62
245.399	67.62
245.633	83.62
245.866	75.62
246.099	72.62
246.333	79.62
246.566	67.62
246.8	74.62
247.033	68.62
247.266	68.62
247.5	81.62
247.733	76.62
247.966	83.62
248.2	91.62
248.433	73.62
248.666	75.62
248.899	68.62
249.133	72.62
249.366	96.62
249.599	105.62
249.832	81.62
250.066	80.62
250.299	59.62
250.532	87.62
250.765	83.62
250.998	85.62
251.231	55.62
251.465	87.62
251.698	93.62
251.931	98.62
252.164	73.62
252.397	92.62
252.63	84.62
252.863	91.62
253.096	79.62
253.329	88.62
253.562	82.62
253.795	88.62
254.028	75.62
254.261	80.62
254.494	88.62
254.727	72.62
254.96	83.62
255.193	70.62
255.426	74.62
255.659	73.62
255.892	76.62
256.124	77.62
256.357	86.62
256.59	86.62
256.823	75.62
257.056	71.62
257.289	76.62
257.521	80.62
257.754	88.62
257.987	73.62
258.22	71.62
258.452	79.62
258.685	77.62
258.918	73.62
259.151	72.62
259.383	77.62
259.616	67.62
259.849	84.62
260.081	61.62
260.314	79.62
260.547	83.62
260.779	75.62
261.012	69.62
261.244	76.62
261.477	77.62
261.71	100.62
261.942	112.62
262.175	115.62
262.407	84.62
262.64	84.62
262.872	85.62
263.105	67.62
263.337	68.62
263.57	81.62
263.802	63.62
264.035	67.62
264.267	59.62
264.499	76.62
264.732	92.62
264.964	72.62
265.197	90.62
265.429	101.62
265.661	82.62
265.894	81.62
266.126	99.62
266.358	78.62
266.591	87.62
266.823	67.62
267.055	70.62
267.287	88.62
267.52	81.62
267.752	89.62
267.984	88.62
268.216	79.62
268.448	82.62
268.681	66.62
268.913	75.62
269.145	78.62
269.377	77.62
269.609	76.62
269.841	90.62
270.073	76.62
270.306	93.62
270.538	66.62
270.77	83.62
271.002	84.62
271.234	85.62
271.466	77.62
271.698	84.62
271.93	89.62
272.162	75.62
272.394	87.62
272.626	84.62
272.858	66.62
273.09	87.62
273.322	105.62
273.553	74.62
273.785	85.62
274.017	76.62
274.249	76.62
274.481	79.62
274.713	92.62
274.945	90.62
275.176	83.62
275.408	87.62
275.64	72.62
275.872	88.62
276.104	85.62
276.335	86.62
276.567	102.62
276.799	96.62
277.031	86.62
277.262	105.62
277.494	92.62
277.726	82.62
277.957	91.62
278.189	84.62
278.421	75.62
278.652	81.62
278.884	76.62
279.115	83.62
279.347	83.62
279.579	94.62
279.81	81.62
280.042	82.62
280.273	82.62
280.505	92.62
280.736	87.62
280.968	75.62
281.199	81.62
281.431	85.62
281.662	85.62
281.894	87.62
282.125	103.62
282.356	110.62
282.588	145.62
282.819	84.62
283.051	89.62
283.282	85.62
283.513	79.62
283.745	88.62
283.976	77.62
284.207	77.62
284.439	73.62
284.67	81.62
284.901	92.62
285.132	80.62
285.364	86.62
285.595	88.62
285.826	84.62
286.057	94.62
286.288	83.62
286.52	99.62
286.751	87.62
286.982	71.62
287.213	90.62
287.444	72.62
287.675	82.62
287.906	85.62
288.138	87.62
288.369	91.62
288.6	109.62
288.831	77.62
289.062	82.62
289.293	94.62
289.524	80.62
289.755	92.62
289.986	87.62
290.217	82.62
290.448	89.62
290.679	95.62
290.91	88.62
291.141	88.62
291.371	73.62
291.602	91.62
291.833	83.62
292.064	100.62
292.295	81.62
292.526	89.62
292.757	82.62
292.987	80.62
293.218	88.62
293.449	87.62
293.68	80.62
293.91	84.62
294.141	90.62
294.372	87.62
294.603	82.62
294.833	84.62
295.064	82.62
295.295	92.62
295.525	85.62
295.756	88.62
295.987	115.62
296.217	137.62
296.448	114.62
296.679	85.62
296.909	79.62
297.14	85.62
297.37	96.62
297.601	90.62
297.831	91.62
298.062	83.62
298.292	79.62
298.523	80.62
298.753	94.62
298.984	73.62
299.214	79.62
299.445	93.62
299.675	83.62
299.905	93.62
300.136	102.62
300.366	84.62
300.597	103.62
300.827	89.62
301.057	94.62
301.288	81.62
301.518	82.62
301.748	89.62
301.979	95.62
302.209	83.62
302.439	93.62
302.669	76.62
302.9	84.62
303.13	90.62
303.36	98.62
303.59	102.62
303.82	114.62
304.051	98.62
304.281	77.62
304.511	85.62
304.741	93.62
304.971	79.62
305.201	81.62
305.431	79.62
305.661	92.62
305.891	87.62
306.121	83.62
306.352	106.62
306.582	100.62
306.812	94.62
307.042	85.62
307.272	93.62
307.502	105.62
307.731	102.62
307.961	112.62
308.191	90.62
308.421	98.62
308.651	79.62
308.881	80.62
309.111	84.62
309.341	84.62
309.571	101.62
309.8	103.62
310.03	92.62
310.26	98.62
310.49	99.62
310.72	99.62
310.949	93.62
311.179	99.62
311.409	88.62
311.639	85.62
311.868	93.62
312.098	89.62
312.328	92.62
312.557	101.62
312.787	92.62
313.017	95.62
313.246	94.62
313.476	85.62
313.706	87.62
313.935	90.62
314.165	97.62
314.394	95.62
314.624	90.62
314.853	86.62
315.083	85.62
315.312	80.62
315.542	78.62
315.771	86.62
316.001	97.62
316.23	97.62
316.46	82.62
316.689	92.62
316.919	92.62
317.148	88.62
317.377	97.62
317.607	95.62
317.836	90.62
318.065	90.62
318.295	93.62
318.524	95.62
318.753	93.62
318.983	94.62
319.212	99.62
319.441	124.62
319.67	115.62
319.9	83.62
320.129	96.62
320.358	99.62
320.587	95.62
320.816	97.62
321.046	95.62
321.275	94.62
321.504	111.62
321.733	105.62
321.962	85.62
322.191	102.62
322.42	99.62
322.649	111.62
322.878	119.62
323.108	104.62
323.337	119.62
323.566	132.62
323.795	144.62
324.024	204.62
324.253	381.62
324.482	814.62
324.71	1655.62
324.939	2159.62
325.168	803.62
325.397	253.62
325.626	144.62
325.855	143.62
326.084	120.62
326.313	124.62
326.542	145.62
326.77	231.62
326.999	445.62
327.228	896.62
327.457	1673.62
327.686	1312.62
327.914	365.62
328.143	188.62
328.372	195.62
328.6	136.62
328.829	131.62
329.058	141.62
329.287	132.62
329.515	105.62
329.744	111.62
329.972	117.62
330.201	151.62
330.43	192.62
330.658	170.62
330.887	156.62
331.115	141.62
331.344	107.62
331.572	96.62
331.801	97.62
332.03	92.62
332.258	85.62
332.486	95.62
332.715	84.62
332.943	100.62
333.172	106.62
333.4	115.62
333.629	114.62
333.857	119.62
334.085	137.62
334.314	155.62
334.542	241.62
334.771	234.62
334.999	113.62
335.227	80.62
335.455	99.62
335.684	80.62
335.912	90.62
336.14	102.62
336.369	93.62
336.597	98.62
336.825	98.62
337.053	87.62
337.281	93.62
337.51	87.62
337.738	85.62
337.966	83.62
338.194	94.62
338.422	89.62
338.65	97.62
338.878	95.62
339.106	80.62
339.334	72.62
339.562	88.62
339.79	89.62
340.018	87.62
340.246	90.62
340.474	89.62
340.702	92.62
340.93	93.62
341.158	90.62
341.386	87.62
341.614	89.62
341.842	99.62
342.07	84.62
342.298	85.62
342.526	97.62
342.754	83.62
342.981	92.62
343.209	88.62
343.437	105.62
343.665	79.62
343.893	81.62
344.12	97.62
344.348	85.62
344.576	87.62
344.804	97.62
345.031	92.62
345.259	95.62
345.487	99.62
345.714	95.62
345.942	99.62
346.17	78.62
346.397	80.62
346.625	85.62
346.853	94.62
347.08	82.62
347.308	103.62
347.535	101.62
347.763	97.62
347.99	94.62
348.218	105.62
348.445	91.62
348.673	90.62
348.9	92.62
349.128	86.62
349.355	91.62
349.583	98.62
349.81	102.62
350.037	93.62
350.265	87.62
350.492	97.62
350.72	86.62
350.947	112.62
351.174	96.62
351.402	106.62
351.629	108.62
351.856	95.62
352.083	82.62
352.311	99.62
352.538	102.62
352.765	116.62
352.992	112.62
353.22	107.62
353.447	95.62
353.674	93.62
353.901	87.62
354.128	90.62
354.355	87.62
354.583	90.62
354.81	102.62
355.037	95.62
355.264	86.62
355.491	87.62
355.718	84.62
355.945	89.62
356.172	96.62
356.399	84.62
356.626	89.62
356.853	83.62
357.08	83.62
357.307	87.62
357.534	75.62
357.761	87.62
357.988	97.62
358.215	90.62
358.441	81.62
358.668	92.62
358.895	98.62
359.122	90.62
359.349	85.62
359.576	82.62
359.802	104.62
360.029	103.62
360.256	117.62
360.483	97.62
360.709	102.62
360.936	79.62
361.163	76.62
361.39	90.62
361.616	106.62
361.843	92.62
362.07	89.62
362.296	90.62
362.523	95.62
362.749	86.62
362.976	85.62
363.203	101.62
363.429	80.62
363.656	69.62
363.882	80.62
364.109	83.62
364.335	94.62
364.562	93.62
364.788	87.62
365.015	94.62
365.241	105.62
365.468	106.62
365.694	95.62
365.92	88.62
366.147	89.62
366.373	85.62
366.599	86.62
366.826	88.62
367.052	80.62
367.278	88.62
367.505	73.62
367.731	96.62
367.957	91.62
368.184	101.62
368.41	97.62
368.636	113.62
368.862	119.62
369.089	107.62
369.315	91.62
369.541	82.62
369.767	98.62
369.993	96.62
370.219	92.62
370.445	75.62
370.672	96.62
370.898	78.62
371.124	101.62
371.35	98.62
371.576	91.62
371.802	80.62
372.028	88.62
372.254	80.62
372.48	79.62
372.706	85.62
372.932	71.62
373.158	73.62
373.384	88.62
373.61	100.62
373.835	76.62
374.061	103.62
374.287	63.62
374.513	89.62
374.739	95.62
374.965	71.62
375.191	93.62
375.416	90.62
375.642	90.62
375.868	83.62
376.094	89.62
376.319	84.62
376.545	91.62
376.771	83.62
376.997	72.62
377.222	79.62
377.448	78.62
377.674	79.62
377.899	91.62
378.125	77.62
378.35	81.62
378.576	89.62
378.802	91.62
379.027	88.62
379.253	100.62
379.478	95.62
379.704	85.62
379.929	90.62
380.155	91.62
380.38	96.62
380.606	89.62
380.831	77.62
381.057	98.62
381.282	88.62
381.507	92.62
381.733	101.62
381.958	82.62
382.184	100.62
382.409	97.62
382.634	98.62
382.86	86.62
383.085	101.62
383.31	88.62
383.535	92.62
383.761	112.62
383.986	100.62
384.211	88.62
384.436	93.62
384.662	75.62
384.887	98.62
385.112	101.62
385.337	103.62
385.562	95.62
385.787	92.62
386.013	106.62
386.238	102.62
386.463	104.62
386.688	98.62
386.913	100.62
387.138	100.62
387.363	83.62
387.588	99.62
387.813	112.62
388.038	108.62
388.263	97.62
388.488	112.62
388.713	87.62
388.938	88.62
389.163	94.62
389.387	87.62
389.612	83.62
389.837	88.62
390.062	88.62
390.287	92.62
390.512	83.62
390.736	79.62
390.961	93.62
391.186	92.62
391.411	84.62
391.636	84.62
391.86	80.62
392.085	70.62
392.31	81.62
392.534	91.62
392.759	95.62
392.984	80.62
393.208	83.62
393.433	99.62
393.658	83.62
393.882	82.62
394.107	86.62
394.331	88.62
394.556	86.62
394.78	87.62
395.005	86.62
395.229	81.62
395.454	87.62
395.678	95.62
395.903	91.62
396.127	91.62
396.352	87.62
396.576	72.62
396.801	91.62
397.025	99.62
397.249	99.62
397.474	79.62
397.698	79.62
397.922	84.62
398.147	87.62
398.371	80.62
398.595	77.62
398.82	85.62
399.044	75.62
399.268	83.62
399.492	96.62
399.717	93.62
399.941	89.62
400.165	89.62
400.389	85.62
400.613	90.62
400.837	86.62
401.062	94.62
401.286	87.62
401.51	93.62
401.734	96.62
401.958	100.62
402.182	116.62
402.406	168.62
402.63	131.62
402.854	88.62
403.078	100.62
403.302	85.62
403.526	82.62
403.75	88.62
403.974	88.62
404.198	85.62
404.422	86.62
404.645	81.62
404.869	99.62
405.093	86.62
405.317	97.62
405.541	81.62
405.765	97.62
405.988	121.62
406.212	175.62
406.436	228.62
406.66	140.62
406.883	103.62
407.107	89.62
407.331	80.62
407.555	104.62
407.778	94.62
408.002	86.62
408.226	91.62
408.449	98.62
408.673	100.62
408.896	100.62
409.12	83.62
409.344	89.62
409.567	87.62
409.791	71.62
410.014	97.62
410.238	100.62
410.461	77.62
410.685	80.62
410.908	87.62
411.132	100.62
411.355	88.62
411.578	78.62
411.802	84.62
412.025	74.62
412.249	82.62
412.472	99.62
412.695	82.62
412.919	98.62
413.142	81.62
413.365	92.62
413.589	84.62
413.812	99.62
414.035	84.62
414.258	71.62
414.482	81.62
414.705	81.62
414.928	93.62
415.151	84.62
415.374	103.62
415.597	86.62
415.821	72.62
416.044	76.62
416.267	74.62
416.49	89.62
416.713	85.62
416.936	82.62
417.159	83.62
417.382	80.62
417.605	86.62
417.828	92.62
418.051	90.62
418.274	81.62
418.497	78.62
418.72	81.62
418.943	93.62
419.166	80.62
419.389	77.62
419.611	79.62
419.834	93.62
420.057	85.62
420.28	104.62
420.503	82.62
420.726	88.62
420.948	83.62
421.171	93.62
421.394	85.62
421.617	83.62
421.839	90.62
422.062	99.62
422.285	102.62
422.507	101.62
422.73	105.62
422.953	95.62
423.175	75.62
423.398	89.62
423.621	80.62
423.843	88.62
424.066	88.62
424.288	92.62
424.511	90.62
424.733	91.62
424.956	108.62
425.178	86.62
425.401	92.62
425.623	91.62
425.846	98.62
426.068	96.62
426.291	87.62
426.513	70.62
426.735	79.62
426.958	100.62
427.18	80.62
427.402	119.62
427.625	168.62
427.847	145.62
428.069	117.62
428.292	90.62
428.514	82.62
428.736	91.62
428.958	83.62
429.181	80.62
429.403	87.62
429.625	79.62
429.847	92.62
430.069	87.62
430.292	89.62
430.514	77.62
430.736	76.62
430.958	91.62
431.18	74.62
431.402	87.62
431.624	83.62
431.846	81.62
432.068	84.62
432.29	83.62
432.512	93.62
432.734	88.62
432.956	82.62
433.178	96.62
433.4	84.62
433.622	80.62
433.844	83.62
434.066	83.62
434.287	112.62
434.509	97.62
434.731	77.62
434.953	82.62
435.175	102.62
435.397	84.62
435.618	84.62
435.84	91.62
436.062	101.62
436.284	83.62
436.505	90.62
436.727	88.62
436.949	89.62
437.17	101.62
437.392	85.62
437.614	82.62
437.835	98.62
438.057	110.62
438.278	97.62
438.5	95.62
438.721	125.62
438.943	84.62
439.165	93.62
439.386	80.62
439.608	90.62
439.829	96.62
440.05	117.62
440.272	117.62
440.493	104.62
440.715	86.62
440.936	75.62
441.158	87.62
441.379	92.62
441.6	80.62
441.822	92.62
442.043	85.62
442.264	91.62
442.486	95.62
442.707	90.62
442.928	83.62
443.149	138.62
443.371	139.62
443.592	115.62
443.813	108.62
444.034	117.62
444.255	96.62
444.476	96.62
444.698	85.62
444.919	87.62
445.14	138.62
445.361	128.62
445.582	119.62
445.803	125.62
446.024	120.62
446.245	132.62
446.466	102.62
446.687	98.62
446.908	88.62
447.129	82.62
447.35	99.62
447.571	95.62
447.792	92.62
448.013	95.62
448.234	99.62
448.455	97.62
448.675	113.62
448.896	115.62
449.117	91.62
449.338	83.62
449.559	120.62
449.779	123.62
450	100.62
450.221	79.62
450.442	75.62
450.662	81.62
450.883	105.62
451.104	107.62
451.324	92.62
451.545	88.62
451.766	91.62
451.986	75.62
452.207	74.62
452.428	84.62
452.648	91.62
452.869	112.62
453.089	113.62
453.31	116.62
453.53	95.62
453.751	99.62
453.971	111.62
454.192	108.62
454.412	92.62
454.633	82.62
454.853	88.62
455.073	96.62
455.294	86.62
455.514	101.62
455.734	85.62
455.955	73.62
456.175	84.62
456.395	92.62
456.616	75.62
456.836	80.62
457.056	83.62
457.276	83.62
457.497	95.62
457.717	75.62
457.937	80.62
458.157	91.62
458.377	96.62
458.598	107.62
458.818	143.62
459.038	156.62
459.258	112.62
459.478	99.62
459.698	78.62
459.918	84.62
460.138	81.62
460.358	83.62
460.578	87.62
460.798	80.62
461.018	88.62
461.238	75.62
461.458	76.62
461.678	84.62
461.898	70.62
462.118	91.62
462.338	93.62
462.558	83.62
462.777	75.62
462.997	92.62
463.217	76.62
463.437	83.62
463.657	91.62
463.876	90.62
464.096	75.62
464.316	90.62
464.536	83.62
464.755	90.62
464.975	107.62
465.195	173.62
465.414	165.62
465.634	96.62
465.854	101.62
466.073	91.62
466.293	87.62
466.512	79.62
466.732	82.62
466.951	95.62
467.171	86.62
467.391	86.62
467.61	111.62
467.829	104.62
468.049	128.62
468.268	141.62
468.488	89.62
468.707	79.62
468.927	70.62
469.146	79.62
469.365	77.62
469.585	92.62
469.804	96.62
470.023	95.62
470.243	81.62
470.462	104.62
470.681	93.62
470.901	83.62
471.12	97.62
471.339	94.62
471.558	75.62
471.777	96.62
471.997	110.62
472.216	175.62
472.435	303.62
472.654	125.62
472.873	83.62
473.092	79.62
473.311	87.62
473.53	82.62
473.749	84.62
473.968	95.62
474.187	96.62
474.406	96.62
474.625	93.62
474.844	88.62
475.063	84.62
475.282	95.62
475.501	71.62
475.72	86.62
475.939	69.62
476.158	90.62
476.377	79.62
476.596	83.62
476.814	94.62
477.033	85.62
477.252	71.62
477.471	84.62
477.69	72.62
477.908	92.62
478.127	85.62
478.346	75.62
478.564	88.62
478.783	93.62
479.002	111.62
479.22	101.62
479.439	98.62
479.658	87.62
479.876	100.62
480.095	85.62
480.313	97.62
480.532	89.62
480.751	104.62
480.969	178.62
481.188	471.62
481.406	339.62
481.624	98.62
481.843	85.62
482.061	85.62
482.28	61.62
482.498	83.62
482.717	78.62
482.935	93.62
483.153	88.62
483.372	99.62
483.59	77.62
483.808	71.62
484.027	95.62
484.245	83.62
484.463	95.62
484.681	105.62
484.9	101.62
485.118	89.62
485.336	85.62
485.554	74.62
485.772	87.62
485.99	100.62
486.209	108.62
486.427	104.62
486.645	114.62
486.863	108.62
487.081	78.62
487.299	100.62
487.517	98.62
487.735	75.62
487.953	112.62
488.171	74.62
488.389	88.62
488.607	98.62
488.825	85.62
489.043	77.62
489.261	91.62
489.479	83.62
489.696	81.62
489.914	76.62
490.132	73.62
490.35	90.62
490.568	96.62
490.786	91.62
491.003	83.62
491.221	82.62
491.439	84.62
491.657	81.62
491.874	97.62
492.092	69.62
492.31	85.62
492.527	78.62
492.745	84.62
492.963	95.62
493.18	79.62
493.398	80.62
493.615	88.62
493.833	97.62
494.05	96.62
494.268	90.62
494.485	82.62
494.703	75.62
494.92	81.62
495.138	94.62
495.355	86.62
495.573	83.62
495.79	74.62
496.008	103.62
496.225	92.62
496.442	87.62
496.66	96.62
496.877	86.62
497.094	85.62
497.312	86.62
497.529	99.62
497.746	97.62
497.963	103.62
498.181	88.62
498.398	82.62
498.615	98.62
498.832	106.62
499.049	86.62
499.267	92.62
499.484	90.62
499.701	80.62
499.918	103.62
500.135	87.62
500.352	100.62
500.569	95.62
500.786	93.62
501.003	99.62
501.22	80.62
501.437	96.62
501.654	93.62
501.871	112.62
502.088	94.62
502.305	103.62
502.522	98.62
502.739	83.62
502.956	88.62
503.172	100.62
503.389	99.62
503.606	105.62
503.823	90.62
504.04	93.62
504.256	95.62
504.473	90.62
504.69	91.62
504.907	78.62
505.123	83.62
505.34	81.62
505.557	86.62
505.773	85.62
505.99	95.62
506.207	98.62
506.423	84.62
506.64	73.62
506.856	87.62
507.073	84.62
507.289	102.62
507.506	95.62
507.722	94.62
507.939	89.62
508.155	97.62
508.372	85.62
508.588	78.62
508.805	93.62
509.021	90.62
509.238	105.62
509.454	95.62
509.67	93.62
509.887	112.62
510.103	123.62
510.319	210.62
510.536	777.62
510.752	2709.62
510.968	751.62
511.184	160.62
511.401	116.62
511.617	88.62
511.833	96.62
512.049	90.62
512.265	95.62
512.481	87.62
512.698	91.62
512.914	86.62
513.13	85.62
513.346	99.62
513.562	100.62
513.778	91.62
513.994	95.62
514.21	89.62
514.426	104.62
514.642	131.62
514.858	131.62
515.074	188.62
515.29	497.62
515.506	1753.62
515.721	655.62
515.937	164.62
516.153	108.62
516.369	99.62
516.585	85.62
