Data from Circ_2014_H10_HRD10591_00077.txt Node
Date: Wed Jan 03 10:02:24 EST 2024
User: Yrep
Spectrometer: HR+D1059
Trigger mode: 1
Integration Time (sec): 1.000000E-1
Scans to average: 1
Electric dark correction enabled: true
Nonlinearity correction enabled: false
Boxcar width: 0
XAxis mode: Wavelengths
Number of Pixels in Spectrum: 2048
>>>>>Begin Spectral Data<<<<<
223.165	-2.5
223.4	-2.5
223.635	-2.5
223.869	-15.5
224.104	-26.5
224.338	-24.5
224.573	-15.5
224.808	-17.5
225.042	5.5
225.277	-6.5
225.511	-5.5
225.746	13.5
225.98	-14.5
226.215	9.5
226.449	27.5
226.683	14.5
226.918	31.5
227.152	26.5
227.387	42.5
227.621	34.5
227.856	39.5
228.09	62.5
228.324	56.5
228.559	52.5
228.793	65.5
229.027	63.5
229.262	66.5
229.496	75.5
229.73	84.5
229.964	85.5
230.199	66.5
230.433	73.5
230.667	91.5
230.901	90.5
231.136	80.5
231.37	79.5
231.604	81.5
231.838	91.5
232.072	91.5
232.306	82.5
232.541	87.5
232.775	71.5
233.009	83.5
233.243	91.5
233.477	75.5
233.711	81.5
233.945	79.5
234.179	104.5
234.413	79.5
234.647	81.5
234.881	85.5
235.115	84.5
235.349	77.5
235.583	85.5
235.817	69.5
236.051	78.5
236.285	77.5
236.519	81.5
236.753	68.5
236.987	77.5
237.221	97.5
237.455	87.5
237.689	89.5
237.922	71.5
238.156	86.5
238.39	84.5
238.624	88.5
238.858	95.5
239.091	72.5
239.325	83.5
239.559	74.5
239.793	87.5
240.027	85.5
240.26	67.5
240.494	60.5
240.728	80.5
240.961	87.5
241.195	77.5
241.429	76.5
241.662	75.5
241.896	80.5
242.13	79.5
242.363	85.5
242.597	73.5
242.83	79.5
243.064	90.5
243.298	80.5
243.531	74.5
243.765	78.5
243.998	85.5
244.232	81.5
244.465	90.5
244.699	85.5
244.932	59.5
245.166	86.5
245.399	81.5
245.633	64.5
245.866	96.5
246.099	98.5
246.333	75.5
246.566	81.5
246.8	73.5
247.033	90.5
247.266	92.5
247.5	80.5
247.733	87.5
247.966	79.5
248.2	81.5
248.433	80.5
248.666	79.5
248.899	91.5
249.133	92.5
249.366	86.5
249.599	93.5
249.832	79.5
250.066	72.5
250.299	79.5
250.532	76.5
250.765	85.5
250.998	73.5
251.231	73.5
251.465	81.5
251.698	93.5
251.931	91.5
252.164	91.5
252.397	85.5
252.63	76.5
252.863	76.5
253.096	89.5
253.329	89.5
253.562	86.5
253.795	75.5
254.028	85.5
254.261	82.5
254.494	84.5
254.727	94.5
254.96	80.5
255.193	77.5
255.426	91.5
255.659	87.5
255.892	85.5
256.124	80.5
256.357	88.5
256.59	92.5
256.823	83.5
257.056	93.5
257.289	71.5
257.521	89.5
257.754	71.5
257.987	81.5
258.22	79.5
258.452	76.5
258.685	85.5
258.918	85.5
259.151	85.5
259.383	85.5
259.616	77.5
259.849	84.5
260.081	79.5
260.314	86.5
260.547	71.5
260.779	90.5
261.012	96.5
261.244	103.5
261.477	93.5
261.71	89.5
261.942	110.5
262.175	113.5
262.407	91.5
262.64	89.5
262.872	96.5
263.105	98.5
263.337	80.5
263.57	86.5
263.802	79.5
264.035	73.5
264.267	88.5
264.499	65.5
264.732	81.5
264.964	83.5
265.197	82.5
265.429	79.5
265.661	83.5
265.894	89.5
266.126	91.5
266.358	82.5
266.591	91.5
266.823	83.5
267.055	79.5
267.287	79.5
267.52	88.5
267.752	87.5
267.984	78.5
268.216	86.5
268.448	94.5
268.681	84.5
268.913	101.5
269.145	85.5
269.377	89.5
269.609	81.5
269.841	94.5
270.073	88.5
270.306	74.5
270.538	102.5
270.77	69.5
271.002	90.5
271.234	81.5
271.466	74.5
271.698	80.5
271.93	80.5
272.162	81.5
272.394	86.5
272.626	91.5
272.858	88.5
273.09	81.5
273.322	89.5
273.553	87.5
273.785	89.5
274.017	89.5
274.249	94.5
274.481	85.5
274.713	82.5
274.945	90.5
275.176	86.5
275.408	91.5
275.64	91.5
275.872	91.5
276.104	89.5
276.335	85.5
276.567	99.5
276.799	104.5
277.031	88.5
277.262	85.5
277.494	79.5
277.726	84.5
277.957	97.5
278.189	86.5
278.421	86.5
278.652	84.5
278.884	89.5
279.115	97.5
279.347	93.5
279.579	82.5
279.81	91.5
280.042	95.5
280.273	89.5
280.505	99.5
280.736	89.5
280.968	92.5
281.199	100.5
281.431	78.5
281.662	89.5
281.894	99.5
282.125	80.5
282.356	122.5
282.588	140.5
282.819	109.5
283.051	98.5
283.282	88.5
283.513	99.5
283.745	94.5
283.976	79.5
284.207	73.5
284.439	86.5
284.67	92.5
284.901	88.5
285.132	87.5
285.364	109.5
285.595	88.5
285.826	81.5
286.057	74.5
286.288	88.5
286.52	85.5
286.751	84.5
286.982	81.5
287.213	87.5
287.444	89.5
287.675	82.5
287.906	88.5
288.138	99.5
288.369	84.5
288.6	101.5
288.831	87.5
289.062	90.5
289.293	89.5
289.524	99.5
289.755	86.5
289.986	87.5
290.217	94.5
290.448	99.5
290.679	90.5
290.91	87.5
291.141	93.5
291.371	87.5
291.602	86.5
291.833	96.5
292.064	79.5
292.295	90.5
292.526	84.5
292.757	97.5
292.987	83.5
293.218	107.5
293.449	85.5
293.68	96.5
293.91	101.5
294.141	89.5
294.372	92.5
294.603	91.5
294.833	92.5
295.064	92.5
295.295	86.5
295.525	93.5
295.756	107.5
295.987	114.5
296.217	120.5
296.448	125.5
296.679	85.5
296.909	86.5
297.14	81.5
297.37	86.5
297.601	97.5
297.831	108.5
298.062	103.5
298.292	99.5
298.523	98.5
298.753	86.5
298.984	92.5
299.214	93.5
299.445	90.5
299.675	97.5
299.905	102.5
300.136	80.5
300.366	97.5
300.597	95.5
300.827	91.5
301.057	107.5
301.288	99.5
301.518	94.5
301.748	91.5
301.979	92.5
302.209	93.5
302.439	91.5
302.669	94.5
302.9	101.5
303.13	94.5
303.36	94.5
303.59	97.5
303.82	111.5
304.051	97.5
304.281	99.5
304.511	96.5
304.741	91.5
304.971	91.5
305.201	89.5
305.431	91.5
305.661	95.5
305.891	88.5
306.121	92.5
306.352	97.5
306.582	97.5
306.812	86.5
307.042	97.5
307.272	92.5
307.502	104.5
307.731	120.5
307.961	116.5
308.191	89.5
308.421	83.5
308.651	104.5
308.881	97.5
309.111	118.5
309.341	98.5
309.571	108.5
309.8	108.5
310.03	95.5
310.26	96.5
310.49	95.5
310.72	101.5
310.949	102.5
311.179	103.5
311.409	95.5
311.639	94.5
311.868	94.5
312.098	98.5
312.328	102.5
312.557	110.5
312.787	114.5
313.017	110.5
313.246	100.5
313.476	96.5
313.706	107.5
313.935	96.5
314.165	110.5
314.394	102.5
314.624	85.5
314.853	104.5
315.083	93.5
315.312	103.5
315.542	87.5
315.771	92.5
316.001	94.5
316.23	97.5
316.46	101.5
316.689	106.5
316.919	93.5
317.148	88.5
317.377	91.5
317.607	95.5
317.836	102.5
318.065	94.5
318.295	92.5
318.524	87.5
318.753	100.5
318.983	90.5
319.212	89.5
319.441	99.5
319.67	93.5
319.9	95.5
320.129	97.5
320.358	106.5
320.587	96.5
320.816	106.5
321.046	106.5
321.275	97.5
321.504	99.5
321.733	93.5
321.962	101.5
322.191	100.5
322.42	103.5
322.649	115.5
322.878	102.5
323.108	119.5
323.337	115.5
323.566	124.5
323.795	138.5
324.024	197.5
324.253	361.5
324.482	704.5
324.71	1453.5
324.939	1902.5
325.168	715.5
325.397	219.5
325.626	157.5
325.855	134.5
326.084	135.5
326.313	132.5
326.542	136.5
326.77	214.5
326.999	424.5
327.228	774.5
327.457	1451.5
327.686	1161.5
327.914	345.5
328.143	193.5
328.372	171.5
328.6	143.5
328.829	128.5
329.058	137.5
329.287	131.5
329.515	103.5
329.744	103.5
329.972	122.5
330.201	164.5
330.43	177.5
330.658	144.5
330.887	140.5
331.115	105.5
331.344	99.5
331.572	106.5
331.801	112.5
332.03	100.5
332.258	104.5
332.486	97.5
332.715	95.5
332.943	99.5
333.172	87.5
333.4	92.5
333.629	102.5
333.857	117.5
334.085	124.5
334.314	168.5
334.542	219.5
334.771	208.5
334.999	106.5
335.227	104.5
335.455	106.5
335.684	100.5
335.912	106.5
336.14	108.5
336.369	104.5
336.597	114.5
336.825	89.5
337.053	106.5
337.281	104.5
337.51	85.5
337.738	101.5
337.966	107.5
338.194	88.5
338.422	108.5
338.65	101.5
338.878	99.5
339.106	92.5
339.334	89.5
339.562	103.5
339.79	97.5
340.018	86.5
340.246	81.5
340.474	90.5
340.702	101.5
340.93	99.5
341.158	107.5
341.386	100.5
341.614	94.5
341.842	97.5
342.07	89.5
342.298	98.5
342.526	92.5
342.754	72.5
342.981	93.5
343.209	99.5
343.437	115.5
343.665	93.5
343.893	97.5
344.12	89.5
344.348	87.5
344.576	88.5
344.804	107.5
345.031	90.5
345.259	95.5
345.487	105.5
345.714	90.5
345.942	96.5
346.17	97.5
346.397	102.5
346.625	86.5
346.853	98.5
347.08	92.5
347.308	88.5
347.535	91.5
347.763	105.5
347.99	108.5
348.218	112.5
348.445	112.5
348.673	107.5
348.9	92.5
349.128	108.5
349.355	99.5
349.583	93.5
349.81	96.5
350.037	104.5
350.265	97.5
350.492	95.5
350.72	86.5
350.947	99.5
351.174	103.5
351.402	106.5
351.629	106.5
351.856	93.5
352.083	97.5
352.311	120.5
352.538	104.5
352.765	109.5
352.992	112.5
353.22	103.5
353.447	106.5
353.674	91.5
353.901	101.5
354.128	97.5
354.355	108.5
354.583	104.5
354.81	101.5
355.037	106.5
355.264	102.5
355.491	99.5
355.718	86.5
355.945	107.5
356.172	74.5
356.399	92.5
356.626	93.5
356.853	88.5
357.08	84.5
357.307	100.5
357.534	91.5
357.761	81.5
357.988	77.5
358.215	93.5
358.441	87.5
358.668	99.5
358.895	93.5
359.122	103.5
359.349	115.5
359.576	93.5
359.802	101.5
360.029	119.5
360.256	120.5
360.483	79.5
360.709	89.5
360.936	93.5
361.163	102.5
361.39	98.5
361.616	88.5
361.843	94.5
362.07	96.5
362.296	101.5
362.523	84.5
362.749	106.5
362.976	82.5
363.203	86.5
363.429	96.5
363.656	93.5
363.882	93.5
364.109	94.5
364.335	90.5
364.562	93.5
364.788	87.5
365.015	97.5
365.241	100.5
365.468	94.5
365.694	113.5
365.92	107.5
366.147	97.5
366.373	87.5
366.599	80.5
366.826	93.5
367.052	95.5
367.278	99.5
367.505	85.5
367.731	113.5
367.957	106.5
368.184	92.5
368.41	105.5
368.636	108.5
368.862	95.5
369.089	108.5
369.315	101.5
369.541	99.5
369.767	95.5
369.993	102.5
370.219	100.5
370.445	83.5
370.672	90.5
370.898	81.5
371.124	82.5
371.35	90.5
371.576	90.5
371.802	92.5
372.028	94.5
372.254	88.5
372.48	94.5
372.706	81.5
372.932	99.5
373.158	81.5
373.384	93.5
373.61	94.5
373.835	95.5
374.061	83.5
374.287	102.5
374.513	74.5
374.739	87.5
374.965	96.5
375.191	96.5
375.416	95.5
375.642	94.5
375.868	94.5
376.094	91.5
376.319	97.5
376.545	87.5
376.771	82.5
376.997	85.5
377.222	79.5
377.448	89.5
377.674	86.5
377.899	93.5
378.125	87.5
378.35	96.5
378.576	82.5
378.802	104.5
379.027	96.5
379.253	101.5
379.478	96.5
379.704	95.5
379.929	87.5
380.155	94.5
380.38	98.5
380.606	91.5
380.831	119.5
381.057	96.5
381.282	76.5
381.507	96.5
381.733	91.5
381.958	105.5
382.184	92.5
382.409	84.5
382.634	103.5
382.86	102.5
383.085	96.5
383.31	112.5
383.535	93.5
383.761	89.5
383.986	112.5
384.211	88.5
384.436	102.5
384.662	112.5
384.887	122.5
385.112	98.5
385.337	102.5
385.562	96.5
385.787	99.5
386.013	102.5
386.238	90.5
386.463	108.5
386.688	110.5
386.913	105.5
387.138	103.5
387.363	103.5
387.588	109.5
387.813	114.5
388.038	97.5
388.263	123.5
388.488	117.5
388.713	96.5
388.938	113.5
389.163	102.5
389.387	105.5
389.612	102.5
389.837	95.5
390.062	88.5
390.287	96.5
390.512	91.5
390.736	112.5
390.961	79.5
391.186	96.5
391.411	91.5
391.636	91.5
391.86	96.5
392.085	86.5
392.31	91.5
392.534	97.5
392.759	98.5
392.984	71.5
393.208	80.5
393.433	94.5
393.658	90.5
393.882	92.5
394.107	78.5
394.331	86.5
394.556	91.5
394.78	98.5
395.005	87.5
395.229	76.5
395.454	87.5
395.678	89.5
395.903	92.5
396.127	80.5
396.352	90.5
396.576	83.5
396.801	96.5
397.025	98.5
397.249	98.5
397.474	94.5
397.698	93.5
397.922	81.5
398.147	86.5
398.371	81.5
398.595	99.5
398.82	87.5
399.044	84.5
399.268	68.5
399.492	83.5
399.717	94.5
399.941	101.5
400.165	92.5
400.389	96.5
400.613	81.5
400.837	102.5
401.062	88.5
401.286	92.5
401.51	100.5
401.734	84.5
401.958	107.5
402.182	137.5
402.406	159.5
402.63	113.5
402.854	103.5
403.078	95.5
403.302	90.5
403.526	92.5
403.75	84.5
403.974	85.5
404.198	88.5
404.422	83.5
404.645	87.5
404.869	86.5
405.093	82.5
405.317	101.5
405.541	102.5
405.765	96.5
405.988	121.5
406.212	167.5
406.436	216.5
406.66	139.5
406.883	101.5
407.107	95.5
407.331	96.5
407.555	99.5
407.778	99.5
408.002	94.5
408.226	91.5
408.449	80.5
408.673	78.5
408.896	81.5
409.12	100.5
409.344	86.5
409.567	101.5
409.791	93.5
410.014	94.5
410.238	91.5
410.461	102.5
410.685	98.5
410.908	93.5
411.132	118.5
411.355	107.5
411.578	97.5
411.802	92.5
412.025	81.5
412.249	86.5
412.472	89.5
412.695	94.5
412.919	84.5
413.142	83.5
413.365	80.5
413.589	94.5
413.812	91.5
414.035	94.5
414.258	95.5
414.482	103.5
414.705	99.5
414.928	94.5
415.151	96.5
415.374	121.5
415.597	104.5
415.821	92.5
416.044	101.5
416.267	87.5
416.49	90.5
416.713	75.5
416.936	85.5
417.159	85.5
417.382	88.5
417.605	94.5
417.828	90.5
418.051	101.5
418.274	89.5
418.497	96.5
418.72	84.5
418.943	91.5
419.166	85.5
419.389	86.5
419.611	99.5
419.834	97.5
420.057	82.5
420.28	97.5
420.503	84.5
420.726	88.5
420.948	85.5
421.171	97.5
421.394	92.5
421.617	95.5
421.839	82.5
422.062	78.5
422.285	100.5
422.507	108.5
422.73	103.5
422.953	105.5
423.175	96.5
423.398	89.5
423.621	92.5
423.843	107.5
424.066	89.5
424.288	109.5
424.511	100.5
424.733	92.5
424.956	101.5
425.178	104.5
425.401	92.5
425.623	107.5
425.846	107.5
426.068	102.5
426.291	97.5
426.513	92.5
426.735	82.5
426.958	87.5
427.18	98.5
427.402	122.5
427.625	155.5
427.847	128.5
428.069	118.5
428.292	89.5
428.514	84.5
428.736	99.5
428.958	87.5
429.181	82.5
429.403	84.5
429.625	75.5
429.847	91.5
430.069	99.5
430.292	93.5
430.514	88.5
430.736	97.5
430.958	91.5
431.18	96.5
431.402	93.5
431.624	97.5
431.846	84.5
432.068	81.5
432.29	83.5
432.512	99.5
432.734	85.5
432.956	92.5
433.178	95.5
433.4	86.5
433.622	92.5
433.844	102.5
434.066	90.5
434.287	95.5
434.509	97.5
434.731	96.5
434.953	99.5
435.175	77.5
435.397	96.5
435.618	84.5
435.84	80.5
436.062	119.5
436.284	119.5
436.505	84.5
436.727	110.5
436.949	94.5
437.17	102.5
437.392	97.5
437.614	87.5
437.835	99.5
438.057	104.5
438.278	113.5
438.5	88.5
438.721	125.5
438.943	93.5
439.165	92.5
439.386	88.5
439.608	92.5
439.829	93.5
440.05	121.5
440.272	130.5
440.493	93.5
440.715	82.5
440.936	84.5
441.158	86.5
441.379	95.5
441.6	95.5
441.822	94.5
442.043	110.5
442.264	100.5
442.486	114.5
442.707	97.5
442.928	100.5
443.149	127.5
443.371	121.5
443.592	101.5
443.813	90.5
444.034	101.5
444.255	92.5
444.476	93.5
444.698	76.5
444.919	93.5
445.14	122.5
445.361	127.5
445.582	107.5
445.803	125.5
446.024	137.5
446.245	123.5
446.466	103.5
446.687	84.5
446.908	90.5
447.129	90.5
447.35	94.5
447.571	91.5
447.792	85.5
448.013	117.5
448.234	116.5
448.455	98.5
448.675	100.5
448.896	109.5
449.117	100.5
449.338	94.5
449.559	119.5
449.779	113.5
450	96.5
450.221	99.5
450.442	84.5
450.662	104.5
450.883	117.5
451.104	142.5
451.324	87.5
451.545	94.5
451.766	110.5
451.986	94.5
452.207	94.5
452.428	101.5
452.648	91.5
452.869	107.5
453.089	112.5
453.31	117.5
453.53	100.5
453.751	94.5
453.971	88.5
454.192	112.5
454.412	91.5
454.633	73.5
454.853	81.5
455.073	87.5
455.294	103.5
455.514	99.5
455.734	90.5
455.955	79.5
456.175	89.5
456.395	80.5
456.616	88.5
456.836	102.5
457.056	89.5
457.276	83.5
457.497	103.5
457.717	75.5
457.937	80.5
458.157	81.5
458.377	90.5
458.598	103.5
458.818	142.5
459.038	151.5
459.258	110.5
459.478	97.5
459.698	99.5
459.918	107.5
460.138	91.5
460.358	90.5
460.578	83.5
460.798	100.5
461.018	97.5
461.238	92.5
461.458	90.5
461.678	90.5
461.898	92.5
462.118	65.5
462.338	88.5
462.558	83.5
462.777	86.5
462.997	94.5
463.217	81.5
463.437	100.5
463.657	88.5
463.876	89.5
464.096	88.5
464.316	101.5
464.536	87.5
464.755	99.5
464.975	112.5
465.195	175.5
465.414	153.5
465.634	92.5
465.854	86.5
466.073	76.5
466.293	87.5
466.512	91.5
466.732	92.5
466.951	91.5
467.171	106.5
467.391	88.5
467.61	96.5
467.829	106.5
468.049	124.5
468.268	133.5
468.488	102.5
468.707	93.5
468.927	93.5
469.146	92.5
469.365	81.5
469.585	84.5
469.804	86.5
470.023	99.5
470.243	110.5
470.462	99.5
470.681	109.5
470.901	87.5
471.12	81.5
471.339	83.5
471.558	85.5
471.777	76.5
471.997	115.5
472.216	165.5
472.435	252.5
472.654	147.5
472.873	95.5
473.092	92.5
473.311	86.5
473.53	74.5
473.749	83.5
473.968	92.5
474.187	87.5
474.406	94.5
474.625	99.5
474.844	99.5
475.063	88.5
475.282	94.5
475.501	79.5
475.72	89.5
475.939	101.5
476.158	87.5
476.377	86.5
476.596	90.5
476.814	102.5
477.033	83.5
477.252	88.5
477.471	84.5
477.69	88.5
477.908	92.5
478.127	111.5
478.346	81.5
478.564	102.5
478.783	99.5
479.002	99.5
479.22	104.5
479.439	114.5
479.658	110.5
479.876	96.5
480.095	104.5
480.313	103.5
480.532	100.5
480.751	108.5
480.969	166.5
481.188	391.5
481.406	281.5
481.624	117.5
481.843	105.5
482.061	86.5
482.28	87.5
482.498	89.5
482.717	91.5
482.935	84.5
483.153	87.5
483.372	96.5
483.59	98.5
483.808	101.5
484.027	97.5
484.245	79.5
484.463	94.5
484.681	95.5
484.9	116.5
485.118	102.5
485.336	99.5
485.554	97.5
485.772	106.5
485.99	90.5
486.209	104.5
486.427	86.5
486.645	115.5
486.863	126.5
487.081	83.5
487.299	73.5
487.517	82.5
487.735	96.5
487.953	103.5
488.171	95.5
488.389	92.5
488.607	110.5
488.825	87.5
489.043	95.5
489.261	98.5
489.479	72.5
489.696	86.5
489.914	85.5
490.132	95.5
490.35	85.5
490.568	84.5
490.786	86.5
491.003	94.5
491.221	118.5
491.439	92.5
491.657	95.5
491.874	88.5
492.092	87.5
492.31	76.5
492.527	96.5
492.745	93.5
492.963	100.5
493.18	104.5
493.398	106.5
493.615	103.5
493.833	100.5
494.05	98.5
494.268	98.5
494.485	77.5
494.703	99.5
494.92	91.5
495.138	99.5
495.355	92.5
495.573	96.5
495.79	89.5
496.008	93.5
496.225	81.5
496.442	92.5
496.66	112.5
496.877	96.5
497.094	98.5
497.312	101.5
497.529	101.5
497.746	95.5
497.963	97.5
498.181	105.5
498.398	102.5
498.615	100.5
498.832	99.5
499.049	98.5
499.267	96.5
499.484	87.5
499.701	101.5
499.918	86.5
500.135	83.5
500.352	96.5
500.569	88.5
500.786	103.5
501.003	83.5
501.22	79.5
501.437	90.5
501.654	89.5
501.871	103.5
502.088	100.5
502.305	87.5
502.522	103.5
502.739	92.5
502.956	87.5
503.172	92.5
503.389	108.5
503.606	104.5
503.823	115.5
504.04	95.5
504.256	96.5
504.473	86.5
504.69	94.5
504.907	89.5
505.123	80.5
505.34	86.5
505.557	95.5
505.773	88.5
505.99	93.5
506.207	108.5
506.423	98.5
506.64	93.5
506.856	90.5
507.073	85.5
507.289	95.5
507.506	101.5
507.722	105.5
507.939	94.5
508.155	88.5
508.372	91.5
508.588	101.5
508.805	109.5
509.021	88.5
509.238	106.5
509.454	100.5
509.67	101.5
509.887	117.5
510.103	136.5
510.319	201.5
510.536	699.5
510.752	2397.5
510.968	706.5
511.184	157.5
511.401	135.5
511.617	106.5
511.833	88.5
512.049	105.5
512.265	99.5
512.481	103.5
512.698	110.5
512.914	89.5
513.13	101.5
513.346	95.5
513.562	89.5
513.778	97.5
513.994	100.5
514.21	96.5
514.426	118.5
514.642	138.5
514.858	128.5
515.074	167.5
515.29	428.5
515.506	1444.5
515.721	570.5
515.937	169.5
516.153	115.5
516.369	97.5
516.585	97.5
516.801	99.5
517.016	100.5
517.232	91.5
517.448	104.5
517.664	89.5
517.879	93.5
518.095	85.5
518.311	77.5
518.527	93.5
518.742	84.5
518.958	86.5
519.173	96.5
519.389	107.5
519.605	90.5
519.82	91.5
520.036	91.5
520.251	110.5
520.467	118.5
520.682	106.5
520.898	97.5
521.113	116.5
521.329	136.5
521.544	229.5
521.76	537.5
521.975	2353.5
522.19	1505.5
522.406	320.5
522.621	141.5
522.836	101.5
523.052	116.5
523.267	92.5
523.482	107.5
523.698	92.5
523.913	115.5
524.128	100.5
524.343	82.5
524.559	93.5
524.774	94.5
524.989	80.5
525.204	110.5
525.419	111.5
525.634	92.5
525.849	101.5
526.064	86.5
526.28	84.5
526.495	93.5
526.71	100.5
526.925	105.5
527.14	97.5
527.355	103.5
527.57	91.5
527.785	89.5
527.999	104.5
528.214	90.5
528.429	89.5
528.644	87.5
528.859	90.5
529.074	99.5
529.289	112.5
529.503	185.5
529.718	123.5
529.933	88.5
530.148	97.5
530.363	94.5
530.577	110.5
530.792	94.5
531.007	90.5
531.221	111.5
531.436	90.5
531.651	101.5
531.865	95.5
532.08	81.5
532.295	77.5
532.509	91.5
532.724	89.5
532.938	72.5
533.153	94.5
533.367	94.5
533.582	83.5
533.796	90.5
534.011	94.5
534.225	104.5
