Data from Circ_2014_H10_HRD10591_00071.txt Node
Date: Wed Jan 03 10:02:23 EST 2024
User: Yrep
Spectrometer: HR+D1059
Trigger mode: 1
Integration Time (sec): 1.000000E-1
Scans to average: 1
Electric dark correction enabled: true
Nonlinearity correction enabled: false
Boxcar width: 0
XAxis mode: Wavelengths
Number of Pixels in Spectrum: 2048
>>>>>Begin Spectral Data<<<<<
223.165	-18.5
223.4	-18.5
223.635	-18.5
223.869	-18.5
224.104	-17.5
224.338	-2.5
224.573	-30.5
224.808	-8.5
225.042	-11.5
225.277	-24.5
225.511	-6.5
225.746	2.5
225.98	12.5
226.215	28.5
226.449	13.5
226.683	26.5
226.918	27.5
227.152	27.5
227.387	39.5
227.621	35.5
227.856	50.5
228.09	43.5
228.324	63.5
228.559	52.5
228.793	64.5
229.027	65.5
229.262	60.5
229.496	58.5
229.73	70.5
229.964	79.5
230.199	60.5
230.433	76.5
230.667	73.5
230.901	73.5
231.136	84.5
231.37	77.5
231.604	66.5
231.838	81.5
232.072	76.5
232.306	80.5
232.541	88.5
232.775	88.5
233.009	75.5
233.243	88.5
233.477	75.5
233.711	80.5
233.945	85.5
234.179	80.5
234.413	91.5
234.647	72.5
234.881	88.5
235.115	83.5
235.349	73.5
235.583	81.5
235.817	88.5
236.051	71.5
236.285	64.5
236.519	68.5
236.753	71.5
236.987	76.5
237.221	81.5
237.455	80.5
237.689	79.5
237.922	68.5
238.156	64.5
238.39	78.5
238.624	66.5
238.858	64.5
239.091	82.5
239.325	78.5
239.559	85.5
239.793	83.5
240.027	83.5
240.26	86.5
240.494	71.5
240.728	90.5
240.961	79.5
241.195	86.5
241.429	87.5
241.662	75.5
241.896	70.5
242.13	65.5
242.363	80.5
242.597	80.5
242.83	68.5
243.064	65.5
243.298	85.5
243.531	77.5
243.765	79.5
243.998	84.5
244.232	75.5
244.465	82.5
244.699	82.5
244.932	87.5
245.166	75.5
245.399	72.5
245.633	75.5
245.866	80.5
246.099	82.5
246.333	80.5
246.566	67.5
246.8	84.5
247.033	84.5
247.266	94.5
247.5	80.5
247.733	81.5
247.966	79.5
248.2	61.5
248.433	77.5
248.666	87.5
248.899	93.5
249.133	83.5
249.366	102.5
249.599	93.5
249.832	72.5
250.066	86.5
250.299	91.5
250.532	81.5
250.765	75.5
250.998	75.5
251.231	78.5
251.465	74.5
251.698	71.5
251.931	85.5
252.164	87.5
252.397	76.5
252.63	87.5
252.863	78.5
253.096	70.5
253.329	82.5
253.562	64.5
253.795	78.5
254.028	91.5
254.261	82.5
254.494	84.5
254.727	92.5
254.96	72.5
255.193	86.5
255.426	85.5
255.659	91.5
255.892	82.5
256.124	96.5
256.357	83.5
256.59	93.5
256.823	83.5
257.056	75.5
257.289	78.5
257.521	87.5
257.754	84.5
257.987	70.5
258.22	86.5
258.452	77.5
258.685	92.5
258.918	89.5
259.151	75.5
259.383	66.5
259.616	83.5
259.849	86.5
260.081	88.5
260.314	71.5
260.547	84.5
260.779	77.5
261.012	75.5
261.244	82.5
261.477	90.5
261.71	88.5
261.942	100.5
262.175	121.5
262.407	78.5
262.64	92.5
262.872	94.5
263.105	92.5
263.337	66.5
263.57	86.5
263.802	94.5
264.035	82.5
264.267	99.5
264.499	86.5
264.732	89.5
264.964	96.5
265.197	87.5
265.429	67.5
265.661	89.5
265.894	83.5
266.126	90.5
266.358	94.5
266.591	92.5
266.823	80.5
267.055	92.5
267.287	79.5
267.52	89.5
267.752	90.5
267.984	87.5
268.216	87.5
268.448	90.5
268.681	82.5
268.913	74.5
269.145	88.5
269.377	94.5
269.609	80.5
269.841	87.5
270.073	93.5
270.306	89.5
270.538	78.5
270.77	78.5
271.002	84.5
271.234	100.5
271.466	92.5
271.698	78.5
271.93	96.5
272.162	87.5
272.394	79.5
272.626	86.5
272.858	82.5
273.09	83.5
273.322	94.5
273.553	78.5
273.785	93.5
274.017	76.5
274.249	76.5
274.481	99.5
274.713	95.5
274.945	86.5
275.176	88.5
275.408	85.5
275.64	87.5
275.872	100.5
276.104	77.5
276.335	80.5
276.567	106.5
276.799	106.5
277.031	103.5
277.262	96.5
277.494	82.5
277.726	88.5
277.957	77.5
278.189	99.5
278.421	78.5
278.652	80.5
278.884	89.5
279.115	79.5
279.347	79.5
279.579	90.5
279.81	90.5
280.042	77.5
280.273	98.5
280.505	92.5
280.736	93.5
280.968	63.5
281.199	93.5
281.431	95.5
281.662	94.5
281.894	78.5
282.125	102.5
282.356	118.5
282.588	135.5
282.819	135.5
283.051	92.5
283.282	90.5
283.513	85.5
283.745	95.5
283.976	71.5
284.207	90.5
284.439	85.5
284.67	93.5
284.901	100.5
285.132	87.5
285.364	96.5
285.595	90.5
285.826	79.5
286.057	95.5
286.288	90.5
286.52	96.5
286.751	90.5
286.982	91.5
287.213	84.5
287.444	93.5
287.675	91.5
287.906	87.5
288.138	101.5
288.369	90.5
288.6	112.5
288.831	94.5
289.062	98.5
289.293	99.5
289.524	90.5
289.755	81.5
289.986	91.5
290.217	79.5
290.448	91.5
290.679	96.5
290.91	73.5
291.141	78.5
291.371	87.5
291.602	71.5
291.833	97.5
292.064	90.5
292.295	88.5
292.526	83.5
292.757	94.5
292.987	86.5
293.218	88.5
293.449	90.5
293.68	83.5
293.91	99.5
294.141	91.5
294.372	97.5
294.603	82.5
294.833	95.5
295.064	73.5
295.295	82.5
295.525	81.5
295.756	90.5
295.987	120.5
296.217	147.5
296.448	134.5
296.679	84.5
296.909	87.5
297.14	90.5
297.37	93.5
297.601	86.5
297.831	93.5
298.062	76.5
298.292	85.5
298.523	84.5
298.753	95.5
298.984	104.5
299.214	84.5
299.445	94.5
299.675	95.5
299.905	92.5
300.136	88.5
300.366	79.5
300.597	90.5
300.827	101.5
301.057	99.5
301.288	103.5
301.518	82.5
301.748	86.5
301.979	90.5
302.209	97.5
302.439	93.5
302.669	78.5
302.9	66.5
303.13	94.5
303.36	101.5
303.59	96.5
303.82	111.5
304.051	96.5
304.281	95.5
304.511	95.5
304.741	81.5
304.971	84.5
305.201	90.5
305.431	98.5
305.661	104.5
305.891	86.5
306.121	90.5
306.352	106.5
306.582	107.5
306.812	92.5
307.042	82.5
307.272	99.5
307.502	96.5
307.731	104.5
307.961	80.5
308.191	85.5
308.421	91.5
308.651	97.5
308.881	93.5
309.111	88.5
309.341	87.5
309.571	93.5
309.8	109.5
310.03	95.5
310.26	99.5
310.49	94.5
310.72	97.5
310.949	93.5
311.179	106.5
311.409	91.5
311.639	85.5
311.868	87.5
312.098	99.5
312.328	105.5
312.557	90.5
312.787	105.5
313.017	101.5
313.246	89.5
313.476	90.5
313.706	83.5
313.935	100.5
314.165	105.5
314.394	105.5
314.624	87.5
314.853	101.5
315.083	91.5
315.312	93.5
315.542	91.5
315.771	94.5
316.001	98.5
316.23	103.5
316.46	87.5
316.689	86.5
316.919	98.5
317.148	93.5
317.377	91.5
317.607	87.5
317.836	106.5
318.065	93.5
318.295	98.5
318.524	87.5
318.753	86.5
318.983	98.5
319.212	103.5
319.441	106.5
319.67	109.5
319.9	95.5
320.129	105.5
320.358	89.5
320.587	94.5
320.816	83.5
321.046	102.5
321.275	96.5
321.504	90.5
321.733	91.5
321.962	92.5
322.191	99.5
322.42	85.5
322.649	109.5
322.878	116.5
323.108	120.5
323.337	106.5
323.566	122.5
323.795	147.5
324.024	191.5
324.253	370.5
324.482	772.5
324.71	1550.5
324.939	2052.5
325.168	773.5
325.397	241.5
325.626	149.5
325.855	142.5
326.084	128.5
326.313	130.5
326.542	155.5
326.77	216.5
326.999	427.5
327.228	855.5
327.457	1558.5
327.686	1243.5
327.914	372.5
328.143	216.5
328.372	178.5
328.6	144.5
328.829	111.5
329.058	140.5
329.287	130.5
329.515	121.5
329.744	108.5
329.972	121.5
330.201	156.5
330.43	195.5
330.658	136.5
330.887	139.5
331.115	114.5
331.344	111.5
331.572	110.5
331.801	97.5
332.03	103.5
332.258	96.5
332.486	80.5
332.715	83.5
332.943	93.5
333.172	100.5
333.4	100.5
333.629	95.5
333.857	110.5
334.085	133.5
334.314	143.5
334.542	195.5
334.771	202.5
334.999	132.5
335.227	110.5
335.455	85.5
335.684	113.5
335.912	102.5
336.14	99.5
336.369	92.5
336.597	92.5
336.825	86.5
337.053	95.5
337.281	82.5
337.51	92.5
337.738	88.5
337.966	96.5
338.194	97.5
338.422	96.5
338.65	107.5
338.878	91.5
339.106	74.5
339.334	84.5
339.562	99.5
339.79	94.5
340.018	81.5
340.246	87.5
340.474	85.5
340.702	98.5
340.93	84.5
341.158	102.5
341.386	100.5
341.614	104.5
341.842	109.5
342.07	96.5
342.298	100.5
342.526	94.5
342.754	84.5
342.981	97.5
343.209	92.5
343.437	95.5
343.665	100.5
343.893	98.5
344.12	89.5
344.348	87.5
344.576	101.5
344.804	86.5
345.031	84.5
345.259	92.5
345.487	87.5
345.714	95.5
345.942	98.5
346.17	92.5
346.397	101.5
346.625	85.5
346.853	95.5
347.08	112.5
347.308	97.5
347.535	80.5
347.763	96.5
347.99	100.5
348.218	115.5
348.445	93.5
348.673	80.5
348.9	100.5
349.128	91.5
349.355	101.5
349.583	89.5
349.81	101.5
350.037	94.5
350.265	87.5
350.492	89.5
350.72	92.5
350.947	108.5
351.174	122.5
351.402	114.5
351.629	92.5
351.856	95.5
352.083	102.5
352.311	100.5
352.538	114.5
352.765	105.5
352.992	99.5
353.22	122.5
353.447	110.5
353.674	102.5
353.901	93.5
354.128	93.5
354.355	96.5
354.583	100.5
354.81	116.5
355.037	90.5
355.264	89.5
355.491	100.5
355.718	88.5
355.945	89.5
356.172	82.5
356.399	89.5
356.626	102.5
356.853	100.5
357.08	97.5
357.307	93.5
357.534	93.5
357.761	103.5
357.988	98.5
358.215	107.5
358.441	91.5
358.668	86.5
358.895	86.5
359.122	90.5
359.349	91.5
359.576	79.5
359.802	104.5
360.029	109.5
360.256	112.5
360.483	107.5
360.709	92.5
360.936	82.5
361.163	90.5
361.39	84.5
361.616	89.5
361.843	93.5
362.07	95.5
362.296	89.5
362.523	88.5
362.749	96.5
362.976	85.5
363.203	102.5
363.429	81.5
363.656	95.5
363.882	89.5
364.109	89.5
364.335	84.5
364.562	102.5
364.788	81.5
365.015	96.5
365.241	95.5
365.468	94.5
365.694	103.5
365.92	94.5
366.147	89.5
366.373	82.5
366.599	94.5
366.826	82.5
367.052	94.5
367.278	105.5
367.505	82.5
367.731	85.5
367.957	84.5
368.184	101.5
368.41	97.5
368.636	114.5
368.862	112.5
369.089	83.5
369.315	97.5
369.541	91.5
369.767	87.5
369.993	90.5
370.219	83.5
370.445	90.5
370.672	86.5
370.898	93.5
371.124	75.5
371.35	86.5
371.576	83.5
371.802	93.5
372.028	88.5
372.254	87.5
372.48	78.5
372.706	62.5
372.932	95.5
373.158	90.5
373.384	85.5
373.61	92.5
373.835	89.5
374.061	79.5
374.287	113.5
374.513	89.5
374.739	91.5
374.965	99.5
375.191	94.5
375.416	90.5
375.642	94.5
375.868	76.5
376.094	87.5
376.319	102.5
376.545	96.5
376.771	87.5
376.997	98.5
377.222	103.5
377.448	86.5
377.674	82.5
377.899	93.5
378.125	101.5
378.35	91.5
378.576	99.5
378.802	97.5
379.027	99.5
379.253	98.5
379.478	85.5
379.704	90.5
379.929	101.5
380.155	96.5
380.38	107.5
380.606	97.5
380.831	104.5
381.057	90.5
381.282	100.5
381.507	97.5
381.733	100.5
381.958	91.5
382.184	85.5
382.409	97.5
382.634	87.5
382.86	106.5
383.085	101.5
383.31	92.5
383.535	110.5
383.761	108.5
383.986	104.5
384.211	85.5
384.436	94.5
384.662	97.5
384.887	90.5
385.112	107.5
385.337	93.5
385.562	111.5
385.787	93.5
386.013	110.5
386.238	116.5
386.463	83.5
386.688	99.5
386.913	102.5
387.138	108.5
387.363	104.5
387.588	102.5
387.813	94.5
388.038	126.5
388.263	112.5
388.488	109.5
388.713	87.5
388.938	94.5
389.163	87.5
389.387	95.5
389.612	109.5
389.837	102.5
390.062	99.5
390.287	90.5
390.512	102.5
390.736	74.5
390.961	97.5
391.186	97.5
391.411	92.5
391.636	87.5
391.86	92.5
392.085	85.5
392.31	83.5
392.534	103.5
392.759	94.5
392.984	74.5
393.208	93.5
393.433	79.5
393.658	80.5
393.882	94.5
394.107	77.5
394.331	65.5
394.556	85.5
394.78	87.5
395.005	94.5
395.229	90.5
395.454	83.5
395.678	77.5
395.903	91.5
396.127	94.5
396.352	83.5
396.576	90.5
396.801	83.5
397.025	90.5
397.249	80.5
397.474	101.5
397.698	91.5
397.922	102.5
398.147	77.5
398.371	91.5
398.595	92.5
398.82	86.5
399.044	82.5
399.268	86.5
399.492	79.5
399.717	100.5
399.941	94.5
400.165	89.5
400.389	81.5
400.613	90.5
400.837	84.5
401.062	89.5
401.286	104.5
401.51	99.5
401.734	91.5
401.958	102.5
402.182	129.5
402.406	158.5
402.63	131.5
402.854	107.5
403.078	98.5
403.302	80.5
403.526	94.5
403.75	92.5
403.974	87.5
404.198	90.5
404.422	73.5
404.645	86.5
404.869	90.5
405.093	85.5
405.317	98.5
405.541	103.5
405.765	106.5
405.988	117.5
406.212	163.5
406.436	229.5
406.66	153.5
406.883	96.5
407.107	82.5
407.331	73.5
407.555	87.5
407.778	107.5
408.002	87.5
408.226	94.5
408.449	94.5
408.673	75.5
408.896	102.5
409.12	96.5
409.344	89.5
409.567	101.5
409.791	87.5
410.014	93.5
410.238	92.5
410.461	84.5
410.685	97.5
410.908	99.5
411.132	96.5
411.355	102.5
411.578	94.5
411.802	99.5
412.025	103.5
412.249	77.5
412.472	88.5
412.695	103.5
412.919	92.5
413.142	114.5
413.365	95.5
413.589	76.5
413.812	82.5
414.035	78.5
414.258	93.5
414.482	86.5
414.705	85.5
414.928	88.5
415.151	99.5
415.374	93.5
415.597	90.5
415.821	83.5
416.044	85.5
416.267	88.5
416.49	85.5
416.713	80.5
416.936	94.5
417.159	95.5
417.382	93.5
417.605	98.5
417.828	101.5
418.051	81.5
418.274	87.5
418.497	80.5
418.72	81.5
418.943	109.5
419.166	89.5
419.389	90.5
419.611	67.5
419.834	98.5
420.057	91.5
420.28	100.5
420.503	88.5
420.726	91.5
420.948	86.5
421.171	96.5
421.394	87.5
421.617	96.5
421.839	93.5
422.062	91.5
422.285	82.5
422.507	93.5
422.73	113.5
422.953	98.5
423.175	88.5
423.398	92.5
423.621	77.5
423.843	100.5
424.066	92.5
424.288	94.5
424.511	91.5
424.733	96.5
424.956	103.5
425.178	84.5
425.401	94.5
425.623	89.5
425.846	88.5
426.068	83.5
426.291	87.5
426.513	105.5
426.735	78.5
426.958	91.5
427.18	101.5
427.402	132.5
427.625	150.5
427.847	144.5
428.069	139.5
428.292	89.5
428.514	86.5
428.736	84.5
428.958	88.5
429.181	75.5
429.403	84.5
429.625	85.5
429.847	92.5
430.069	88.5
430.292	86.5
430.514	78.5
430.736	91.5
430.958	84.5
431.18	79.5
431.402	81.5
431.624	93.5
431.846	102.5
432.068	95.5
432.29	96.5
432.512	80.5
432.734	76.5
432.956	98.5
433.178	94.5
433.4	102.5
433.622	99.5
433.844	100.5
434.066	100.5
434.287	93.5
434.509	77.5
434.731	83.5
434.953	90.5
435.175	70.5
435.397	90.5
435.618	90.5
435.84	101.5
436.062	116.5
436.284	114.5
436.505	100.5
436.727	96.5
436.949	88.5
437.17	91.5
437.392	97.5
437.614	99.5
437.835	111.5
438.057	112.5
438.278	118.5
438.5	97.5
438.721	82.5
438.943	93.5
439.165	85.5
439.386	92.5
439.608	93.5
439.829	88.5
440.05	121.5
440.272	124.5
440.493	93.5
440.715	104.5
440.936	92.5
441.158	91.5
441.379	85.5
441.6	89.5
441.822	94.5
442.043	92.5
442.264	104.5
442.486	103.5
442.707	95.5
442.928	102.5
443.149	134.5
443.371	116.5
443.592	106.5
443.813	121.5
444.034	105.5
444.255	76.5
444.476	90.5
444.698	89.5
444.919	78.5
445.14	120.5
445.361	111.5
445.582	103.5
445.803	134.5
446.024	119.5
446.245	121.5
446.466	101.5
446.687	104.5
446.908	85.5
447.129	95.5
447.35	80.5
447.571	100.5
447.792	100.5
448.013	121.5
448.234	104.5
448.455	104.5
448.675	118.5
448.896	124.5
449.117	89.5
449.338	88.5
449.559	123.5
449.779	120.5
450	93.5
450.221	86.5
450.442	83.5
450.662	101.5
450.883	114.5
451.104	107.5
451.324	82.5
451.545	86.5
451.766	98.5
451.986	99.5
452.207	99.5
452.428	97.5
452.648	88.5
452.869	104.5
453.089	108.5
453.31	106.5
453.53	112.5
453.751	95.5
453.971	92.5
454.192	112.5
454.412	106.5
454.633	98.5
454.853	86.5
455.073	96.5
455.294	85.5
455.514	87.5
455.734	88.5
455.955	96.5
456.175	86.5
456.395	90.5
456.616	81.5
456.836	89.5
457.056	87.5
457.276	90.5
457.497	87.5
457.717	88.5
457.937	85.5
458.157	82.5
458.377	88.5
458.598	114.5
458.818	150.5
459.038	155.5
459.258	119.5
459.478	97.5
459.698	83.5
459.918	85.5
460.138	84.5
460.358	108.5
460.578	93.5
460.798	91.5
461.018	97.5
461.238	86.5
461.458	84.5
461.678	86.5
461.898	84.5
462.118	97.5
462.338	89.5
462.558	78.5
462.777	93.5
462.997	95.5
463.217	90.5
463.437	86.5
463.657	82.5
463.876	102.5
464.096	99.5
464.316	104.5
464.536	93.5
464.755	100.5
464.975	118.5
465.195	164.5
465.414	153.5
465.634	89.5
465.854	95.5
466.073	84.5
466.293	101.5
466.512	84.5
466.732	80.5
466.951	91.5
467.171	86.5
467.391	101.5
467.61	98.5
467.829	99.5
468.049	123.5
468.268	138.5
468.488	98.5
468.707	86.5
468.927	80.5
469.146	86.5
469.365	82.5
469.585	85.5
469.804	111.5
470.023	94.5
470.243	89.5
470.462	104.5
470.681	116.5
470.901	86.5
471.12	92.5
471.339	95.5
471.558	93.5
471.777	87.5
471.997	99.5
472.216	150.5
472.435	244.5
472.654	107.5
472.873	99.5
473.092	80.5
473.311	85.5
473.53	88.5
473.749	84.5
473.968	93.5
474.187	101.5
474.406	113.5
474.625	101.5
474.844	85.5
475.063	89.5
475.282	83.5
475.501	80.5
475.72	96.5
475.939	94.5
476.158	94.5
476.377	91.5
476.596	87.5
476.814	97.5
477.033	84.5
477.252	99.5
477.471	80.5
477.69	94.5
477.908	94.5
478.127	94.5
478.346	86.5
478.564	83.5
478.783	99.5
479.002	103.5
479.22	103.5
479.439	96.5
479.658	101.5
479.876	111.5
480.095	100.5
480.313	99.5
480.532	95.5
480.751	102.5
480.969	144.5
481.188	377.5
481.406	269.5
481.624	116.5
481.843	86.5
482.061	96.5
482.28	74.5
482.498	87.5
482.717	78.5
482.935	80.5
483.153	77.5
483.372	93.5
483.59	92.5
483.808	105.5
484.027	102.5
484.245	100.5
484.463	79.5
484.681	87.5
484.9	106.5
485.118	95.5
485.336	85.5
485.554	96.5
485.772	86.5
485.99	91.5
486.209	94.5
486.427	94.5
486.645	123.5
486.863	112.5
487.081	108.5
487.299	102.5
487.517	97.5
487.735	77.5
487.953	95.5
488.171	101.5
488.389	102.5
488.607	106.5
488.825	104.5
489.043	102.5
489.261	82.5
489.479	93.5
489.696	80.5
489.914	97.5
490.132	78.5
490.35	83.5
490.568	102.5
490.786	86.5
491.003	84.5
491.221	88.5
491.439	94.5
491.657	95.5
491.874	85.5
492.092	79.5
492.31	90.5
492.527	90.5
492.745	82.5
492.963	88.5
493.18	85.5
493.398	87.5
493.615	92.5
493.833	86.5
494.05	89.5
494.268	88.5
494.485	111.5
494.703	94.5
494.92	84.5
495.138	86.5
495.355	92.5
495.573	88.5
495.79	102.5
496.008	88.5
496.225	105.5
496.442	98.5
496.66	101.5
496.877	87.5
497.094	95.5
497.312	99.5
497.529	85.5
497.746	101.5
497.963	107.5
498.181	93.5
498.398	100.5
498.615	106.5
498.832	105.5
499.049	87.5
499.267	86.5
499.484	97.5
499.701	102.5
499.918	90.5
500.135	90.5
500.352	93.5
500.569	84.5
500.786	86.5
501.003	93.5
501.22	90.5
501.437	94.5
501.654	94.5
501.871	109.5
502.088	93.5
502.305	91.5
502.522	90.5
502.739	92.5
502.956	84.5
503.172	90.5
503.389	90.5
503.606	102.5
503.823	103.5
504.04	82.5
504.256	95.5
504.473	67.5
504.69	83.5
504.907	90.5
505.123	83.5
505.34	97.5
505.557	90.5
505.773	97.5
505.99	94.5
506.207	84.5
506.423	96.5
506.64	93.5
506.856	104.5
507.073	97.5
507.289	86.5
507.506	89.5
507.722	110.5
507.939	119.5
508.155	100.5
508.372	81.5
508.588	95.5
508.805	91.5
509.021	95.5
509.238	90.5
509.454	94.5
509.67	104.5
509.887	95.5
510.103	126.5
510.319	213.5
510.536	738.5
510.752	2477.5
510.968	694.5
511.184	166.5
511.401	110.5
511.617	111.5
511.833	97.5
512.049	94.5
512.265	93.5
512.481	101.5
512.698	93.5
512.914	103.5
513.13	106.5
513.346	93.5
513.562	89.5
513.778	97.5
513.994	93.5
514.21	110.5
514.426	106.5
514.642	129.5
514.858	127.5
515.074	167.5
515.29	436.5
515.506	1515.5
515.721	570.5
515.937	149.5
516.153	108.5
516.369	104.5
516.585	98.5
516.801	100.5
517.016	94.5
517.232	98.5
517.448	95.5
517.664	85.5
517.879	87.5
518.095	92.5
518.311	92.5
518.527	101.5
518.742	95.5
518.958	80.5
519.173	92.5
519.389	94.5
519.605	94.5
519.82	112.5
520.036	106.5
520.251	128.5
520.467	104.5
520.682	87.5
520.898	119.5
521.113	114.5
521.329	125.5
521.544	200.5
521.76	546.5
521.975	2455.5
522.19	1583.5
522.406	319.5
522.621	119.5
522.836	108.5
523.052	106.5
523.267	104.5
523.482	91.5
523.698	94.5
523.913	117.5
524.128	100.5
524.343	100.5
524.559	107.5
524.774	93.5
524.989	108.5
525.204	107.5
525.419	108.5
525.634	91.5
525.849	100.5
526.064	96.5
526.28	111.5
526.495	98.5
526.71	74.5
526.925	90.5
527.14	83.5
527.355	83.5
527.57	82.5
527.785	78.5
527.999	86.5
528.214	88.5
528.429	88.5
528.644	91.5
528.859	93.5
529.074	91.5
529.289	126.5
529.503	187.5
529.718	102.5
529.933	99.5
530.148	91.5
530.363	102.5
530.577	92.5
530.792	88.5
531.007	86.5
531.221	117.5
531.436	96.5
531.651	102.5
531.865	89.5
532.08	81.5
532.295	91.5
532.509	93.5
532.724	95.5
532.938	101.5
533.153	112.5
533.367	102.5
533.582	92.5
533.796	85.5
534.011	89.5
534.225	99.5
534.44	100.5
534.654	87.5
