Data from Circ_2014_H10_HRD10591_00035.txt Node
Date: Wed Jan 03 10:02:16 EST 2024
User: Yrep
Spectrometer: HR+D1059
Trigger mode: 1
Integration Time (sec): 1.000000E-1
Scans to average: 1
Electric dark correction enabled: true
Nonlinearity correction enabled: false
Boxcar width: 0
XAxis mode: Wavelengths
Number of Pixels in Spectrum: 2048
>>>>>Begin Spectral Data<<<<<
223.165	-21.38
223.4	-21.38
223.635	-21.38
223.869	-11.38
224.104	-19.38
224.338	-23.38
224.573	-19.38
224.808	-11.38
225.042	-11.38
225.277	5.62
225.511	-4.38
225.746	0.62
225.98	16.62
226.215	3.62
226.449	7.62
226.683	22.62
226.918	25.62
227.152	39.62
227.387	34.62
227.621	36.62
227.856	44.62
228.09	44.62
228.324	51.62
228.559	45.62
228.793	53.62
229.027	76.62
229.262	60.62
229.496	77.62
229.73	83.62
229.964	84.62
230.199	71.62
230.433	78.62
230.667	79.62
230.901	87.62
231.136	74.62
231.37	82.62
231.604	67.62
231.838	84.62
232.072	96.62
232.306	64.62
232.541	72.62
232.775	85.62
233.009	76.62
233.243	71.62
233.477	82.62
233.711	81.62
233.945	68.62
234.179	93.62
234.413	101.62
234.647	72.62
234.881	69.62
235.115	84.62
235.349	81.62
235.583	83.62
235.817	89.62
236.051	84.62
236.285	86.62
236.519	95.62
236.753	70.62
236.987	87.62
237.221	74.62
237.455	91.62
237.689	75.62
237.922	77.62
238.156	80.62
238.39	76.62
238.624	88.62
238.858	84.62
239.091	77.62
239.325	79.62
239.559	85.62
239.793	83.62
240.027	64.62
240.26	93.62
240.494	79.62
240.728	80.62
240.961	66.62
241.195	85.62
241.429	76.62
241.662	82.62
241.896	77.62
242.13	79.62
242.363	80.62
242.597	84.62
242.83	71.62
243.064	79.62
243.298	82.62
243.531	72.62
243.765	82.62
243.998	84.62
244.232	91.62
244.465	66.62
244.699	88.62
244.932	72.62
245.166	79.62
245.399	86.62
245.633	87.62
245.866	78.62
246.099	80.62
246.333	90.62
246.566	62.62
246.8	71.62
247.033	66.62
247.266	76.62
247.5	88.62
247.733	93.62
247.966	84.62
248.2	80.62
248.433	75.62
248.666	99.62
248.899	94.62
249.133	86.62
249.366	93.62
249.599	93.62
249.832	83.62
250.066	67.62
250.299	91.62
250.532	87.62
250.765	71.62
250.998	85.62
251.231	76.62
251.465	85.62
251.698	78.62
251.931	85.62
252.164	104.62
252.397	84.62
252.63	80.62
252.863	73.62
253.096	75.62
253.329	73.62
253.562	84.62
253.795	79.62
254.028	86.62
254.261	74.62
254.494	88.62
254.727	106.62
254.96	90.62
255.193	92.62
255.426	98.62
255.659	90.62
255.892	87.62
256.124	82.62
256.357	79.62
256.59	80.62
256.823	86.62
257.056	57.62
257.289	75.62
257.521	80.62
257.754	87.62
257.987	87.62
258.22	87.62
258.452	74.62
258.685	85.62
258.918	72.62
259.151	87.62
259.383	98.62
259.616	75.62
259.849	77.62
260.081	83.62
260.314	80.62
260.547	96.62
260.779	75.62
261.012	92.62
261.244	93.62
261.477	95.62
261.71	96.62
261.942	118.62
262.175	125.62
262.407	95.62
262.64	79.62
262.872	95.62
263.105	91.62
263.337	78.62
263.57	79.62
263.802	86.62
264.035	76.62
264.267	70.62
264.499	80.62
264.732	86.62
264.964	86.62
265.197	76.62
265.429	91.62
265.661	84.62
265.894	112.62
266.126	82.62
266.358	91.62
266.591	79.62
266.823	76.62
267.055	83.62
267.287	86.62
267.52	94.62
267.752	87.62
267.984	98.62
268.216	77.62
268.448	92.62
268.681	68.62
268.913	90.62
269.145	85.62
269.377	85.62
269.609	77.62
269.841	84.62
270.073	78.62
270.306	94.62
270.538	84.62
270.77	92.62
271.002	75.62
271.234	82.62
271.466	78.62
271.698	86.62
271.93	91.62
272.162	83.62
272.394	95.62
272.626	87.62
272.858	84.62
273.09	72.62
273.322	84.62
273.553	80.62
273.785	91.62
274.017	78.62
274.249	75.62
274.481	89.62
274.713	92.62
274.945	97.62
275.176	96.62
275.408	76.62
275.64	96.62
275.872	81.62
276.104	93.62
276.335	103.62
276.567	109.62
276.799	125.62
277.031	100.62
277.262	88.62
277.494	91.62
277.726	88.62
277.957	80.62
278.189	86.62
278.421	76.62
278.652	80.62
278.884	77.62
279.115	86.62
279.347	95.62
279.579	71.62
279.81	87.62
280.042	94.62
280.273	82.62
280.505	95.62
280.736	89.62
280.968	92.62
281.199	72.62
281.431	93.62
281.662	91.62
281.894	82.62
282.125	94.62
282.356	136.62
282.588	141.62
282.819	117.62
283.051	80.62
283.282	87.62
283.513	80.62
283.745	75.62
283.976	74.62
284.207	78.62
284.439	88.62
284.67	87.62
284.901	72.62
285.132	95.62
285.364	95.62
285.595	95.62
285.826	89.62
286.057	97.62
286.288	86.62
286.52	85.62
286.751	80.62
286.982	61.62
287.213	103.62
287.444	98.62
287.675	92.62
287.906	100.62
288.138	92.62
288.369	85.62
288.6	83.62
288.831	84.62
289.062	80.62
289.293	97.62
289.524	100.62
289.755	98.62
289.986	75.62
290.217	93.62
290.448	96.62
290.679	91.62
290.91	81.62
291.141	96.62
291.371	94.62
291.602	100.62
291.833	90.62
292.064	88.62
292.295	89.62
292.526	89.62
292.757	83.62
292.987	91.62
293.218	83.62
293.449	89.62
293.68	103.62
293.91	94.62
294.141	76.62
294.372	76.62
294.603	85.62
294.833	78.62
295.064	88.62
295.295	83.62
295.525	96.62
295.756	99.62
295.987	130.62
296.217	138.62
296.448	128.62
296.679	94.62
296.909	100.62
297.14	102.62
297.37	87.62
297.601	88.62
297.831	81.62
298.062	95.62
298.292	80.62
298.523	91.62
298.753	86.62
298.984	84.62
299.214	83.62
299.445	104.62
299.675	107.62
299.905	99.62
300.136	91.62
300.366	98.62
300.597	91.62
300.827	100.62
301.057	102.62
301.288	92.62
301.518	94.62
301.748	75.62
301.979	90.62
302.209	95.62
302.439	103.62
302.669	89.62
302.9	101.62
303.13	100.62
303.36	104.62
303.59	104.62
303.82	129.62
304.051	92.62
304.281	95.62
304.511	82.62
304.741	73.62
304.971	98.62
305.201	98.62
305.431	87.62
305.661	107.62
305.891	106.62
306.121	112.62
306.352	99.62
306.582	100.62
306.812	85.62
307.042	80.62
307.272	94.62
307.502	90.62
307.731	86.62
307.961	97.62
308.191	78.62
308.421	96.62
308.651	94.62
308.881	91.62
309.111	94.62
309.341	105.62
309.571	97.62
309.8	90.62
310.03	109.62
310.26	97.62
310.49	102.62
310.72	104.62
310.949	104.62
311.179	103.62
311.409	108.62
311.639	102.62
311.868	96.62
312.098	101.62
312.328	103.62
312.557	91.62
312.787	95.62
313.017	109.62
313.246	100.62
313.476	102.62
313.706	99.62
313.935	104.62
314.165	98.62
314.394	111.62
314.624	99.62
314.853	87.62
315.083	90.62
315.312	78.62
315.542	86.62
315.771	88.62
316.001	92.62
316.23	95.62
316.46	86.62
316.689	88.62
316.919	82.62
317.148	97.62
317.377	103.62
317.607	95.62
317.836	92.62
318.065	83.62
318.295	86.62
318.524	92.62
318.753	93.62
318.983	116.62
319.212	109.62
319.441	103.62
319.67	99.62
319.9	79.62
320.129	95.62
320.358	105.62
320.587	92.62
320.816	103.62
321.046	106.62
321.275	98.62
321.504	88.62
321.733	96.62
321.962	108.62
322.191	94.62
322.42	107.62
322.649	117.62
322.878	120.62
323.108	129.62
323.337	133.62
323.566	138.62
323.795	162.62
324.024	206.62
324.253	415.62
324.482	932.62
324.71	1901.62
324.939	2496.62
325.168	948.62
325.397	264.62
325.626	168.62
325.855	140.62
326.084	131.62
326.313	131.62
326.542	160.62
326.77	239.62
326.999	498.62
327.228	1005.62
327.457	1899.62
327.686	1510.62
327.914	392.62
328.143	189.62
328.372	168.62
328.6	153.62
328.829	130.62
329.058	121.62
329.287	139.62
329.515	111.62
329.744	104.62
329.972	110.62
330.201	127.62
330.43	136.62
330.658	131.62
330.887	157.62
331.115	143.62
331.344	104.62
331.572	100.62
331.801	100.62
332.03	96.62
332.258	91.62
332.486	95.62
332.715	103.62
332.943	104.62
333.172	96.62
333.4	102.62
333.629	85.62
333.857	111.62
334.085	128.62
334.314	112.62
334.542	142.62
334.771	128.62
334.999	103.62
335.227	89.62
335.455	98.62
335.684	94.62
335.912	97.62
336.14	110.62
336.369	101.62
336.597	99.62
336.825	111.62
337.053	80.62
337.281	78.62
337.51	88.62
337.738	86.62
337.966	88.62
338.194	108.62
338.422	96.62
338.65	107.62
338.878	106.62
339.106	86.62
339.334	88.62
339.562	88.62
339.79	96.62
340.018	98.62
340.246	89.62
340.474	89.62
340.702	93.62
340.93	103.62
341.158	88.62
341.386	104.62
341.614	105.62
341.842	99.62
342.07	100.62
342.298	91.62
342.526	80.62
342.754	96.62
342.981	94.62
343.209	83.62
343.437	99.62
343.665	84.62
343.893	89.62
344.12	98.62
344.348	87.62
344.576	86.62
344.804	96.62
345.031	90.62
345.259	93.62
345.487	93.62
345.714	105.62
345.942	78.62
346.17	82.62
346.397	82.62
346.625	93.62
346.853	91.62
347.08	87.62
347.308	115.62
347.535	105.62
347.763	93.62
347.99	95.62
348.218	95.62
348.445	106.62
348.673	102.62
348.9	95.62
349.128	87.62
349.355	86.62
349.583	92.62
349.81	99.62
350.037	99.62
350.265	85.62
350.492	92.62
350.72	90.62
350.947	99.62
351.174	110.62
351.402	99.62
351.629	91.62
351.856	99.62
352.083	110.62
352.311	102.62
352.538	108.62
352.765	100.62
352.992	131.62
353.22	116.62
353.447	103.62
353.674	101.62
353.901	95.62
354.128	93.62
354.355	102.62
354.583	98.62
354.81	107.62
355.037	110.62
355.264	99.62
355.491	102.62
355.718	101.62
355.945	107.62
356.172	103.62
356.399	99.62
356.626	94.62
356.853	95.62
357.08	90.62
357.307	94.62
357.534	96.62
357.761	100.62
357.988	107.62
358.215	89.62
358.441	99.62
358.668	111.62
358.895	87.62
359.122	95.62
359.349	100.62
359.576	103.62
359.802	101.62
360.029	104.62
360.256	131.62
360.483	105.62
360.709	78.62
360.936	94.62
361.163	88.62
361.39	105.62
361.616	102.62
361.843	106.62
362.07	90.62
362.296	96.62
362.523	96.62
362.749	98.62
362.976	92.62
363.203	87.62
363.429	85.62
363.656	77.62
363.882	98.62
364.109	94.62
364.335	84.62
364.562	87.62
364.788	97.62
365.015	99.62
365.241	91.62
365.468	118.62
365.694	111.62
365.92	99.62
366.147	98.62
366.373	108.62
366.599	86.62
366.826	97.62
367.052	83.62
367.278	89.62
367.505	83.62
367.731	96.62
367.957	99.62
368.184	91.62
368.41	117.62
368.636	103.62
368.862	130.62
369.089	120.62
369.315	90.62
369.541	93.62
369.767	90.62
369.993	90.62
370.219	90.62
370.445	94.62
370.672	80.62
370.898	80.62
371.124	82.62
371.35	88.62
371.576	86.62
371.802	79.62
372.028	76.62
372.254	83.62
372.48	90.62
372.706	83.62
372.932	82.62
373.158	78.62
373.384	93.62
373.61	82.62
373.835	98.62
374.061	81.62
374.287	95.62
374.513	85.62
374.739	98.62
374.965	89.62
375.191	92.62
375.416	84.62
375.642	88.62
375.868	105.62
376.094	94.62
376.319	90.62
376.545	93.62
376.771	104.62
376.997	76.62
377.222	93.62
377.448	87.62
377.674	84.62
377.899	106.62
378.125	98.62
378.35	100.62
378.576	76.62
378.802	80.62
379.027	87.62
379.253	103.62
379.478	98.62
379.704	103.62
379.929	91.62
380.155	94.62
380.38	104.62
380.606	106.62
380.831	102.62
381.057	102.62
381.282	104.62
381.507	88.62
381.733	101.62
381.958	95.62
382.184	94.62
382.409	101.62
382.634	100.62
382.86	104.62
383.085	93.62
383.31	109.62
383.535	102.62
383.761	95.62
383.986	98.62
384.211	99.62
384.436	103.62
384.662	95.62
384.887	111.62
385.112	114.62
385.337	104.62
385.562	105.62
385.787	104.62
386.013	114.62
386.238	134.62
386.463	99.62
386.688	106.62
386.913	95.62
387.138	107.62
387.363	104.62
387.588	87.62
387.813	103.62
388.038	102.62
388.263	124.62
388.488	114.62
388.713	89.62
388.938	89.62
389.163	100.62
389.387	92.62
389.612	91.62
389.837	71.62
390.062	101.62
390.287	86.62
390.512	95.62
390.736	86.62
390.961	110.62
391.186	99.62
391.411	102.62
391.636	93.62
391.86	93.62
392.085	87.62
392.31	85.62
392.534	78.62
392.759	80.62
392.984	92.62
393.208	86.62
393.433	99.62
393.658	79.62
393.882	88.62
394.107	85.62
394.331	79.62
394.556	88.62
394.78	90.62
395.005	96.62
395.229	97.62
395.454	80.62
395.678	84.62
395.903	92.62
396.127	84.62
396.352	74.62
396.576	85.62
396.801	95.62
397.025	81.62
397.249	77.62
397.474	95.62
397.698	82.62
397.922	72.62
398.147	89.62
398.371	80.62
398.595	70.62
398.82	81.62
399.044	87.62
399.268	79.62
399.492	94.62
399.717	81.62
399.941	83.62
400.165	96.62
400.389	89.62
400.613	80.62
400.837	93.62
401.062	91.62
401.286	86.62
401.51	94.62
401.734	96.62
401.958	87.62
402.182	130.62
402.406	182.62
402.63	133.62
402.854	86.62
403.078	91.62
403.302	80.62
403.526	84.62
403.75	79.62
403.974	78.62
404.198	83.62
404.422	92.62
404.645	98.62
404.869	91.62
405.093	102.62
405.317	100.62
405.541	103.62
405.765	111.62
405.988	116.62
406.212	186.62
406.436	258.62
406.66	163.62
406.883	107.62
407.107	98.62
407.331	90.62
407.555	100.62
407.778	91.62
408.002	87.62
408.226	92.62
408.449	100.62
408.673	103.62
408.896	100.62
409.12	101.62
409.344	103.62
409.567	85.62
409.791	92.62
410.014	91.62
410.238	101.62
410.461	95.62
410.685	94.62
410.908	108.62
411.132	96.62
411.355	101.62
411.578	99.62
411.802	94.62
412.025	84.62
412.249	89.62
412.472	99.62
412.695	101.62
412.919	80.62
413.142	89.62
413.365	101.62
413.589	94.62
413.812	96.62
414.035	83.62
414.258	84.62
414.482	79.62
414.705	101.62
414.928	93.62
415.151	97.62
415.374	92.62
415.597	94.62
415.821	90.62
416.044	95.62
416.267	91.62
416.49	93.62
416.713	98.62
416.936	104.62
417.159	90.62
417.382	95.62
417.605	101.62
417.828	107.62
418.051	95.62
418.274	95.62
418.497	75.62
418.72	91.62
418.943	93.62
419.166	87.62
419.389	83.62
419.611	80.62
419.834	84.62
420.057	90.62
420.28	100.62
420.503	84.62
420.726	93.62
420.948	92.62
421.171	94.62
421.394	108.62
421.617	100.62
421.839	101.62
422.062	90.62
422.285	101.62
422.507	114.62
422.73	90.62
422.953	103.62
423.175	81.62
423.398	86.62
423.621	92.62
423.843	79.62
424.066	77.62
424.288	79.62
424.511	88.62
424.733	101.62
424.956	122.62
425.178	104.62
425.401	109.62
425.623	125.62
425.846	93.62
426.068	101.62
426.291	89.62
426.513	88.62
426.735	82.62
426.958	114.62
427.18	99.62
427.402	136.62
427.625	181.62
427.847	145.62
428.069	112.62
428.292	92.62
428.514	82.62
428.736	81.62
428.958	92.62
429.181	92.62
429.403	92.62
429.625	93.62
429.847	97.62
430.069	97.62
430.292	101.62
430.514	87.62
430.736	84.62
430.958	80.62
431.18	80.62
431.402	80.62
431.624	86.62
431.846	95.62
432.068	83.62
432.29	100.62
432.512	80.62
432.734	96.62
432.956	100.62
433.178	95.62
433.4	96.62
433.622	97.62
433.844	87.62
434.066	97.62
434.287	94.62
434.509	94.62
434.731	96.62
434.953	84.62
435.175	84.62
435.397	86.62
435.618	91.62
435.84	95.62
436.062	135.62
436.284	123.62
436.505	100.62
436.727	103.62
436.949	109.62
437.17	98.62
437.392	97.62
437.614	93.62
437.835	115.62
438.057	128.62
438.278	100.62
438.5	103.62
438.721	130.62
438.943	106.62
439.165	87.62
439.386	101.62
439.608	93.62
439.829	84.62
440.05	126.62
440.272	154.62
440.493	105.62
440.715	88.62
440.936	97.62
441.158	91.62
441.379	80.62
441.6	89.62
441.822	98.62
442.043	112.62
442.264	112.62
442.486	102.62
442.707	107.62
442.928	115.62
443.149	144.62
443.371	144.62
443.592	118.62
443.813	116.62
444.034	111.62
444.255	101.62
444.476	90.62
444.698	93.62
444.919	96.62
445.14	148.62
445.361	134.62
445.582	118.62
445.803	146.62
446.024	150.62
446.245	146.62
446.466	119.62
446.687	97.62
446.908	90.62
447.129	105.62
447.35	85.62
447.571	91.62
447.792	107.62
448.013	111.62
448.234	115.62
448.455	116.62
448.675	103.62
448.896	115.62
449.117	95.62
449.338	94.62
449.559	152.62
449.779	132.62
450	103.62
450.221	84.62
450.442	93.62
450.662	102.62
450.883	101.62
451.104	112.62
451.324	93.62
451.545	101.62
451.766	84.62
451.986	88.62
452.207	91.62
452.428	86.62
452.648	102.62
452.869	114.62
453.089	116.62
453.31	136.62
453.53	90.62
453.751	88.62
453.971	102.62
454.192	106.62
454.412	103.62
454.633	90.62
454.853	94.62
455.073	103.62
455.294	76.62
455.514	95.62
455.734	99.62
455.955	97.62
456.175	85.62
456.395	88.62
456.616	86.62
456.836	99.62
457.056	107.62
457.276	94.62
457.497	92.62
457.717	84.62
457.937	82.62
458.157	99.62
458.377	97.62
458.598	107.62
458.818	160.62
459.038	188.62
459.258	122.62
459.478	85.62
459.698	89.62
459.918	90.62
460.138	109.62
460.358	106.62
460.578	87.62
460.798	87.62
461.018	94.62
461.238	75.62
461.458	79.62
461.678	90.62
461.898	83.62
462.118	95.62
462.338	77.62
462.558	82.62
462.777	91.62
462.997	84.62
463.217	79.62
463.437	97.62
463.657	103.62
463.876	79.62
464.096	92.62
464.316	92.62
464.536	91.62
464.755	98.62
464.975	109.62
465.195	192.62
465.414	182.62
465.634	91.62
465.854	89.62
466.073	92.62
466.293	66.62
466.512	84.62
466.732	91.62
466.951	95.62
467.171	84.62
467.391	78.62
467.61	114.62
467.829	88.62
468.049	95.62
468.268	110.62
468.488	99.62
468.707	89.62
468.927	90.62
469.146	76.62
469.365	95.62
469.585	96.62
469.804	98.62
470.023	108.62
470.243	93.62
470.462	105.62
470.681	119.62
470.901	99.62
471.12	84.62
471.339	101.62
471.558	98.62
471.777	95.62
471.997	99.62
472.216	111.62
472.435	148.62
472.654	95.62
472.873	106.62
473.092	102.62
473.311	90.62
473.53	89.62
473.749	92.62
473.968	104.62
474.187	92.62
474.406	87.62
474.625	94.62
474.844	78.62
475.063	83.62
475.282	91.62
475.501	91.62
475.72	90.62
475.939	93.62
476.158	90.62
476.377	100.62
476.596	84.62
476.814	90.62
477.033	99.62
477.252	105.62
477.471	92.62
477.69	82.62
477.908	85.62
478.127	92.62
478.346	77.62
478.564	78.62
478.783	83.62
479.002	95.62
479.22	101.62
479.439	88.62
479.658	101.62
479.876	105.62
480.095	92.62
480.313	102.62
480.532	103.62
480.751	77.62
480.969	100.62
481.188	185.62
481.406	145.62
481.624	98.62
481.843	83.62
482.061	101.62
482.28	92.62
482.498	79.62
482.717	86.62
482.935	99.62
483.153	78.62
483.372	80.62
483.59	83.62
483.808	82.62
484.027	95.62
484.245	93.62
484.463	100.62
484.681	110.62
484.9	100.62
485.118	104.62
485.336	78.62
485.554	99.62
485.772	85.62
485.99	111.62
486.209	91.62
486.427	107.62
486.645	115.62
486.863	108.62
487.081	100.62
487.299	112.62
487.517	107.62
487.735	95.62
487.953	83.62
488.171	103.62
488.389	94.62
488.607	100.62
488.825	91.62
489.043	89.62
489.261	92.62
489.479	80.62
489.696	82.62
489.914	84.62
490.132	104.62
490.35	98.62
490.568	99.62
490.786	89.62
491.003	83.62
491.221	82.62
491.439	102.62
491.657	83.62
491.874	96.62
492.092	94.62
492.31	89.62
492.527	91.62
492.745	81.62
492.963	88.62
493.18	84.62
493.398	96.62
493.615	100.62
493.833	106.62
494.05	100.62
494.268	95.62
494.485	74.62
494.703	102.62
494.92	75.62
495.138	91.62
495.355	82.62
495.573	94.62
495.79	79.62
496.008	84.62
496.225	101.62
496.442	96.62
496.66	96.62
496.877	94.62
497.094	96.62
497.312	88.62
497.529	98.62
497.746	91.62
497.963	92.62
498.181	85.62
498.398	85.62
498.615	111.62
498.832	107.62
499.049	83.62
499.267	99.62
499.484	94.62
499.701	93.62
499.918	82.62
500.135	78.62
500.352	96.62
500.569	85.62
500.786	90.62
501.003	95.62
501.22	83.62
501.437	87.62
501.654	99.62
501.871	112.62
502.088	96.62
502.305	83.62
502.522	83.62
502.739	86.62
502.956	94.62
503.172	90.62
503.389	104.62
503.606	108.62
503.823	111.62
504.04	90.62
504.256	88.62
504.473	102.62
504.69	91.62
504.907	98.62
505.123	89.62
505.34	87.62
505.557	95.62
505.773	86.62
505.99	100.62
506.207	98.62
506.423	105.62
506.64	96.62
506.856	90.62
507.073	87.62
507.289	84.62
507.506	103.62
507.722	119.62
507.939	110.62
508.155	99.62
508.372	95.62
508.588	111.62
508.805	107.62
509.021	99.62
509.238	91.62
509.454	99.62
509.67	98.62
509.887	110.62
510.103	153.62
510.319	250.62
510.536	896.62
510.752	3039.62
510.968	858.62
511.184	194.62
511.401	119.62
511.617	104.62
511.833	79.62
512.049	97.62
512.265	124.62
512.481	96.62
512.698	92.62
512.914	91.62
513.13	94.62
513.346	98.62
513.562	100.62
513.778	104.62
513.994	101.62
514.21	104.62
514.426	123.62
514.642	153.62
