Data from Circ_2014_H10_HRD10591_00003.txt Node
Date: Wed Jan 03 10:02:09 EST 2024
User: Yrep
Spectrometer: HR+D1059
Trigger mode: 1
Integration Time (sec): 1.000000E-1
Scans to average: 1
Electric dark correction enabled: true
Nonlinearity correction enabled: false
Boxcar width: 0
XAxis mode: Wavelengths
Number of Pixels in Spectrum: 2048
>>>>>Begin Spectral Data<<<<<
223.165	-21.38
223.4	-21.38
223.635	-21.38
223.869	-21.38
224.104	-22.38
224.338	-6.38
224.573	-14.38
224.808	-2.38
225.042	-15.38
225.277	-3.38
225.511	5.62
225.746	2.62
225.98	6.62
226.215	-0.38
226.449	22.62
226.683	17.62
226.918	22.62
227.152	29.62
227.387	38.62
227.621	32.62
227.856	33.62
228.09	45.62
228.324	43.62
228.559	66.62
228.793	70.62
229.027	60.62
229.262	75.62
229.496	77.62
229.73	93.62
229.964	94.62
230.199	73.62
230.433	66.62
230.667	73.62
230.901	86.62
231.136	75.62
231.37	86.62
231.604	74.62
231.838	83.62
232.072	78.62
232.306	90.62
232.541	73.62
232.775	90.62
233.009	84.62
233.243	82.62
233.477	84.62
233.711	96.62
233.945	76.62
234.179	82.62
234.413	80.62
234.647	92.62
234.881	76.62
235.115	91.62
235.349	87.62
235.583	79.62
235.817	86.62
236.051	88.62
236.285	77.62
236.519	70.62
236.753	78.62
236.987	80.62
237.221	81.62
237.455	95.62
237.689	75.62
237.922	71.62
238.156	77.62
238.39	94.62
238.624	93.62
238.858	74.62
239.091	85.62
239.325	70.62
239.559	82.62
239.793	91.62
240.027	86.62
240.26	81.62
240.494	69.62
240.728	83.62
240.961	81.62
241.195	88.62
241.429	83.62
241.662	90.62
241.896	93.62
242.13	76.62
242.363	78.62
242.597	72.62
242.83	79.62
243.064	82.62
243.298	79.62
243.531	84.62
243.765	93.62
243.998	94.62
244.232	74.62
244.465	95.62
244.699	76.62
244.932	68.62
245.166	75.62
245.399	79.62
245.633	86.62
245.866	83.62
246.099	69.62
246.333	74.62
246.566	70.62
246.8	82.62
247.033	76.62
247.266	80.62
247.5	78.62
247.733	78.62
247.966	71.62
248.2	87.62
248.433	72.62
248.666	78.62
248.899	77.62
249.133	102.62
249.366	81.62
249.599	94.62
249.832	95.62
250.066	79.62
250.299	86.62
250.532	74.62
250.765	84.62
250.998	75.62
251.231	78.62
251.465	80.62
251.698	88.62
251.931	101.62
252.164	76.62
252.397	83.62
252.63	71.62
252.863	91.62
253.096	73.62
253.329	67.62
253.562	80.62
253.795	84.62
254.028	80.62
254.261	97.62
254.494	78.62
254.727	79.62
254.96	82.62
255.193	80.62
255.426	77.62
255.659	93.62
255.892	77.62
256.124	85.62
256.357	77.62
256.59	80.62
256.823	74.62
257.056	81.62
257.289	76.62
257.521	86.62
257.754	72.62
257.987	82.62
258.22	74.62
258.452	73.62
258.685	87.62
258.918	90.62
259.151	86.62
259.383	88.62
259.616	88.62
259.849	78.62
260.081	64.62
260.314	74.62
260.547	90.62
260.779	89.62
261.012	86.62
261.244	93.62
261.477	95.62
261.71	109.62
261.942	119.62
262.175	130.62
262.407	105.62
262.64	81.62
262.872	93.62
263.105	95.62
263.337	95.62
263.57	90.62
263.802	84.62
264.035	87.62
264.267	81.62
264.499	69.62
264.732	84.62
264.964	87.62
265.197	80.62
265.429	87.62
265.661	85.62
265.894	78.62
266.126	73.62
266.358	84.62
266.591	90.62
266.823	91.62
267.055	67.62
267.287	86.62
267.52	81.62
267.752	90.62
267.984	90.62
268.216	80.62
268.448	71.62
268.681	74.62
268.913	82.62
269.145	76.62
269.377	79.62
269.609	89.62
269.841	84.62
270.073	102.62
270.306	77.62
270.538	84.62
270.77	82.62
271.002	79.62
271.234	87.62
271.466	97.62
271.698	95.62
271.93	90.62
272.162	86.62
272.394	80.62
272.626	79.62
272.858	72.62
273.09	91.62
273.322	92.62
273.553	75.62
273.785	88.62
274.017	86.62
274.249	83.62
274.481	92.62
274.713	86.62
274.945	84.62
275.176	74.62
275.408	86.62
275.64	99.62
275.872	84.62
276.104	88.62
276.335	89.62
276.567	99.62
276.799	110.62
277.031	110.62
277.262	96.62
277.494	98.62
277.726	94.62
277.957	76.62
278.189	89.62
278.421	84.62
278.652	93.62
278.884	79.62
279.115	101.62
279.347	90.62
279.579	85.62
279.81	94.62
280.042	86.62
280.273	87.62
280.505	103.62
280.736	89.62
280.968	79.62
281.199	78.62
281.431	89.62
281.662	82.62
281.894	93.62
282.125	95.62
282.356	134.62
282.588	170.62
282.819	135.62
283.051	93.62
283.282	75.62
283.513	92.62
283.745	80.62
283.976	93.62
284.207	75.62
284.439	75.62
284.67	80.62
284.901	94.62
285.132	95.62
285.364	88.62
285.595	76.62
285.826	88.62
286.057	91.62
286.288	85.62
286.52	71.62
286.751	88.62
286.982	92.62
287.213	87.62
287.444	95.62
287.675	80.62
287.906	85.62
288.138	100.62
288.369	95.62
288.6	102.62
288.831	94.62
289.062	88.62
289.293	89.62
289.524	80.62
289.755	93.62
289.986	97.62
290.217	94.62
290.448	87.62
290.679	101.62
290.91	89.62
291.141	96.62
291.371	91.62
291.602	95.62
291.833	93.62
292.064	91.62
292.295	89.62
292.526	100.62
292.757	82.62
292.987	87.62
293.218	96.62
293.449	82.62
293.68	94.62
293.91	87.62
294.141	100.62
294.372	95.62
294.603	85.62
294.833	96.62
295.064	90.62
295.295	105.62
295.525	105.62
295.756	102.62
295.987	127.62
296.217	154.62
296.448	136.62
296.679	99.62
296.909	75.62
297.14	94.62
297.37	86.62
297.601	91.62
297.831	83.62
298.062	93.62
298.292	90.62
298.523	92.62
298.753	94.62
298.984	97.62
299.214	97.62
299.445	86.62
299.675	106.62
299.905	95.62
300.136	97.62
300.366	103.62
300.597	98.62
300.827	90.62
301.057	105.62
301.288	115.62
301.518	109.62
301.748	92.62
301.979	88.62
302.209	92.62
302.439	96.62
302.669	85.62
302.9	101.62
303.13	88.62
303.36	94.62
303.59	102.62
303.82	103.62
304.051	94.62
304.281	96.62
304.511	93.62
304.741	95.62
304.971	87.62
305.201	98.62
305.431	85.62
305.661	91.62
305.891	97.62
306.121	120.62
306.352	114.62
306.582	125.62
306.812	95.62
307.042	93.62
307.272	87.62
307.502	95.62
307.731	100.62
307.961	99.62
308.191	87.62
308.421	88.62
308.651	83.62
308.881	89.62
309.111	83.62
309.341	99.62
309.571	94.62
309.8	82.62
310.03	97.62
310.26	91.62
310.49	101.62
310.72	98.62
310.949	104.62
311.179	106.62
311.409	92.62
311.639	97.62
311.868	107.62
312.098	107.62
312.328	88.62
312.557	103.62
312.787	114.62
313.017	100.62
313.246	87.62
313.476	101.62
313.706	97.62
313.935	98.62
314.165	101.62
314.394	116.62
314.624	108.62
314.853	104.62
315.083	73.62
315.312	96.62
315.542	91.62
315.771	99.62
316.001	90.62
316.23	80.62
316.46	96.62
316.689	103.62
316.919	90.62
317.148	109.62
317.377	99.62
317.607	93.62
317.836	114.62
318.065	97.62
318.295	84.62
318.524	98.62
318.753	95.62
318.983	117.62
319.212	106.62
319.441	138.62
319.67	117.62
319.9	95.62
320.129	90.62
320.358	88.62
320.587	87.62
320.816	116.62
321.046	94.62
321.275	110.62
321.504	88.62
321.733	83.62
321.962	111.62
322.191	98.62
322.42	102.62
322.649	119.62
322.878	124.62
323.108	119.62
323.337	146.62
323.566	134.62
323.795	164.62
324.024	257.62
324.253	502.62
324.482	1113.62
324.71	2230.62
324.939	2954.62
325.168	1088.62
325.397	295.62
325.626	184.62
325.855	151.62
326.084	147.62
326.313	156.62
326.542	186.62
326.77	276.62
326.999	580.62
327.228	1206.62
327.457	2235.62
327.686	1752.62
327.914	463.62
328.143	233.62
328.372	170.62
328.6	137.62
328.829	131.62
329.058	155.62
329.287	159.62
329.515	122.62
329.744	104.62
329.972	93.62
330.201	107.62
330.43	120.62
330.658	145.62
330.887	163.62
331.115	135.62
331.344	119.62
331.572	89.62
331.801	105.62
332.03	123.62
332.258	101.62
332.486	104.62
332.715	108.62
332.943	106.62
333.172	92.62
333.4	99.62
333.629	103.62
333.857	123.62
334.085	103.62
334.314	91.62
334.542	101.62
334.771	98.62
334.999	95.62
335.227	98.62
335.455	105.62
335.684	109.62
335.912	99.62
336.14	90.62
336.369	101.62
336.597	112.62
336.825	112.62
337.053	92.62
337.281	92.62
337.51	92.62
337.738	85.62
337.966	107.62
338.194	110.62
338.422	102.62
338.65	104.62
338.878	110.62
339.106	80.62
339.334	87.62
339.562	86.62
339.79	93.62
340.018	97.62
340.246	104.62
340.474	99.62
340.702	91.62
340.93	91.62
341.158	101.62
341.386	100.62
341.614	112.62
341.842	85.62
342.07	106.62
342.298	82.62
342.526	84.62
342.754	86.62
342.981	91.62
343.209	102.62
343.437	94.62
343.665	84.62
343.893	94.62
344.12	100.62
344.348	98.62
344.576	100.62
344.804	98.62
345.031	110.62
345.259	102.62
345.487	110.62
345.714	111.62
345.942	88.62
346.17	83.62
346.397	98.62
346.625	107.62
346.853	110.62
347.08	92.62
347.308	105.62
347.535	96.62
347.763	99.62
347.99	125.62
348.218	110.62
348.445	133.62
348.673	106.62
348.9	110.62
349.128	102.62
349.355	82.62
349.583	103.62
349.81	106.62
350.037	92.62
350.265	109.62
350.492	99.62
350.72	103.62
350.947	120.62
351.174	114.62
351.402	105.62
351.629	111.62
351.856	99.62
352.083	118.62
352.311	104.62
352.538	107.62
352.765	122.62
352.992	117.62
353.22	106.62
353.447	100.62
353.674	87.62
353.901	101.62
354.128	105.62
354.355	107.62
354.583	95.62
354.81	86.62
355.037	100.62
355.264	101.62
355.491	107.62
355.718	103.62
355.945	94.62
356.172	99.62
356.399	84.62
356.626	87.62
356.853	88.62
357.08	79.62
357.307	92.62
357.534	79.62
357.761	95.62
357.988	106.62
358.215	102.62
358.441	106.62
358.668	111.62
358.895	99.62
359.122	84.62
359.349	96.62
359.576	104.62
359.802	109.62
360.029	136.62
360.256	136.62
360.483	105.62
360.709	91.62
360.936	90.62
361.163	99.62
361.39	101.62
361.616	110.62
361.843	85.62
362.07	94.62
362.296	93.62
362.523	90.62
362.749	107.62
362.976	94.62
363.203	92.62
363.429	106.62
363.656	86.62
363.882	100.62
364.109	93.62
364.335	89.62
364.562	105.62
364.788	79.62
365.015	93.62
365.241	106.62
365.468	133.62
365.694	116.62
365.92	115.62
366.147	92.62
366.373	84.62
366.599	87.62
366.826	94.62
367.052	106.62
367.278	101.62
367.505	89.62
367.731	96.62
367.957	99.62
368.184	88.62
368.41	103.62
368.636	108.62
368.862	145.62
369.089	127.62
369.315	98.62
369.541	91.62
369.767	108.62
369.993	104.62
370.219	93.62
370.445	102.62
370.672	90.62
370.898	94.62
371.124	82.62
371.35	92.62
371.576	89.62
371.802	96.62
372.028	95.62
372.254	102.62
372.48	82.62
372.706	85.62
372.932	92.62
373.158	93.62
373.384	87.62
373.61	94.62
373.835	88.62
374.061	101.62
374.287	93.62
374.513	98.62
374.739	99.62
374.965	90.62
375.191	83.62
375.416	93.62
375.642	95.62
375.868	109.62
376.094	92.62
376.319	92.62
376.545	89.62
376.771	95.62
376.997	83.62
377.222	87.62
377.448	100.62
377.674	101.62
377.899	106.62
378.125	92.62
378.35	86.62
378.576	90.62
378.802	96.62
379.027	89.62
379.253	111.62
379.478	93.62
379.704	102.62
379.929	97.62
380.155	96.62
380.38	102.62
380.606	95.62
380.831	106.62
381.057	104.62
381.282	101.62
381.507	104.62
381.733	94.62
381.958	91.62
382.184	95.62
382.409	111.62
382.634	113.62
382.86	105.62
383.085	102.62
383.31	94.62
383.535	108.62
383.761	108.62
383.986	107.62
384.211	104.62
384.436	130.62
384.662	114.62
384.887	122.62
385.112	132.62
385.337	116.62
385.562	137.62
385.787	107.62
386.013	134.62
386.238	134.62
386.463	120.62
386.688	117.62
386.913	134.62
387.138	134.62
387.363	105.62
387.588	105.62
387.813	105.62
388.038	110.62
388.263	131.62
388.488	133.62
388.713	105.62
388.938	102.62
389.163	109.62
389.387	101.62
389.612	87.62
389.837	90.62
390.062	100.62
390.287	96.62
390.512	90.62
390.736	96.62
390.961	96.62
391.186	87.62
391.411	99.62
391.636	104.62
391.86	88.62
392.085	95.62
392.31	100.62
392.534	86.62
392.759	90.62
392.984	99.62
393.208	89.62
393.433	95.62
393.658	98.62
393.882	89.62
394.107	82.62
394.331	86.62
394.556	79.62
394.78	92.62
395.005	104.62
395.229	93.62
395.454	94.62
395.678	78.62
395.903	86.62
396.127	80.62
396.352	84.62
396.576	82.62
396.801	94.62
397.025	96.62
397.249	97.62
397.474	96.62
397.698	88.62
397.922	94.62
398.147	100.62
398.371	88.62
398.595	86.62
398.82	93.62
399.044	88.62
399.268	84.62
399.492	91.62
399.717	87.62
399.941	83.62
400.165	99.62
400.389	79.62
400.613	95.62
400.837	86.62
401.062	78.62
401.286	87.62
401.51	92.62
401.734	94.62
401.958	108.62
402.182	141.62
402.406	202.62
402.63	126.62
402.854	108.62
403.078	92.62
403.302	86.62
403.526	99.62
403.75	93.62
403.974	90.62
404.198	78.62
404.422	104.62
404.645	98.62
404.869	88.62
405.093	94.62
405.317	90.62
405.541	101.62
405.765	109.62
405.988	128.62
406.212	204.62
406.436	279.62
406.66	183.62
406.883	106.62
407.107	83.62
407.331	110.62
407.555	89.62
407.778	89.62
408.002	94.62
408.226	86.62
408.449	96.62
408.673	108.62
408.896	103.62
409.12	103.62
409.344	92.62
409.567	82.62
409.791	90.62
410.014	93.62
410.238	92.62
410.461	106.62
410.685	104.62
410.908	108.62
411.132	104.62
411.355	103.62
411.578	91.62
411.802	99.62
412.025	89.62
412.249	94.62
412.472	95.62
412.695	88.62
412.919	76.62
413.142	96.62
413.365	92.62
413.589	95.62
413.812	91.62
414.035	88.62
414.258	81.62
414.482	81.62
414.705	103.62
414.928	87.62
415.151	90.62
415.374	90.62
415.597	99.62
415.821	84.62
416.044	75.62
416.267	95.62
416.49	91.62
416.713	89.62
416.936	94.62
417.159	84.62
417.382	88.62
417.605	92.62
417.828	93.62
418.051	105.62
418.274	98.62
418.497	100.62
418.72	94.62
418.943	100.62
419.166	91.62
419.389	91.62
419.611	91.62
419.834	86.62
420.057	85.62
420.28	88.62
420.503	87.62
420.726	82.62
420.948	89.62
421.171	92.62
421.394	110.62
421.617	104.62
421.839	86.62
422.062	91.62
422.285	82.62
422.507	100.62
422.73	110.62
422.953	84.62
423.175	82.62
423.398	75.62
423.621	90.62
423.843	107.62
424.066	89.62
424.288	91.62
424.511	87.62
424.733	95.62
424.956	102.62
425.178	104.62
425.401	112.62
425.623	104.62
425.846	101.62
426.068	93.62
426.291	80.62
426.513	86.62
426.735	92.62
426.958	105.62
427.18	106.62
427.402	158.62
427.625	208.62
427.847	136.62
428.069	109.62
428.292	98.62
428.514	75.62
428.736	79.62
428.958	86.62
429.181	80.62
429.403	87.62
429.625	97.62
429.847	96.62
430.069	109.62
430.292	86.62
430.514	90.62
430.736	85.62
430.958	67.62
431.18	89.62
431.402	75.62
431.624	79.62
431.846	77.62
432.068	84.62
432.29	85.62
432.512	85.62
432.734	80.62
432.956	98.62
433.178	97.62
433.4	117.62
433.622	98.62
433.844	90.62
434.066	83.62
434.287	94.62
434.509	92.62
434.731	80.62
434.953	88.62
435.175	88.62
435.397	94.62
435.618	84.62
435.84	91.62
436.062	127.62
436.284	139.62
436.505	91.62
436.727	99.62
436.949	91.62
437.17	88.62
437.392	96.62
437.614	90.62
437.835	120.62
438.057	127.62
438.278	114.62
438.5	119.62
438.721	132.62
438.943	111.62
439.165	84.62
439.386	92.62
439.608	83.62
439.829	106.62
440.05	135.62
440.272	159.62
440.493	107.62
440.715	90.62
440.936	85.62
441.158	100.62
441.379	86.62
441.6	103.62
441.822	88.62
442.043	109.62
442.264	108.62
442.486	99.62
442.707	101.62
442.928	111.62
443.149	155.62
443.371	139.62
443.592	125.62
443.813	128.62
444.034	114.62
444.255	93.62
444.476	91.62
444.698	72.62
444.919	93.62
445.14	136.62
445.361	141.62
445.582	116.62
445.803	166.62
446.024	164.62
446.245	144.62
446.466	106.62
446.687	89.62
446.908	95.62
447.129	74.62
447.35	95.62
447.571	97.62
447.792	111.62
448.013	100.62
448.234	115.62
448.455	108.62
448.675	136.62
448.896	130.62
449.117	91.62
449.338	117.62
449.559	129.62
449.779	153.62
450	107.62
450.221	76.62
450.442	72.62
450.662	89.62
450.883	115.62
451.104	119.62
451.324	98.62
451.545	93.62
451.766	86.62
451.986	76.62
452.207	93.62
452.428	102.62
452.648	101.62
452.869	102.62
453.089	120.62
453.31	147.62
453.53	103.62
453.751	101.62
453.971	101.62
454.192	123.62
454.412	88.62
454.633	93.62
454.853	102.62
455.073	81.62
455.294	94.62
455.514	101.62
455.734	91.62
455.955	82.62
456.175	81.62
456.395	78.62
456.616	83.62
456.836	97.62
457.056	79.62
457.276	88.62
457.497	83.62
457.717	78.62
457.937	90.62
458.157	79.62
458.377	92.62
458.598	99.62
458.818	172.62
459.038	192.62
459.258	117.62
459.478	98.62
459.698	86.62
459.918	75.62
460.138	81.62
460.358	82.62
460.578	90.62
460.798	101.62
461.018	96.62
461.238	90.62
461.458	92.62
461.678	85.62
461.898	94.62
462.118	87.62
462.338	87.62
462.558	82.62
462.777	78.62
462.997	87.62
463.217	85.62
463.437	96.62
463.657	96.62
463.876	92.62
464.096	85.62
464.316	91.62
464.536	102.62
464.755	106.62
464.975	122.62
465.195	204.62
465.414	193.62
465.634	103.62
465.854	85.62
466.073	83.62
466.293	91.62
466.512	79.62
466.732	90.62
466.951	91.62
467.171	98.62
467.391	103.62
467.61	115.62
467.829	91.62
468.049	81.62
468.268	86.62
468.488	87.62
468.707	85.62
468.927	91.62
469.146	94.62
469.365	89.62
469.585	77.62
469.804	97.62
470.023	89.62
470.243	104.62
470.462	109.62
470.681	119.62
470.901	87.62
471.12	94.62
471.339	90.62
471.558	79.62
471.777	86.62
471.997	94.62
472.216	77.62
472.435	95.62
472.654	86.62
472.873	78.62
473.092	97.62
473.311	78.62
473.53	81.62
473.749	98.62
473.968	98.62
474.187	107.62
474.406	103.62
474.625	102.62
474.844	77.62
475.063	84.62
475.282	78.62
475.501	86.62
475.72	86.62
475.939	81.62
476.158	84.62
476.377	100.62
476.596	94.62
476.814	103.62
477.033	87.62
477.252	78.62
477.471	95.62
477.69	82.62
477.908	81.62
478.127	84.62
478.346	95.62
478.564	90.62
478.783	104.62
479.002	101.62
479.22	89.62
479.439	109.62
479.658	96.62
479.876	90.62
480.095	92.62
480.313	103.62
480.532	89.62
480.751	100.62
480.969	106.62
481.188	94.62
481.406	95.62
481.624	84.62
481.843	86.62
482.061	87.62
482.28	88.62
482.498	91.62
482.717	85.62
482.935	79.62
483.153	87.62
483.372	93.62
483.59	88.62
483.808	76.62
484.027	84.62
484.245	94.62
484.463	107.62
484.681	80.62
484.9	86.62
485.118	74.62
485.336	101.62
485.554	91.62
485.772	97.62
485.99	90.62
486.209	107.62
486.427	107.62
486.645	99.62
486.863	117.62
487.081	107.62
487.299	104.62
487.517	112.62
487.735	92.62
487.953	105.62
488.171	85.62
488.389	98.62
488.607	110.62
488.825	91.62
489.043	91.62
489.261	85.62
489.479	98.62
489.696	95.62
489.914	91.62
490.132	88.62
490.35	90.62
490.568	95.62
490.786	99.62
491.003	87.62
491.221	94.62
491.439	96.62
491.657	85.62
491.874	95.62
492.092	78.62
492.31	91.62
492.527	95.62
492.745	86.62
492.963	90.62
493.18	89.62
493.398	91.62
493.615	94.62
493.833	98.62
494.05	104.62
494.268	102.62
494.485	87.62
494.703	79.62
494.92	84.62
495.138	94.62
495.355	94.62
495.573	80.62
495.79	88.62
496.008	100.62
496.225	88.62
496.442	88.62
496.66	93.62
496.877	101.62
497.094	99.62
497.312	109.62
497.529	98.62
497.746	91.62
497.963	92.62
498.181	88.62
498.398	100.62
498.615	116.62
498.832	107.62
499.049	96.62
499.267	93.62
499.484	105.62
499.701	77.62
499.918	82.62
500.135	83.62
500.352	88.62
500.569	88.62
500.786	91.62
501.003	92.62
501.22	86.62
501.437	87.62
501.654	94.62
501.871	119.62
502.088	89.62
502.305	82.62
502.522	87.62
502.739	91.62
502.956	84.62
503.172	91.62
503.389	86.62
503.606	101.62
503.823	115.62
504.04	93.62
504.256	96.62
504.473	88.62
504.69	80.62
504.907	89.62
505.123	88.62
505.34	94.62
505.557	98.62
505.773	93.62
505.99	87.62
506.207	87.62
506.423	104.62
506.64	90.62
506.856	85.62
507.073	82.62
507.289	92.62
507.506	107.62
507.722	117.62
507.939	115.62
508.155	96.62
508.372	98.62
508.588	115.62
508.805	88.62
509.021	103.62
509.238	101.62
509.454	100.62
509.67	105.62
509.887	136.62
510.103	143.62
510.319	235.62
510.536	925.62
510.752	3307.62
510.968	876.62
511.184	188.62
511.401	131.62
511.617	110.62
511.833	102.62
512.049	98.62
512.265	104.62
512.481	81.62
512.698	95.62
512.914	100.62
513.13	99.62
513.346	96.62
513.562	101.62
513.778	110.62
513.994	108.62
514.21	107.62
