Data from Circ_2014_H10_HRD10591_00091.txt Node
Date: Wed Jan 03 10:02:27 EST 2024
User: Yrep
Spectrometer: HR+D1059
Trigger mode: 1
Integration Time (sec): 1.000000E-1
Scans to average: 1
Electric dark correction enabled: true
Nonlinearity correction enabled: false
Boxcar width: 0
XAxis mode: Wavelengths
Number of Pixels in Spectrum: 2048
>>>>>Begin Spectral Data<<<<<
223.165	-24.19
223.4	-24.19
223.635	-24.19
223.869	-10.19
224.104	-14.19
224.338	-21.19
224.573	-19.19
224.808	-8.19
225.042	-4.19
225.277	-15.19
225.511	8.81
225.746	-0.19
225.98	-5.19
226.215	23.81
226.449	19.81
226.683	21.81
226.918	17.81
227.152	29.81
227.387	37.81
227.621	44.81
227.856	50.81
228.09	51.81
228.324	52.81
228.559	42.81
228.793	42.81
229.027	64.81
229.262	75.81
229.496	65.81
229.73	101.81
229.964	85.81
230.199	59.81
230.433	65.81
230.667	95.81
230.901	67.81
231.136	86.81
231.37	78.81
231.604	86.81
231.838	75.81
232.072	65.81
232.306	80.81
232.541	80.81
232.775	81.81
233.009	71.81
233.243	70.81
233.477	75.81
233.711	79.81
233.945	92.81
234.179	78.81
234.413	67.81
234.647	76.81
234.881	84.81
235.115	77.81
235.349	76.81
235.583	76.81
235.817	73.81
236.051	77.81
236.285	85.81
236.519	80.81
236.753	76.81
236.987	77.81
237.221	76.81
237.455	83.81
237.689	76.81
237.922	77.81
238.156	83.81
238.39	82.81
238.624	87.81
238.858	69.81
239.091	88.81
239.325	77.81
239.559	74.81
239.793	79.81
240.027	69.81
240.26	90.81
240.494	78.81
240.728	80.81
240.961	75.81
241.195	80.81
241.429	83.81
241.662	68.81
241.896	74.81
242.13	74.81
242.363	69.81
242.597	82.81
242.83	84.81
243.064	76.81
243.298	70.81
243.531	69.81
243.765	86.81
243.998	78.81
244.232	73.81
244.465	89.81
244.699	77.81
244.932	73.81
245.166	74.81
245.399	69.81
245.633	61.81
245.866	74.81
246.099	82.81
246.333	81.81
246.566	69.81
246.8	69.81
247.033	74.81
247.266	88.81
247.5	72.81
247.733	73.81
247.966	65.81
248.2	77.81
248.433	69.81
248.666	80.81
248.899	47.81
249.133	87.81
249.366	102.81
249.599	91.81
249.832	88.81
250.066	66.81
250.299	74.81
250.532	75.81
250.765	72.81
250.998	71.81
251.231	79.81
251.465	89.81
251.698	87.81
251.931	79.81
252.164	81.81
252.397	72.81
252.63	82.81
252.863	74.81
253.096	85.81
253.329	87.81
253.562	83.81
253.795	74.81
254.028	93.81
254.261	91.81
254.494	89.81
254.727	85.81
254.96	76.81
255.193	77.81
255.426	66.81
255.659	70.81
255.892	73.81
256.124	81.81
256.357	76.81
256.59	86.81
256.823	75.81
257.056	85.81
257.289	72.81
257.521	65.81
257.754	78.81
257.987	84.81
258.22	79.81
258.452	75.81
258.685	79.81
258.918	71.81
259.151	82.81
259.383	74.81
259.616	87.81
259.849	79.81
260.081	69.81
260.314	77.81
260.547	91.81
260.779	77.81
261.012	93.81
261.244	85.81
261.477	90.81
261.71	95.81
261.942	94.81
262.175	124.81
262.407	99.81
262.64	69.81
262.872	70.81
263.105	70.81
263.337	66.81
263.57	82.81
263.802	86.81
264.035	68.81
264.267	73.81
264.499	76.81
264.732	66.81
264.964	88.81
265.197	76.81
265.429	93.81
265.661	99.81
265.894	72.81
266.126	87.81
266.358	81.81
266.591	103.81
266.823	86.81
267.055	72.81
267.287	88.81
267.52	90.81
267.752	90.81
267.984	84.81
268.216	69.81
268.448	77.81
268.681	94.81
268.913	67.81
269.145	81.81
269.377	84.81
269.609	84.81
269.841	74.81
270.073	98.81
270.306	78.81
270.538	76.81
270.77	81.81
271.002	89.81
271.234	75.81
271.466	84.81
271.698	97.81
271.93	76.81
272.162	84.81
272.394	88.81
272.626	80.81
272.858	86.81
273.09	89.81
273.322	70.81
273.553	79.81
273.785	87.81
274.017	75.81
274.249	85.81
274.481	98.81
274.713	84.81
274.945	88.81
275.176	70.81
275.408	83.81
275.64	87.81
275.872	80.81
276.104	79.81
276.335	71.81
276.567	116.81
276.799	106.81
277.031	109.81
277.262	111.81
277.494	86.81
277.726	74.81
277.957	80.81
278.189	87.81
278.421	84.81
278.652	88.81
278.884	85.81
279.115	97.81
279.347	100.81
279.579	92.81
279.81	91.81
280.042	108.81
280.273	111.81
280.505	87.81
280.736	79.81
280.968	87.81
281.199	85.81
281.431	80.81
281.662	107.81
281.894	87.81
282.125	119.81
282.356	118.81
282.588	151.81
282.819	124.81
283.051	90.81
283.282	81.81
283.513	89.81
283.745	91.81
283.976	77.81
284.207	86.81
284.439	89.81
284.67	77.81
284.901	84.81
285.132	80.81
285.364	85.81
285.595	82.81
285.826	92.81
286.057	85.81
286.288	86.81
286.52	81.81
286.751	83.81
286.982	82.81
287.213	80.81
287.444	90.81
287.675	98.81
287.906	85.81
288.138	75.81
288.369	90.81
288.6	101.81
288.831	77.81
289.062	89.81
289.293	79.81
289.524	91.81
289.755	75.81
289.986	88.81
290.217	75.81
290.448	83.81
290.679	85.81
290.91	87.81
291.141	97.81
291.371	97.81
291.602	79.81
291.833	90.81
292.064	91.81
292.295	97.81
292.526	73.81
292.757	93.81
292.987	99.81
293.218	70.81
293.449	89.81
293.68	87.81
293.91	101.81
294.141	94.81
294.372	87.81
294.603	70.81
294.833	89.81
295.064	95.81
295.295	76.81
295.525	93.81
295.756	110.81
295.987	123.81
296.217	147.81
296.448	145.81
296.679	101.81
296.909	86.81
297.14	107.81
297.37	96.81
297.601	86.81
297.831	94.81
298.062	97.81
298.292	109.81
298.523	86.81
298.753	81.81
298.984	70.81
299.214	82.81
299.445	92.81
299.675	107.81
299.905	101.81
300.136	84.81
300.366	80.81
300.597	73.81
300.827	90.81
301.057	99.81
301.288	104.81
301.518	100.81
301.748	99.81
301.979	112.81
302.209	90.81
302.439	75.81
302.669	82.81
302.9	94.81
303.13	73.81
303.36	98.81
303.59	112.81
303.82	111.81
304.051	105.81
304.281	91.81
304.511	71.81
304.741	84.81
304.971	79.81
305.201	74.81
305.431	95.81
305.661	83.81
305.891	80.81
306.121	107.81
306.352	103.81
306.582	82.81
306.812	93.81
307.042	96.81
307.272	95.81
307.502	95.81
307.731	113.81
307.961	98.81
308.191	85.81
308.421	82.81
308.651	95.81
308.881	103.81
309.111	96.81
309.341	96.81
309.571	85.81
309.8	94.81
310.03	98.81
310.26	93.81
310.49	109.81
310.72	109.81
310.949	116.81
311.179	99.81
311.409	86.81
311.639	85.81
311.868	89.81
312.098	84.81
312.328	107.81
312.557	99.81
312.787	118.81
313.017	104.81
313.246	91.81
313.476	95.81
313.706	90.81
313.935	87.81
314.165	97.81
314.394	101.81
314.624	103.81
314.853	82.81
315.083	87.81
315.312	105.81
315.542	102.81
315.771	81.81
316.001	83.81
316.23	94.81
316.46	105.81
316.689	98.81
316.919	102.81
317.148	105.81
317.377	89.81
317.607	93.81
317.836	82.81
318.065	87.81
318.295	92.81
318.524	90.81
318.753	87.81
318.983	84.81
319.212	108.81
319.441	120.81
319.67	107.81
319.9	104.81
320.129	72.81
320.358	93.81
320.587	87.81
320.816	98.81
321.046	118.81
321.275	103.81
321.504	83.81
321.733	101.81
321.962	86.81
322.191	84.81
322.42	98.81
322.649	109.81
322.878	101.81
323.108	117.81
323.337	128.81
323.566	167.81
323.795	180.81
324.024	207.81
324.253	448.81
324.482	954.81
324.71	1888.81
324.939	2457.81
325.168	909.81
325.397	261.81
325.626	163.81
325.855	147.81
326.084	127.81
326.313	141.81
326.542	158.81
326.77	265.81
326.999	505.81
327.228	1029.81
327.457	1892.81
327.686	1527.81
327.914	417.81
328.143	261.81
328.372	230.81
328.6	158.81
328.829	131.81
329.058	127.81
329.287	152.81
329.515	127.81
329.744	122.81
329.972	159.81
330.201	228.81
330.43	300.81
330.658	182.81
330.887	171.81
331.115	147.81
331.344	106.81
331.572	84.81
331.801	116.81
332.03	120.81
332.258	96.81
332.486	99.81
332.715	91.81
332.943	92.81
333.172	105.81
333.4	94.81
333.629	111.81
333.857	134.81
334.085	155.81
334.314	200.81
334.542	360.81
334.771	345.81
334.999	152.81
335.227	108.81
335.455	104.81
335.684	99.81
335.912	87.81
336.14	109.81
336.369	102.81
336.597	104.81
336.825	98.81
337.053	77.81
337.281	89.81
337.51	90.81
337.738	103.81
337.966	103.81
338.194	108.81
338.422	109.81
338.65	105.81
338.878	104.81
339.106	94.81
339.334	103.81
339.562	76.81
339.79	89.81
340.018	92.81
340.246	73.81
340.474	96.81
340.702	105.81
340.93	96.81
341.158	84.81
341.386	103.81
341.614	95.81
341.842	89.81
342.07	83.81
342.298	94.81
342.526	86.81
342.754	89.81
342.981	88.81
343.209	90.81
343.437	105.81
343.665	96.81
343.893	92.81
344.12	90.81
344.348	101.81
344.576	84.81
344.804	93.81
345.031	93.81
345.259	94.81
345.487	85.81
345.714	80.81
345.942	101.81
346.17	102.81
346.397	100.81
346.625	106.81
346.853	97.81
347.08	84.81
347.308	96.81
347.535	92.81
347.763	86.81
347.99	93.81
348.218	99.81
348.445	123.81
348.673	82.81
348.9	91.81
349.128	88.81
349.355	82.81
349.583	87.81
349.81	100.81
350.037	101.81
350.265	100.81
350.492	93.81
350.72	105.81
350.947	101.81
351.174	119.81
351.402	113.81
351.629	97.81
351.856	100.81
352.083	108.81
352.311	108.81
352.538	122.81
352.765	119.81
352.992	126.81
353.22	109.81
353.447	112.81
353.674	93.81
353.901	96.81
354.128	102.81
354.355	84.81
354.583	80.81
354.81	92.81
355.037	90.81
355.264	87.81
355.491	95.81
355.718	82.81
355.945	99.81
356.172	87.81
356.399	89.81
356.626	95.81
356.853	90.81
357.08	88.81
357.307	88.81
357.534	81.81
357.761	91.81
357.988	102.81
358.215	98.81
358.441	81.81
358.668	83.81
358.895	89.81
359.122	83.81
359.349	88.81
359.576	88.81
359.802	112.81
360.029	108.81
360.256	109.81
360.483	96.81
360.709	104.81
360.936	97.81
361.163	112.81
361.39	98.81
361.616	101.81
361.843	98.81
362.07	98.81
362.296	87.81
362.523	70.81
362.749	88.81
362.976	86.81
363.203	105.81
363.429	92.81
363.656	87.81
363.882	77.81
364.109	88.81
364.335	85.81
364.562	99.81
364.788	86.81
365.015	93.81
365.241	107.81
365.468	104.81
365.694	107.81
365.92	108.81
366.147	80.81
366.373	94.81
366.599	80.81
366.826	100.81
367.052	79.81
367.278	95.81
367.505	99.81
367.731	89.81
367.957	99.81
368.184	100.81
368.41	108.81
368.636	113.81
368.862	136.81
369.089	97.81
369.315	95.81
369.541	89.81
369.767	81.81
369.993	88.81
370.219	91.81
370.445	92.81
370.672	83.81
370.898	91.81
371.124	79.81
371.35	91.81
371.576	99.81
371.802	85.81
372.028	88.81
372.254	95.81
372.48	81.81
372.706	89.81
372.932	96.81
373.158	82.81
373.384	82.81
373.61	88.81
373.835	98.81
374.061	81.81
374.287	93.81
374.513	86.81
374.739	87.81
374.965	72.81
375.191	67.81
375.416	83.81
375.642	80.81
375.868	96.81
376.094	91.81
376.319	98.81
376.545	88.81
376.771	101.81
376.997	75.81
377.222	85.81
377.448	84.81
377.674	91.81
377.899	89.81
378.125	89.81
378.35	100.81
378.576	91.81
378.802	85.81
379.027	81.81
379.253	69.81
379.478	92.81
379.704	94.81
379.929	98.81
380.155	104.81
380.38	99.81
380.606	85.81
380.831	100.81
381.057	103.81
381.282	108.81
381.507	98.81
381.733	95.81
381.958	94.81
382.184	95.81
382.409	86.81
382.634	96.81
382.86	94.81
383.085	96.81
383.31	95.81
383.535	115.81
383.761	90.81
383.986	99.81
384.211	92.81
384.436	89.81
384.662	94.81
384.887	86.81
385.112	100.81
385.337	98.81
385.562	92.81
385.787	112.81
386.013	125.81
386.238	111.81
386.463	102.81
386.688	105.81
386.913	97.81
387.138	96.81
387.363	105.81
387.588	111.81
387.813	104.81
388.038	99.81
388.263	111.81
388.488	91.81
388.713	85.81
388.938	86.81
389.163	96.81
389.387	100.81
389.612	99.81
389.837	92.81
390.062	103.81
390.287	94.81
390.512	94.81
390.736	88.81
390.961	86.81
391.186	79.81
391.411	93.81
391.636	82.81
391.86	94.81
392.085	78.81
392.31	83.81
392.534	93.81
392.759	81.81
392.984	82.81
393.208	95.81
393.433	88.81
393.658	81.81
393.882	79.81
394.107	86.81
394.331	64.81
394.556	101.81
394.78	103.81
395.005	80.81
395.229	79.81
395.454	89.81
395.678	88.81
395.903	92.81
396.127	98.81
396.352	82.81
396.576	91.81
396.801	81.81
397.025	101.81
397.249	80.81
397.474	97.81
397.698	82.81
397.922	83.81
398.147	80.81
398.371	93.81
398.595	88.81
398.82	69.81
399.044	80.81
399.268	82.81
399.492	82.81
399.717	80.81
399.941	93.81
400.165	92.81
400.389	98.81
400.613	95.81
400.837	85.81
401.062	95.81
401.286	82.81
401.51	88.81
401.734	94.81
401.958	110.81
402.182	149.81
402.406	194.81
402.63	145.81
402.854	107.81
403.078	80.81
403.302	85.81
403.526	83.81
403.75	89.81
403.974	95.81
404.198	79.81
404.422	97.81
404.645	95.81
404.869	93.81
405.093	100.81
405.317	119.81
405.541	108.81
405.765	123.81
405.988	114.81
406.212	185.81
406.436	259.81
406.66	154.81
406.883	103.81
407.107	83.81
407.331	94.81
407.555	93.81
407.778	95.81
408.002	99.81
408.226	96.81
408.449	101.81
408.673	92.81
408.896	91.81
409.12	82.81
409.344	89.81
409.567	87.81
409.791	78.81
410.014	97.81
410.238	99.81
410.461	93.81
410.685	87.81
410.908	103.81
411.132	92.81
411.355	96.81
411.578	86.81
411.802	79.81
412.025	80.81
412.249	79.81
412.472	93.81
412.695	101.81
412.919	93.81
413.142	97.81
413.365	93.81
413.589	96.81
413.812	87.81
414.035	93.81
414.258	80.81
414.482	97.81
414.705	87.81
414.928	77.81
415.151	88.81
415.374	96.81
415.597	88.81
415.821	91.81
416.044	75.81
416.267	101.81
416.49	98.81
416.713	103.81
416.936	81.81
417.159	84.81
417.382	86.81
417.605	90.81
417.828	103.81
418.051	90.81
418.274	83.81
418.497	105.81
418.72	77.81
418.943	82.81
419.166	67.81
419.389	89.81
419.611	95.81
419.834	86.81
420.057	67.81
420.28	83.81
420.503	101.81
420.726	76.81
420.948	87.81
421.171	80.81
421.394	96.81
421.617	90.81
421.839	89.81
422.062	88.81
422.285	94.81
422.507	99.81
422.73	86.81
422.953	86.81
423.175	85.81
423.398	82.81
423.621	83.81
423.843	97.81
424.066	92.81
424.288	80.81
424.511	85.81
424.733	90.81
424.956	108.81
425.178	108.81
425.401	95.81
425.623	100.81
425.846	85.81
426.068	92.81
426.291	84.81
426.513	98.81
426.735	92.81
426.958	79.81
427.18	117.81
427.402	146.81
427.625	197.81
427.847	156.81
428.069	147.81
428.292	92.81
428.514	92.81
428.736	75.81
428.958	84.81
429.181	71.81
429.403	84.81
429.625	87.81
429.847	97.81
430.069	107.81
430.292	105.81
430.514	76.81
430.736	71.81
430.958	99.81
431.18	79.81
431.402	86.81
431.624	89.81
431.846	84.81
432.068	99.81
432.29	77.81
432.512	75.81
432.734	93.81
432.956	92.81
433.178	100.81
433.4	82.81
433.622	95.81
433.844	81.81
434.066	97.81
434.287	87.81
434.509	92.81
434.731	79.81
434.953	79.81
435.175	79.81
435.397	83.81
435.618	95.81
435.84	106.81
436.062	131.81
436.284	120.81
436.505	96.81
436.727	100.81
436.949	85.81
437.17	93.81
437.392	89.81
437.614	108.81
437.835	112.81
438.057	128.81
438.278	122.81
438.5	115.81
438.721	116.81
438.943	96.81
439.165	82.81
439.386	69.81
439.608	89.81
439.829	96.81
440.05	132.81
440.272	154.81
440.493	97.81
440.715	79.81
440.936	87.81
441.158	89.81
441.379	93.81
441.6	89.81
441.822	81.81
442.043	84.81
442.264	90.81
442.486	93.81
442.707	91.81
442.928	111.81
443.149	141.81
443.371	145.81
443.592	111.81
443.813	124.81
444.034	107.81
444.255	88.81
444.476	87.81
444.698	82.81
444.919	97.81
445.14	131.81
445.361	116.81
445.582	132.81
445.803	141.81
446.024	155.81
446.245	127.81
446.466	118.81
446.687	95.81
446.908	100.81
447.129	91.81
447.35	84.81
447.571	88.81
447.792	89.81
448.013	89.81
448.234	106.81
448.455	102.81
448.675	115.81
448.896	115.81
449.117	100.81
449.338	113.81
449.559	120.81
449.779	127.81
450	72.81
450.221	87.81
450.442	78.81
450.662	107.81
450.883	105.81
451.104	117.81
451.324	99.81
451.545	79.81
451.766	96.81
451.986	79.81
452.207	96.81
452.428	94.81
452.648	102.81
452.869	120.81
453.089	132.81
453.31	135.81
453.53	92.81
453.751	88.81
453.971	117.81
454.192	122.81
454.412	98.81
454.633	86.81
454.853	98.81
455.073	87.81
455.294	86.81
455.514	107.81
455.734	80.81
455.955	81.81
456.175	92.81
456.395	95.81
456.616	82.81
456.836	76.81
457.056	59.81
457.276	95.81
457.497	88.81
457.717	83.81
457.937	90.81
458.157	84.81
458.377	82.81
458.598	118.81
458.818	167.81
459.038	171.81
459.258	125.81
459.478	101.81
459.698	83.81
459.918	91.81
460.138	92.81
460.358	86.81
460.578	87.81
460.798	104.81
461.018	77.81
461.238	91.81
461.458	82.81
461.678	89.81
461.898	81.81
462.118	83.81
462.338	94.81
462.558	85.81
462.777	89.81
462.997	87.81
463.217	80.81
463.437	92.81
463.657	90.81
463.876	75.81
464.096	77.81
464.316	90.81
464.536	98.81
464.755	99.81
464.975	106.81
465.195	206.81
465.414	188.81
465.634	104.81
465.854	94.81
466.073	92.81
466.293	80.81
466.512	75.81
466.732	81.81
466.951	87.81
467.171	99.81
467.391	89.81
467.61	111.81
467.829	124.81
468.049	162.81
468.268	196.81
468.488	103.81
468.707	98.81
468.927	89.81
469.146	74.81
469.365	82.81
469.585	90.81
469.804	98.81
470.023	93.81
470.243	89.81
470.462	102.81
470.681	116.81
470.901	87.81
471.12	87.81
471.339	86.81
471.558	79.81
471.777	88.81
471.997	108.81
472.216	254.81
472.435	450.81
472.654	173.81
472.873	117.81
473.092	81.81
473.311	77.81
473.53	71.81
473.749	75.81
473.968	100.81
474.187	108.81
474.406	85.81
474.625	83.81
474.844	91.81
475.063	75.81
475.282	95.81
475.501	75.81
475.72	83.81
475.939	86.81
476.158	85.81
476.377	104.81
476.596	87.81
476.814	90.81
477.033	95.81
477.252	77.81
477.471	72.81
477.69	82.81
477.908	85.81
478.127	73.81
478.346	96.81
478.564	93.81
478.783	100.81
479.002	81.81
479.22	86.81
479.439	108.81
479.658	91.81
479.876	105.81
480.095	114.81
480.313	96.81
480.532	98.81
480.751	124.81
480.969	250.81
481.188	753.81
481.406	493.81
481.624	129.81
481.843	111.81
482.061	93.81
482.28	92.81
482.498	81.81
482.717	87.81
482.935	85.81
483.153	86.81
483.372	86.81
483.59	90.81
483.808	72.81
484.027	89.81
484.245	94.81
484.463	85.81
484.681	104.81
484.9	86.81
485.118	102.81
485.336	91.81
485.554	77.81
485.772	101.81
485.99	105.81
486.209	93.81
486.427	102.81
486.645	99.81
486.863	113.81
487.081	95.81
487.299	113.81
487.517	83.81
487.735	106.81
487.953	100.81
488.171	92.81
488.389	97.81
488.607	99.81
488.825	87.81
489.043	88.81
489.261	80.81
489.479	88.81
489.696	85.81
489.914	96.81
490.132	82.81
490.35	75.81
490.568	73.81
490.786	85.81
491.003	87.81
491.221	90.81
491.439	96.81
491.657	109.81
491.874	85.81
492.092	84.81
492.31	84.81
492.527	88.81
492.745	84.81
492.963	82.81
493.18	98.81
493.398	91.81
493.615	81.81
493.833	88.81
494.05	92.81
494.268	101.81
494.485	87.81
494.703	77.81
494.92	83.81
495.138	86.81
495.355	88.81
495.573	91.81
495.79	80.81
496.008	87.81
496.225	81.81
496.442	89.81
496.66	90.81
496.877	88.81
497.094	98.81
497.312	92.81
497.529	92.81
497.746	89.81
497.963	79.81
498.181	83.81
498.398	95.81
498.615	112.81
498.832	107.81
499.049	82.81
499.267	106.81
499.484	84.81
499.701	79.81
499.918	73.81
500.135	92.81
500.352	93.81
500.569	85.81
500.786	96.81
501.003	83.81
501.22	98.81
501.437	96.81
501.654	95.81
501.871	112.81
502.088	91.81
502.305	87.81
502.522	87.81
502.739	83.81
502.956	81.81
503.172	91.81
503.389	100.81
503.606	112.81
503.823	111.81
504.04	89.81
504.256	88.81
504.473	86.81
504.69	80.81
504.907	97.81
505.123	100.81
505.34	85.81
505.557	87.81
505.773	99.81
505.99	86.81
506.207	85.81
506.423	90.81
506.64	86.81
506.856	104.81
507.073	88.81
507.289	99.81
507.506	107.81
507.722	122.81
507.939	111.81
508.155	104.81
508.372	93.81
508.588	95.81
508.805	97.81
509.021	91.81
509.238	96.81
509.454	79.81
509.67	104.81
509.887	104.81
510.103	130.81
510.319	228.81
510.536	913.81
510.752	3149.81
510.968	895.81
511.184	168.81
511.401	113.81
511.617	103.81
511.833	91.81
512.049	98.81
512.265	94.81
512.481	96.81
512.698	101.81
512.914	91.81
513.13	92.81
513.346	90.81
513.562	77.81
513.778	101.81
513.994	95.81
514.21	115.81
514.426	130.81
514.642	141.81
514.858	120.81
515.074	187.81
515.29	569.81
