Data from Circ_2014_H10_HRD10591_00096.txt Node
Date: Wed Jan 03 10:02:28 EST 2024
User: Yrep
Spectrometer: HR+D1059
Trigger mode: 1
Integration Time (sec): 1.000000E-1
Scans to average: 1
Electric dark correction enabled: true
Nonlinearity correction enabled: false
Boxcar width: 0
XAxis mode: Wavelengths
Number of Pixels in Spectrum: 2048
>>>>>Begin Spectral Data<<<<<
223.165	-26.75
223.4	-26.75
223.635	-26.75
223.869	-12.75
224.104	-14.75
224.338	-10.75
224.573	-7.75
224.808	-8.75
225.042	-5.75
225.277	-4.75
225.511	-8.75
225.746	7.25
225.98	-6.75
226.215	1.25
226.449	10.25
226.683	22.25
226.918	33.25
227.152	33.25
227.387	40.25
227.621	41.25
227.856	48.25
228.09	43.25
228.324	49.25
228.559	49.25
228.793	63.25
229.027	52.25
229.262	70.25
229.496	60.25
229.73	73.25
229.964	77.25
230.199	74.25
230.433	63.25
230.667	68.25
230.901	83.25
231.136	86.25
231.37	93.25
231.604	82.25
231.838	78.25
232.072	67.25
232.306	68.25
232.541	75.25
232.775	73.25
233.009	81.25
233.243	78.25
233.477	86.25
233.711	75.25
233.945	72.25
234.179	83.25
234.413	73.25
234.647	76.25
234.881	84.25
235.115	79.25
235.349	73.25
235.583	80.25
235.817	80.25
236.051	76.25
236.285	78.25
236.519	87.25
236.753	84.25
236.987	87.25
237.221	66.25
237.455	86.25
237.689	82.25
237.922	71.25
238.156	67.25
238.39	82.25
238.624	80.25
238.858	86.25
239.091	82.25
239.325	68.25
239.559	72.25
239.793	87.25
240.027	87.25
240.26	76.25
240.494	72.25
240.728	83.25
240.961	84.25
241.195	68.25
241.429	81.25
241.662	85.25
241.896	85.25
242.13	82.25
242.363	85.25
242.597	77.25
242.83	73.25
243.064	79.25
243.298	73.25
243.531	77.25
243.765	77.25
243.998	57.25
244.232	86.25
244.465	76.25
244.699	66.25
244.932	76.25
245.166	81.25
245.399	85.25
245.633	85.25
245.866	68.25
246.099	56.25
246.333	82.25
246.566	93.25
246.8	87.25
247.033	63.25
247.266	75.25
247.5	77.25
247.733	77.25
247.966	75.25
248.2	54.25
248.433	75.25
248.666	74.25
248.899	84.25
249.133	83.25
249.366	95.25
249.599	101.25
249.832	82.25
250.066	83.25
250.299	70.25
250.532	82.25
250.765	84.25
250.998	80.25
251.231	94.25
251.465	91.25
251.698	78.25
251.931	87.25
252.164	81.25
252.397	70.25
252.63	67.25
252.863	76.25
253.096	70.25
253.329	74.25
253.562	75.25
253.795	75.25
254.028	77.25
254.261	83.25
254.494	74.25
254.727	90.25
254.96	89.25
255.193	68.25
255.426	69.25
255.659	73.25
255.892	75.25
256.124	73.25
256.357	85.25
256.59	66.25
256.823	76.25
257.056	74.25
257.289	74.25
257.521	81.25
257.754	71.25
257.987	86.25
258.22	72.25
258.452	91.25
258.685	63.25
258.918	68.25
259.151	85.25
259.383	75.25
259.616	90.25
259.849	73.25
260.081	88.25
260.314	92.25
260.547	75.25
260.779	75.25
261.012	79.25
261.244	75.25
261.477	77.25
261.71	102.25
261.942	103.25
262.175	113.25
262.407	74.25
262.64	85.25
262.872	91.25
263.105	72.25
263.337	108.25
263.57	75.25
263.802	80.25
264.035	80.25
264.267	92.25
264.499	86.25
264.732	82.25
264.964	85.25
265.197	83.25
265.429	87.25
265.661	77.25
265.894	89.25
266.126	83.25
266.358	62.25
266.591	85.25
266.823	79.25
267.055	71.25
267.287	84.25
267.52	90.25
267.752	80.25
267.984	79.25
268.216	81.25
268.448	73.25
268.681	93.25
268.913	81.25
269.145	67.25
269.377	94.25
269.609	73.25
269.841	92.25
270.073	79.25
270.306	83.25
270.538	82.25
270.77	93.25
271.002	69.25
271.234	81.25
271.466	81.25
271.698	82.25
271.93	81.25
272.162	76.25
272.394	76.25
272.626	74.25
272.858	89.25
273.09	83.25
273.322	88.25
273.553	80.25
273.785	89.25
274.017	86.25
274.249	92.25
274.481	64.25
274.713	81.25
274.945	85.25
275.176	81.25
275.408	88.25
275.64	82.25
275.872	96.25
276.104	100.25
276.335	90.25
276.567	90.25
276.799	110.25
277.031	114.25
277.262	102.25
277.494	92.25
277.726	84.25
277.957	85.25
278.189	72.25
278.421	77.25
278.652	86.25
278.884	95.25
279.115	95.25
279.347	102.25
279.579	92.25
279.81	87.25
280.042	92.25
280.273	108.25
280.505	97.25
280.736	82.25
280.968	70.25
281.199	85.25
281.431	76.25
281.662	89.25
281.894	83.25
282.125	83.25
282.356	115.25
282.588	159.25
282.819	109.25
283.051	80.25
283.282	72.25
283.513	92.25
283.745	82.25
283.976	69.25
284.207	89.25
284.439	92.25
284.67	92.25
284.901	83.25
285.132	80.25
285.364	80.25
285.595	98.25
285.826	92.25
286.057	84.25
286.288	89.25
286.52	79.25
286.751	83.25
286.982	78.25
287.213	88.25
287.444	82.25
287.675	82.25
287.906	90.25
288.138	80.25
288.369	100.25
288.6	97.25
288.831	93.25
289.062	86.25
289.293	87.25
289.524	81.25
289.755	82.25
289.986	85.25
290.217	77.25
290.448	82.25
290.679	91.25
290.91	93.25
291.141	91.25
291.371	92.25
291.602	95.25
291.833	79.25
292.064	91.25
292.295	95.25
292.526	81.25
292.757	96.25
292.987	98.25
293.218	74.25
293.449	86.25
293.68	86.25
293.91	91.25
294.141	76.25
294.372	88.25
294.603	94.25
294.833	88.25
295.064	85.25
295.295	93.25
295.525	97.25
295.756	107.25
295.987	115.25
296.217	144.25
296.448	111.25
296.679	100.25
296.909	86.25
297.14	100.25
297.37	96.25
297.601	89.25
297.831	95.25
298.062	91.25
298.292	82.25
298.523	85.25
298.753	95.25
298.984	90.25
299.214	84.25
299.445	80.25
299.675	95.25
299.905	88.25
300.136	96.25
300.366	88.25
300.597	91.25
300.827	89.25
301.057	102.25
301.288	109.25
301.518	98.25
301.748	97.25
301.979	97.25
302.209	100.25
302.439	90.25
302.669	89.25
302.9	76.25
303.13	91.25
303.36	96.25
303.59	111.25
303.82	99.25
304.051	73.25
304.281	87.25
304.511	103.25
304.741	93.25
304.971	95.25
305.201	94.25
305.431	99.25
305.661	95.25
305.891	98.25
306.121	101.25
306.352	92.25
306.582	108.25
306.812	96.25
307.042	102.25
307.272	111.25
307.502	111.25
307.731	102.25
307.961	95.25
308.191	89.25
308.421	84.25
308.651	74.25
308.881	96.25
309.111	109.25
309.341	99.25
309.571	96.25
309.8	96.25
310.03	94.25
310.26	88.25
310.49	94.25
310.72	96.25
310.949	106.25
311.179	96.25
311.409	107.25
311.639	95.25
311.868	97.25
312.098	94.25
312.328	97.25
312.557	107.25
312.787	95.25
313.017	103.25
313.246	96.25
313.476	102.25
313.706	79.25
313.935	96.25
314.165	104.25
314.394	96.25
314.624	87.25
314.853	97.25
315.083	89.25
315.312	87.25
315.542	99.25
315.771	96.25
316.001	87.25
316.23	80.25
316.46	89.25
316.689	90.25
316.919	103.25
317.148	85.25
317.377	84.25
317.607	84.25
317.836	97.25
318.065	71.25
318.295	82.25
318.524	106.25
318.753	76.25
318.983	96.25
319.212	98.25
319.441	98.25
319.67	102.25
319.9	87.25
320.129	88.25
320.358	90.25
320.587	99.25
320.816	96.25
321.046	96.25
321.275	105.25
321.504	104.25
321.733	93.25
321.962	91.25
322.191	100.25
322.42	103.25
322.649	106.25
322.878	106.25
323.108	123.25
323.337	113.25
323.566	118.25
323.795	144.25
324.024	196.25
324.253	385.25
324.482	819.25
324.71	1709.25
324.939	2277.25
325.168	856.25
325.397	242.25
325.626	151.25
325.855	119.25
326.084	121.25
326.313	139.25
326.542	155.25
326.77	233.25
326.999	460.25
327.228	927.25
327.457	1682.25
327.686	1366.25
327.914	395.25
328.143	233.25
328.372	210.25
328.6	149.25
328.829	127.25
329.058	142.25
329.287	131.25
329.515	116.25
329.744	129.25
329.972	159.25
330.201	204.25
330.43	285.25
330.658	187.25
330.887	157.25
331.115	137.25
331.344	108.25
331.572	115.25
331.801	104.25
332.03	98.25
332.258	100.25
332.486	88.25
332.715	88.25
332.943	88.25
333.172	99.25
333.4	106.25
333.629	125.25
333.857	124.25
334.085	151.25
334.314	211.25
334.542	351.25
334.771	323.25
334.999	152.25
335.227	113.25
335.455	104.25
335.684	94.25
335.912	95.25
336.14	88.25
336.369	104.25
336.597	100.25
336.825	89.25
337.053	88.25
337.281	87.25
337.51	84.25
337.738	82.25
337.966	103.25
338.194	100.25
338.422	108.25
338.65	95.25
338.878	85.25
339.106	86.25
339.334	96.25
339.562	84.25
339.79	80.25
340.018	103.25
340.246	100.25
340.474	79.25
340.702	88.25
340.93	93.25
341.158	90.25
341.386	87.25
341.614	94.25
341.842	93.25
342.07	87.25
342.298	86.25
342.526	83.25
342.754	92.25
342.981	83.25
343.209	81.25
343.437	106.25
343.665	90.25
343.893	85.25
344.12	106.25
344.348	99.25
344.576	102.25
344.804	84.25
345.031	95.25
345.259	99.25
345.487	93.25
345.714	93.25
345.942	88.25
346.17	95.25
346.397	80.25
346.625	100.25
346.853	91.25
347.08	106.25
347.308	101.25
347.535	99.25
347.763	93.25
347.99	92.25
348.218	97.25
348.445	100.25
348.673	102.25
348.9	81.25
349.128	94.25
349.355	93.25
349.583	92.25
349.81	86.25
350.037	95.25
350.265	95.25
350.492	83.25
350.72	90.25
350.947	107.25
351.174	109.25
351.402	106.25
351.629	98.25
351.856	98.25
352.083	100.25
352.311	92.25
352.538	104.25
352.765	104.25
352.992	107.25
353.22	99.25
353.447	103.25
353.674	96.25
353.901	88.25
354.128	92.25
354.355	84.25
354.583	103.25
354.81	82.25
355.037	83.25
355.264	90.25
355.491	93.25
355.718	95.25
355.945	101.25
356.172	98.25
356.399	97.25
356.626	83.25
356.853	84.25
357.08	98.25
357.307	94.25
357.534	90.25
357.761	96.25
357.988	98.25
358.215	100.25
358.441	83.25
358.668	73.25
358.895	83.25
359.122	84.25
359.349	92.25
359.576	100.25
359.802	97.25
360.029	127.25
360.256	100.25
360.483	95.25
360.709	95.25
360.936	93.25
361.163	88.25
361.39	83.25
361.616	96.25
361.843	93.25
362.07	92.25
362.296	95.25
362.523	96.25
362.749	92.25
362.976	95.25
363.203	91.25
363.429	89.25
363.656	87.25
363.882	92.25
364.109	94.25
364.335	97.25
364.562	90.25
364.788	83.25
365.015	100.25
365.241	88.25
365.468	98.25
365.694	92.25
365.92	88.25
366.147	87.25
366.373	94.25
366.599	99.25
366.826	92.25
367.052	87.25
367.278	92.25
367.505	95.25
367.731	90.25
367.957	101.25
368.184	93.25
368.41	91.25
368.636	114.25
368.862	115.25
369.089	98.25
369.315	105.25
369.541	92.25
369.767	86.25
369.993	87.25
370.219	95.25
370.445	92.25
370.672	93.25
370.898	89.25
371.124	91.25
371.35	84.25
371.576	87.25
371.802	83.25
372.028	71.25
372.254	93.25
372.48	85.25
372.706	85.25
372.932	79.25
373.158	91.25
373.384	103.25
373.61	97.25
373.835	88.25
374.061	87.25
374.287	75.25
374.513	90.25
374.739	81.25
374.965	82.25
375.191	83.25
375.416	88.25
375.642	96.25
375.868	87.25
376.094	95.25
376.319	84.25
376.545	92.25
376.771	88.25
376.997	88.25
377.222	80.25
377.448	104.25
377.674	82.25
377.899	101.25
378.125	75.25
378.35	95.25
378.576	84.25
378.802	90.25
379.027	75.25
379.253	93.25
379.478	96.25
379.704	83.25
379.929	77.25
380.155	84.25
380.38	90.25
380.606	96.25
380.831	83.25
381.057	76.25
381.282	98.25
381.507	86.25
381.733	91.25
381.958	105.25
382.184	96.25
382.409	92.25
382.634	104.25
382.86	97.25
383.085	95.25
383.31	107.25
383.535	97.25
383.761	81.25
383.986	97.25
384.211	103.25
384.436	84.25
384.662	99.25
384.887	87.25
385.112	101.25
385.337	91.25
385.562	95.25
385.787	97.25
386.013	99.25
386.238	106.25
386.463	107.25
386.688	103.25
386.913	97.25
387.138	98.25
387.363	90.25
387.588	92.25
387.813	87.25
388.038	98.25
388.263	123.25
388.488	105.25
388.713	91.25
388.938	101.25
389.163	96.25
389.387	88.25
389.612	98.25
389.837	81.25
390.062	91.25
390.287	108.25
390.512	81.25
390.736	79.25
390.961	83.25
391.186	76.25
391.411	87.25
391.636	92.25
391.86	80.25
392.085	84.25
392.31	89.25
392.534	83.25
392.759	88.25
392.984	101.25
393.208	83.25
393.433	79.25
393.658	87.25
393.882	82.25
394.107	92.25
394.331	84.25
394.556	77.25
394.78	97.25
395.005	80.25
395.229	76.25
395.454	85.25
395.678	86.25
395.903	76.25
396.127	83.25
396.352	86.25
396.576	96.25
396.801	78.25
397.025	87.25
397.249	86.25
397.474	73.25
397.698	73.25
397.922	88.25
398.147	86.25
398.371	97.25
398.595	84.25
398.82	83.25
399.044	68.25
399.268	87.25
399.492	85.25
399.717	93.25
399.941	97.25
400.165	105.25
400.389	98.25
400.613	92.25
400.837	103.25
401.062	84.25
401.286	76.25
401.51	86.25
401.734	91.25
401.958	109.25
402.182	139.25
402.406	167.25
402.63	124.25
402.854	88.25
403.078	78.25
403.302	77.25
403.526	90.25
403.75	85.25
403.974	91.25
404.198	95.25
404.422	84.25
404.645	89.25
404.869	97.25
405.093	87.25
405.317	96.25
405.541	89.25
405.765	102.25
405.988	130.25
406.212	186.25
406.436	240.25
406.66	157.25
406.883	115.25
407.107	91.25
407.331	86.25
407.555	95.25
407.778	91.25
408.002	84.25
408.226	92.25
408.449	85.25
408.673	76.25
408.896	74.25
409.12	91.25
409.344	92.25
409.567	78.25
409.791	89.25
410.014	97.25
410.238	90.25
410.461	101.25
410.685	82.25
410.908	95.25
411.132	111.25
411.355	84.25
411.578	94.25
411.802	83.25
412.025	74.25
412.249	92.25
412.472	96.25
412.695	79.25
412.919	88.25
413.142	86.25
413.365	76.25
413.589	91.25
413.812	99.25
414.035	91.25
414.258	83.25
414.482	80.25
414.705	89.25
414.928	86.25
415.151	83.25
415.374	98.25
415.597	83.25
415.821	95.25
416.044	107.25
416.267	80.25
416.49	82.25
416.713	77.25
416.936	85.25
417.159	97.25
417.382	80.25
417.605	88.25
417.828	92.25
418.051	79.25
418.274	92.25
418.497	73.25
418.72	103.25
418.943	91.25
419.166	92.25
419.389	92.25
419.611	87.25
419.834	72.25
420.057	86.25
420.28	87.25
420.503	76.25
420.726	72.25
420.948	80.25
421.171	114.25
421.394	97.25
421.617	95.25
421.839	79.25
422.062	100.25
422.285	91.25
422.507	92.25
422.73	95.25
422.953	90.25
423.175	76.25
423.398	84.25
423.621	83.25
423.843	89.25
424.066	84.25
424.288	78.25
424.511	103.25
424.733	96.25
424.956	113.25
425.178	105.25
425.401	93.25
425.623	97.25
425.846	85.25
426.068	83.25
426.291	90.25
426.513	88.25
426.735	89.25
426.958	103.25
427.18	105.25
427.402	137.25
427.625	179.25
427.847	151.25
428.069	120.25
428.292	105.25
428.514	90.25
428.736	81.25
428.958	85.25
429.181	82.25
429.403	93.25
429.625	95.25
429.847	74.25
430.069	93.25
430.292	103.25
430.514	88.25
430.736	79.25
430.958	73.25
431.18	83.25
431.402	73.25
431.624	87.25
431.846	90.25
432.068	96.25
432.29	89.25
432.512	103.25
432.734	89.25
432.956	94.25
433.178	99.25
433.4	100.25
433.622	94.25
433.844	82.25
434.066	87.25
434.287	87.25
434.509	91.25
434.731	77.25
434.953	79.25
435.175	87.25
435.397	76.25
435.618	96.25
435.84	107.25
436.062	99.25
436.284	117.25
436.505	100.25
436.727	101.25
436.949	94.25
437.17	91.25
437.392	95.25
437.614	97.25
437.835	103.25
438.057	128.25
438.278	104.25
438.5	109.25
438.721	122.25
438.943	98.25
439.165	106.25
439.386	83.25
439.608	86.25
439.829	91.25
440.05	117.25
440.272	138.25
440.493	97.25
440.715	77.25
440.936	98.25
441.158	93.25
441.379	76.25
441.6	98.25
441.822	93.25
442.043	90.25
442.264	97.25
442.486	95.25
442.707	83.25
442.928	102.25
443.149	137.25
443.371	132.25
443.592	111.25
443.813	107.25
444.034	104.25
444.255	100.25
444.476	96.25
444.698	80.25
444.919	81.25
445.14	139.25
445.361	131.25
445.582	124.25
445.803	147.25
446.024	125.25
446.245	145.25
446.466	118.25
446.687	90.25
446.908	97.25
447.129	71.25
447.35	87.25
447.571	95.25
447.792	83.25
448.013	100.25
448.234	101.25
448.455	105.25
448.675	102.25
448.896	107.25
449.117	99.25
449.338	96.25
449.559	114.25
449.779	117.25
450	91.25
450.221	74.25
450.442	79.25
450.662	92.25
450.883	110.25
451.104	122.25
451.324	113.25
451.545	86.25
451.766	85.25
451.986	88.25
452.207	79.25
452.428	86.25
452.648	92.25
452.869	95.25
453.089	114.25
453.31	127.25
453.53	99.25
453.751	91.25
453.971	88.25
454.192	101.25
454.412	98.25
454.633	89.25
454.853	91.25
455.073	85.25
455.294	89.25
455.514	110.25
455.734	92.25
455.955	92.25
456.175	87.25
456.395	76.25
456.616	76.25
456.836	85.25
457.056	92.25
457.276	85.25
457.497	83.25
457.717	85.25
457.937	84.25
458.157	97.25
458.377	84.25
458.598	105.25
458.818	146.25
459.038	153.25
459.258	122.25
459.478	106.25
459.698	87.25
459.918	79.25
460.138	91.25
460.358	80.25
460.578	90.25
460.798	98.25
461.018	104.25
461.238	86.25
461.458	83.25
461.678	73.25
461.898	88.25
462.118	79.25
462.338	78.25
462.558	92.25
462.777	96.25
462.997	84.25
463.217	100.25
463.437	78.25
463.657	86.25
463.876	97.25
464.096	79.25
464.316	74.25
464.536	92.25
464.755	106.25
464.975	117.25
465.195	181.25
465.414	167.25
465.634	101.25
465.854	76.25
466.073	88.25
466.293	76.25
466.512	83.25
466.732	82.25
466.951	84.25
467.171	82.25
467.391	106.25
467.61	114.25
467.829	98.25
468.049	153.25
468.268	187.25
468.488	98.25
468.707	87.25
468.927	71.25
469.146	90.25
469.365	81.25
469.585	86.25
469.804	93.25
470.023	87.25
470.243	95.25
470.462	104.25
470.681	116.25
470.901	83.25
471.12	82.25
471.339	89.25
471.558	83.25
471.777	107.25
471.997	129.25
472.216	240.25
472.435	435.25
472.654	170.25
472.873	93.25
473.092	91.25
473.311	90.25
473.53	81.25
473.749	87.25
473.968	83.25
474.187	98.25
474.406	116.25
474.625	90.25
474.844	99.25
475.063	78.25
475.282	88.25
475.501	84.25
475.72	85.25
475.939	87.25
476.158	92.25
476.377	89.25
476.596	90.25
476.814	72.25
477.033	90.25
477.252	77.25
477.471	80.25
477.69	79.25
477.908	89.25
478.127	89.25
478.346	96.25
478.564	95.25
478.783	95.25
479.002	94.25
479.22	90.25
479.439	106.25
479.658	104.25
479.876	88.25
480.095	87.25
480.313	101.25
480.532	105.25
480.751	120.25
480.969	230.25
481.188	727.25
481.406	481.25
481.624	131.25
481.843	87.25
482.061	74.25
482.28	69.25
482.498	88.25
482.717	91.25
482.935	82.25
483.153	93.25
483.372	85.25
483.59	81.25
483.808	86.25
484.027	98.25
484.245	90.25
484.463	84.25
484.681	99.25
484.9	79.25
485.118	95.25
485.336	98.25
485.554	88.25
485.772	93.25
485.99	94.25
486.209	98.25
486.427	99.25
486.645	100.25
486.863	118.25
487.081	95.25
487.299	93.25
487.517	88.25
487.735	91.25
487.953	91.25
488.171	93.25
488.389	100.25
488.607	95.25
488.825	92.25
489.043	82.25
489.261	91.25
489.479	90.25
489.696	83.25
489.914	86.25
490.132	89.25
490.35	79.25
490.568	106.25
490.786	85.25
491.003	89.25
491.221	88.25
491.439	99.25
491.657	76.25
491.874	89.25
492.092	94.25
492.31	95.25
492.527	80.25
492.745	84.25
492.963	81.25
493.18	86.25
493.398	102.25
493.615	90.25
493.833	88.25
494.05	85.25
494.268	98.25
494.485	91.25
494.703	90.25
494.92	80.25
495.138	93.25
495.355	94.25
495.573	87.25
495.79	88.25
496.008	81.25
496.225	73.25
496.442	80.25
496.66	90.25
496.877	74.25
497.094	92.25
497.312	88.25
497.529	76.25
497.746	92.25
497.963	88.25
498.181	85.25
498.398	101.25
498.615	109.25
498.832	98.25
499.049	92.25
499.267	81.25
499.484	77.25
499.701	88.25
499.918	91.25
500.135	79.25
500.352	86.25
500.569	92.25
500.786	82.25
501.003	90.25
501.22	63.25
501.437	79.25
501.654	92.25
501.871	108.25
502.088	89.25
502.305	77.25
502.522	81.25
502.739	87.25
502.956	95.25
503.172	93.25
503.389	82.25
503.606	112.25
503.823	88.25
504.04	96.25
504.256	93.25
504.473	87.25
504.69	87.25
504.907	88.25
505.123	89.25
505.34	82.25
505.557	79.25
505.773	88.25
505.99	89.25
506.207	91.25
506.423	85.25
506.64	97.25
506.856	83.25
507.073	93.25
507.289	89.25
507.506	97.25
507.722	115.25
507.939	98.25
508.155	92.25
508.372	91.25
508.588	96.25
508.805	93.25
509.021	89.25
509.238	85.25
509.454	93.25
509.67	97.25
509.887	116.25
510.103	133.25
510.319	211.25
510.536	753.25
510.752	2602.25
510.968	725.25
511.184	155.25
511.401	107.25
511.617	103.25
511.833	91.25
512.049	95.25
512.265	87.25
512.481	97.25
512.698	96.25
512.914	88.25
513.13	103.25
513.346	98.25
513.562	90.25
513.778	86.25
513.994	101.25
514.21	92.25
514.426	109.25
514.642	121.25
514.858	133.25
515.074	163.25
515.29	486.25
515.506	1727.25
515.721	656.25
515.937	177.25
516.153	115.25
