Data from Circ_2014_H10_HRD10591_00058.txt Node
Date: Wed Jan 03 10:02:20 EST 2024
User: Yrep
Spectrometer: HR+D1059
Trigger mode: 1
Integration Time (sec): 1.000000E-1
Scans to average: 1
Electric dark correction enabled: true
Nonlinearity correction enabled: false
Boxcar width: 0
XAxis mode: Wavelengths
Number of Pixels in Spectrum: 2048
>>>>>Begin Spectral Data<<<<<
223.165	-15.38
223.4	-15.38
223.635	-15.38
223.869	-13.38
224.104	-20.38
224.338	-11.38
224.573	-24.38
224.808	-15.38
225.042	0.62
225.277	5.62
225.511	-20.38
225.746	6.62
225.98	-2.38
226.215	18.62
226.449	13.62
226.683	29.62
226.918	20.62
227.152	27.62
227.387	36.62
227.621	20.62
227.856	46.62
228.09	39.62
228.324	52.62
228.559	60.62
228.793	71.62
229.027	59.62
229.262	62.62
229.496	58.62
229.73	81.62
229.964	81.62
230.199	67.62
230.433	84.62
230.667	85.62
230.901	81.62
231.136	66.62
231.37	69.62
231.604	79.62
231.838	82.62
232.072	91.62
232.306	84.62
232.541	85.62
232.775	86.62
233.009	72.62
233.243	82.62
233.477	82.62
233.711	84.62
233.945	72.62
234.179	83.62
234.413	72.62
234.647	72.62
234.881	87.62
235.115	81.62
235.349	66.62
235.583	82.62
235.817	84.62
236.051	63.62
236.285	71.62
236.519	84.62
236.753	84.62
236.987	76.62
237.221	75.62
237.455	80.62
237.689	64.62
237.922	79.62
238.156	85.62
238.39	73.62
238.624	80.62
238.858	89.62
239.091	90.62
239.325	78.62
239.559	77.62
239.793	67.62
240.027	78.62
240.26	70.62
240.494	73.62
240.728	73.62
240.961	88.62
241.195	80.62
241.429	80.62
241.662	68.62
241.896	73.62
242.13	56.62
242.363	91.62
242.597	77.62
242.83	82.62
243.064	81.62
243.298	80.62
243.531	76.62
243.765	80.62
243.998	80.62
244.232	88.62
244.465	90.62
244.699	79.62
244.932	68.62
245.166	89.62
245.399	84.62
245.633	70.62
245.866	62.62
246.099	80.62
246.333	71.62
246.566	93.62
246.8	80.62
247.033	79.62
247.266	67.62
247.5	64.62
247.733	76.62
247.966	78.62
248.2	75.62
248.433	71.62
248.666	87.62
248.899	83.62
249.133	67.62
249.366	76.62
249.599	93.62
249.832	74.62
250.066	88.62
250.299	87.62
250.532	78.62
250.765	84.62
250.998	71.62
251.231	65.62
251.465	72.62
251.698	72.62
251.931	63.62
252.164	80.62
252.397	76.62
252.63	91.62
252.863	73.62
253.096	67.62
253.329	76.62
253.562	84.62
253.795	72.62
254.028	89.62
254.261	70.62
254.494	70.62
254.727	80.62
254.96	75.62
255.193	71.62
255.426	69.62
255.659	81.62
255.892	86.62
256.124	70.62
256.357	78.62
256.59	82.62
256.823	76.62
257.056	86.62
257.289	88.62
257.521	77.62
257.754	81.62
257.987	79.62
258.22	83.62
258.452	68.62
258.685	90.62
258.918	78.62
259.151	88.62
259.383	72.62
259.616	70.62
259.849	78.62
260.081	95.62
260.314	79.62
260.547	75.62
260.779	83.62
261.012	81.62
261.244	83.62
261.477	98.62
261.71	87.62
261.942	101.62
262.175	111.62
262.407	75.62
262.64	84.62
262.872	70.62
263.105	83.62
263.337	84.62
263.57	74.62
263.802	82.62
264.035	83.62
264.267	79.62
264.499	81.62
264.732	78.62
264.964	76.62
265.197	86.62
265.429	79.62
265.661	77.62
265.894	76.62
266.126	80.62
266.358	78.62
266.591	79.62
266.823	76.62
267.055	76.62
267.287	86.62
267.52	77.62
267.752	81.62
267.984	69.62
268.216	93.62
268.448	97.62
268.681	88.62
268.913	86.62
269.145	69.62
269.377	80.62
269.609	82.62
269.841	75.62
270.073	75.62
270.306	67.62
270.538	83.62
270.77	97.62
271.002	91.62
271.234	88.62
271.466	71.62
271.698	88.62
271.93	72.62
272.162	90.62
272.394	88.62
272.626	82.62
272.858	87.62
273.09	75.62
273.322	72.62
273.553	80.62
273.785	72.62
274.017	73.62
274.249	70.62
274.481	77.62
274.713	73.62
274.945	80.62
275.176	68.62
275.408	87.62
275.64	75.62
275.872	78.62
276.104	85.62
276.335	74.62
276.567	89.62
276.799	105.62
277.031	96.62
277.262	89.62
277.494	79.62
277.726	75.62
277.957	86.62
278.189	82.62
278.421	80.62
278.652	83.62
278.884	79.62
279.115	83.62
279.347	83.62
279.579	78.62
279.81	79.62
280.042	79.62
280.273	85.62
280.505	85.62
280.736	82.62
280.968	78.62
281.199	89.62
281.431	85.62
281.662	96.62
281.894	92.62
282.125	90.62
282.356	112.62
282.588	127.62
282.819	100.62
283.051	101.62
283.282	83.62
283.513	82.62
283.745	89.62
283.976	73.62
284.207	83.62
284.439	88.62
284.67	80.62
284.901	96.62
285.132	98.62
285.364	83.62
285.595	84.62
285.826	85.62
286.057	86.62
286.288	84.62
286.52	71.62
286.751	98.62
286.982	88.62
287.213	86.62
287.444	81.62
287.675	80.62
287.906	90.62
288.138	94.62
288.369	94.62
288.6	90.62
288.831	68.62
289.062	89.62
289.293	90.62
289.524	85.62
289.755	89.62
289.986	85.62
290.217	95.62
290.448	90.62
290.679	89.62
290.91	84.62
291.141	92.62
291.371	85.62
291.602	84.62
291.833	69.62
292.064	73.62
292.295	92.62
292.526	98.62
292.757	94.62
292.987	80.62
293.218	77.62
293.449	80.62
293.68	91.62
293.91	85.62
294.141	82.62
294.372	81.62
294.603	76.62
294.833	76.62
295.064	76.62
295.295	102.62
295.525	100.62
295.756	91.62
295.987	106.62
296.217	137.62
296.448	125.62
296.679	92.62
296.909	78.62
297.14	87.62
297.37	94.62
297.601	82.62
297.831	101.62
298.062	95.62
298.292	79.62
298.523	93.62
298.753	91.62
298.984	76.62
299.214	99.62
299.445	96.62
299.675	97.62
299.905	99.62
300.136	96.62
300.366	82.62
300.597	89.62
300.827	87.62
301.057	91.62
301.288	120.62
301.518	102.62
301.748	78.62
301.979	91.62
302.209	91.62
302.439	83.62
302.669	81.62
302.9	89.62
303.13	83.62
303.36	85.62
303.59	108.62
303.82	110.62
304.051	92.62
304.281	94.62
304.511	95.62
304.741	89.62
304.971	89.62
305.201	91.62
305.431	80.62
305.661	94.62
305.891	95.62
306.121	113.62
306.352	100.62
306.582	103.62
306.812	71.62
307.042	81.62
307.272	83.62
307.502	87.62
307.731	104.62
307.961	100.62
308.191	86.62
308.421	88.62
308.651	95.62
308.881	89.62
309.111	92.62
309.341	90.62
309.571	93.62
309.8	100.62
310.03	93.62
310.26	89.62
310.49	88.62
310.72	107.62
310.949	103.62
311.179	79.62
311.409	76.62
311.639	76.62
311.868	97.62
312.098	94.62
312.328	103.62
312.557	94.62
312.787	95.62
313.017	98.62
313.246	76.62
313.476	97.62
313.706	92.62
313.935	101.62
314.165	87.62
314.394	90.62
314.624	108.62
314.853	88.62
315.083	91.62
315.312	98.62
315.542	85.62
315.771	93.62
316.001	99.62
316.23	79.62
316.46	85.62
316.689	94.62
316.919	78.62
317.148	86.62
317.377	93.62
317.607	72.62
317.836	83.62
318.065	84.62
318.295	100.62
318.524	88.62
318.753	84.62
318.983	97.62
319.212	92.62
319.441	102.62
319.67	102.62
319.9	93.62
320.129	77.62
320.358	95.62
320.587	91.62
320.816	95.62
321.046	102.62
321.275	88.62
321.504	97.62
321.733	92.62
321.962	85.62
322.191	103.62
322.42	113.62
322.649	105.62
322.878	104.62
323.108	102.62
323.337	105.62
323.566	130.62
323.795	138.62
324.024	193.62
324.253	365.62
324.482	734.62
324.71	1434.62
324.939	1874.62
325.168	716.62
325.397	224.62
325.626	134.62
325.855	104.62
326.084	122.62
326.313	139.62
326.542	135.62
326.77	208.62
326.999	412.62
327.228	797.62
327.457	1464.62
327.686	1154.62
327.914	326.62
328.143	193.62
328.372	162.62
328.6	121.62
328.829	121.62
329.058	113.62
329.287	124.62
329.515	115.62
329.744	97.62
329.972	114.62
330.201	123.62
330.43	152.62
330.658	131.62
330.887	128.62
331.115	123.62
331.344	98.62
331.572	102.62
331.801	90.62
332.03	111.62
332.258	86.62
332.486	90.62
332.715	84.62
332.943	89.62
333.172	103.62
333.4	112.62
333.629	89.62
333.857	114.62
334.085	120.62
334.314	131.62
334.542	150.62
334.771	162.62
334.999	94.62
335.227	90.62
335.455	93.62
335.684	85.62
335.912	102.62
336.14	82.62
336.369	102.62
336.597	99.62
336.825	100.62
337.053	94.62
337.281	84.62
337.51	81.62
337.738	79.62
337.966	79.62
338.194	102.62
338.422	88.62
338.65	102.62
338.878	86.62
339.106	83.62
339.334	80.62
339.562	89.62
339.79	87.62
340.018	98.62
340.246	75.62
340.474	86.62
340.702	79.62
340.93	86.62
341.158	99.62
341.386	90.62
341.614	98.62
341.842	97.62
342.07	88.62
342.298	98.62
342.526	93.62
342.754	88.62
342.981	84.62
343.209	73.62
343.437	99.62
343.665	79.62
343.893	89.62
344.12	92.62
344.348	90.62
344.576	95.62
344.804	105.62
345.031	89.62
345.259	81.62
345.487	83.62
345.714	96.62
345.942	82.62
346.17	82.62
346.397	76.62
346.625	78.62
346.853	84.62
347.08	91.62
347.308	97.62
347.535	90.62
347.763	96.62
347.99	96.62
348.218	107.62
348.445	105.62
348.673	90.62
348.9	86.62
349.128	95.62
349.355	93.62
349.583	96.62
349.81	92.62
350.037	95.62
350.265	97.62
350.492	88.62
350.72	97.62
350.947	98.62
351.174	112.62
351.402	107.62
351.629	115.62
351.856	99.62
352.083	101.62
352.311	88.62
352.538	99.62
352.765	95.62
352.992	114.62
353.22	103.62
353.447	91.62
353.674	99.62
353.901	82.62
354.128	87.62
354.355	113.62
354.583	97.62
354.81	92.62
355.037	87.62
355.264	84.62
355.491	81.62
355.718	93.62
355.945	75.62
356.172	93.62
356.399	86.62
356.626	72.62
356.853	91.62
357.08	75.62
357.307	86.62
357.534	94.62
357.761	75.62
357.988	92.62
358.215	100.62
358.441	95.62
358.668	90.62
358.895	78.62
359.122	83.62
359.349	90.62
359.576	99.62
359.802	94.62
360.029	81.62
360.256	98.62
360.483	91.62
360.709	86.62
360.936	102.62
361.163	99.62
361.39	97.62
361.616	87.62
361.843	83.62
362.07	89.62
362.296	79.62
362.523	88.62
362.749	92.62
362.976	92.62
363.203	83.62
363.429	87.62
363.656	83.62
363.882	89.62
364.109	94.62
364.335	70.62
364.562	86.62
364.788	90.62
365.015	99.62
365.241	108.62
365.468	118.62
365.694	90.62
365.92	81.62
366.147	85.62
366.373	79.62
366.599	83.62
366.826	94.62
367.052	86.62
367.278	77.62
367.505	82.62
367.731	79.62
367.957	82.62
368.184	93.62
368.41	98.62
368.636	113.62
368.862	117.62
369.089	102.62
369.315	84.62
369.541	81.62
369.767	69.62
369.993	90.62
370.219	85.62
370.445	69.62
370.672	99.62
370.898	81.62
371.124	86.62
371.35	80.62
371.576	75.62
371.802	86.62
372.028	76.62
372.254	76.62
372.48	77.62
372.706	78.62
372.932	81.62
373.158	71.62
373.384	98.62
373.61	75.62
373.835	84.62
374.061	98.62
374.287	89.62
374.513	97.62
374.739	80.62
374.965	80.62
375.191	82.62
375.416	87.62
375.642	85.62
375.868	96.62
376.094	74.62
376.319	94.62
376.545	84.62
376.771	95.62
376.997	82.62
377.222	80.62
377.448	95.62
377.674	85.62
377.899	86.62
378.125	102.62
378.35	94.62
378.576	84.62
378.802	83.62
379.027	81.62
379.253	77.62
379.478	88.62
379.704	80.62
379.929	92.62
380.155	99.62
380.38	94.62
380.606	96.62
380.831	99.62
381.057	104.62
381.282	93.62
381.507	100.62
381.733	94.62
381.958	92.62
382.184	94.62
382.409	95.62
382.634	100.62
382.86	100.62
383.085	94.62
383.31	100.62
383.535	102.62
383.761	93.62
383.986	102.62
384.211	106.62
384.436	83.62
384.662	116.62
384.887	84.62
385.112	89.62
385.337	98.62
385.562	121.62
385.787	101.62
386.013	96.62
386.238	106.62
386.463	98.62
386.688	98.62
386.913	98.62
387.138	88.62
387.363	103.62
387.588	75.62
387.813	94.62
388.038	101.62
388.263	87.62
388.488	102.62
388.713	90.62
388.938	96.62
389.163	92.62
389.387	90.62
389.612	92.62
389.837	81.62
390.062	83.62
390.287	84.62
390.512	85.62
390.736	71.62
390.961	90.62
391.186	98.62
391.411	97.62
391.636	92.62
391.86	83.62
392.085	83.62
392.31	68.62
392.534	81.62
392.759	76.62
392.984	71.62
393.208	90.62
393.433	91.62
393.658	81.62
393.882	91.62
394.107	76.62
394.331	98.62
394.556	78.62
394.78	92.62
395.005	65.62
395.229	83.62
395.454	79.62
395.678	88.62
395.903	77.62
396.127	82.62
396.352	89.62
396.576	75.62
396.801	85.62
397.025	82.62
397.249	71.62
397.474	79.62
397.698	83.62
397.922	85.62
398.147	85.62
398.371	78.62
398.595	83.62
398.82	96.62
399.044	74.62
399.268	84.62
399.492	70.62
399.717	74.62
399.941	85.62
400.165	102.62
400.389	83.62
400.613	84.62
400.837	84.62
401.062	86.62
401.286	86.62
401.51	83.62
401.734	85.62
401.958	88.62
402.182	129.62
402.406	136.62
402.63	113.62
402.854	84.62
403.078	88.62
403.302	103.62
403.526	86.62
403.75	89.62
403.974	88.62
404.198	82.62
404.422	73.62
404.645	75.62
404.869	98.62
405.093	83.62
405.317	90.62
405.541	87.62
405.765	107.62
405.988	119.62
406.212	154.62
406.436	216.62
406.66	148.62
406.883	96.62
407.107	90.62
407.331	102.62
407.555	96.62
407.778	94.62
408.002	85.62
408.226	97.62
408.449	82.62
408.673	88.62
408.896	88.62
409.12	102.62
409.344	79.62
409.567	102.62
409.791	91.62
410.014	90.62
410.238	83.62
410.461	97.62
410.685	98.62
410.908	90.62
411.132	90.62
411.355	91.62
411.578	86.62
411.802	87.62
412.025	83.62
412.249	100.62
412.472	94.62
412.695	89.62
412.919	92.62
413.142	93.62
413.365	90.62
413.589	86.62
413.812	90.62
414.035	99.62
414.258	76.62
414.482	86.62
414.705	88.62
414.928	81.62
415.151	89.62
415.374	85.62
415.597	83.62
415.821	76.62
416.044	91.62
416.267	84.62
416.49	102.62
416.713	79.62
416.936	82.62
417.159	89.62
417.382	82.62
417.605	90.62
417.828	94.62
418.051	82.62
418.274	74.62
418.497	84.62
418.72	89.62
418.943	73.62
419.166	87.62
419.389	79.62
419.611	90.62
419.834	90.62
420.057	90.62
420.28	76.62
420.503	91.62
420.726	78.62
420.948	93.62
421.171	83.62
421.394	84.62
421.617	76.62
421.839	74.62
422.062	83.62
422.285	89.62
422.507	99.62
422.73	93.62
422.953	85.62
423.175	83.62
423.398	84.62
423.621	68.62
423.843	68.62
424.066	81.62
424.288	80.62
424.511	82.62
424.733	86.62
424.956	105.62
425.178	96.62
425.401	105.62
425.623	87.62
425.846	85.62
426.068	81.62
426.291	79.62
426.513	93.62
426.735	83.62
426.958	97.62
427.18	96.62
427.402	114.62
427.625	148.62
427.847	128.62
428.069	113.62
428.292	94.62
428.514	84.62
428.736	88.62
428.958	76.62
429.181	81.62
429.403	86.62
429.625	76.62
429.847	80.62
430.069	97.62
430.292	88.62
430.514	87.62
430.736	72.62
430.958	71.62
431.18	69.62
431.402	83.62
431.624	72.62
431.846	78.62
432.068	70.62
432.29	72.62
432.512	83.62
432.734	98.62
432.956	95.62
433.178	97.62
433.4	89.62
433.622	86.62
433.844	87.62
434.066	81.62
434.287	92.62
434.509	94.62
434.731	87.62
434.953	81.62
435.175	95.62
435.397	87.62
435.618	91.62
435.84	85.62
436.062	122.62
436.284	112.62
436.505	104.62
436.727	92.62
436.949	79.62
437.17	82.62
437.392	79.62
437.614	86.62
437.835	99.62
438.057	98.62
438.278	102.62
438.5	100.62
438.721	108.62
438.943	95.62
439.165	87.62
439.386	80.62
439.608	91.62
439.829	87.62
440.05	105.62
440.272	139.62
440.493	94.62
440.715	74.62
440.936	97.62
441.158	97.62
441.379	89.62
441.6	87.62
441.822	80.62
442.043	84.62
442.264	89.62
442.486	98.62
442.707	93.62
442.928	101.62
443.149	125.62
443.371	121.62
443.592	103.62
443.813	90.62
444.034	95.62
444.255	84.62
444.476	88.62
444.698	90.62
444.919	87.62
445.14	134.62
445.361	114.62
445.582	116.62
445.803	112.62
446.024	126.62
446.245	135.62
446.466	101.62
446.687	91.62
446.908	72.62
447.129	81.62
447.35	87.62
447.571	82.62
447.792	89.62
448.013	111.62
448.234	110.62
448.455	102.62
448.675	102.62
448.896	118.62
449.117	103.62
449.338	92.62
449.559	99.62
449.779	108.62
450	83.62
450.221	94.62
450.442	67.62
450.662	85.62
450.883	90.62
451.104	103.62
451.324	84.62
451.545	71.62
451.766	92.62
451.986	83.62
452.207	74.62
452.428	87.62
452.648	92.62
452.869	125.62
453.089	112.62
453.31	110.62
453.53	83.62
453.751	86.62
453.971	110.62
454.192	103.62
454.412	86.62
454.633	82.62
454.853	79.62
455.073	65.62
455.294	92.62
455.514	97.62
455.734	83.62
455.955	76.62
456.175	77.62
456.395	87.62
456.616	84.62
456.836	91.62
457.056	83.62
457.276	94.62
457.497	76.62
457.717	82.62
457.937	80.62
458.157	89.62
458.377	96.62
458.598	115.62
458.818	140.62
459.038	154.62
459.258	98.62
459.478	89.62
459.698	94.62
459.918	87.62
460.138	78.62
460.358	82.62
460.578	82.62
460.798	89.62
461.018	93.62
461.238	92.62
461.458	96.62
461.678	91.62
461.898	80.62
462.118	73.62
462.338	81.62
462.558	84.62
462.777	91.62
462.997	77.62
463.217	82.62
463.437	95.62
463.657	76.62
463.876	93.62
464.096	92.62
464.316	83.62
464.536	94.62
464.755	83.62
464.975	93.62
465.195	158.62
465.414	144.62
465.634	82.62
465.854	84.62
466.073	80.62
466.293	97.62
466.512	94.62
466.732	77.62
466.951	84.62
467.171	75.62
467.391	96.62
467.61	103.62
467.829	89.62
468.049	94.62
468.268	113.62
468.488	99.62
468.707	79.62
468.927	86.62
469.146	80.62
469.365	82.62
469.585	94.62
469.804	88.62
470.023	81.62
470.243	82.62
470.462	96.62
470.681	114.62
470.901	84.62
471.12	91.62
471.339	90.62
471.558	91.62
471.777	90.62
471.997	96.62
472.216	131.62
472.435	188.62
472.654	114.62
472.873	80.62
473.092	89.62
473.311	81.62
473.53	79.62
473.749	97.62
473.968	83.62
474.187	100.62
474.406	96.62
474.625	90.62
474.844	71.62
475.063	92.62
475.282	83.62
475.501	72.62
475.72	98.62
475.939	82.62
476.158	107.62
476.377	76.62
476.596	79.62
476.814	84.62
477.033	80.62
477.252	89.62
477.471	85.62
477.69	96.62
477.908	94.62
478.127	84.62
478.346	79.62
478.564	91.62
478.783	96.62
479.002	98.62
479.22	87.62
479.439	91.62
479.658	84.62
479.876	81.62
480.095	84.62
480.313	82.62
480.532	79.62
480.751	96.62
480.969	118.62
481.188	278.62
481.406	214.62
481.624	74.62
481.843	83.62
482.061	82.62
482.28	86.62
482.498	97.62
482.717	94.62
482.935	78.62
483.153	89.62
483.372	90.62
483.59	80.62
483.808	89.62
484.027	86.62
484.245	84.62
484.463	81.62
484.681	81.62
484.9	86.62
485.118	94.62
485.336	95.62
485.554	94.62
485.772	99.62
485.99	94.62
486.209	83.62
486.427	90.62
486.645	101.62
486.863	116.62
487.081	107.62
487.299	86.62
487.517	106.62
487.735	87.62
487.953	87.62
488.171	101.62
488.389	98.62
488.607	101.62
488.825	86.62
489.043	89.62
489.261	95.62
489.479	87.62
489.696	105.62
489.914	93.62
490.132	79.62
490.35	91.62
490.568	94.62
490.786	78.62
491.003	74.62
491.221	81.62
491.439	87.62
491.657	73.62
491.874	86.62
492.092	82.62
492.31	95.62
492.527	84.62
492.745	89.62
492.963	97.62
493.18	98.62
493.398	94.62
493.615	74.62
493.833	98.62
494.05	88.62
494.268	85.62
494.485	94.62
494.703	79.62
494.92	98.62
495.138	76.62
495.355	87.62
495.573	87.62
495.79	81.62
496.008	98.62
496.225	87.62
496.442	94.62
496.66	102.62
496.877	98.62
497.094	86.62
497.312	88.62
497.529	81.62
497.746	81.62
497.963	81.62
498.181	97.62
498.398	106.62
498.615	94.62
498.832	95.62
499.049	80.62
499.267	101.62
499.484	90.62
499.701	88.62
499.918	89.62
500.135	81.62
500.352	81.62
500.569	94.62
500.786	92.62
501.003	95.62
501.22	73.62
501.437	95.62
501.654	103.62
501.871	118.62
502.088	104.62
502.305	85.62
502.522	91.62
502.739	77.62
502.956	88.62
503.172	76.62
503.389	98.62
503.606	105.62
503.823	102.62
504.04	106.62
504.256	94.62
504.473	94.62
504.69	90.62
504.907	100.62
505.123	93.62
505.34	80.62
505.557	100.62
505.773	93.62
505.99	82.62
506.207	79.62
506.423	81.62
506.64	89.62
506.856	76.62
507.073	92.62
507.289	78.62
507.506	87.62
507.722	98.62
507.939	107.62
508.155	109.62
508.372	97.62
508.588	97.62
508.805	91.62
509.021	92.62
509.238	97.62
509.454	109.62
509.67	106.62
509.887	102.62
510.103	122.62
510.319	190.62
510.536	746.62
510.752	2383.62
510.968	710.62
511.184	173.62
511.401	110.62
511.617	86.62
511.833	98.62
512.049	88.62
512.265	87.62
512.481	87.62
512.698	86.62
512.914	99.62
513.13	80.62
513.346	82.62
513.562	83.62
513.778	103.62
513.994	95.62
514.21	93.62
514.426	106.62
514.642	130.62
514.858	134.62
515.074	153.62
515.29	424.62
515.506	1506.62
515.721	562.62
515.937	154.62
516.153	107.62
516.369	93.62
516.585	98.62
516.801	94.62
