Data from Circ_2014_H10_HRD10591_00057.txt Node
Date: Wed Jan 03 10:02:20 EST 2024
User: Yrep
Spectrometer: HR+D1059
Trigger mode: 1
Integration Time (sec): 1.000000E-1
Scans to average: 1
Electric dark correction enabled: true
Nonlinearity correction enabled: false
Boxcar width: 0
XAxis mode: Wavelengths
Number of Pixels in Spectrum: 2048
>>>>>Begin Spectral Data<<<<<
223.165	-3.56
223.4	-3.56
223.635	-3.56
223.869	-23.56
224.104	-7.56
224.338	-15.56
224.573	-11.56
224.808	-10.56
225.042	-2.56
225.277	-1.56
225.511	-8.56
225.746	-4.56
225.98	14.44
226.215	10.44
226.449	24.44
226.683	10.44
226.918	21.44
227.152	8.44
227.387	31.44
227.621	43.44
227.856	55.44
228.09	44.44
228.324	57.44
228.559	63.44
228.793	179.44
229.027	446.44
229.262	539.44
229.496	647.44
229.73	848.44
229.964	823.44
230.199	568.44
230.433	487.44
230.667	501.44
230.901	468.44
231.136	435.44
231.37	444.44
231.604	458.44
231.838	450.44
232.072	441.44
232.306	459.44
232.541	456.44
232.775	481.44
233.009	474.44
233.243	476.44
233.477	479.44
233.711	508.44
233.945	515.44
234.179	507.44
234.413	500.44
234.647	528.44
234.881	538.44
235.115	544.44
235.349	544.44
235.583	554.44
235.817	609.44
236.051	638.44
236.285	619.44
236.519	647.44
236.753	717.44
236.987	957.44
237.221	1417.44
237.455	1547.44
237.689	915.44
237.922	758.44
238.156	767.44
238.39	691.44
238.624	622.44
238.858	648.44
239.091	643.44
239.325	683.44
239.559	692.44
239.793	720.44
240.027	757.44
240.26	930.44
240.494	987.44
240.728	972.44
240.961	917.44
241.195	806.44
241.429	771.44
241.662	780.44
241.896	771.44
242.13	777.44
242.363	805.44
242.597	795.44
242.83	836.44
243.064	823.44
243.298	830.44
243.531	837.44
243.765	809.44
243.998	846.44
244.232	870.44
244.465	901.44
244.699	919.44
244.932	911.44
245.166	886.44
245.399	900.44
245.633	886.44
245.866	916.44
246.099	930.44
246.333	940.44
246.566	981.44
246.8	990.44
247.033	1007.44
247.266	1051.44
247.5	1113.44
247.733	1203.44
247.966	1163.44
248.2	1166.44
248.433	1162.44
248.666	1221.44
248.899	1369.44
249.133	1512.44
249.366	1493.44
249.599	1369.44
249.832	1247.44
250.066	1294.44
250.299	1409.44
250.532	1610.44
250.765	1784.44
250.998	1866.44
251.231	1722.44
251.465	1487.44
251.698	1447.44
251.931	1422.44
252.164	1408.44
252.397	1431.44
252.63	1459.44
252.863	1583.44
253.096	1689.44
253.329	1756.44
253.562	1671.44
253.795	1581.44
254.028	1621.44
254.261	1673.44
254.494	1851.44
254.727	2229.44
254.96	2287.44
255.193	1996.44
255.426	1809.44
255.659	1803.44
255.892	1987.44
256.124	2203.44
256.357	2082.44
256.59	1777.44
256.823	1656.44
257.056	1592.44
257.289	1567.44
257.521	1585.44
257.754	1606.44
257.987	1558.44
258.22	1508.44
258.452	1561.44
258.685	1580.44
258.918	1623.44
259.151	1613.44
259.383	1699.44
259.616	1731.44
259.849	1806.44
260.081	1935.44
260.314	2130.44
260.547	2039.44
260.779	1860.44
261.012	1830.44
261.244	1723.44
261.477	1683.44
261.71	1709.44
261.942	1785.44
262.175	1831.44
262.407	1750.44
262.64	1667.44
262.872	1687.44
263.105	1666.44
263.337	1652.44
263.57	1680.44
263.802	1689.44
264.035	1680.44
264.267	1673.44
264.499	1684.44
264.732	1682.44
264.964	1678.44
265.197	1722.44
265.429	1737.44
265.661	1697.44
265.894	1740.44
266.126	1748.44
266.358	1752.44
266.591	1804.44
266.823	1851.44
267.055	1891.44
267.287	1870.44
267.52	1851.44
267.752	1800.44
267.984	1902.44
268.216	1886.44
268.448	1958.44
268.681	2031.44
268.913	2156.44
269.145	2346.44
269.377	2419.44
269.609	2342.44
269.841	2316.44
270.073	2425.44
270.306	2689.44
270.538	2871.44
270.77	2640.44
271.002	2520.44
271.234	2485.44
271.466	2667.44
271.698	2780.44
271.93	2768.44
272.162	2797.44
272.394	2700.44
272.626	2518.44
272.858	2369.44
273.09	2319.44
273.322	2297.44
273.553	2260.44
273.785	2204.44
274.017	2234.44
274.249	2290.44
274.481	2240.44
274.713	2325.44
274.945	2315.44
275.176	2301.44
275.408	2320.44
275.64	2301.44
275.872	2291.44
276.104	2330.44
276.335	2367.44
276.567	2445.44
276.799	2623.44
277.031	2936.44
277.262	2989.44
277.494	2797.44
277.726	2646.44
277.957	2554.44
278.189	2523.44
278.421	2453.44
278.652	2369.44
278.884	2421.44
279.115	2415.44
279.347	2388.44
279.579	2424.44
279.81	2420.44
280.042	2438.44
280.273	2438.44
280.505	2475.44
280.736	2467.44
280.968	2454.44
281.199	2459.44
281.431	2443.44
281.662	2492.44
281.894	2467.44
282.125	2526.44
282.356	2743.44
282.588	2872.44
282.819	2736.44
283.051	2575.44
283.282	2541.44
283.513	2532.44
283.745	2617.44
283.976	2640.44
284.207	2691.44
284.439	2632.44
284.67	2670.44
284.901	2615.44
285.132	2601.44
285.364	2666.44
285.595	2657.44
285.826	2631.44
286.057	2664.44
286.288	2651.44
286.52	2670.44
286.751	2724.44
286.982	2697.44
287.213	2756.44
287.444	2763.44
287.675	2848.44
287.906	2958.44
288.138	2991.44
288.369	2897.44
288.6	2933.44
288.831	2887.44
289.062	2827.44
289.293	2851.44
289.524	2826.44
289.755	2804.44
289.986	2803.44
290.217	2792.44
290.448	2807.44
290.679	2817.44
290.91	2801.44
291.141	2815.44
291.371	2771.44
291.602	2834.44
291.833	2785.44
292.064	2863.44
292.295	2836.44
292.526	2848.44
292.757	2833.44
292.987	2800.44
293.218	2798.44
293.449	2867.44
293.68	2856.44
293.91	2868.44
294.141	2864.44
294.372	2807.44
294.603	2830.44
294.833	2839.44
295.064	2851.44
295.295	2929.44
295.525	2896.44
295.756	2984.44
295.987	3023.44
296.217	3214.44
296.448	3155.44
296.679	2981.44
296.909	2959.44
297.14	2946.44
297.37	3052.44
297.601	3062.44
297.831	3011.44
298.062	3082.44
298.292	3109.44
298.523	3085.44
298.753	3136.44
298.984	3077.44
299.214	3084.44
299.445	3166.44
299.675	3123.44
299.905	3123.44
300.136	3164.44
300.366	3120.44
300.597	3145.44
300.827	3287.44
301.057	3351.44
301.288	3415.44
301.518	3332.44
301.748	3326.44
301.979	3374.44
302.209	3441.44
302.439	3468.44
302.669	3324.44
302.9	3268.44
303.13	3258.44
303.36	3332.44
303.59	3386.44
303.82	3385.44
304.051	3415.44
304.281	3344.44
304.511	3308.44
304.741	3248.44
304.971	3290.44
305.201	3304.44
305.431	3310.44
305.661	3293.44
305.891	3263.44
306.121	3280.44
306.352	3322.44
306.582	3376.44
306.812	3262.44
307.042	3259.44
307.272	3304.44
307.502	3289.44
307.731	3327.44
307.961	3300.44
308.191	3304.44
308.421	3266.44
308.651	3344.44
308.881	3322.44
309.111	3341.44
309.341	3379.44
309.571	3420.44
309.8	3548.44
310.03	3672.44
310.26	3673.44
310.49	3642.44
310.72	3703.44
310.949	3806.44
311.179	3819.44
311.409	3696.44
311.639	3645.44
311.868	3719.44
312.098	3779.44
312.328	3798.44
312.557	3983.44
312.787	4066.44
313.017	3968.44
313.246	3856.44
313.476	3801.44
313.706	3817.44
313.935	3881.44
314.165	3975.44
314.394	4059.44
314.624	3980.44
314.853	3899.44
315.083	3818.44
315.312	3780.44
315.542	3748.44
315.771	3680.44
316.001	3699.44
316.23	3712.44
316.46	3729.44
316.689	3757.44
316.919	3766.44
317.148	3809.44
317.377	3804.44
317.607	3824.44
317.836	3754.44
318.065	3682.44
318.295	3694.44
318.524	3752.44
318.753	3714.44
318.983	3673.44
319.212	3651.44
319.441	3810.44
319.67	3800.44
319.9	3793.44
320.129	3685.44
320.358	3763.44
320.587	3772.44
320.816	3807.44
321.046	3916.44
321.275	3831.44
321.504	3933.44
321.733	3952.44
321.962	4028.44
322.191	4123.44
322.42	4258.44
322.649	4237.44
322.878	4346.44
323.108	4464.44
323.337	4689.44
323.566	4897.44
323.795	5181.44
324.024	5815.44
324.253	7867.44
324.482	11872.44
324.71	15601.44
324.939	15601.44
325.168	13632.44
325.397	6838.44
325.626	5457.44
325.855	4988.44
326.084	4910.44
326.313	4959.44
326.542	5118.44
326.77	5777.44
326.999	7504.44
327.228	11125.44
327.457	14942.44
327.686	14219.44
327.914	7877.44
328.143	6485.44
328.372	6203.44
328.6	5683.44
328.829	5613.44
329.058	5800.44
329.287	5706.44
329.515	5391.44
329.744	5284.44
329.972	5620.44
330.201	6103.44
330.43	6597.44
330.658	6346.44
330.887	6398.44
331.115	5743.44
331.344	5294.44
331.572	5039.44
331.801	5189.44
332.03	5308.44
332.258	5111.44
332.486	5121.44
332.715	5176.44
332.943	5400.44
333.172	5575.44
333.4	5742.44
333.629	5829.44
333.857	6156.44
334.085	6336.44
334.314	6862.44
334.542	7496.44
334.771	7121.44
334.999	6001.44
335.227	5635.44
335.455	5406.44
335.684	5235.44
335.912	5159.44
336.14	5060.44
336.369	5007.44
336.597	5103.44
336.825	5029.44
337.053	4917.44
337.281	4845.44
337.51	4787.44
337.738	4791.44
337.966	4775.44
338.194	4813.44
338.422	4709.44
338.65	4592.44
338.878	4595.44
339.106	4510.44
339.334	4560.44
339.562	4501.44
339.79	4481.44
340.018	4456.44
340.246	4435.44
340.474	4514.44
340.702	4443.44
340.93	4441.44
341.158	4421.44
341.386	4420.44
341.614	4432.44
341.842	4381.44
342.07	4320.44
342.298	4360.44
342.526	4351.44
342.754	4322.44
342.981	4368.44
343.209	4497.44
343.437	4670.44
343.665	4902.44
343.893	5195.44
344.12	5199.44
344.348	4960.44
344.576	4817.44
344.804	4794.44
345.031	4713.44
345.259	4635.44
345.487	4507.44
345.714	4434.44
345.942	4324.44
346.17	4266.44
346.397	4242.44
346.625	4315.44
346.853	4237.44
347.08	4245.44
347.308	4290.44
347.535	4398.44
347.763	4390.44
347.99	4285.44
348.218	4401.44
348.445	4384.44
348.673	4332.44
348.9	4196.44
349.128	4136.44
349.355	4176.44
349.583	4117.44
349.81	4107.44
350.037	4120.44
350.265	4068.44
350.492	4089.44
350.72	4069.44
350.947	4167.44
351.174	4235.44
351.402	4262.44
351.629	4265.44
351.856	4293.44
352.083	4330.44
352.311	4302.44
352.538	4253.44
352.765	4295.44
352.992	4209.44
353.22	4165.44
353.447	4105.44
353.674	4090.44
353.901	4028.44
354.128	4034.44
354.355	3988.44
354.583	4002.44
354.81	3990.44
355.037	3981.44
355.264	3983.44
355.491	4000.44
355.718	4011.44
355.945	3936.44
356.172	3932.44
356.399	3970.44
356.626	3978.44
356.853	4014.44
357.08	3896.44
357.307	3941.44
357.534	3951.44
357.761	4016.44
357.988	4016.44
358.215	3932.44
358.441	4007.44
358.668	3992.44
358.895	4048.44
359.122	4056.44
359.349	4164.44
359.576	4369.44
359.802	4513.44
360.029	4747.44
360.256	4697.44
360.483	4477.44
360.709	4255.44
360.936	4306.44
361.163	4260.44
361.39	4307.44
361.616	4317.44
361.843	4207.44
362.07	4256.44
362.296	4262.44
362.523	4197.44
362.749	4191.44
362.976	4080.44
363.203	4107.44
363.429	4060.44
363.656	4161.44
363.882	4099.44
364.109	4091.44
364.335	4045.44
364.562	4044.44
364.788	4046.44
365.015	4101.44
365.241	4086.44
365.468	4172.44
365.694	4203.44
365.92	4118.44
366.147	4127.44
366.373	4107.44
366.599	4024.44
366.826	4061.44
367.052	4000.44
367.278	4112.44
367.505	4084.44
367.731	4104.44
367.957	4091.44
368.184	4122.44
368.41	4177.44
368.636	4305.44
368.862	4289.44
369.089	4180.44
369.315	4156.44
369.541	4141.44
369.767	4172.44
369.993	4178.44
370.219	4226.44
370.445	4244.44
370.672	4252.44
370.898	4269.44
371.124	4228.44
371.35	4288.44
371.576	4264.44
371.802	4291.44
372.028	4274.44
372.254	4289.44
372.48	4311.44
372.706	4428.44
372.932	4404.44
373.158	4342.44
373.384	4352.44
373.61	4443.44
373.835	4311.44
374.061	4359.44
374.287	4514.44
374.513	4533.44
374.739	4618.44
374.965	4775.44
375.191	4753.44
375.416	4669.44
375.642	4582.44
375.868	4496.44
376.094	4405.44
376.319	4355.44
376.545	4353.44
376.771	4337.44
376.997	4327.44
377.222	4355.44
377.448	4323.44
377.674	4317.44
377.899	4262.44
378.125	4294.44
378.35	4204.44
378.576	4242.44
378.802	4252.44
379.027	4241.44
379.253	4221.44
379.478	4240.44
379.704	4288.44
379.929	4275.44
380.155	4279.44
380.38	4298.44
380.606	4313.44
380.831	4308.44
381.057	4284.44
381.282	4343.44
381.507	4332.44
381.733	4467.44
381.958	4377.44
382.184	4505.44
382.409	4485.44
382.634	4498.44
382.86	4531.44
383.085	4642.44
383.31	4659.44
383.535	4779.44
383.761	4783.44
383.986	4824.44
384.211	4969.44
384.436	5019.44
384.662	5079.44
384.887	5100.44
385.112	5099.44
385.337	5239.44
385.562	5205.44
385.787	5232.44
386.013	5279.44
386.238	5319.44
386.463	5348.44
386.688	5273.44
386.913	5197.44
387.138	5125.44
387.363	5118.44
387.588	5102.44
387.813	5104.44
388.038	5145.44
388.263	5123.44
388.488	5151.44
388.713	5084.44
388.938	5142.44
389.163	5158.44
389.387	5111.44
389.612	5015.44
389.837	5056.44
390.062	5039.44
390.287	5065.44
390.512	5067.44
390.736	5134.44
390.961	5254.44
391.186	5262.44
391.411	5423.44
391.636	5557.44
391.86	5739.44
392.085	5644.44
392.31	5678.44
392.534	5538.44
392.759	5453.44
392.984	5277.44
393.208	5330.44
393.433	5329.44
393.658	5323.44
393.882	5374.44
394.107	5421.44
394.331	5388.44
394.556	5445.44
394.78	5486.44
395.005	5518.44
395.229	5445.44
395.454	5676.44
395.678	5771.44
395.903	5830.44
396.127	5899.44
396.352	5677.44
396.576	5464.44
396.801	5416.44
397.025	5458.44
397.249	5654.44
397.474	5804.44
397.698	5822.44
397.922	5919.44
398.147	6058.44
398.371	6141.44
398.595	6235.44
398.82	6593.44
399.044	7008.44
399.268	7915.44
399.492	8865.44
399.717	9488.44
399.941	9276.44
400.165	8704.44
400.389	8016.44
400.613	7221.44
400.837	6871.44
401.062	6709.44
401.286	6613.44
401.51	6517.44
401.734	6447.44
401.958	6596.44
402.182	6731.44
402.406	6888.44
402.63	6935.44
402.854	7056.44
403.078	6991.44
403.302	7118.44
403.526	7373.44
403.75	7277.44
403.974	7449.44
404.198	7449.44
404.422	7621.44
404.645	7536.44
404.869	7498.44
405.093	7848.44
405.317	8221.44
405.541	8156.44
405.765	7621.44
405.988	7312.44
406.212	7516.44
406.436	7703.44
406.66	7786.44
406.883	7783.44
407.107	8295.44
407.331	8897.44
407.555	9420.44
407.778	9011.44
408.002	8245.44
408.226	7894.44
408.449	7727.44
408.673	7652.44
408.896	7883.44
409.12	7993.44
409.344	7486.44
409.567	7192.44
409.791	7177.44
410.014	7029.44
410.238	6925.44
410.461	6975.44
410.685	7044.44
410.908	7176.44
411.132	7363.44
411.355	7394.44
411.578	7007.44
411.802	6791.44
412.025	6918.44
412.249	7112.44
412.472	7431.44
412.695	7671.44
412.919	7156.44
413.142	6787.44
413.365	6606.44
413.589	6587.44
413.812	6407.44
414.035	6351.44
414.258	6437.44
414.482	6451.44
414.705	6483.44
414.928	6429.44
415.151	6357.44
415.374	6329.44
415.597	6334.44
415.821	6262.44
416.044	6220.44
416.267	6286.44
416.49	6290.44
416.713	6207.44
416.936	6199.44
417.159	6273.44
417.382	6409.44
417.605	6421.44
417.828	6596.44
418.051	6749.44
418.274	6471.44
418.497	6459.44
418.72	6612.44
418.943	6508.44
419.166	6934.44
419.389	7307.44
419.611	7205.44
419.834	7068.44
420.057	7010.44
420.28	6966.44
420.503	6824.44
420.726	6735.44
420.948	6845.44
421.171	7112.44
421.394	7021.44
421.617	6681.44
421.839	6543.44
422.062	6663.44
422.285	6772.44
422.507	7445.44
422.73	7930.44
422.953	7385.44
423.175	7039.44
423.398	7009.44
423.621	7044.44
423.843	7277.44
424.066	7260.44
424.288	7177.44
424.511	7324.44
424.733	7770.44
424.956	8233.44
425.178	7827.44
425.401	7976.44
425.623	7770.44
425.846	6857.44
426.068	6643.44
426.291	6568.44
426.513	6631.44
426.735	6616.44
426.958	7235.44
427.18	8045.44
427.402	9170.44
427.625	9354.44
427.847	8225.44
428.069	7504.44
428.292	6684.44
428.514	6176.44
428.736	6044.44
428.958	5998.44
429.181	5883.44
429.403	5872.44
429.625	5965.44
429.847	6410.44
430.069	6965.44
430.292	6458.44
430.514	5780.44
430.736	5861.44
430.958	5675.44
431.18	5651.44
431.402	5701.44
431.624	5655.44
431.846	5756.44
432.068	5805.44
432.29	5855.44
432.512	5709.44
432.734	5870.44
432.956	5754.44
433.178	5866.44
433.4	5833.44
433.622	5773.44
433.844	5781.44
434.066	5855.44
434.287	5913.44
434.509	6141.44
434.731	6320.44
434.953	6496.44
435.175	6676.44
435.397	6749.44
435.618	6718.44
435.84	7072.44
436.062	7958.44
436.284	7817.44
436.505	6604.44
436.727	6319.44
436.949	5990.44
437.17	5909.44
437.392	5845.44
437.614	6038.44
437.835	6477.44
438.057	7435.44
438.278	8073.44
438.5	8018.44
438.721	8698.44
438.943	7719.44
439.165	6483.44
439.386	6288.44
439.608	6346.44
439.829	6403.44
440.05	6826.44
440.272	7248.44
440.493	6474.44
440.715	6281.44
440.936	6127.44
441.158	6120.44
441.379	6329.44
441.6	6523.44
441.822	6904.44
442.043	7381.44
442.264	8149.44
442.486	7841.44
442.707	7017.44
442.928	6817.44
443.149	6957.44
443.371	7273.44
443.592	7783.44
443.813	8801.44
444.034	8624.44
444.255	7529.44
444.476	7367.44
444.698	7464.44
444.919	7624.44
445.14	7391.44
445.361	7371.44
445.582	7512.44
445.803	8147.44
446.024	8792.44
446.245	8542.44
446.466	7546.44
446.687	6489.44
446.908	6165.44
447.129	5835.44
447.35	5757.44
447.571	5709.44
447.792	5528.44
448.013	5691.44
448.234	5893.44
448.455	6645.44
448.675	7752.44
448.896	8281.44
449.117	6797.44
449.338	7055.44
449.559	8295.44
449.779	8581.44
450	6559.44
450.221	5790.44
450.442	5572.44
450.662	5532.44
450.883	5706.44
451.104	5833.44
451.324	5600.44
451.545	5428.44
451.766	5313.44
451.986	5135.44
452.207	5083.44
452.428	5071.44
452.648	5133.44
452.869	5095.44
453.089	5316.44
453.31	5278.44
453.53	5183.44
453.751	5129.44
453.971	5133.44
454.192	5231.44
454.412	5059.44
454.633	4917.44
454.853	4966.44
455.073	5038.44
455.294	5424.44
455.514	5987.44
455.734	5431.44
455.955	4856.44
456.175	4718.44
456.395	4769.44
456.616	4679.44
456.836	4717.44
457.056	4653.44
457.276	4602.44
457.497	4795.44
457.717	4777.44
457.937	4819.44
458.157	4897.44
458.377	5006.44
458.598	5458.44
458.818	6261.44
459.038	7072.44
459.258	6788.44
459.478	5977.44
459.698	5860.44
459.918	5853.44
460.138	6140.44
460.358	6325.44
460.578	6372.44
460.798	6383.44
461.018	6358.44
461.238	6260.44
461.458	6220.44
461.678	6170.44
461.898	6319.44
462.118	6320.44
462.338	6736.44
462.558	6823.44
462.777	7227.44
462.997	7691.44
463.217	8109.44
463.437	7849.44
463.657	7331.44
463.876	7126.44
464.096	7203.44
464.316	7176.44
464.536	7221.44
464.755	7036.44
464.975	6929.44
465.195	7232.44
465.414	7300.44
465.634	6374.44
465.854	5938.44
466.073	5688.44
466.293	5518.44
466.512	5345.44
466.732	5332.44
466.951	5255.44
467.171	5252.44
467.391	5419.44
467.61	5422.44
467.829	5419.44
468.049	5489.44
468.268	5457.44
468.488	5214.44
468.707	5115.44
468.927	5066.44
469.146	5025.44
469.365	5123.44
469.585	5173.44
469.804	5383.44
470.023	5527.44
470.243	5487.44
470.462	5536.44
470.681	5706.44
470.901	5650.44
471.12	5456.44
471.339	5353.44
471.558	5334.44
471.777	5254.44
471.997	5240.44
472.216	5448.44
472.435	6063.44
472.654	5689.44
472.873	5220.44
473.092	5179.44
473.311	5122.44
473.53	5134.44
473.749	5221.44
473.968	5781.44
474.187	6819.44
474.406	6349.44
474.625	5424.44
474.844	5171.44
475.063	5097.44
475.282	5111.44
475.501	5159.44
475.72	5138.44
475.939	5208.44
476.158	5273.44
476.377	5211.44
476.596	5203.44
476.814	5489.44
477.033	5459.44
477.252	5503.44
477.471	5531.44
477.69	5665.44
477.908	5843.44
478.127	5951.44
478.346	5992.44
478.564	6102.44
478.783	6188.44
479.002	6349.44
479.22	6351.44
479.439	6476.44
479.658	6596.44
479.876	6644.44
480.095	6962.44
480.313	7365.44
480.532	7144.44
480.751	7177.44
480.969	7351.44
481.188	8503.44
481.406	8327.44
481.624	7147.44
481.843	6568.44
482.061	6396.44
482.28	6262.44
482.498	6093.44
482.717	6001.44
482.935	6134.44
483.153	5973.44
483.372	5984.44
483.59	5952.44
483.808	5947.44
484.027	5957.44
484.245	6084.44
484.463	6027.44
484.681	6158.44
484.9	6126.44
485.118	6163.44
485.336	6232.44
485.554	6360.44
485.772	6384.44
485.99	6289.44
486.209	6398.44
486.427	6467.44
486.645	6545.44
486.863	6547.44
487.081	6551.44
487.299	6474.44
487.517	6377.44
487.735	6330.44
487.953	6398.44
