Data from Circ_2014_H10_HRD10591_00014.txt Node
Date: Wed Jan 03 10:02:12 EST 2024
User: Yrep
Spectrometer: HR+D1059
Trigger mode: 1
Integration Time (sec): 1.000000E-1
Scans to average: 1
Electric dark correction enabled: true
Nonlinearity correction enabled: false
Boxcar width: 0
XAxis mode: Wavelengths
Number of Pixels in Spectrum: 2048
>>>>>Begin Spectral Data<<<<<
223.165	-27.62
223.4	-27.62
223.635	-27.62
223.869	-31.62
224.104	-11.62
224.338	-16.62
224.573	-11.62
224.808	-15.62
225.042	-13.62
225.277	-3.62
225.511	-5.62
225.746	8.38
225.98	3.38
226.215	16.38
226.449	23.38
226.683	11.38
226.918	33.38
227.152	41.38
227.387	37.38
227.621	35.38
227.856	52.38
228.09	48.38
228.324	64.38
228.559	57.38
228.793	53.38
229.027	66.38
229.262	56.38
229.496	78.38
229.73	92.38
229.964	92.38
230.199	87.38
230.433	76.38
230.667	94.38
230.901	79.38
231.136	81.38
231.37	89.38
231.604	69.38
231.838	84.38
232.072	76.38
232.306	84.38
232.541	80.38
232.775	83.38
233.009	70.38
233.243	83.38
233.477	83.38
233.711	74.38
233.945	76.38
234.179	83.38
234.413	89.38
234.647	77.38
234.881	83.38
235.115	82.38
235.349	82.38
235.583	90.38
235.817	88.38
236.051	83.38
236.285	83.38
236.519	83.38
236.753	77.38
236.987	80.38
237.221	94.38
237.455	105.38
237.689	75.38
237.922	90.38
238.156	75.38
238.39	79.38
238.624	77.38
238.858	83.38
239.091	72.38
239.325	79.38
239.559	76.38
239.793	88.38
240.027	84.38
240.26	84.38
240.494	82.38
240.728	77.38
240.961	67.38
241.195	80.38
241.429	82.38
241.662	84.38
241.896	79.38
242.13	103.38
242.363	78.38
242.597	71.38
242.83	77.38
243.064	86.38
243.298	86.38
243.531	81.38
243.765	76.38
243.998	75.38
244.232	88.38
244.465	88.38
244.699	87.38
244.932	92.38
245.166	89.38
245.399	75.38
245.633	84.38
245.866	80.38
246.099	71.38
246.333	77.38
246.566	85.38
246.8	80.38
247.033	78.38
247.266	87.38
247.5	93.38
247.733	88.38
247.966	81.38
248.2	75.38
248.433	82.38
248.666	94.38
248.899	87.38
249.133	101.38
249.366	102.38
249.599	107.38
249.832	78.38
250.066	92.38
250.299	86.38
250.532	77.38
250.765	80.38
250.998	82.38
251.231	88.38
251.465	94.38
251.698	83.38
251.931	84.38
252.164	90.38
252.397	73.38
252.63	92.38
252.863	74.38
253.096	89.38
253.329	84.38
253.562	84.38
253.795	93.38
254.028	72.38
254.261	79.38
254.494	75.38
254.727	83.38
254.96	84.38
255.193	79.38
255.426	86.38
255.659	83.38
255.892	74.38
256.124	86.38
256.357	78.38
256.59	94.38
256.823	87.38
257.056	91.38
257.289	88.38
257.521	75.38
257.754	80.38
257.987	91.38
258.22	87.38
258.452	80.38
258.685	83.38
258.918	85.38
259.151	76.38
259.383	88.38
259.616	68.38
259.849	97.38
260.081	97.38
260.314	95.38
260.547	89.38
260.779	79.38
261.012	76.38
261.244	84.38
261.477	105.38
261.71	78.38
261.942	133.38
262.175	144.38
262.407	101.38
262.64	78.38
262.872	82.38
263.105	90.38
263.337	102.38
263.57	86.38
263.802	89.38
264.035	88.38
264.267	85.38
264.499	83.38
264.732	81.38
264.964	88.38
265.197	91.38
265.429	93.38
265.661	80.38
265.894	84.38
266.126	99.38
266.358	90.38
266.591	89.38
266.823	88.38
267.055	86.38
267.287	89.38
267.52	94.38
267.752	84.38
267.984	91.38
268.216	71.38
268.448	83.38
268.681	91.38
268.913	80.38
269.145	87.38
269.377	84.38
269.609	83.38
269.841	87.38
270.073	83.38
270.306	96.38
270.538	83.38
270.77	85.38
271.002	92.38
271.234	79.38
271.466	86.38
271.698	94.38
271.93	89.38
272.162	94.38
272.394	91.38
272.626	84.38
272.858	77.38
273.09	98.38
273.322	90.38
273.553	97.38
273.785	86.38
274.017	84.38
274.249	90.38
274.481	86.38
274.713	75.38
274.945	84.38
275.176	88.38
275.408	76.38
275.64	85.38
275.872	83.38
276.104	88.38
276.335	99.38
276.567	125.38
276.799	128.38
277.031	107.38
277.262	111.38
277.494	87.38
277.726	79.38
277.957	88.38
278.189	100.38
278.421	90.38
278.652	76.38
278.884	101.38
279.115	90.38
279.347	90.38
279.579	95.38
279.81	85.38
280.042	81.38
280.273	95.38
280.505	91.38
280.736	88.38
280.968	100.38
281.199	92.38
281.431	82.38
281.662	89.38
281.894	96.38
282.125	104.38
282.356	147.38
282.588	168.38
282.819	130.38
283.051	92.38
283.282	89.38
283.513	91.38
283.745	94.38
283.976	86.38
284.207	78.38
284.439	95.38
284.67	91.38
284.901	82.38
285.132	95.38
285.364	84.38
285.595	82.38
285.826	90.38
286.057	95.38
286.288	88.38
286.52	102.38
286.751	86.38
286.982	87.38
287.213	80.38
287.444	92.38
287.675	70.38
287.906	90.38
288.138	84.38
288.369	76.38
288.6	101.38
288.831	69.38
289.062	88.38
289.293	87.38
289.524	82.38
289.755	88.38
289.986	95.38
290.217	105.38
290.448	101.38
290.679	96.38
290.91	93.38
291.141	89.38
291.371	72.38
291.602	80.38
291.833	93.38
292.064	85.38
292.295	91.38
292.526	78.38
292.757	82.38
292.987	85.38
293.218	92.38
293.449	102.38
293.68	103.38
293.91	85.38
294.141	95.38
294.372	92.38
294.603	88.38
294.833	84.38
295.064	88.38
295.295	92.38
295.525	109.38
295.756	122.38
295.987	142.38
296.217	175.38
296.448	159.38
296.679	104.38
296.909	96.38
297.14	83.38
297.37	75.38
297.601	99.38
297.831	85.38
298.062	101.38
298.292	86.38
298.523	88.38
298.753	86.38
298.984	89.38
299.214	94.38
299.445	111.38
299.675	89.38
299.905	95.38
300.136	98.38
300.366	93.38
300.597	95.38
300.827	101.38
301.057	102.38
301.288	115.38
301.518	98.38
301.748	86.38
301.979	111.38
302.209	98.38
302.439	86.38
302.669	102.38
302.9	101.38
303.13	96.38
303.36	102.38
303.59	106.38
303.82	108.38
304.051	107.38
304.281	91.38
304.511	90.38
304.741	96.38
304.971	87.38
305.201	95.38
305.431	97.38
305.661	86.38
305.891	94.38
306.121	94.38
306.352	93.38
306.582	109.38
306.812	77.38
307.042	109.38
307.272	106.38
307.502	104.38
307.731	116.38
307.961	86.38
308.191	90.38
308.421	92.38
308.651	102.38
308.881	85.38
309.111	111.38
309.341	99.38
309.571	127.38
309.8	96.38
310.03	102.38
310.26	99.38
310.49	77.38
310.72	107.38
310.949	108.38
311.179	106.38
311.409	108.38
311.639	95.38
311.868	86.38
312.098	93.38
312.328	85.38
312.557	115.38
312.787	119.38
313.017	110.38
313.246	96.38
313.476	95.38
313.706	104.38
313.935	110.38
314.165	101.38
314.394	110.38
314.624	99.38
314.853	99.38
315.083	98.38
315.312	100.38
315.542	96.38
315.771	102.38
316.001	98.38
316.23	100.38
316.46	84.38
316.689	103.38
316.919	105.38
317.148	103.38
317.377	114.38
317.607	105.38
317.836	99.38
318.065	87.38
318.295	85.38
318.524	93.38
318.753	93.38
318.983	111.38
319.212	107.38
319.441	115.38
319.67	110.38
319.9	99.38
320.129	98.38
320.358	94.38
320.587	99.38
320.816	115.38
321.046	104.38
321.275	110.38
321.504	100.38
321.733	92.38
321.962	113.38
322.191	126.38
322.42	111.38
322.649	120.38
322.878	114.38
323.108	132.38
323.337	141.38
323.566	159.38
323.795	202.38
324.024	264.38
324.253	575.38
324.482	1249.38
324.71	2622.38
324.939	3338.38
325.168	1205.38
325.397	334.38
325.626	190.38
325.855	166.38
326.084	138.38
326.313	170.38
326.542	192.38
326.77	306.38
326.999	650.38
327.228	1314.38
327.457	2467.38
327.686	1959.38
327.914	525.38
328.143	251.38
328.372	195.38
328.6	155.38
328.829	152.38
329.058	148.38
329.287	158.38
329.515	133.38
329.744	101.38
329.972	103.38
330.201	106.38
330.43	136.38
330.658	155.38
330.887	184.38
331.115	154.38
331.344	115.38
331.572	120.38
331.801	116.38
332.03	103.38
332.258	94.38
332.486	94.38
332.715	94.38
332.943	99.38
333.172	94.38
333.4	86.38
333.629	102.38
333.857	138.38
334.085	120.38
334.314	102.38
334.542	104.38
334.771	106.38
334.999	103.38
335.227	93.38
335.455	95.38
335.684	85.38
335.912	107.38
336.14	98.38
336.369	99.38
336.597	101.38
336.825	102.38
337.053	91.38
337.281	87.38
337.51	100.38
337.738	94.38
337.966	98.38
338.194	97.38
338.422	99.38
338.65	98.38
338.878	91.38
339.106	105.38
339.334	93.38
339.562	79.38
339.79	100.38
340.018	100.38
340.246	108.38
340.474	101.38
340.702	107.38
340.93	100.38
341.158	94.38
341.386	96.38
341.614	104.38
341.842	104.38
342.07	80.38
342.298	109.38
342.526	93.38
342.754	105.38
342.981	90.38
343.209	89.38
343.437	94.38
343.665	84.38
343.893	84.38
344.12	99.38
344.348	92.38
344.576	94.38
344.804	99.38
345.031	97.38
345.259	99.38
345.487	96.38
345.714	101.38
345.942	87.38
346.17	88.38
346.397	95.38
346.625	96.38
346.853	88.38
347.08	102.38
347.308	88.38
347.535	90.38
347.763	117.38
347.99	100.38
348.218	108.38
348.445	109.38
348.673	100.38
348.9	92.38
349.128	87.38
349.355	79.38
349.583	106.38
349.81	101.38
350.037	104.38
350.265	91.38
350.492	87.38
350.72	107.38
350.947	111.38
351.174	119.38
351.402	114.38
351.629	118.38
351.856	101.38
352.083	112.38
352.311	112.38
352.538	112.38
352.765	112.38
352.992	109.38
353.22	130.38
353.447	108.38
353.674	106.38
353.901	92.38
354.128	92.38
354.355	102.38
354.583	99.38
354.81	106.38
355.037	100.38
355.264	96.38
355.491	90.38
355.718	93.38
355.945	99.38
356.172	83.38
356.399	103.38
356.626	98.38
356.853	93.38
357.08	93.38
357.307	87.38
357.534	93.38
357.761	96.38
357.988	98.38
358.215	88.38
358.441	98.38
358.668	93.38
358.895	96.38
359.122	118.38
359.349	104.38
359.576	89.38
359.802	118.38
360.029	135.38
360.256	131.38
360.483	104.38
360.709	99.38
360.936	105.38
361.163	97.38
361.39	104.38
361.616	104.38
361.843	103.38
362.07	80.38
362.296	110.38
362.523	111.38
362.749	93.38
362.976	108.38
363.203	100.38
363.429	86.38
363.656	92.38
363.882	106.38
364.109	98.38
364.335	99.38
364.562	87.38
364.788	106.38
365.015	91.38
365.241	110.38
365.468	123.38
365.694	129.38
365.92	113.38
366.147	107.38
366.373	97.38
366.599	88.38
366.826	75.38
367.052	85.38
367.278	93.38
367.505	100.38
367.731	101.38
367.957	87.38
368.184	93.38
368.41	100.38
368.636	126.38
368.862	138.38
369.089	124.38
369.315	111.38
369.541	112.38
369.767	96.38
369.993	103.38
370.219	89.38
370.445	86.38
370.672	90.38
370.898	106.38
371.124	91.38
371.35	97.38
371.576	94.38
371.802	94.38
372.028	75.38
372.254	87.38
372.48	87.38
372.706	80.38
372.932	79.38
373.158	80.38
373.384	111.38
373.61	105.38
373.835	92.38
374.061	79.38
374.287	92.38
374.513	90.38
374.739	85.38
374.965	92.38
375.191	88.38
375.416	100.38
375.642	94.38
375.868	90.38
376.094	97.38
376.319	89.38
376.545	77.38
376.771	84.38
376.997	96.38
377.222	95.38
377.448	92.38
377.674	94.38
377.899	89.38
378.125	83.38
378.35	103.38
378.576	77.38
378.802	90.38
379.027	111.38
379.253	94.38
379.478	95.38
379.704	99.38
379.929	107.38
380.155	98.38
380.38	86.38
380.606	104.38
380.831	104.38
381.057	96.38
381.282	114.38
381.507	103.38
381.733	108.38
381.958	100.38
382.184	98.38
382.409	93.38
382.634	111.38
382.86	108.38
383.085	98.38
383.31	104.38
383.535	104.38
383.761	101.38
383.986	115.38
384.211	102.38
384.436	100.38
384.662	101.38
384.887	109.38
385.112	114.38
385.337	107.38
385.562	110.38
385.787	116.38
386.013	133.38
386.238	138.38
386.463	119.38
386.688	135.38
386.913	111.38
387.138	106.38
387.363	122.38
387.588	118.38
387.813	101.38
388.038	117.38
388.263	116.38
388.488	116.38
388.713	103.38
388.938	89.38
389.163	89.38
389.387	97.38
389.612	104.38
389.837	104.38
390.062	89.38
390.287	99.38
390.512	77.38
390.736	86.38
390.961	103.38
391.186	108.38
391.411	109.38
391.636	101.38
391.86	100.38
392.085	85.38
392.31	91.38
392.534	90.38
392.759	87.38
392.984	111.38
393.208	95.38
393.433	112.38
393.658	110.38
393.882	93.38
394.107	93.38
394.331	102.38
394.556	82.38
394.78	83.38
395.005	81.38
395.229	94.38
395.454	90.38
395.678	92.38
395.903	89.38
396.127	78.38
396.352	92.38
396.576	85.38
396.801	95.38
397.025	97.38
397.249	82.38
397.474	93.38
397.698	87.38
397.922	87.38
398.147	93.38
398.371	99.38
398.595	82.38
398.82	92.38
399.044	104.38
399.268	84.38
399.492	105.38
399.717	87.38
399.941	93.38
400.165	102.38
400.389	90.38
400.613	93.38
400.837	93.38
401.062	105.38
401.286	88.38
401.51	96.38
401.734	95.38
401.958	121.38
402.182	159.38
402.406	219.38
402.63	154.38
402.854	99.38
403.078	91.38
403.302	70.38
403.526	87.38
403.75	86.38
403.974	105.38
404.198	98.38
404.422	90.38
404.645	92.38
404.869	114.38
405.093	95.38
405.317	110.38
405.541	111.38
405.765	115.38
405.988	135.38
406.212	242.38
406.436	310.38
406.66	217.38
406.883	118.38
407.107	104.38
407.331	94.38
407.555	120.38
407.778	104.38
408.002	99.38
408.226	99.38
408.449	85.38
408.673	91.38
408.896	102.38
409.12	103.38
409.344	106.38
409.567	94.38
409.791	100.38
410.014	105.38
410.238	82.38
410.461	87.38
410.685	96.38
410.908	100.38
411.132	105.38
411.355	105.38
411.578	89.38
411.802	94.38
412.025	107.38
412.249	94.38
412.472	98.38
412.695	108.38
412.919	87.38
413.142	78.38
413.365	85.38
413.589	88.38
413.812	96.38
414.035	102.38
414.258	93.38
414.482	102.38
414.705	103.38
414.928	74.38
415.151	89.38
415.374	84.38
415.597	85.38
415.821	104.38
416.044	102.38
416.267	88.38
416.49	95.38
416.713	90.38
416.936	86.38
417.159	78.38
417.382	94.38
417.605	113.38
417.828	101.38
418.051	102.38
418.274	93.38
418.497	81.38
418.72	95.38
418.943	91.38
419.166	83.38
419.389	84.38
419.611	100.38
419.834	84.38
420.057	80.38
420.28	80.38
420.503	97.38
420.726	85.38
420.948	80.38
421.171	98.38
421.394	98.38
421.617	74.38
421.839	101.38
422.062	93.38
422.285	100.38
422.507	95.38
422.73	118.38
422.953	106.38
423.175	79.38
423.398	108.38
423.621	102.38
423.843	90.38
424.066	93.38
424.288	103.38
424.511	102.38
424.733	102.38
424.956	109.38
425.178	107.38
425.401	123.38
425.623	109.38
425.846	103.38
426.068	98.38
426.291	88.38
426.513	93.38
426.735	91.38
426.958	91.38
427.18	119.38
427.402	159.38
427.625	208.38
427.847	153.38
428.069	120.38
428.292	102.38
428.514	95.38
428.736	92.38
428.958	97.38
429.181	86.38
429.403	75.38
429.625	86.38
429.847	92.38
430.069	105.38
430.292	99.38
430.514	98.38
430.736	85.38
430.958	68.38
431.18	77.38
431.402	88.38
431.624	99.38
431.846	86.38
432.068	77.38
432.29	76.38
432.512	85.38
432.734	92.38
432.956	95.38
433.178	104.38
433.4	108.38
433.622	90.38
433.844	93.38
434.066	104.38
434.287	100.38
434.509	89.38
434.731	74.38
434.953	99.38
435.175	102.38
435.397	98.38
435.618	98.38
435.84	106.38
436.062	133.38
436.284	135.38
436.505	113.38
436.727	121.38
436.949	103.38
437.17	90.38
437.392	82.38
437.614	103.38
437.835	116.38
438.057	142.38
438.278	118.38
438.5	108.38
438.721	146.38
438.943	101.38
439.165	98.38
439.386	99.38
439.608	103.38
439.829	119.38
440.05	150.38
440.272	171.38
440.493	123.38
440.715	99.38
440.936	90.38
441.158	83.38
441.379	88.38
441.6	94.38
441.822	101.38
442.043	105.38
442.264	109.38
442.486	114.38
442.707	104.38
442.928	130.38
443.149	179.38
443.371	173.38
443.592	128.38
443.813	131.38
444.034	116.38
444.255	93.38
444.476	86.38
444.698	89.38
444.919	91.38
445.14	136.38
445.361	127.38
445.582	130.38
445.803	166.38
446.024	157.38
446.245	153.38
446.466	120.38
446.687	89.38
446.908	86.38
447.129	88.38
447.35	92.38
447.571	81.38
447.792	87.38
448.013	119.38
448.234	125.38
448.455	110.38
448.675	119.38
448.896	141.38
449.117	111.38
449.338	99.38
449.559	126.38
449.779	158.38
450	96.38
450.221	83.38
450.442	80.38
450.662	123.38
450.883	122.38
451.104	135.38
451.324	98.38
451.545	102.38
451.766	88.38
451.986	96.38
452.207	90.38
452.428	95.38
452.648	114.38
452.869	138.38
453.089	142.38
453.31	147.38
453.53	87.38
453.751	88.38
453.971	122.38
454.192	141.38
454.412	102.38
454.633	89.38
454.853	77.38
455.073	106.38
455.294	102.38
455.514	111.38
455.734	101.38
455.955	93.38
456.175	85.38
456.395	92.38
456.616	86.38
456.836	77.38
457.056	93.38
457.276	91.38
457.497	103.38
457.717	85.38
457.937	103.38
458.157	96.38
458.377	107.38
458.598	140.38
458.818	211.38
459.038	221.38
459.258	139.38
459.478	91.38
459.698	106.38
459.918	98.38
460.138	88.38
460.358	90.38
460.578	90.38
460.798	92.38
461.018	92.38
461.238	87.38
461.458	92.38
461.678	84.38
461.898	70.38
462.118	86.38
462.338	73.38
462.558	100.38
462.777	81.38
462.997	86.38
463.217	104.38
463.437	91.38
463.657	93.38
463.876	102.38
464.096	85.38
464.316	99.38
464.536	102.38
464.755	96.38
464.975	125.38
465.195	236.38
465.414	232.38
465.634	124.38
465.854	107.38
466.073	97.38
466.293	90.38
466.512	91.38
466.732	89.38
466.951	104.38
467.171	99.38
467.391	99.38
467.61	126.38
467.829	105.38
468.049	86.38
468.268	90.38
468.488	74.38
468.707	83.38
468.927	78.38
469.146	82.38
469.365	86.38
469.585	104.38
469.804	102.38
470.023	113.38
470.243	110.38
470.462	108.38
470.681	128.38
470.901	102.38
471.12	85.38
471.339	84.38
471.558	107.38
471.777	74.38
471.997	87.38
472.216	95.38
472.435	102.38
472.654	80.38
472.873	77.38
473.092	97.38
473.311	95.38
473.53	92.38
473.749	87.38
473.968	87.38
474.187	105.38
474.406	106.38
474.625	100.38
474.844	90.38
475.063	87.38
475.282	89.38
475.501	94.38
475.72	84.38
475.939	81.38
476.158	85.38
476.377	94.38
476.596	83.38
476.814	90.38
477.033	121.38
477.252	94.38
477.471	91.38
477.69	99.38
477.908	104.38
478.127	93.38
478.346	89.38
478.564	95.38
478.783	103.38
479.002	103.38
479.22	108.38
479.439	118.38
479.658	116.38
479.876	99.38
480.095	99.38
480.313	78.38
480.532	92.38
480.751	90.38
480.969	114.38
481.188	137.38
481.406	131.38
481.624	97.38
481.843	106.38
482.061	79.38
482.28	92.38
482.498	85.38
482.717	96.38
482.935	83.38
483.153	95.38
483.372	88.38
483.59	96.38
483.808	90.38
484.027	97.38
484.245	83.38
484.463	91.38
484.681	104.38
484.9	97.38
485.118	83.38
485.336	112.38
485.554	98.38
485.772	98.38
485.99	90.38
486.209	104.38
486.427	107.38
486.645	119.38
486.863	133.38
487.081	105.38
487.299	101.38
487.517	99.38
487.735	90.38
487.953	94.38
488.171	97.38
488.389	82.38
488.607	109.38
488.825	83.38
489.043	86.38
489.261	91.38
489.479	90.38
489.696	91.38
489.914	90.38
490.132	86.38
490.35	95.38
490.568	88.38
490.786	97.38
491.003	81.38
491.221	90.38
491.439	107.38
491.657	89.38
491.874	85.38
492.092	81.38
492.31	103.38
492.527	89.38
492.745	97.38
492.963	96.38
493.18	82.38
493.398	103.38
493.615	88.38
493.833	100.38
494.05	86.38
494.268	90.38
494.485	86.38
494.703	103.38
494.92	107.38
495.138	99.38
495.355	85.38
495.573	93.38
495.79	85.38
496.008	79.38
496.225	88.38
496.442	94.38
496.66	95.38
496.877	98.38
497.094	78.38
497.312	101.38
497.529	100.38
497.746	101.38
497.963	78.38
498.181	83.38
498.398	94.38
498.615	130.38
498.832	126.38
499.049	94.38
499.267	97.38
499.484	88.38
499.701	105.38
499.918	107.38
500.135	94.38
500.352	106.38
500.569	96.38
500.786	89.38
501.003	98.38
501.22	112.38
501.437	102.38
501.654	94.38
501.871	129.38
502.088	104.38
502.305	94.38
502.522	92.38
502.739	96.38
502.956	95.38
503.172	90.38
503.389	91.38
503.606	120.38
503.823	95.38
504.04	86.38
504.256	90.38
504.473	92.38
504.69	94.38
504.907	85.38
505.123	94.38
505.34	81.38
505.557	99.38
505.773	91.38
505.99	91.38
506.207	94.38
506.423	88.38
506.64	99.38
506.856	96.38
507.073	109.38
507.289	100.38
507.506	121.38
507.722	130.38
507.939	124.38
508.155	115.38
508.372	80.38
508.588	103.38
508.805	103.38
509.021	101.38
509.238	105.38
509.454	107.38
509.67	115.38
509.887	112.38
510.103	164.38
510.319	272.38
510.536	1133.38
510.752	4022.38
510.968	1089.38
511.184	202.38
511.401	132.38
511.617	103.38
511.833	96.38
512.049	99.38
512.265	98.38
512.481	106.38
512.698	90.38
512.914	106.38
513.13	96.38
