Data from Circ_2014_H10_HRD10591_00052.txt Node
Date: Wed Jan 03 10:02:19 EST 2024
User: Yrep
Spectrometer: HR+D1059
Trigger mode: 1
Integration Time (sec): 1.000000E-1
Scans to average: 1
Electric dark correction enabled: true
Nonlinearity correction enabled: false
Boxcar width: 0
XAxis mode: Wavelengths
Number of Pixels in Spectrum: 2048
>>>>>Begin Spectral Data<<<<<
223.165	-17.75
223.4	-17.75
223.635	-17.75
223.869	-10.75
224.104	-26.75
224.338	-18.75
224.573	-17.75
224.808	-9.75
225.042	-5.75
225.277	-14.75
225.511	8.25
225.746	9.25
225.98	5.25
226.215	9.25
226.449	28.25
226.683	17.25
226.918	29.25
227.152	15.25
227.387	34.25
227.621	20.25
227.856	47.25
228.09	50.25
228.324	61.25
228.559	53.25
228.793	43.25
229.027	63.25
229.262	69.25
229.496	73.25
229.73	88.25
229.964	84.25
230.199	81.25
230.433	84.25
230.667	71.25
230.901	73.25
231.136	78.25
231.37	73.25
231.604	82.25
231.838	84.25
232.072	71.25
232.306	83.25
232.541	79.25
232.775	77.25
233.009	82.25
233.243	85.25
233.477	75.25
233.711	84.25
233.945	73.25
234.179	66.25
234.413	85.25
234.647	83.25
234.881	65.25
235.115	90.25
235.349	76.25
235.583	59.25
235.817	77.25
236.051	84.25
236.285	70.25
236.519	83.25
236.753	71.25
236.987	63.25
237.221	79.25
237.455	91.25
237.689	67.25
237.922	69.25
238.156	69.25
238.39	85.25
238.624	81.25
238.858	76.25
239.091	64.25
239.325	67.25
239.559	82.25
239.793	68.25
240.027	79.25
240.26	75.25
240.494	74.25
240.728	86.25
240.961	78.25
241.195	79.25
241.429	79.25
241.662	82.25
241.896	81.25
242.13	76.25
242.363	76.25
242.597	76.25
242.83	89.25
243.064	69.25
243.298	73.25
243.531	76.25
243.765	73.25
243.998	86.25
244.232	64.25
244.465	77.25
244.699	89.25
244.932	82.25
245.166	82.25
245.399	83.25
245.633	66.25
245.866	64.25
246.099	67.25
246.333	81.25
246.566	71.25
246.8	69.25
247.033	76.25
247.266	89.25
247.5	71.25
247.733	69.25
247.966	79.25
248.2	70.25
248.433	77.25
248.666	88.25
248.899	78.25
249.133	87.25
249.366	89.25
249.599	106.25
249.832	85.25
250.066	72.25
250.299	79.25
250.532	85.25
250.765	71.25
250.998	78.25
251.231	91.25
251.465	82.25
251.698	87.25
251.931	91.25
252.164	78.25
252.397	92.25
252.63	86.25
252.863	76.25
253.096	77.25
253.329	79.25
253.562	70.25
253.795	83.25
254.028	74.25
254.261	82.25
254.494	80.25
254.727	79.25
254.96	87.25
255.193	80.25
255.426	76.25
255.659	75.25
255.892	84.25
256.124	95.25
256.357	74.25
256.59	87.25
256.823	85.25
257.056	78.25
257.289	81.25
257.521	73.25
257.754	78.25
257.987	76.25
258.22	93.25
258.452	90.25
258.685	81.25
258.918	64.25
259.151	61.25
259.383	86.25
259.616	87.25
259.849	103.25
260.081	68.25
260.314	76.25
260.547	92.25
260.779	86.25
261.012	93.25
261.244	90.25
261.477	79.25
261.71	97.25
261.942	108.25
262.175	120.25
262.407	98.25
262.64	85.25
262.872	96.25
263.105	82.25
263.337	85.25
263.57	71.25
263.802	84.25
264.035	92.25
264.267	90.25
264.499	99.25
264.732	85.25
264.964	82.25
265.197	81.25
265.429	87.25
265.661	85.25
265.894	93.25
266.126	82.25
266.358	85.25
266.591	89.25
266.823	78.25
267.055	77.25
267.287	83.25
267.52	87.25
267.752	79.25
267.984	91.25
268.216	74.25
268.448	79.25
268.681	84.25
268.913	96.25
269.145	79.25
269.377	84.25
269.609	83.25
269.841	83.25
270.073	77.25
270.306	79.25
270.538	86.25
270.77	86.25
271.002	99.25
271.234	77.25
271.466	70.25
271.698	75.25
271.93	70.25
272.162	80.25
272.394	89.25
272.626	70.25
272.858	101.25
273.09	70.25
273.322	90.25
273.553	81.25
273.785	95.25
274.017	84.25
274.249	89.25
274.481	82.25
274.713	97.25
274.945	95.25
275.176	79.25
275.408	85.25
275.64	86.25
275.872	92.25
276.104	98.25
276.335	107.25
276.567	114.25
276.799	113.25
277.031	123.25
277.262	104.25
277.494	97.25
277.726	83.25
277.957	88.25
278.189	81.25
278.421	96.25
278.652	92.25
278.884	98.25
279.115	88.25
279.347	78.25
279.579	75.25
279.81	74.25
280.042	105.25
280.273	97.25
280.505	90.25
280.736	76.25
280.968	93.25
281.199	77.25
281.431	106.25
281.662	91.25
281.894	80.25
282.125	108.25
282.356	143.25
282.588	151.25
282.819	127.25
283.051	93.25
283.282	91.25
283.513	85.25
283.745	82.25
283.976	78.25
284.207	85.25
284.439	83.25
284.67	87.25
284.901	83.25
285.132	79.25
285.364	97.25
285.595	80.25
285.826	97.25
286.057	90.25
286.288	88.25
286.52	86.25
286.751	90.25
286.982	86.25
287.213	91.25
287.444	87.25
287.675	93.25
287.906	91.25
288.138	92.25
288.369	95.25
288.6	95.25
288.831	93.25
289.062	85.25
289.293	87.25
289.524	96.25
289.755	85.25
289.986	86.25
290.217	89.25
290.448	91.25
290.679	89.25
290.91	92.25
291.141	99.25
291.371	86.25
291.602	98.25
291.833	90.25
292.064	93.25
292.295	93.25
292.526	91.25
292.757	92.25
292.987	97.25
293.218	103.25
293.449	75.25
293.68	76.25
293.91	80.25
294.141	86.25
294.372	91.25
294.603	95.25
294.833	91.25
295.064	93.25
295.295	88.25
295.525	92.25
295.756	87.25
295.987	135.25
296.217	153.25
296.448	137.25
296.679	91.25
296.909	84.25
297.14	98.25
297.37	89.25
297.601	88.25
297.831	85.25
298.062	82.25
298.292	65.25
298.523	93.25
298.753	78.25
298.984	79.25
299.214	87.25
299.445	83.25
299.675	92.25
299.905	90.25
300.136	97.25
300.366	87.25
300.597	88.25
300.827	110.25
301.057	109.25
301.288	108.25
301.518	97.25
301.748	78.25
301.979	109.25
302.209	102.25
302.439	90.25
302.669	104.25
302.9	89.25
303.13	95.25
303.36	95.25
303.59	104.25
303.82	97.25
304.051	84.25
304.281	91.25
304.511	90.25
304.741	87.25
304.971	86.25
305.201	85.25
305.431	88.25
305.661	87.25
305.891	79.25
306.121	94.25
306.352	105.25
306.582	114.25
306.812	90.25
307.042	100.25
307.272	99.25
307.502	97.25
307.731	100.25
307.961	97.25
308.191	90.25
308.421	93.25
308.651	98.25
308.881	97.25
309.111	98.25
309.341	93.25
309.571	95.25
309.8	86.25
310.03	110.25
310.26	99.25
310.49	92.25
310.72	89.25
310.949	95.25
311.179	111.25
311.409	97.25
311.639	105.25
311.868	106.25
312.098	107.25
312.328	103.25
312.557	113.25
312.787	109.25
313.017	106.25
313.246	85.25
313.476	101.25
313.706	95.25
313.935	86.25
314.165	100.25
314.394	99.25
314.624	99.25
314.853	103.25
315.083	83.25
315.312	79.25
315.542	95.25
315.771	94.25
316.001	100.25
316.23	84.25
316.46	90.25
316.689	84.25
316.919	90.25
317.148	98.25
317.377	92.25
317.607	110.25
317.836	100.25
318.065	87.25
318.295	90.25
318.524	84.25
318.753	86.25
318.983	98.25
319.212	104.25
319.441	106.25
319.67	111.25
319.9	89.25
320.129	108.25
320.358	105.25
320.587	90.25
320.816	105.25
321.046	106.25
321.275	110.25
321.504	86.25
321.733	103.25
321.962	93.25
322.191	110.25
322.42	105.25
322.649	115.25
322.878	109.25
323.108	110.25
323.337	129.25
323.566	142.25
323.795	158.25
324.024	222.25
324.253	423.25
324.482	913.25
324.71	1853.25
324.939	2529.25
325.168	917.25
325.397	272.25
325.626	162.25
325.855	147.25
326.084	149.25
326.313	144.25
326.542	141.25
326.77	246.25
326.999	467.25
327.228	1023.25
327.457	1826.25
327.686	1505.25
327.914	425.25
328.143	221.25
328.372	202.25
328.6	138.25
328.829	118.25
329.058	142.25
329.287	141.25
329.515	124.25
329.744	116.25
329.972	123.25
330.201	161.25
330.43	181.25
330.658	156.25
330.887	154.25
331.115	138.25
331.344	103.25
331.572	107.25
331.801	113.25
332.03	115.25
332.258	96.25
332.486	83.25
332.715	98.25
332.943	89.25
333.172	98.25
333.4	106.25
333.629	113.25
333.857	107.25
334.085	125.25
334.314	143.25
334.542	203.25
334.771	189.25
334.999	110.25
335.227	104.25
335.455	102.25
335.684	85.25
335.912	83.25
336.14	115.25
336.369	114.25
336.597	106.25
336.825	104.25
337.053	95.25
337.281	110.25
337.51	102.25
337.738	94.25
337.966	91.25
338.194	92.25
338.422	104.25
338.65	90.25
338.878	104.25
339.106	92.25
339.334	94.25
339.562	98.25
339.79	98.25
340.018	73.25
340.246	86.25
340.474	86.25
340.702	91.25
340.93	105.25
341.158	87.25
341.386	95.25
341.614	100.25
341.842	90.25
342.07	87.25
342.298	96.25
342.526	86.25
342.754	87.25
342.981	88.25
343.209	85.25
343.437	99.25
343.665	89.25
343.893	91.25
344.12	93.25
344.348	84.25
344.576	82.25
344.804	103.25
345.031	108.25
345.259	100.25
345.487	92.25
345.714	94.25
345.942	90.25
346.17	88.25
346.397	87.25
346.625	93.25
346.853	94.25
347.08	84.25
347.308	99.25
347.535	94.25
347.763	105.25
347.99	95.25
348.218	109.25
348.445	97.25
348.673	111.25
348.9	88.25
349.128	86.25
349.355	91.25
349.583	103.25
349.81	100.25
350.037	107.25
350.265	94.25
350.492	100.25
350.72	96.25
350.947	124.25
351.174	106.25
351.402	117.25
351.629	119.25
351.856	92.25
352.083	100.25
352.311	114.25
352.538	117.25
352.765	125.25
352.992	124.25
353.22	124.25
353.447	104.25
353.674	101.25
353.901	110.25
354.128	86.25
354.355	100.25
354.583	88.25
354.81	92.25
355.037	103.25
355.264	88.25
355.491	88.25
355.718	90.25
355.945	95.25
356.172	99.25
356.399	98.25
356.626	107.25
356.853	96.25
357.08	114.25
357.307	93.25
357.534	95.25
357.761	102.25
357.988	95.25
358.215	72.25
358.441	84.25
358.668	85.25
358.895	95.25
359.122	98.25
359.349	84.25
359.576	95.25
359.802	109.25
360.029	109.25
360.256	120.25
360.483	96.25
360.709	97.25
360.936	90.25
361.163	98.25
361.39	92.25
361.616	90.25
361.843	101.25
362.07	108.25
362.296	105.25
362.523	104.25
362.749	86.25
362.976	91.25
363.203	87.25
363.429	92.25
363.656	99.25
363.882	97.25
364.109	95.25
364.335	91.25
364.562	86.25
364.788	76.25
365.015	89.25
365.241	94.25
365.468	114.25
365.694	108.25
365.92	98.25
366.147	98.25
366.373	96.25
366.599	91.25
366.826	91.25
367.052	91.25
367.278	94.25
367.505	86.25
367.731	92.25
367.957	83.25
368.184	111.25
368.41	92.25
368.636	107.25
368.862	124.25
369.089	103.25
369.315	97.25
369.541	93.25
369.767	106.25
369.993	89.25
370.219	95.25
370.445	99.25
370.672	93.25
370.898	88.25
371.124	95.25
371.35	84.25
371.576	89.25
371.802	87.25
372.028	74.25
372.254	89.25
372.48	96.25
372.706	74.25
372.932	88.25
373.158	87.25
373.384	89.25
373.61	90.25
373.835	89.25
374.061	94.25
374.287	87.25
374.513	103.25
374.739	79.25
374.965	97.25
375.191	96.25
375.416	89.25
375.642	90.25
375.868	85.25
376.094	83.25
376.319	85.25
376.545	82.25
376.771	73.25
376.997	97.25
377.222	90.25
377.448	98.25
377.674	102.25
377.899	107.25
378.125	93.25
378.35	115.25
378.576	104.25
378.802	97.25
379.027	94.25
379.253	86.25
379.478	91.25
379.704	77.25
379.929	85.25
380.155	104.25
380.38	84.25
380.606	83.25
380.831	99.25
381.057	91.25
381.282	104.25
381.507	103.25
381.733	97.25
381.958	94.25
382.184	89.25
382.409	105.25
382.634	102.25
382.86	115.25
383.085	103.25
383.31	100.25
383.535	98.25
383.761	108.25
383.986	105.25
384.211	121.25
384.436	98.25
384.662	115.25
384.887	115.25
385.112	115.25
385.337	114.25
385.562	116.25
385.787	99.25
386.013	110.25
386.238	131.25
386.463	103.25
386.688	106.25
386.913	97.25
387.138	106.25
387.363	98.25
387.588	97.25
387.813	107.25
388.038	118.25
388.263	109.25
388.488	106.25
388.713	82.25
388.938	106.25
389.163	90.25
389.387	104.25
389.612	92.25
389.837	91.25
390.062	82.25
390.287	90.25
390.512	104.25
390.736	101.25
390.961	98.25
391.186	95.25
391.411	99.25
391.636	89.25
391.86	89.25
392.085	80.25
392.31	88.25
392.534	92.25
392.759	80.25
392.984	85.25
393.208	93.25
393.433	91.25
393.658	86.25
393.882	100.25
394.107	85.25
394.331	76.25
394.556	85.25
394.78	82.25
395.005	85.25
395.229	87.25
395.454	93.25
395.678	80.25
395.903	97.25
396.127	91.25
396.352	92.25
396.576	77.25
396.801	93.25
397.025	94.25
397.249	84.25
397.474	83.25
397.698	73.25
397.922	85.25
398.147	78.25
398.371	91.25
398.595	75.25
398.82	75.25
399.044	79.25
399.268	100.25
399.492	96.25
399.717	99.25
399.941	95.25
400.165	97.25
400.389	82.25
400.613	91.25
400.837	91.25
401.062	85.25
401.286	93.25
401.51	101.25
401.734	96.25
401.958	90.25
402.182	141.25
402.406	185.25
402.63	126.25
402.854	102.25
403.078	88.25
403.302	89.25
403.526	77.25
403.75	101.25
403.974	80.25
404.198	74.25
404.422	82.25
404.645	103.25
404.869	85.25
405.093	96.25
405.317	93.25
405.541	121.25
405.765	105.25
405.988	132.25
406.212	198.25
406.436	285.25
406.66	167.25
406.883	105.25
407.107	94.25
407.331	105.25
407.555	103.25
407.778	105.25
408.002	91.25
408.226	97.25
408.449	89.25
408.673	82.25
408.896	94.25
409.12	108.25
409.344	86.25
409.567	85.25
409.791	83.25
410.014	95.25
410.238	100.25
410.461	84.25
410.685	98.25
410.908	102.25
411.132	99.25
411.355	106.25
411.578	85.25
411.802	93.25
412.025	90.25
412.249	88.25
412.472	87.25
412.695	87.25
412.919	89.25
413.142	83.25
413.365	79.25
413.589	94.25
413.812	89.25
414.035	105.25
414.258	82.25
414.482	95.25
414.705	93.25
414.928	79.25
415.151	91.25
415.374	110.25
415.597	94.25
415.821	94.25
416.044	97.25
416.267	95.25
416.49	76.25
416.713	78.25
416.936	83.25
417.159	86.25
417.382	100.25
417.605	80.25
417.828	91.25
418.051	96.25
418.274	101.25
418.497	81.25
418.72	85.25
418.943	89.25
419.166	88.25
419.389	98.25
419.611	98.25
419.834	90.25
420.057	87.25
420.28	88.25
420.503	69.25
420.726	99.25
420.948	98.25
421.171	94.25
421.394	98.25
421.617	93.25
421.839	81.25
422.062	89.25
422.285	97.25
422.507	91.25
422.73	117.25
422.953	97.25
423.175	94.25
423.398	85.25
423.621	87.25
423.843	86.25
424.066	102.25
424.288	96.25
424.511	102.25
424.733	91.25
424.956	99.25
425.178	105.25
425.401	93.25
425.623	98.25
425.846	93.25
426.068	100.25
426.291	96.25
426.513	101.25
426.735	98.25
426.958	91.25
427.18	91.25
427.402	150.25
427.625	199.25
427.847	158.25
428.069	127.25
428.292	92.25
428.514	93.25
428.736	93.25
428.958	99.25
429.181	87.25
429.403	88.25
429.625	89.25
429.847	87.25
430.069	92.25
430.292	98.25
430.514	79.25
430.736	85.25
430.958	88.25
431.18	96.25
431.402	81.25
431.624	84.25
431.846	94.25
432.068	87.25
432.29	89.25
432.512	89.25
432.734	78.25
432.956	94.25
433.178	93.25
433.4	94.25
433.622	90.25
433.844	90.25
434.066	88.25
434.287	82.25
434.509	90.25
434.731	95.25
434.953	87.25
435.175	95.25
435.397	77.25
435.618	91.25
435.84	100.25
436.062	129.25
436.284	117.25
436.505	114.25
436.727	82.25
436.949	87.25
437.17	85.25
437.392	83.25
437.614	84.25
437.835	108.25
438.057	138.25
438.278	131.25
438.5	88.25
438.721	125.25
438.943	106.25
439.165	99.25
439.386	96.25
439.608	97.25
439.829	93.25
440.05	127.25
440.272	155.25
440.493	101.25
440.715	95.25
440.936	76.25
441.158	86.25
441.379	82.25
441.6	105.25
441.822	93.25
442.043	114.25
442.264	118.25
442.486	119.25
442.707	95.25
442.928	112.25
443.149	129.25
443.371	140.25
443.592	125.25
443.813	122.25
444.034	115.25
444.255	99.25
444.476	82.25
444.698	87.25
444.919	82.25
445.14	138.25
445.361	128.25
445.582	114.25
445.803	168.25
446.024	140.25
446.245	146.25
446.466	117.25
446.687	96.25
446.908	80.25
447.129	84.25
447.35	92.25
447.571	93.25
447.792	93.25
448.013	115.25
448.234	115.25
448.455	103.25
448.675	133.25
448.896	131.25
449.117	102.25
449.338	103.25
449.559	121.25
449.779	149.25
450	101.25
450.221	88.25
450.442	104.25
450.662	92.25
450.883	110.25
451.104	107.25
451.324	100.25
451.545	97.25
451.766	87.25
451.986	93.25
452.207	92.25
452.428	90.25
452.648	100.25
452.869	107.25
453.089	121.25
453.31	126.25
453.53	102.25
453.751	95.25
453.971	98.25
454.192	125.25
454.412	108.25
454.633	92.25
454.853	76.25
455.073	74.25
455.294	94.25
455.514	113.25
455.734	78.25
455.955	70.25
456.175	71.25
456.395	74.25
456.616	75.25
456.836	93.25
457.056	89.25
457.276	76.25
457.497	84.25
457.717	89.25
457.937	95.25
458.157	90.25
458.377	100.25
458.598	113.25
458.818	180.25
459.038	171.25
459.258	114.25
459.478	87.25
459.698	86.25
459.918	76.25
460.138	82.25
460.358	75.25
460.578	101.25
460.798	93.25
461.018	101.25
461.238	107.25
461.458	89.25
461.678	80.25
461.898	89.25
462.118	89.25
462.338	94.25
462.558	93.25
462.777	73.25
462.997	77.25
463.217	85.25
463.437	87.25
463.657	82.25
463.876	85.25
464.096	94.25
464.316	109.25
464.536	96.25
464.755	90.25
464.975	103.25
465.195	188.25
465.414	195.25
465.634	86.25
465.854	91.25
466.073	76.25
466.293	81.25
466.512	86.25
466.732	82.25
466.951	86.25
467.171	83.25
467.391	107.25
467.61	115.25
467.829	102.25
468.049	123.25
468.268	134.25
468.488	89.25
468.707	77.25
468.927	73.25
469.146	74.25
469.365	75.25
469.585	95.25
469.804	89.25
470.023	92.25
470.243	86.25
470.462	101.25
470.681	107.25
470.901	90.25
471.12	106.25
471.339	88.25
471.558	84.25
471.777	99.25
471.997	102.25
472.216	153.25
472.435	245.25
472.654	127.25
472.873	106.25
473.092	101.25
473.311	92.25
473.53	83.25
473.749	96.25
473.968	100.25
474.187	103.25
474.406	102.25
474.625	70.25
474.844	83.25
475.063	84.25
475.282	82.25
475.501	100.25
475.72	77.25
475.939	88.25
476.158	83.25
476.377	74.25
476.596	80.25
476.814	92.25
477.033	89.25
477.252	93.25
477.471	85.25
477.69	95.25
477.908	92.25
478.127	95.25
478.346	87.25
478.564	87.25
478.783	87.25
479.002	94.25
479.22	95.25
479.439	116.25
479.658	114.25
479.876	92.25
480.095	80.25
480.313	82.25
480.532	107.25
480.751	122.25
480.969	141.25
481.188	359.25
481.406	269.25
481.624	113.25
481.843	93.25
482.061	86.25
482.28	89.25
482.498	89.25
482.717	68.25
482.935	73.25
483.153	86.25
483.372	93.25
483.59	93.25
483.808	86.25
484.027	98.25
484.245	86.25
484.463	100.25
484.681	99.25
484.9	93.25
485.118	89.25
485.336	99.25
485.554	88.25
485.772	97.25
485.99	102.25
486.209	102.25
486.427	90.25
486.645	110.25
486.863	123.25
487.081	102.25
487.299	85.25
487.517	98.25
487.735	104.25
487.953	90.25
488.171	95.25
488.389	95.25
488.607	93.25
488.825	102.25
489.043	97.25
489.261	83.25
489.479	104.25
489.696	65.25
489.914	90.25
490.132	89.25
490.35	99.25
490.568	95.25
490.786	77.25
491.003	85.25
491.221	94.25
491.439	100.25
491.657	100.25
491.874	89.25
492.092	87.25
492.31	97.25
492.527	98.25
492.745	97.25
492.963	103.25
493.18	94.25
493.398	103.25
493.615	91.25
493.833	95.25
494.05	77.25
494.268	83.25
494.485	89.25
494.703	97.25
494.92	86.25
495.138	90.25
495.355	89.25
495.573	74.25
495.79	94.25
496.008	100.25
496.225	83.25
496.442	91.25
496.66	87.25
496.877	91.25
497.094	102.25
497.312	84.25
497.529	105.25
497.746	101.25
497.963	85.25
498.181	99.25
498.398	111.25
498.615	118.25
498.832	114.25
499.049	91.25
499.267	87.25
499.484	85.25
499.701	86.25
499.918	88.25
500.135	101.25
500.352	98.25
500.569	97.25
500.786	92.25
501.003	88.25
501.22	96.25
501.437	80.25
501.654	94.25
501.871	112.25
502.088	93.25
502.305	93.25
502.522	85.25
502.739	84.25
502.956	65.25
503.172	93.25
503.389	97.25
503.606	127.25
503.823	97.25
504.04	92.25
504.256	89.25
504.473	83.25
504.69	94.25
504.907	90.25
505.123	96.25
505.34	88.25
505.557	88.25
505.773	88.25
505.99	73.25
506.207	86.25
506.423	99.25
506.64	95.25
506.856	91.25
507.073	85.25
507.289	80.25
507.506	106.25
507.722	127.25
507.939	129.25
508.155	94.25
508.372	98.25
508.588	89.25
508.805	97.25
509.021	95.25
509.238	85.25
509.454	91.25
509.67	102.25
509.887	124.25
510.103	153.25
510.319	217.25
510.536	882.25
510.752	3041.25
510.968	831.25
511.184	195.25
511.401	118.25
511.617	117.25
511.833	91.25
512.049	80.25
512.265	76.25
512.481	81.25
512.698	97.25
512.914	92.25
513.13	95.25
513.346	90.25
513.562	95.25
513.778	87.25
513.994	104.25
514.21	106.25
514.426	128.25
514.642	148.25
514.858	135.25
