Data from Circ_2014_H10_HRD10591_00023.txt Node
Date: Wed Jan 03 10:02:13 EST 2024
User: Yrep
Spectrometer: HR+D1059
Trigger mode: 1
Integration Time (sec): 1.000000E-1
Scans to average: 1
Electric dark correction enabled: true
Nonlinearity correction enabled: false
Boxcar width: 0
XAxis mode: Wavelengths
Number of Pixels in Spectrum: 2048
>>>>>Begin Spectral Data<<<<<
223.165	-16.5
223.4	-16.5
223.635	-16.5
223.869	-16.5
224.104	-17.5
224.338	-12.5
224.573	-3.5
224.808	-22.5
225.042	-4.5
225.277	-11.5
225.511	-3.5
225.746	3.5
225.98	6.5
226.215	12.5
226.449	8.5
226.683	24.5
226.918	14.5
227.152	38.5
227.387	45.5
227.621	44.5
227.856	42.5
228.09	51.5
228.324	53.5
228.559	61.5
228.793	63.5
229.027	67.5
229.262	71.5
229.496	84.5
229.73	83.5
229.964	91.5
230.199	82.5
230.433	70.5
230.667	76.5
230.901	83.5
231.136	77.5
231.37	71.5
231.604	87.5
231.838	84.5
232.072	83.5
232.306	94.5
232.541	91.5
232.775	65.5
233.009	69.5
233.243	80.5
233.477	89.5
233.711	63.5
233.945	76.5
234.179	72.5
234.413	69.5
234.647	68.5
234.881	81.5
235.115	80.5
235.349	69.5
235.583	75.5
235.817	67.5
236.051	86.5
236.285	80.5
236.519	80.5
236.753	92.5
236.987	86.5
237.221	88.5
237.455	89.5
237.689	70.5
237.922	76.5
238.156	92.5
238.39	69.5
238.624	55.5
238.858	73.5
239.091	73.5
239.325	81.5
239.559	84.5
239.793	72.5
240.027	82.5
240.26	67.5
240.494	78.5
240.728	76.5
240.961	86.5
241.195	77.5
241.429	83.5
241.662	86.5
241.896	73.5
242.13	68.5
242.363	80.5
242.597	66.5
242.83	75.5
243.064	79.5
243.298	76.5
243.531	79.5
243.765	75.5
243.998	74.5
244.232	76.5
244.465	84.5
244.699	86.5
244.932	74.5
245.166	73.5
245.399	79.5
245.633	75.5
245.866	66.5
246.099	82.5
246.333	75.5
246.566	93.5
246.8	76.5
247.033	76.5
247.266	67.5
247.5	82.5
247.733	79.5
247.966	72.5
248.2	86.5
248.433	90.5
248.666	91.5
248.899	84.5
249.133	88.5
249.366	105.5
249.599	104.5
249.832	83.5
250.066	77.5
250.299	82.5
250.532	84.5
250.765	86.5
250.998	93.5
251.231	87.5
251.465	96.5
251.698	70.5
251.931	78.5
252.164	86.5
252.397	81.5
252.63	89.5
252.863	89.5
253.096	77.5
253.329	84.5
253.562	77.5
253.795	93.5
254.028	96.5
254.261	90.5
254.494	84.5
254.727	58.5
254.96	91.5
255.193	76.5
255.426	87.5
255.659	79.5
255.892	81.5
256.124	85.5
256.357	79.5
256.59	88.5
256.823	83.5
257.056	91.5
257.289	84.5
257.521	84.5
257.754	87.5
257.987	66.5
258.22	95.5
258.452	90.5
258.685	95.5
258.918	77.5
259.151	77.5
259.383	90.5
259.616	78.5
259.849	84.5
260.081	71.5
260.314	85.5
260.547	78.5
260.779	80.5
261.012	89.5
261.244	83.5
261.477	95.5
261.71	112.5
261.942	138.5
262.175	134.5
262.407	87.5
262.64	93.5
262.872	107.5
263.105	78.5
263.337	93.5
263.57	94.5
263.802	87.5
264.035	82.5
264.267	88.5
264.499	85.5
264.732	88.5
264.964	94.5
265.197	90.5
265.429	84.5
265.661	93.5
265.894	90.5
266.126	93.5
266.358	80.5
266.591	79.5
266.823	83.5
267.055	80.5
267.287	99.5
267.52	93.5
267.752	92.5
267.984	95.5
268.216	104.5
268.448	86.5
268.681	91.5
268.913	98.5
269.145	87.5
269.377	82.5
269.609	85.5
269.841	84.5
270.073	88.5
270.306	80.5
270.538	94.5
270.77	82.5
271.002	80.5
271.234	87.5
271.466	82.5
271.698	75.5
271.93	79.5
272.162	75.5
272.394	83.5
272.626	91.5
272.858	83.5
273.09	94.5
273.322	83.5
273.553	93.5
273.785	85.5
274.017	86.5
274.249	84.5
274.481	89.5
274.713	88.5
274.945	91.5
275.176	89.5
275.408	84.5
275.64	88.5
275.872	87.5
276.104	100.5
276.335	90.5
276.567	101.5
276.799	109.5
277.031	105.5
277.262	92.5
277.494	87.5
277.726	102.5
277.957	93.5
278.189	97.5
278.421	80.5
278.652	82.5
278.884	79.5
279.115	83.5
279.347	79.5
279.579	94.5
279.81	91.5
280.042	85.5
280.273	75.5
280.505	88.5
280.736	97.5
280.968	84.5
281.199	106.5
281.431	94.5
281.662	77.5
281.894	100.5
282.125	99.5
282.356	117.5
282.588	151.5
282.819	135.5
283.051	80.5
283.282	100.5
283.513	87.5
283.745	85.5
283.976	77.5
284.207	79.5
284.439	97.5
284.67	84.5
284.901	93.5
285.132	81.5
285.364	94.5
285.595	85.5
285.826	94.5
286.057	101.5
286.288	91.5
286.52	90.5
286.751	91.5
286.982	86.5
287.213	78.5
287.444	100.5
287.675	76.5
287.906	85.5
288.138	68.5
288.369	105.5
288.6	88.5
288.831	92.5
289.062	107.5
289.293	101.5
289.524	85.5
289.755	85.5
289.986	91.5
290.217	98.5
290.448	91.5
290.679	92.5
290.91	91.5
291.141	90.5
291.371	93.5
291.602	86.5
291.833	88.5
292.064	93.5
292.295	93.5
292.526	95.5
292.757	91.5
292.987	82.5
293.218	94.5
293.449	98.5
293.68	91.5
293.91	112.5
294.141	79.5
294.372	81.5
294.603	86.5
294.833	80.5
295.064	102.5
295.295	100.5
295.525	95.5
295.756	107.5
295.987	135.5
296.217	167.5
296.448	132.5
296.679	90.5
296.909	80.5
297.14	84.5
297.37	87.5
297.601	95.5
297.831	89.5
298.062	97.5
298.292	95.5
298.523	101.5
298.753	93.5
298.984	99.5
299.214	79.5
299.445	93.5
299.675	111.5
299.905	90.5
300.136	103.5
300.366	98.5
300.597	91.5
300.827	96.5
301.057	93.5
301.288	110.5
301.518	99.5
301.748	96.5
301.979	102.5
302.209	92.5
302.439	85.5
302.669	108.5
302.9	86.5
303.13	99.5
303.36	99.5
303.59	91.5
303.82	120.5
304.051	103.5
304.281	92.5
304.511	87.5
304.741	95.5
304.971	86.5
305.201	92.5
305.431	105.5
305.661	93.5
305.891	106.5
306.121	94.5
306.352	102.5
306.582	104.5
306.812	84.5
307.042	93.5
307.272	102.5
307.502	95.5
307.731	98.5
307.961	101.5
308.191	78.5
308.421	97.5
308.651	103.5
308.881	111.5
309.111	93.5
309.341	93.5
309.571	118.5
309.8	92.5
310.03	113.5
310.26	106.5
310.49	95.5
310.72	105.5
310.949	114.5
311.179	108.5
311.409	94.5
311.639	95.5
311.868	104.5
312.098	105.5
312.328	116.5
312.557	118.5
312.787	121.5
313.017	118.5
313.246	100.5
313.476	92.5
313.706	82.5
313.935	93.5
314.165	97.5
314.394	100.5
314.624	114.5
314.853	110.5
315.083	109.5
315.312	86.5
315.542	85.5
315.771	97.5
316.001	90.5
316.23	87.5
316.46	86.5
316.689	89.5
316.919	97.5
317.148	106.5
317.377	87.5
317.607	95.5
317.836	85.5
318.065	101.5
318.295	107.5
318.524	102.5
318.753	104.5
318.983	108.5
319.212	116.5
319.441	135.5
319.67	118.5
319.9	82.5
320.129	95.5
320.358	91.5
320.587	87.5
320.816	111.5
321.046	110.5
321.275	99.5
321.504	96.5
321.733	103.5
321.962	98.5
322.191	91.5
322.42	119.5
322.649	120.5
322.878	119.5
323.108	119.5
323.337	146.5
323.566	135.5
323.795	176.5
324.024	233.5
324.253	509.5
324.482	1026.5
324.71	2126.5
324.939	2858.5
325.168	1039.5
325.397	295.5
325.626	153.5
325.855	151.5
326.084	147.5
326.313	146.5
326.542	176.5
326.77	280.5
326.999	550.5
327.228	1145.5
327.457	2114.5
327.686	1679.5
327.914	459.5
328.143	244.5
328.372	191.5
328.6	144.5
328.829	133.5
329.058	165.5
329.287	155.5
329.515	109.5
329.744	110.5
329.972	119.5
330.201	114.5
330.43	135.5
330.658	150.5
330.887	171.5
331.115	122.5
331.344	104.5
331.572	107.5
331.801	113.5
332.03	124.5
332.258	100.5
332.486	93.5
332.715	94.5
332.943	109.5
333.172	90.5
333.4	100.5
333.629	117.5
333.857	109.5
334.085	117.5
334.314	114.5
334.542	107.5
334.771	125.5
334.999	107.5
335.227	94.5
335.455	106.5
335.684	98.5
335.912	106.5
336.14	100.5
336.369	98.5
336.597	94.5
336.825	115.5
337.053	94.5
337.281	93.5
337.51	89.5
337.738	95.5
337.966	90.5
338.194	88.5
338.422	103.5
338.65	98.5
338.878	95.5
339.106	95.5
339.334	97.5
339.562	82.5
339.79	93.5
340.018	94.5
340.246	95.5
340.474	103.5
340.702	110.5
340.93	89.5
341.158	98.5
341.386	106.5
341.614	109.5
341.842	118.5
342.07	91.5
342.298	104.5
342.526	96.5
342.754	84.5
342.981	95.5
343.209	95.5
343.437	89.5
343.665	84.5
343.893	99.5
344.12	106.5
344.348	90.5
344.576	98.5
344.804	88.5
345.031	93.5
345.259	112.5
345.487	109.5
345.714	111.5
345.942	99.5
346.17	95.5
346.397	94.5
346.625	94.5
346.853	101.5
347.08	91.5
347.308	108.5
347.535	98.5
347.763	100.5
347.99	104.5
348.218	110.5
348.445	117.5
348.673	92.5
348.9	95.5
349.128	104.5
349.355	107.5
349.583	76.5
349.81	82.5
350.037	81.5
350.265	92.5
350.492	82.5
350.72	88.5
350.947	101.5
351.174	114.5
351.402	120.5
351.629	112.5
351.856	112.5
352.083	108.5
352.311	125.5
352.538	126.5
352.765	98.5
352.992	126.5
353.22	114.5
353.447	110.5
353.674	100.5
353.901	92.5
354.128	109.5
354.355	102.5
354.583	95.5
354.81	101.5
355.037	94.5
355.264	102.5
355.491	89.5
355.718	93.5
355.945	103.5
356.172	96.5
356.399	93.5
356.626	96.5
356.853	94.5
357.08	83.5
357.307	88.5
357.534	79.5
357.761	93.5
357.988	95.5
358.215	85.5
358.441	85.5
358.668	94.5
358.895	88.5
359.122	90.5
359.349	106.5
359.576	111.5
359.802	99.5
360.029	141.5
360.256	128.5
360.483	102.5
360.709	98.5
360.936	94.5
361.163	100.5
361.39	98.5
361.616	106.5
361.843	101.5
362.07	97.5
362.296	108.5
362.523	101.5
362.749	91.5
362.976	92.5
363.203	92.5
363.429	91.5
363.656	99.5
363.882	78.5
364.109	92.5
364.335	95.5
364.562	92.5
364.788	105.5
365.015	99.5
365.241	105.5
365.468	114.5
365.694	114.5
365.92	95.5
366.147	90.5
366.373	96.5
366.599	98.5
366.826	86.5
367.052	93.5
367.278	95.5
367.505	104.5
367.731	98.5
367.957	90.5
368.184	98.5
368.41	118.5
368.636	115.5
368.862	126.5
369.089	122.5
369.315	98.5
369.541	96.5
369.767	104.5
369.993	99.5
370.219	92.5
370.445	95.5
370.672	81.5
370.898	80.5
371.124	103.5
371.35	93.5
371.576	93.5
371.802	92.5
372.028	102.5
372.254	91.5
372.48	83.5
372.706	86.5
372.932	85.5
373.158	79.5
373.384	89.5
373.61	94.5
373.835	87.5
374.061	91.5
374.287	94.5
374.513	107.5
374.739	98.5
374.965	85.5
375.191	82.5
375.416	91.5
375.642	80.5
375.868	95.5
376.094	99.5
376.319	95.5
376.545	93.5
376.771	99.5
376.997	101.5
377.222	101.5
377.448	91.5
377.674	90.5
377.899	87.5
378.125	87.5
378.35	98.5
378.576	100.5
378.802	85.5
379.027	87.5
379.253	96.5
379.478	77.5
379.704	88.5
379.929	91.5
380.155	95.5
380.38	97.5
380.606	96.5
380.831	99.5
381.057	102.5
381.282	100.5
381.507	84.5
381.733	103.5
381.958	95.5
382.184	103.5
382.409	111.5
382.634	104.5
382.86	101.5
383.085	103.5
383.31	106.5
383.535	106.5
383.761	102.5
383.986	103.5
384.211	108.5
384.436	97.5
384.662	94.5
384.887	124.5
385.112	109.5
385.337	113.5
385.562	112.5
385.787	84.5
386.013	100.5
386.238	126.5
386.463	108.5
386.688	106.5
386.913	111.5
387.138	118.5
387.363	95.5
387.588	112.5
387.813	111.5
388.038	110.5
388.263	111.5
388.488	116.5
388.713	108.5
388.938	83.5
389.163	109.5
389.387	102.5
389.612	85.5
389.837	88.5
390.062	92.5
390.287	90.5
390.512	78.5
390.736	79.5
390.961	95.5
391.186	94.5
391.411	88.5
391.636	80.5
391.86	84.5
392.085	84.5
392.31	96.5
392.534	92.5
392.759	94.5
392.984	99.5
393.208	91.5
393.433	92.5
393.658	96.5
393.882	93.5
394.107	91.5
394.331	84.5
394.556	90.5
394.78	96.5
395.005	88.5
395.229	82.5
395.454	100.5
395.678	93.5
395.903	81.5
396.127	78.5
396.352	87.5
396.576	96.5
396.801	101.5
397.025	84.5
397.249	85.5
397.474	80.5
397.698	86.5
397.922	88.5
398.147	90.5
398.371	82.5
398.595	79.5
398.82	85.5
399.044	92.5
399.268	84.5
399.492	79.5
399.717	82.5
399.941	83.5
400.165	94.5
400.389	101.5
400.613	90.5
400.837	91.5
401.062	92.5
401.286	98.5
401.51	99.5
401.734	95.5
401.958	99.5
402.182	157.5
402.406	195.5
402.63	135.5
402.854	98.5
403.078	87.5
403.302	95.5
403.526	80.5
403.75	90.5
403.974	87.5
404.198	91.5
404.422	93.5
404.645	96.5
404.869	84.5
405.093	101.5
405.317	117.5
405.541	100.5
405.765	101.5
405.988	122.5
406.212	221.5
406.436	309.5
406.66	190.5
406.883	119.5
407.107	106.5
407.331	107.5
407.555	101.5
407.778	100.5
408.002	78.5
408.226	106.5
408.449	95.5
408.673	102.5
408.896	101.5
409.12	104.5
409.344	86.5
409.567	87.5
409.791	117.5
410.014	116.5
410.238	87.5
410.461	99.5
410.685	97.5
410.908	100.5
411.132	95.5
411.355	118.5
411.578	98.5
411.802	83.5
412.025	88.5
412.249	86.5
412.472	98.5
412.695	91.5
412.919	85.5
413.142	88.5
413.365	83.5
413.589	93.5
413.812	86.5
414.035	106.5
414.258	90.5
414.482	86.5
414.705	89.5
414.928	92.5
415.151	80.5
415.374	106.5
415.597	91.5
415.821	87.5
416.044	93.5
416.267	99.5
416.49	78.5
416.713	78.5
416.936	78.5
417.159	88.5
417.382	84.5
417.605	76.5
417.828	107.5
418.051	103.5
418.274	112.5
418.497	90.5
418.72	92.5
418.943	84.5
419.166	95.5
419.389	95.5
419.611	116.5
419.834	102.5
420.057	92.5
420.28	82.5
420.503	87.5
420.726	84.5
420.948	89.5
421.171	97.5
421.394	103.5
421.617	92.5
421.839	90.5
422.062	101.5
422.285	91.5
422.507	117.5
422.73	106.5
422.953	94.5
423.175	78.5
423.398	94.5
423.621	89.5
423.843	85.5
424.066	80.5
424.288	93.5
424.511	86.5
424.733	101.5
424.956	107.5
425.178	95.5
425.401	115.5
425.623	102.5
425.846	93.5
426.068	99.5
426.291	107.5
426.513	102.5
426.735	105.5
426.958	89.5
427.18	108.5
427.402	158.5
427.625	198.5
427.847	162.5
428.069	116.5
428.292	89.5
428.514	86.5
428.736	95.5
428.958	91.5
429.181	99.5
429.403	75.5
429.625	78.5
429.847	106.5
430.069	92.5
430.292	94.5
430.514	83.5
430.736	91.5
430.958	88.5
431.18	91.5
431.402	80.5
431.624	88.5
431.846	102.5
432.068	102.5
432.29	79.5
432.512	95.5
432.734	79.5
432.956	77.5
433.178	94.5
433.4	104.5
433.622	95.5
433.844	91.5
434.066	95.5
434.287	94.5
434.509	100.5
434.731	90.5
434.953	89.5
435.175	77.5
435.397	98.5
435.618	93.5
435.84	104.5
436.062	124.5
436.284	114.5
436.505	103.5
436.727	96.5
436.949	96.5
437.17	107.5
437.392	94.5
437.614	96.5
437.835	128.5
438.057	135.5
438.278	124.5
438.5	112.5
438.721	117.5
438.943	100.5
439.165	80.5
439.386	97.5
439.608	86.5
439.829	110.5
440.05	132.5
440.272	158.5
440.493	106.5
440.715	84.5
440.936	95.5
441.158	93.5
441.379	77.5
441.6	100.5
441.822	102.5
442.043	98.5
442.264	109.5
442.486	108.5
442.707	106.5
442.928	112.5
443.149	144.5
443.371	158.5
443.592	119.5
443.813	124.5
444.034	106.5
444.255	102.5
444.476	92.5
444.698	93.5
444.919	94.5
445.14	144.5
445.361	115.5
445.582	117.5
445.803	161.5
446.024	143.5
446.245	153.5
446.466	116.5
446.687	101.5
446.908	96.5
447.129	92.5
447.35	90.5
447.571	102.5
447.792	85.5
448.013	99.5
448.234	120.5
448.455	114.5
448.675	107.5
448.896	116.5
449.117	95.5
449.338	110.5
449.559	145.5
449.779	132.5
450	106.5
450.221	93.5
450.442	80.5
450.662	101.5
450.883	122.5
451.104	130.5
451.324	106.5
451.545	86.5
451.766	96.5
451.986	89.5
452.207	98.5
452.428	102.5
452.648	94.5
452.869	128.5
453.089	131.5
453.31	139.5
453.53	97.5
453.751	90.5
453.971	118.5
454.192	126.5
454.412	102.5
454.633	98.5
454.853	79.5
455.073	91.5
455.294	96.5
455.514	106.5
455.734	115.5
455.955	76.5
456.175	77.5
456.395	87.5
456.616	86.5
456.836	81.5
457.056	91.5
457.276	80.5
457.497	86.5
457.717	94.5
457.937	78.5
458.157	88.5
458.377	102.5
458.598	126.5
458.818	185.5
459.038	202.5
459.258	153.5
459.478	95.5
459.698	83.5
459.918	91.5
460.138	90.5
460.358	83.5
460.578	69.5
460.798	99.5
461.018	90.5
461.238	85.5
461.458	82.5
461.678	91.5
461.898	80.5
462.118	86.5
462.338	82.5
462.558	88.5
462.777	86.5
462.997	87.5
463.217	81.5
463.437	90.5
463.657	89.5
463.876	82.5
464.096	103.5
464.316	100.5
464.536	80.5
464.755	120.5
464.975	134.5
465.195	215.5
465.414	198.5
465.634	116.5
465.854	101.5
466.073	77.5
466.293	78.5
466.512	80.5
466.732	98.5
466.951	93.5
467.171	96.5
467.391	88.5
467.61	114.5
467.829	98.5
468.049	87.5
468.268	98.5
468.488	84.5
468.707	89.5
468.927	95.5
469.146	90.5
469.365	84.5
469.585	85.5
469.804	98.5
470.023	104.5
470.243	91.5
470.462	94.5
470.681	121.5
470.901	82.5
471.12	84.5
471.339	75.5
471.558	84.5
471.777	85.5
471.997	94.5
472.216	107.5
472.435	116.5
472.654	111.5
472.873	105.5
473.092	94.5
473.311	89.5
473.53	91.5
473.749	79.5
473.968	101.5
474.187	126.5
474.406	80.5
474.625	81.5
474.844	70.5
475.063	77.5
475.282	106.5
475.501	96.5
475.72	81.5
475.939	86.5
476.158	87.5
476.377	87.5
476.596	81.5
476.814	103.5
477.033	101.5
477.252	91.5
477.471	73.5
477.69	93.5
477.908	95.5
478.127	87.5
478.346	86.5
478.564	82.5
478.783	112.5
479.002	100.5
479.22	101.5
479.439	100.5
479.658	104.5
479.876	105.5
480.095	86.5
480.313	86.5
480.532	90.5
480.751	98.5
480.969	106.5
481.188	147.5
481.406	133.5
481.624	89.5
481.843	93.5
482.061	85.5
482.28	88.5
482.498	102.5
482.717	83.5
482.935	86.5
483.153	94.5
483.372	92.5
483.59	95.5
483.808	87.5
484.027	98.5
484.245	85.5
484.463	101.5
484.681	87.5
484.9	90.5
485.118	93.5
485.336	79.5
485.554	98.5
485.772	86.5
485.99	100.5
486.209	102.5
486.427	94.5
486.645	108.5
486.863	115.5
487.081	99.5
487.299	91.5
487.517	99.5
487.735	90.5
487.953	94.5
488.171	83.5
488.389	86.5
488.607	105.5
488.825	106.5
489.043	102.5
489.261	96.5
489.479	89.5
489.696	90.5
489.914	81.5
490.132	91.5
490.35	91.5
490.568	89.5
490.786	84.5
491.003	82.5
491.221	87.5
491.439	94.5
491.657	93.5
491.874	98.5
492.092	91.5
492.31	96.5
492.527	89.5
492.745	93.5
492.963	106.5
493.18	99.5
493.398	98.5
493.615	92.5
493.833	93.5
494.05	77.5
494.268	91.5
494.485	82.5
494.703	93.5
494.92	78.5
495.138	110.5
495.355	100.5
495.573	81.5
495.79	95.5
496.008	115.5
496.225	96.5
496.442	98.5
496.66	84.5
496.877	97.5
497.094	86.5
497.312	88.5
497.529	88.5
497.746	97.5
497.963	78.5
498.181	96.5
498.398	86.5
498.615	105.5
498.832	112.5
499.049	102.5
499.267	96.5
499.484	94.5
499.701	90.5
499.918	88.5
500.135	87.5
500.352	76.5
500.569	90.5
500.786	98.5
501.003	91.5
501.22	80.5
501.437	91.5
501.654	106.5
501.871	130.5
502.088	110.5
502.305	105.5
502.522	79.5
502.739	87.5
502.956	82.5
503.172	89.5
503.389	118.5
503.606	120.5
503.823	86.5
504.04	99.5
504.256	90.5
504.473	85.5
504.69	96.5
504.907	91.5
505.123	89.5
505.34	90.5
505.557	96.5
505.773	88.5
505.99	92.5
506.207	81.5
506.423	89.5
506.64	99.5
506.856	105.5
507.073	89.5
507.289	87.5
507.506	103.5
507.722	116.5
507.939	122.5
508.155	107.5
508.372	109.5
508.588	104.5
508.805	104.5
509.021	95.5
509.238	110.5
509.454	99.5
509.67	109.5
509.887	114.5
510.103	144.5
510.319	263.5
510.536	985.5
510.752	3543.5
510.968	973.5
511.184	210.5
511.401	123.5
511.617	108.5
511.833	99.5
512.049	91.5
512.265	107.5
512.481	102.5
512.698	99.5
512.914	93.5
513.13	87.5
513.346	101.5
513.562	96.5
513.778	93.5
513.994	103.5
514.21	124.5
514.426	133.5
514.642	162.5
514.858	160.5
515.074	214.5
515.29	611.5
515.506	2407.5
515.721	890.5
515.937	199.5
516.153	144.5
516.369	100.5
516.585	118.5
516.801	76.5
517.016	99.5
517.232	87.5
517.448	99.5
517.664	104.5
517.879	102.5
518.095	96.5
518.311	90.5
518.527	99.5
518.742	101.5
518.958	102.5
519.173	95.5
519.389	92.5
519.605	94.5
519.82	101.5
520.036	94.5
520.251	145.5
520.467	114.5
520.682	107.5
520.898	132.5
521.113	139.5
521.329	166.5
521.544	292.5
521.76	807.5
521.975	3913.5
522.19	2456.5
522.406	485.5
522.621	148.5
522.836	122.5
523.052	99.5
523.267	94.5
523.482	98.5
523.698	121.5
523.913	119.5
524.128	119.5
524.343	94.5
524.559	101.5
524.774	84.5
524.989	87.5
525.204	103.5
525.419	114.5
525.634	103.5
525.849	96.5
526.064	100.5
526.28	88.5
526.495	79.5
526.71	80.5
526.925	88.5
527.14	82.5
527.355	92.5
527.57	87.5
527.785	76.5
527.999	85.5
528.214	100.5
528.429	93.5
528.644	98.5
528.859	97.5
529.074	90.5
529.289	142.5
529.503	244.5
529.718	118.5
529.933	81.5
530.148	93.5
530.363	85.5
530.577	90.5
530.792	91.5
531.007	91.5
531.221	103.5
531.436	84.5
531.651	77.5
531.865	92.5
532.08	84.5
532.295	83.5
532.509	87.5
532.724	94.5
532.938	94.5
533.153	95.5
533.367	105.5
