Data from Circ_2014_H10_HRD10591_00044.txt Node
Date: Wed Jan 03 10:02:18 EST 2024
User: Yrep
Spectrometer: HR+D1059
Trigger mode: 1
Integration Time (sec): 1.000000E-1
Scans to average: 1
Electric dark correction enabled: true
Nonlinearity correction enabled: false
Boxcar width: 0
XAxis mode: Wavelengths
Number of Pixels in Spectrum: 2048
>>>>>Begin Spectral Data<<<<<
223.165	-22.12
223.4	-22.12
223.635	-22.12
223.869	-25.12
224.104	-13.12
224.338	-14.12
224.573	-15.12
224.808	-4.12
225.042	-13.12
225.277	-5.12
225.511	0.88
225.746	5.88
225.98	0.88
226.215	25.88
226.449	15.88
226.683	18.88
226.918	13.88
227.152	29.88
227.387	34.88
227.621	37.88
227.856	33.88
228.09	46.88
228.324	47.88
228.559	57.88
228.793	70.88
229.027	69.88
229.262	42.88
229.496	58.88
229.73	79.88
229.964	86.88
230.199	80.88
230.433	63.88
230.667	75.88
230.901	49.88
231.136	69.88
231.37	70.88
231.604	72.88
231.838	84.88
232.072	77.88
232.306	81.88
232.541	82.88
232.775	81.88
233.009	76.88
233.243	76.88
233.477	76.88
233.711	75.88
233.945	71.88
234.179	80.88
234.413	76.88
234.647	82.88
234.881	81.88
235.115	69.88
235.349	73.88
235.583	70.88
235.817	68.88
236.051	71.88
236.285	74.88
236.519	70.88
236.753	65.88
236.987	79.88
237.221	85.88
237.455	90.88
237.689	62.88
237.922	86.88
238.156	64.88
238.39	72.88
238.624	61.88
238.858	81.88
239.091	69.88
239.325	72.88
239.559	91.88
239.793	83.88
240.027	79.88
240.26	74.88
240.494	70.88
240.728	77.88
240.961	78.88
241.195	76.88
241.429	71.88
241.662	78.88
241.896	79.88
242.13	92.88
242.363	76.88
242.597	88.88
242.83	87.88
243.064	82.88
243.298	68.88
243.531	63.88
243.765	69.88
243.998	80.88
244.232	84.88
244.465	63.88
244.699	66.88
244.932	70.88
245.166	75.88
245.399	82.88
245.633	64.88
245.866	74.88
246.099	69.88
246.333	69.88
246.566	67.88
246.8	80.88
247.033	72.88
247.266	72.88
247.5	77.88
247.733	72.88
247.966	64.88
248.2	81.88
248.433	72.88
248.666	79.88
248.899	82.88
249.133	79.88
249.366	100.88
249.599	86.88
249.832	75.88
250.066	75.88
250.299	73.88
250.532	70.88
250.765	73.88
250.998	78.88
251.231	73.88
251.465	71.88
251.698	73.88
251.931	71.88
252.164	80.88
252.397	77.88
252.63	85.88
252.863	73.88
253.096	70.88
253.329	76.88
253.562	70.88
253.795	79.88
254.028	75.88
254.261	83.88
254.494	76.88
254.727	66.88
254.96	72.88
255.193	77.88
255.426	77.88
255.659	71.88
255.892	81.88
256.124	88.88
256.357	71.88
256.59	77.88
256.823	79.88
257.056	84.88
257.289	81.88
257.521	81.88
257.754	64.88
257.987	75.88
258.22	74.88
258.452	72.88
258.685	85.88
258.918	76.88
259.151	86.88
259.383	79.88
259.616	73.88
259.849	70.88
260.081	88.88
260.314	86.88
260.547	69.88
260.779	73.88
261.012	75.88
261.244	80.88
261.477	86.88
261.71	85.88
261.942	111.88
262.175	115.88
262.407	83.88
262.64	73.88
262.872	81.88
263.105	68.88
263.337	71.88
263.57	72.88
263.802	83.88
264.035	87.88
264.267	90.88
264.499	77.88
264.732	88.88
264.964	72.88
265.197	71.88
265.429	80.88
265.661	85.88
265.894	72.88
266.126	87.88
266.358	75.88
266.591	78.88
266.823	77.88
267.055	73.88
267.287	79.88
267.52	72.88
267.752	75.88
267.984	68.88
268.216	85.88
268.448	89.88
268.681	80.88
268.913	81.88
269.145	75.88
269.377	81.88
269.609	82.88
269.841	68.88
270.073	82.88
270.306	85.88
270.538	75.88
270.77	78.88
271.002	72.88
271.234	79.88
271.466	81.88
271.698	69.88
271.93	84.88
272.162	88.88
272.394	64.88
272.626	86.88
272.858	82.88
273.09	81.88
273.322	77.88
273.553	75.88
273.785	76.88
274.017	74.88
274.249	78.88
274.481	91.88
274.713	92.88
274.945	86.88
275.176	80.88
275.408	85.88
275.64	68.88
275.872	74.88
276.104	98.88
276.335	85.88
276.567	105.88
276.799	100.88
277.031	93.88
277.262	91.88
277.494	91.88
277.726	64.88
277.957	76.88
278.189	84.88
278.421	80.88
278.652	81.88
278.884	82.88
279.115	81.88
279.347	76.88
279.579	87.88
279.81	82.88
280.042	82.88
280.273	85.88
280.505	74.88
280.736	85.88
280.968	79.88
281.199	81.88
281.431	85.88
281.662	73.88
281.894	81.88
282.125	97.88
282.356	114.88
282.588	139.88
282.819	100.88
283.051	96.88
283.282	94.88
283.513	69.88
283.745	89.88
283.976	78.88
284.207	87.88
284.439	90.88
284.67	89.88
284.901	95.88
285.132	83.88
285.364	75.88
285.595	80.88
285.826	88.88
286.057	88.88
286.288	86.88
286.52	83.88
286.751	72.88
286.982	82.88
287.213	75.88
287.444	78.88
287.675	88.88
287.906	86.88
288.138	85.88
288.369	95.88
288.6	97.88
288.831	95.88
289.062	92.88
289.293	94.88
289.524	78.88
289.755	90.88
289.986	74.88
290.217	66.88
290.448	76.88
290.679	87.88
290.91	88.88
291.141	73.88
291.371	91.88
291.602	93.88
291.833	88.88
292.064	76.88
292.295	77.88
292.526	84.88
292.757	76.88
292.987	86.88
293.218	89.88
293.449	78.88
293.68	90.88
293.91	82.88
294.141	81.88
294.372	70.88
294.603	86.88
294.833	95.88
295.064	75.88
295.295	96.88
295.525	88.88
295.756	93.88
295.987	111.88
296.217	128.88
296.448	125.88
296.679	102.88
296.909	85.88
297.14	80.88
297.37	87.88
297.601	89.88
297.831	87.88
298.062	86.88
298.292	69.88
298.523	93.88
298.753	91.88
298.984	105.88
299.214	89.88
299.445	83.88
299.675	83.88
299.905	96.88
300.136	81.88
300.366	85.88
300.597	87.88
300.827	95.88
301.057	102.88
301.288	100.88
301.518	95.88
301.748	87.88
301.979	90.88
302.209	92.88
302.439	86.88
302.669	73.88
302.9	81.88
303.13	79.88
303.36	79.88
303.59	91.88
303.82	93.88
304.051	88.88
304.281	72.88
304.511	94.88
304.741	80.88
304.971	75.88
305.201	73.88
305.431	75.88
305.661	87.88
305.891	92.88
306.121	90.88
306.352	111.88
306.582	109.88
306.812	93.88
307.042	85.88
307.272	77.88
307.502	97.88
307.731	94.88
307.961	81.88
308.191	69.88
308.421	82.88
308.651	86.88
308.881	93.88
309.111	97.88
309.341	78.88
309.571	93.88
309.8	96.88
310.03	98.88
310.26	93.88
310.49	98.88
310.72	104.88
310.949	90.88
311.179	97.88
311.409	95.88
311.639	85.88
311.868	95.88
312.098	91.88
312.328	96.88
312.557	91.88
312.787	100.88
313.017	112.88
313.246	96.88
313.476	82.88
313.706	99.88
313.935	93.88
314.165	76.88
314.394	98.88
314.624	99.88
314.853	82.88
315.083	93.88
315.312	83.88
315.542	83.88
315.771	82.88
316.001	89.88
316.23	74.88
316.46	73.88
316.689	82.88
316.919	90.88
317.148	94.88
317.377	94.88
317.607	81.88
317.836	102.88
318.065	85.88
318.295	88.88
318.524	86.88
318.753	86.88
318.983	92.88
319.212	90.88
319.441	106.88
319.67	102.88
319.9	100.88
320.129	88.88
320.358	82.88
320.587	90.88
320.816	100.88
321.046	97.88
321.275	96.88
321.504	80.88
321.733	93.88
321.962	88.88
322.191	102.88
322.42	102.88
322.649	100.88
322.878	112.88
323.108	109.88
323.337	117.88
323.566	121.88
323.795	150.88
324.024	162.88
324.253	337.88
324.482	704.88
324.71	1418.88
324.939	1881.88
325.168	748.88
325.397	225.88
325.626	144.88
325.855	127.88
326.084	120.88
326.313	108.88
326.542	137.88
326.77	209.88
326.999	395.88
327.228	789.88
327.457	1453.88
327.686	1137.88
327.914	331.88
328.143	199.88
328.372	146.88
328.6	127.88
328.829	105.88
329.058	111.88
329.287	120.88
329.515	116.88
329.744	112.88
329.972	114.88
330.201	125.88
330.43	136.88
330.658	116.88
330.887	136.88
331.115	124.88
331.344	96.88
331.572	97.88
331.801	98.88
332.03	104.88
332.258	82.88
332.486	93.88
332.715	90.88
332.943	97.88
333.172	62.88
333.4	106.88
333.629	98.88
333.857	115.88
334.085	123.88
334.314	106.88
334.542	131.88
334.771	139.88
334.999	102.88
335.227	100.88
335.455	101.88
335.684	79.88
335.912	96.88
336.14	96.88
336.369	89.88
336.597	93.88
336.825	78.88
337.053	80.88
337.281	89.88
337.51	94.88
337.738	100.88
337.966	85.88
338.194	85.88
338.422	99.88
338.65	91.88
338.878	96.88
339.106	83.88
339.334	86.88
339.562	98.88
339.79	89.88
340.018	87.88
340.246	69.88
340.474	98.88
340.702	93.88
340.93	86.88
341.158	101.88
341.386	99.88
341.614	90.88
341.842	98.88
342.07	96.88
342.298	74.88
342.526	69.88
342.754	87.88
342.981	84.88
343.209	77.88
343.437	99.88
343.665	83.88
343.893	75.88
344.12	95.88
344.348	82.88
344.576	96.88
344.804	88.88
345.031	97.88
345.259	92.88
345.487	90.88
345.714	87.88
345.942	77.88
346.17	93.88
346.397	82.88
346.625	76.88
346.853	100.88
347.08	93.88
347.308	86.88
347.535	87.88
347.763	82.88
347.99	85.88
348.218	96.88
348.445	83.88
348.673	99.88
348.9	89.88
349.128	98.88
349.355	75.88
349.583	86.88
349.81	88.88
350.037	83.88
350.265	99.88
350.492	73.88
350.72	89.88
350.947	92.88
351.174	109.88
351.402	107.88
351.629	93.88
351.856	82.88
352.083	100.88
352.311	95.88
352.538	104.88
352.765	95.88
352.992	105.88
353.22	103.88
353.447	99.88
353.674	104.88
353.901	88.88
354.128	83.88
354.355	105.88
354.583	91.88
354.81	94.88
355.037	96.88
355.264	95.88
355.491	91.88
355.718	84.88
355.945	90.88
356.172	86.88
356.399	79.88
356.626	79.88
356.853	96.88
357.08	74.88
357.307	83.88
357.534	91.88
357.761	100.88
357.988	88.88
358.215	99.88
358.441	90.88
358.668	88.88
358.895	93.88
359.122	91.88
359.349	83.88
359.576	82.88
359.802	99.88
360.029	117.88
360.256	106.88
360.483	101.88
360.709	91.88
360.936	94.88
361.163	100.88
361.39	100.88
361.616	94.88
361.843	82.88
362.07	100.88
362.296	93.88
362.523	85.88
362.749	96.88
362.976	88.88
363.203	84.88
363.429	82.88
363.656	95.88
363.882	90.88
364.109	93.88
364.335	82.88
364.562	86.88
364.788	92.88
365.015	104.88
365.241	98.88
365.468	106.88
365.694	86.88
365.92	108.88
366.147	94.88
366.373	67.88
366.599	86.88
366.826	82.88
367.052	75.88
367.278	93.88
367.505	87.88
367.731	92.88
367.957	84.88
368.184	92.88
368.41	102.88
368.636	101.88
368.862	100.88
369.089	93.88
369.315	98.88
369.541	98.88
369.767	90.88
369.993	77.88
370.219	81.88
370.445	87.88
370.672	88.88
370.898	90.88
371.124	78.88
371.35	96.88
371.576	69.88
371.802	79.88
372.028	79.88
372.254	80.88
372.48	68.88
372.706	86.88
372.932	76.88
373.158	90.88
373.384	88.88
373.61	94.88
373.835	91.88
374.061	74.88
374.287	94.88
374.513	82.88
374.739	73.88
374.965	80.88
375.191	79.88
375.416	80.88
375.642	81.88
375.868	85.88
376.094	89.88
376.319	80.88
376.545	84.88
376.771	90.88
376.997	75.88
377.222	106.88
377.448	88.88
377.674	93.88
377.899	89.88
378.125	78.88
378.35	79.88
378.576	84.88
378.802	93.88
379.027	71.88
379.253	95.88
379.478	94.88
379.704	91.88
379.929	94.88
380.155	101.88
380.38	82.88
380.606	100.88
380.831	88.88
381.057	82.88
381.282	88.88
381.507	84.88
381.733	101.88
381.958	96.88
382.184	97.88
382.409	99.88
382.634	101.88
382.86	83.88
383.085	85.88
383.31	88.88
383.535	92.88
383.761	78.88
383.986	92.88
384.211	83.88
384.436	87.88
384.662	84.88
384.887	79.88
385.112	111.88
385.337	90.88
385.562	96.88
385.787	99.88
386.013	98.88
386.238	107.88
386.463	102.88
386.688	91.88
386.913	110.88
387.138	113.88
387.363	111.88
387.588	93.88
387.813	106.88
388.038	96.88
388.263	95.88
388.488	110.88
388.713	99.88
388.938	89.88
389.163	95.88
389.387	102.88
389.612	106.88
389.837	79.88
390.062	82.88
390.287	81.88
390.512	80.88
390.736	84.88
390.961	94.88
391.186	91.88
391.411	84.88
391.636	90.88
391.86	85.88
392.085	72.88
392.31	82.88
392.534	81.88
392.759	88.88
392.984	82.88
393.208	75.88
393.433	87.88
393.658	76.88
393.882	88.88
394.107	87.88
394.331	99.88
394.556	85.88
394.78	92.88
395.005	84.88
395.229	72.88
395.454	87.88
395.678	85.88
395.903	93.88
396.127	99.88
396.352	94.88
396.576	76.88
396.801	87.88
397.025	73.88
397.249	80.88
397.474	89.88
397.698	91.88
397.922	92.88
398.147	79.88
398.371	77.88
398.595	91.88
398.82	78.88
399.044	70.88
399.268	80.88
399.492	78.88
399.717	80.88
399.941	104.88
400.165	96.88
400.389	88.88
400.613	61.88
400.837	85.88
401.062	82.88
401.286	87.88
401.51	95.88
401.734	95.88
401.958	89.88
402.182	122.88
402.406	154.88
402.63	119.88
402.854	104.88
403.078	83.88
403.302	86.88
403.526	85.88
403.75	90.88
403.974	82.88
404.198	71.88
404.422	97.88
404.645	86.88
404.869	87.88
405.093	96.88
405.317	95.88
405.541	96.88
405.765	114.88
405.988	116.88
406.212	168.88
406.436	226.88
406.66	154.88
406.883	97.88
407.107	92.88
407.331	97.88
407.555	89.88
407.778	94.88
408.002	93.88
408.226	74.88
408.449	83.88
408.673	105.88
408.896	81.88
409.12	85.88
409.344	91.88
409.567	84.88
409.791	85.88
410.014	84.88
410.238	71.88
410.461	86.88
410.685	92.88
410.908	95.88
411.132	105.88
411.355	85.88
411.578	77.88
411.802	80.88
412.025	72.88
412.249	84.88
412.472	89.88
412.695	92.88
412.919	80.88
413.142	89.88
413.365	85.88
413.589	94.88
413.812	69.88
414.035	102.88
414.258	101.88
414.482	88.88
414.705	88.88
414.928	77.88
415.151	102.88
415.374	83.88
415.597	77.88
415.821	82.88
416.044	83.88
416.267	72.88
416.49	70.88
416.713	80.88
416.936	99.88
417.159	73.88
417.382	86.88
417.605	67.88
417.828	79.88
418.051	84.88
418.274	83.88
418.497	91.88
418.72	80.88
418.943	83.88
419.166	85.88
419.389	74.88
419.611	76.88
419.834	75.88
420.057	83.88
420.28	90.88
420.503	85.88
420.726	81.88
420.948	78.88
421.171	75.88
421.394	83.88
421.617	96.88
421.839	87.88
422.062	81.88
422.285	98.88
422.507	105.88
422.73	92.88
422.953	91.88
423.175	74.88
423.398	74.88
423.621	85.88
423.843	73.88
424.066	69.88
424.288	86.88
424.511	85.88
424.733	84.88
424.956	99.88
425.178	95.88
425.401	78.88
425.623	86.88
425.846	88.88
426.068	81.88
426.291	101.88
426.513	75.88
426.735	79.88
426.958	92.88
427.18	97.88
427.402	110.88
427.625	154.88
427.847	126.88
428.069	114.88
428.292	91.88
428.514	90.88
428.736	79.88
428.958	77.88
429.181	66.88
429.403	77.88
429.625	91.88
429.847	81.88
430.069	82.88
430.292	89.88
430.514	82.88
430.736	75.88
430.958	61.88
431.18	76.88
431.402	77.88
431.624	87.88
431.846	86.88
432.068	79.88
432.29	82.88
432.512	96.88
432.734	74.88
432.956	83.88
433.178	95.88
433.4	91.88
433.622	82.88
433.844	94.88
434.066	93.88
434.287	91.88
434.509	86.88
434.731	83.88
434.953	82.88
435.175	72.88
435.397	82.88
435.618	80.88
435.84	95.88
436.062	117.88
436.284	100.88
436.505	83.88
436.727	101.88
436.949	71.88
437.17	70.88
437.392	75.88
437.614	97.88
437.835	114.88
438.057	121.88
438.278	112.88
438.5	103.88
438.721	105.88
438.943	96.88
439.165	94.88
439.386	96.88
439.608	79.88
439.829	92.88
440.05	107.88
440.272	129.88
440.493	94.88
440.715	85.88
440.936	83.88
441.158	94.88
441.379	93.88
441.6	97.88
441.822	89.88
442.043	99.88
442.264	101.88
442.486	98.88
442.707	94.88
442.928	103.88
443.149	109.88
443.371	108.88
443.592	98.88
443.813	91.88
444.034	107.88
444.255	89.88
444.476	95.88
444.698	88.88
444.919	84.88
445.14	117.88
445.361	112.88
445.582	109.88
445.803	126.88
446.024	128.88
446.245	137.88
446.466	99.88
446.687	70.88
446.908	84.88
447.129	82.88
447.35	89.88
447.571	93.88
447.792	90.88
448.013	91.88
448.234	99.88
448.455	98.88
448.675	111.88
448.896	111.88
449.117	97.88
449.338	101.88
449.559	131.88
449.779	114.88
450	73.88
450.221	77.88
450.442	92.88
450.662	81.88
450.883	103.88
451.104	120.88
451.324	92.88
451.545	80.88
451.766	85.88
451.986	75.88
452.207	89.88
452.428	82.88
452.648	85.88
452.869	119.88
453.089	116.88
453.31	110.88
453.53	85.88
453.751	82.88
453.971	92.88
454.192	105.88
454.412	79.88
454.633	84.88
454.853	80.88
455.073	94.88
455.294	90.88
455.514	102.88
455.734	85.88
455.955	103.88
456.175	92.88
456.395	96.88
456.616	82.88
456.836	66.88
457.056	75.88
457.276	88.88
457.497	85.88
457.717	87.88
457.937	81.88
458.157	79.88
458.377	90.88
458.598	101.88
458.818	133.88
459.038	153.88
459.258	101.88
459.478	78.88
459.698	80.88
459.918	80.88
460.138	88.88
460.358	81.88
460.578	88.88
460.798	87.88
461.018	85.88
461.238	89.88
461.458	79.88
461.678	88.88
461.898	74.88
462.118	83.88
462.338	95.88
462.558	78.88
462.777	87.88
462.997	87.88
463.217	93.88
463.437	72.88
463.657	81.88
463.876	81.88
464.096	89.88
464.316	88.88
464.536	97.88
464.755	94.88
464.975	90.88
465.195	163.88
465.414	137.88
465.634	87.88
465.854	81.88
466.073	79.88
466.293	92.88
466.512	79.88
466.732	78.88
466.951	71.88
467.171	89.88
467.391	106.88
467.61	99.88
467.829	108.88
468.049	78.88
468.268	93.88
468.488	77.88
468.707	77.88
468.927	75.88
469.146	76.88
469.365	88.88
469.585	79.88
469.804	99.88
470.023	94.88
470.243	100.88
470.462	97.88
470.681	109.88
470.901	74.88
471.12	90.88
471.339	80.88
471.558	80.88
471.777	89.88
471.997	85.88
472.216	111.88
472.435	159.88
472.654	113.88
472.873	88.88
473.092	74.88
473.311	85.88
473.53	85.88
473.749	85.88
473.968	78.88
474.187	95.88
474.406	88.88
474.625	91.88
474.844	75.88
475.063	87.88
475.282	87.88
475.501	89.88
475.72	83.88
475.939	94.88
476.158	86.88
476.377	94.88
476.596	96.88
476.814	88.88
477.033	83.88
477.252	101.88
477.471	91.88
477.69	72.88
477.908	88.88
478.127	83.88
478.346	79.88
478.564	82.88
478.783	89.88
479.002	93.88
479.22	85.88
479.439	93.88
479.658	97.88
479.876	72.88
480.095	95.88
480.313	99.88
480.532	82.88
480.751	100.88
480.969	102.88
481.188	202.88
481.406	174.88
481.624	97.88
481.843	87.88
482.061	88.88
482.28	74.88
482.498	67.88
482.717	82.88
482.935	80.88
483.153	100.88
483.372	73.88
483.59	86.88
483.808	76.88
484.027	82.88
484.245	79.88
484.463	74.88
484.681	102.88
484.9	77.88
485.118	87.88
485.336	85.88
485.554	92.88
485.772	96.88
485.99	95.88
486.209	89.88
486.427	97.88
486.645	99.88
486.863	107.88
487.081	103.88
487.299	95.88
487.517	88.88
487.735	96.88
487.953	74.88
488.171	84.88
488.389	99.88
488.607	106.88
488.825	75.88
489.043	84.88
489.261	86.88
489.479	92.88
489.696	75.88
489.914	89.88
490.132	89.88
490.35	76.88
490.568	77.88
490.786	77.88
491.003	79.88
491.221	89.88
491.439	80.88
491.657	94.88
491.874	71.88
492.092	71.88
492.31	82.88
492.527	94.88
492.745	92.88
492.963	82.88
493.18	93.88
493.398	102.88
493.615	97.88
493.833	81.88
494.05	78.88
494.268	75.88
494.485	81.88
494.703	94.88
494.92	79.88
495.138	87.88
495.355	91.88
495.573	82.88
495.79	69.88
496.008	86.88
496.225	94.88
496.442	83.88
496.66	86.88
496.877	81.88
497.094	81.88
497.312	81.88
497.529	79.88
497.746	98.88
497.963	71.88
498.181	86.88
498.398	88.88
498.615	105.88
498.832	105.88
499.049	91.88
499.267	84.88
499.484	103.88
499.701	96.88
499.918	89.88
500.135	82.88
500.352	80.88
500.569	85.88
500.786	91.88
501.003	93.88
501.22	96.88
501.437	94.88
501.654	78.88
501.871	110.88
502.088	87.88
502.305	94.88
502.522	84.88
502.739	108.88
502.956	81.88
503.172	84.88
503.389	92.88
503.606	103.88
503.823	90.88
504.04	93.88
504.256	85.88
504.473	89.88
504.69	89.88
504.907	92.88
505.123	98.88
505.34	86.88
505.557	96.88
505.773	73.88
505.99	88.88
506.207	84.88
506.423	74.88
506.64	98.88
506.856	92.88
507.073	89.88
507.289	77.88
507.506	79.88
507.722	113.88
507.939	126.88
508.155	97.88
508.372	85.88
508.588	100.88
508.805	94.88
509.021	91.88
509.238	83.88
509.454	102.88
509.67	110.88
509.887	107.88
510.103	141.88
510.319	216.88
510.536	757.88
510.752	2637.88
510.968	759.88
511.184	161.88
511.401	113.88
511.617	98.88
511.833	89.88
512.049	80.88
512.265	83.88
512.481	83.88
512.698	95.88
512.914	84.88
513.13	85.88
513.346	89.88
513.562	88.88
513.778	98.88
513.994	94.88
514.21	86.88
514.426	116.88
514.642	112.88
514.858	136.88
515.074	152.88
515.29	436.88
515.506	1594.88
515.721	611.88
515.937	152.88
516.153	113.88
516.369	105.88
516.585	102.88
516.801	82.88
517.016	88.88
