Data from Circ_2014_H10_HRD10591_00049.txt Node
Date: Wed Jan 03 10:02:19 EST 2024
User: Yrep
Spectrometer: HR+D1059
Trigger mode: 1
Integration Time (sec): 1.000000E-1
Scans to average: 1
Electric dark correction enabled: true
Nonlinearity correction enabled: false
Boxcar width: 0
XAxis mode: Wavelengths
Number of Pixels in Spectrum: 2048
>>>>>Begin Spectral Data<<<<<
223.165	-8.56
223.4	-8.56
223.635	-8.56
223.869	-21.56
224.104	-31.56
224.338	-27.56
224.573	-18.56
224.808	-10.56
225.042	-21.56
225.277	-7.56
225.511	4.44
225.746	-4.56
225.98	16.44
226.215	16.44
226.449	19.44
226.683	25.44
226.918	30.44
227.152	39.44
227.387	40.44
227.621	36.44
227.856	45.44
228.09	49.44
228.324	34.44
228.559	59.44
228.793	72.44
229.027	67.44
229.262	65.44
229.496	69.44
229.73	91.44
229.964	97.44
230.199	71.44
230.433	80.44
230.667	73.44
230.901	90.44
231.136	75.44
231.37	77.44
231.604	79.44
231.838	71.44
232.072	73.44
232.306	64.44
232.541	78.44
232.775	71.44
233.009	78.44
233.243	86.44
233.477	83.44
233.711	83.44
233.945	69.44
234.179	74.44
234.413	79.44
234.647	86.44
234.881	69.44
235.115	79.44
235.349	74.44
235.583	71.44
235.817	80.44
236.051	71.44
236.285	69.44
236.519	72.44
236.753	78.44
236.987	83.44
237.221	78.44
237.455	75.44
237.689	70.44
237.922	86.44
238.156	74.44
238.39	75.44
238.624	77.44
238.858	87.44
239.091	79.44
239.325	79.44
239.559	91.44
239.793	84.44
240.027	79.44
240.26	68.44
240.494	72.44
240.728	75.44
240.961	77.44
241.195	74.44
241.429	89.44
241.662	74.44
241.896	58.44
242.13	71.44
242.363	78.44
242.597	79.44
242.83	68.44
243.064	82.44
243.298	67.44
243.531	77.44
243.765	80.44
243.998	81.44
244.232	90.44
244.465	81.44
244.699	87.44
244.932	77.44
245.166	63.44
245.399	66.44
245.633	74.44
245.866	86.44
246.099	77.44
246.333	77.44
246.566	83.44
246.8	76.44
247.033	77.44
247.266	83.44
247.5	82.44
247.733	72.44
247.966	72.44
248.2	75.44
248.433	83.44
248.666	90.44
248.899	91.44
249.133	84.44
249.366	90.44
249.599	84.44
249.832	88.44
250.066	90.44
250.299	76.44
250.532	89.44
250.765	76.44
250.998	80.44
251.231	78.44
251.465	73.44
251.698	83.44
251.931	80.44
252.164	77.44
252.397	82.44
252.63	91.44
252.863	99.44
253.096	82.44
253.329	76.44
253.562	86.44
253.795	88.44
254.028	98.44
254.261	87.44
254.494	78.44
254.727	88.44
254.96	82.44
255.193	86.44
255.426	78.44
255.659	90.44
255.892	95.44
256.124	82.44
256.357	70.44
256.59	79.44
256.823	78.44
257.056	86.44
257.289	79.44
257.521	88.44
257.754	71.44
257.987	80.44
258.22	88.44
258.452	78.44
258.685	83.44
258.918	76.44
259.151	82.44
259.383	79.44
259.616	82.44
259.849	82.44
260.081	88.44
260.314	72.44
260.547	83.44
260.779	80.44
261.012	80.44
261.244	78.44
261.477	90.44
261.71	104.44
261.942	119.44
262.175	100.44
262.407	101.44
262.64	87.44
262.872	87.44
263.105	95.44
263.337	91.44
263.57	88.44
263.802	89.44
264.035	85.44
264.267	91.44
264.499	77.44
264.732	80.44
264.964	80.44
265.197	79.44
265.429	91.44
265.661	82.44
265.894	89.44
266.126	86.44
266.358	93.44
266.591	84.44
266.823	90.44
267.055	87.44
267.287	88.44
267.52	78.44
267.752	100.44
267.984	72.44
268.216	85.44
268.448	74.44
268.681	85.44
268.913	90.44
269.145	76.44
269.377	78.44
269.609	80.44
269.841	78.44
270.073	87.44
270.306	83.44
270.538	93.44
270.77	80.44
271.002	100.44
271.234	95.44
271.466	90.44
271.698	76.44
271.93	81.44
272.162	72.44
272.394	84.44
272.626	98.44
272.858	98.44
273.09	79.44
273.322	88.44
273.553	82.44
273.785	98.44
274.017	80.44
274.249	94.44
274.481	75.44
274.713	71.44
274.945	67.44
275.176	91.44
275.408	73.44
275.64	80.44
275.872	96.44
276.104	79.44
276.335	82.44
276.567	118.44
276.799	97.44
277.031	94.44
277.262	99.44
277.494	90.44
277.726	72.44
277.957	85.44
278.189	96.44
278.421	92.44
278.652	83.44
278.884	113.44
279.115	89.44
279.347	81.44
279.579	87.44
279.81	80.44
280.042	106.44
280.273	99.44
280.505	82.44
280.736	95.44
280.968	91.44
281.199	91.44
281.431	96.44
281.662	90.44
281.894	104.44
282.125	90.44
282.356	116.44
282.588	133.44
282.819	116.44
283.051	80.44
283.282	90.44
283.513	89.44
283.745	92.44
283.976	83.44
284.207	103.44
284.439	84.44
284.67	88.44
284.901	100.44
285.132	67.44
285.364	83.44
285.595	75.44
285.826	79.44
286.057	98.44
286.288	93.44
286.52	86.44
286.751	79.44
286.982	84.44
287.213	84.44
287.444	90.44
287.675	87.44
287.906	86.44
288.138	74.44
288.369	101.44
288.6	94.44
288.831	85.44
289.062	100.44
289.293	91.44
289.524	86.44
289.755	91.44
289.986	94.44
290.217	88.44
290.448	102.44
290.679	89.44
290.91	97.44
291.141	79.44
291.371	83.44
291.602	83.44
291.833	86.44
292.064	87.44
292.295	91.44
292.526	86.44
292.757	89.44
292.987	75.44
293.218	88.44
293.449	89.44
293.68	89.44
293.91	80.44
294.141	98.44
294.372	82.44
294.603	75.44
294.833	91.44
295.064	98.44
295.295	89.44
295.525	82.44
295.756	94.44
295.987	110.44
296.217	154.44
296.448	111.44
296.679	102.44
296.909	91.44
297.14	98.44
297.37	105.44
297.601	101.44
297.831	97.44
298.062	99.44
298.292	80.44
298.523	80.44
298.753	85.44
298.984	96.44
299.214	87.44
299.445	105.44
299.675	99.44
299.905	84.44
300.136	103.44
300.366	87.44
300.597	89.44
300.827	99.44
301.057	104.44
301.288	113.44
301.518	109.44
301.748	96.44
301.979	100.44
302.209	101.44
302.439	102.44
302.669	89.44
302.9	88.44
303.13	93.44
303.36	94.44
303.59	93.44
303.82	111.44
304.051	94.44
304.281	91.44
304.511	91.44
304.741	85.44
304.971	96.44
305.201	82.44
305.431	90.44
305.661	96.44
305.891	92.44
306.121	94.44
306.352	102.44
306.582	107.44
306.812	96.44
307.042	88.44
307.272	94.44
307.502	94.44
307.731	103.44
307.961	84.44
308.191	85.44
308.421	89.44
308.651	92.44
308.881	93.44
309.111	88.44
309.341	93.44
309.571	118.44
309.8	101.44
310.03	104.44
310.26	90.44
310.49	86.44
310.72	106.44
310.949	91.44
311.179	96.44
311.409	82.44
311.639	106.44
311.868	95.44
312.098	103.44
312.328	101.44
312.557	85.44
312.787	101.44
313.017	116.44
313.246	97.44
313.476	95.44
313.706	94.44
313.935	88.44
314.165	89.44
314.394	105.44
314.624	95.44
314.853	93.44
315.083	95.44
315.312	91.44
315.542	100.44
315.771	105.44
316.001	100.44
316.23	101.44
316.46	82.44
316.689	91.44
316.919	85.44
317.148	108.44
317.377	95.44
317.607	102.44
317.836	91.44
318.065	85.44
318.295	95.44
318.524	96.44
318.753	86.44
318.983	102.44
319.212	106.44
319.441	111.44
319.67	111.44
319.9	91.44
320.129	103.44
320.358	91.44
320.587	99.44
320.816	98.44
321.046	90.44
321.275	98.44
321.504	101.44
321.733	104.44
321.962	95.44
322.191	100.44
322.42	96.44
322.649	105.44
322.878	116.44
323.108	109.44
323.337	110.44
323.566	131.44
323.795	160.44
324.024	204.44
324.253	361.44
324.482	732.44
324.71	1487.44
324.939	1957.44
325.168	748.44
325.397	227.44
325.626	139.44
325.855	132.44
326.084	118.44
326.313	132.44
326.542	143.44
326.77	233.44
326.999	409.44
327.228	818.44
327.457	1477.44
327.686	1185.44
327.914	346.44
328.143	204.44
328.372	151.44
328.6	115.44
328.829	126.44
329.058	123.44
329.287	127.44
329.515	102.44
329.744	102.44
329.972	105.44
330.201	99.44
330.43	139.44
330.658	127.44
330.887	140.44
331.115	114.44
331.344	106.44
331.572	93.44
331.801	109.44
332.03	92.44
332.258	88.44
332.486	98.44
332.715	82.44
332.943	91.44
333.172	80.44
333.4	102.44
333.629	124.44
333.857	119.44
334.085	120.44
334.314	108.44
334.542	141.44
334.771	158.44
334.999	123.44
335.227	98.44
335.455	89.44
335.684	97.44
335.912	98.44
336.14	95.44
336.369	85.44
336.597	111.44
336.825	90.44
337.053	99.44
337.281	91.44
337.51	98.44
337.738	89.44
337.966	91.44
338.194	104.44
338.422	100.44
338.65	120.44
338.878	86.44
339.106	94.44
339.334	104.44
339.562	80.44
339.79	82.44
340.018	78.44
340.246	98.44
340.474	91.44
340.702	99.44
340.93	103.44
341.158	83.44
341.386	90.44
341.614	93.44
341.842	116.44
342.07	93.44
342.298	77.44
342.526	95.44
342.754	90.44
342.981	88.44
343.209	95.44
343.437	96.44
343.665	91.44
343.893	106.44
344.12	93.44
344.348	97.44
344.576	92.44
344.804	101.44
345.031	91.44
345.259	98.44
345.487	102.44
345.714	99.44
345.942	97.44
346.17	98.44
346.397	88.44
346.625	95.44
346.853	91.44
347.08	78.44
347.308	94.44
347.535	91.44
347.763	93.44
347.99	114.44
348.218	96.44
348.445	116.44
348.673	98.44
348.9	111.44
349.128	99.44
349.355	103.44
349.583	94.44
349.81	77.44
350.037	87.44
350.265	104.44
350.492	95.44
350.72	87.44
350.947	99.44
351.174	93.44
351.402	106.44
351.629	99.44
351.856	98.44
352.083	101.44
352.311	97.44
352.538	114.44
352.765	111.44
352.992	108.44
353.22	114.44
353.447	111.44
353.674	109.44
353.901	91.44
354.128	91.44
354.355	89.44
354.583	118.44
354.81	101.44
355.037	99.44
355.264	95.44
355.491	94.44
355.718	94.44
355.945	104.44
356.172	87.44
356.399	85.44
356.626	87.44
356.853	89.44
357.08	93.44
357.307	86.44
357.534	98.44
357.761	90.44
357.988	84.44
358.215	91.44
358.441	88.44
358.668	100.44
358.895	98.44
359.122	83.44
359.349	90.44
359.576	84.44
359.802	108.44
360.029	101.44
360.256	108.44
360.483	102.44
360.709	96.44
360.936	93.44
361.163	91.44
361.39	94.44
361.616	101.44
361.843	95.44
362.07	101.44
362.296	102.44
362.523	79.44
362.749	92.44
362.976	99.44
363.203	90.44
363.429	92.44
363.656	93.44
363.882	91.44
364.109	96.44
364.335	94.44
364.562	90.44
364.788	93.44
365.015	99.44
365.241	99.44
365.468	98.44
365.694	103.44
365.92	109.44
366.147	88.44
366.373	90.44
366.599	91.44
366.826	75.44
367.052	88.44
367.278	84.44
367.505	85.44
367.731	107.44
367.957	95.44
368.184	82.44
368.41	100.44
368.636	126.44
368.862	130.44
369.089	107.44
369.315	96.44
369.541	77.44
369.767	80.44
369.993	80.44
370.219	91.44
370.445	91.44
370.672	87.44
370.898	85.44
371.124	91.44
371.35	89.44
371.576	83.44
371.802	95.44
372.028	92.44
372.254	86.44
372.48	97.44
372.706	92.44
372.932	89.44
373.158	94.44
373.384	102.44
373.61	100.44
373.835	91.44
374.061	101.44
374.287	97.44
374.513	96.44
374.739	78.44
374.965	80.44
375.191	80.44
375.416	99.44
375.642	77.44
375.868	88.44
376.094	98.44
376.319	84.44
376.545	96.44
376.771	84.44
376.997	111.44
377.222	90.44
377.448	93.44
377.674	105.44
377.899	99.44
378.125	83.44
378.35	99.44
378.576	95.44
378.802	84.44
379.027	105.44
379.253	92.44
379.478	95.44
379.704	93.44
379.929	97.44
380.155	109.44
380.38	86.44
380.606	84.44
380.831	78.44
381.057	93.44
381.282	94.44
381.507	109.44
381.733	95.44
381.958	96.44
382.184	95.44
382.409	104.44
382.634	122.44
382.86	124.44
383.085	107.44
383.31	109.44
383.535	110.44
383.761	109.44
383.986	105.44
384.211	110.44
384.436	98.44
384.662	97.44
384.887	95.44
385.112	98.44
385.337	111.44
385.562	108.44
385.787	107.44
386.013	106.44
386.238	111.44
386.463	95.44
386.688	107.44
386.913	107.44
387.138	115.44
387.363	93.44
387.588	98.44
387.813	96.44
388.038	92.44
388.263	117.44
388.488	110.44
388.713	99.44
388.938	89.44
389.163	108.44
389.387	96.44
389.612	92.44
389.837	100.44
390.062	95.44
390.287	88.44
390.512	105.44
390.736	108.44
390.961	88.44
391.186	91.44
391.411	96.44
391.636	89.44
391.86	89.44
392.085	104.44
392.31	94.44
392.534	98.44
392.759	88.44
392.984	100.44
393.208	89.44
393.433	95.44
393.658	99.44
393.882	93.44
394.107	100.44
394.331	93.44
394.556	79.44
394.78	78.44
395.005	87.44
395.229	98.44
395.454	87.44
395.678	89.44
395.903	94.44
396.127	92.44
396.352	88.44
396.576	95.44
396.801	86.44
397.025	97.44
397.249	88.44
397.474	110.44
397.698	90.44
397.922	75.44
398.147	83.44
398.371	87.44
398.595	88.44
398.82	91.44
399.044	90.44
399.268	93.44
399.492	79.44
399.717	91.44
399.941	84.44
400.165	92.44
400.389	80.44
400.613	86.44
400.837	87.44
401.062	87.44
401.286	86.44
401.51	91.44
401.734	85.44
401.958	101.44
402.182	140.44
402.406	168.44
402.63	127.44
402.854	90.44
403.078	87.44
403.302	81.44
403.526	102.44
403.75	98.44
403.974	87.44
404.198	81.44
404.422	84.44
404.645	78.44
404.869	93.44
405.093	92.44
405.317	88.44
405.541	112.44
405.765	101.44
405.988	120.44
406.212	167.44
406.436	243.44
406.66	151.44
406.883	96.44
407.107	87.44
407.331	88.44
407.555	87.44
407.778	96.44
408.002	96.44
408.226	90.44
408.449	87.44
408.673	102.44
408.896	108.44
409.12	93.44
409.344	93.44
409.567	89.44
409.791	98.44
410.014	106.44
410.238	86.44
410.461	90.44
410.685	103.44
410.908	87.44
411.132	99.44
411.355	83.44
411.578	93.44
411.802	102.44
412.025	75.44
412.249	86.44
412.472	100.44
412.695	91.44
412.919	102.44
413.142	87.44
413.365	88.44
413.589	95.44
413.812	87.44
414.035	105.44
414.258	90.44
414.482	94.44
414.705	78.44
414.928	80.44
415.151	87.44
415.374	83.44
415.597	78.44
415.821	94.44
416.044	93.44
416.267	96.44
416.49	99.44
416.713	95.44
416.936	88.44
417.159	99.44
417.382	90.44
417.605	86.44
417.828	95.44
418.051	88.44
418.274	94.44
418.497	86.44
418.72	100.44
418.943	94.44
419.166	95.44
419.389	83.44
419.611	83.44
419.834	90.44
420.057	98.44
420.28	101.44
420.503	88.44
420.726	96.44
420.948	90.44
421.171	104.44
421.394	92.44
421.617	94.44
421.839	80.44
422.062	79.44
422.285	94.44
422.507	90.44
422.73	93.44
422.953	98.44
423.175	94.44
423.398	94.44
423.621	87.44
423.843	87.44
424.066	99.44
424.288	78.44
424.511	87.44
424.733	102.44
424.956	114.44
425.178	98.44
425.401	83.44
425.623	97.44
425.846	94.44
426.068	79.44
426.291	103.44
426.513	88.44
426.735	92.44
426.958	94.44
427.18	107.44
427.402	119.44
427.625	164.44
427.847	142.44
428.069	107.44
428.292	101.44
428.514	101.44
428.736	95.44
428.958	79.44
429.181	81.44
429.403	89.44
429.625	84.44
429.847	93.44
430.069	108.44
430.292	99.44
430.514	80.44
430.736	94.44
430.958	87.44
431.18	82.44
431.402	91.44
431.624	93.44
431.846	83.44
432.068	89.44
432.29	84.44
432.512	96.44
432.734	92.44
432.956	83.44
433.178	74.44
433.4	89.44
433.622	84.44
433.844	96.44
434.066	99.44
434.287	85.44
434.509	84.44
434.731	76.44
434.953	86.44
435.175	99.44
435.397	91.44
435.618	90.44
435.84	118.44
436.062	104.44
436.284	101.44
436.505	94.44
436.727	100.44
436.949	96.44
437.17	87.44
437.392	102.44
437.614	102.44
437.835	94.44
438.057	103.44
438.278	100.44
438.5	93.44
438.721	110.44
438.943	98.44
439.165	90.44
439.386	109.44
439.608	97.44
439.829	91.44
440.05	102.44
440.272	145.44
440.493	99.44
440.715	83.44
440.936	86.44
441.158	100.44
441.379	91.44
441.6	89.44
441.822	95.44
442.043	93.44
442.264	98.44
442.486	111.44
442.707	99.44
442.928	99.44
443.149	130.44
443.371	126.44
443.592	101.44
443.813	89.44
444.034	114.44
444.255	85.44
444.476	88.44
444.698	93.44
444.919	99.44
445.14	118.44
445.361	118.44
445.582	108.44
445.803	115.44
446.024	141.44
446.245	125.44
446.466	111.44
446.687	98.44
446.908	92.44
447.129	76.44
447.35	93.44
447.571	90.44
447.792	72.44
448.013	101.44
448.234	104.44
448.455	91.44
448.675	102.44
448.896	124.44
449.117	90.44
449.338	100.44
449.559	135.44
449.779	127.44
450	95.44
450.221	91.44
450.442	88.44
450.662	100.44
450.883	107.44
451.104	111.44
451.324	107.44
451.545	91.44
451.766	90.44
451.986	91.44
452.207	101.44
452.428	86.44
452.648	114.44
452.869	110.44
453.089	114.44
453.31	116.44
453.53	82.44
453.751	102.44
453.971	114.44
454.192	88.44
454.412	85.44
454.633	83.44
454.853	90.44
455.073	93.44
455.294	84.44
455.514	106.44
455.734	87.44
455.955	80.44
456.175	99.44
456.395	95.44
456.616	87.44
456.836	87.44
457.056	80.44
457.276	80.44
457.497	78.44
457.717	95.44
457.937	98.44
458.157	95.44
458.377	81.44
458.598	102.44
458.818	128.44
459.038	166.44
459.258	108.44
459.478	76.44
459.698	88.44
459.918	98.44
460.138	91.44
460.358	89.44
460.578	94.44
460.798	107.44
461.018	93.44
461.238	90.44
461.458	87.44
461.678	84.44
461.898	88.44
462.118	88.44
462.338	101.44
462.558	79.44
462.777	58.44
462.997	86.44
463.217	84.44
463.437	109.44
463.657	95.44
463.876	81.44
464.096	99.44
464.316	94.44
464.536	91.44
464.755	97.44
464.975	113.44
465.195	168.44
465.414	144.44
465.634	89.44
465.854	92.44
466.073	90.44
466.293	104.44
466.512	78.44
466.732	80.44
466.951	86.44
467.171	83.44
467.391	85.44
467.61	109.44
467.829	99.44
468.049	90.44
468.268	114.44
468.488	98.44
468.707	78.44
468.927	87.44
469.146	76.44
469.365	87.44
469.585	89.44
469.804	84.44
470.023	98.44
470.243	90.44
470.462	103.44
470.681	102.44
470.901	86.44
471.12	85.44
471.339	85.44
471.558	91.44
471.777	89.44
471.997	89.44
472.216	103.44
472.435	151.44
472.654	98.44
472.873	83.44
473.092	89.44
473.311	102.44
473.53	87.44
473.749	84.44
473.968	100.44
474.187	111.44
474.406	98.44
474.625	97.44
474.844	98.44
475.063	77.44
475.282	77.44
475.501	88.44
475.72	88.44
475.939	91.44
476.158	85.44
476.377	92.44
476.596	95.44
476.814	98.44
477.033	98.44
477.252	92.44
477.471	67.44
477.69	90.44
477.908	84.44
478.127	95.44
478.346	84.44
478.564	79.44
478.783	97.44
479.002	88.44
479.22	94.44
479.439	102.44
479.658	98.44
479.876	95.44
480.095	82.44
480.313	80.44
480.532	99.44
480.751	94.44
480.969	120.44
481.188	216.44
481.406	185.44
481.624	91.44
481.843	86.44
482.061	93.44
482.28	92.44
482.498	86.44
482.717	89.44
482.935	91.44
483.153	90.44
483.372	85.44
483.59	103.44
483.808	93.44
484.027	97.44
484.245	78.44
484.463	97.44
484.681	118.44
484.9	88.44
485.118	90.44
485.336	94.44
485.554	94.44
485.772	114.44
485.99	98.44
486.209	105.44
486.427	101.44
486.645	120.44
486.863	119.44
487.081	99.44
487.299	87.44
487.517	86.44
487.735	112.44
487.953	91.44
488.171	92.44
488.389	95.44
488.607	100.44
488.825	88.44
489.043	79.44
489.261	105.44
489.479	108.44
489.696	92.44
489.914	105.44
490.132	111.44
490.35	105.44
490.568	90.44
490.786	88.44
491.003	94.44
491.221	89.44
491.439	95.44
491.657	95.44
491.874	88.44
492.092	93.44
492.31	95.44
492.527	94.44
492.745	87.44
492.963	87.44
493.18	84.44
493.398	102.44
493.615	100.44
493.833	96.44
494.05	85.44
494.268	105.44
494.485	85.44
494.703	93.44
494.92	90.44
495.138	92.44
495.355	92.44
495.573	100.44
495.79	84.44
496.008	91.44
496.225	92.44
496.442	98.44
496.66	91.44
496.877	78.44
497.094	92.44
497.312	92.44
497.529	107.44
497.746	90.44
497.963	87.44
498.181	109.44
498.398	103.44
498.615	111.44
498.832	107.44
499.049	85.44
499.267	91.44
499.484	84.44
499.701	93.44
499.918	96.44
500.135	83.44
500.352	88.44
500.569	84.44
500.786	95.44
501.003	98.44
501.22	85.44
501.437	98.44
501.654	106.44
501.871	98.44
502.088	103.44
502.305	85.44
502.522	108.44
502.739	100.44
502.956	94.44
503.172	89.44
503.389	104.44
503.606	113.44
503.823	98.44
504.04	83.44
504.256	81.44
504.473	93.44
504.69	89.44
504.907	78.44
505.123	89.44
505.34	95.44
505.557	90.44
505.773	87.44
505.99	92.44
506.207	77.44
506.423	99.44
506.64	75.44
506.856	99.44
507.073	101.44
507.289	99.44
507.506	103.44
507.722	91.44
507.939	123.44
508.155	91.44
508.372	91.44
508.588	96.44
508.805	95.44
509.021	82.44
509.238	105.44
509.454	99.44
509.67	112.44
509.887	100.44
510.103	135.44
510.319	238.44
510.536	814.44
510.752	2706.44
510.968	784.44
511.184	172.44
511.401	128.44
511.617	98.44
511.833	96.44
512.049	99.44
512.265	97.44
512.481	85.44
512.698	80.44
512.914	81.44
513.13	93.44
513.346	97.44
513.562	79.44
513.778	100.44
513.994	103.44
514.21	91.44
514.426	124.44
514.642	151.44
514.858	125.44
515.074	181.44
515.29	472.44
