Data from Circ_2014_H10_HRD10591_00064.txt Node
Date: Wed Jan 03 10:02:22 EST 2024
User: Yrep
Spectrometer: HR+D1059
Trigger mode: 1
Integration Time (sec): 1.000000E-1
Scans to average: 1
Electric dark correction enabled: true
Nonlinearity correction enabled: false
Boxcar width: 0
XAxis mode: Wavelengths
Number of Pixels in Spectrum: 2048
>>>>>Begin Spectral Data<<<<<
223.165	-24.5
223.4	-24.5
223.635	-24.5
223.869	-26.5
224.104	-18.5
224.338	-2.5
224.573	-4.5
224.808	-23.5
225.042	-3.5
225.277	-4.5
225.511	-6.5
225.746	0.5
225.98	5.5
226.215	12.5
226.449	20.5
226.683	17.5
226.918	30.5
227.152	27.5
227.387	41.5
227.621	42.5
227.856	34.5
228.09	47.5
228.324	52.5
228.559	55.5
228.793	167.5
229.027	435.5
229.262	497.5
229.496	593.5
229.73	776.5
229.964	769.5
230.199	543.5
230.433	476.5
230.667	455.5
230.901	428.5
231.136	424.5
231.37	439.5
231.604	433.5
231.838	451.5
232.072	446.5
232.306	447.5
232.541	441.5
232.775	462.5
233.009	467.5
233.243	464.5
233.477	489.5
233.711	471.5
233.945	492.5
234.179	497.5
234.413	498.5
234.647	517.5
234.881	495.5
235.115	509.5
235.349	518.5
235.583	567.5
235.817	588.5
236.051	614.5
236.285	589.5
236.519	617.5
236.753	705.5
236.987	892.5
237.221	1335.5
237.455	1444.5
237.689	867.5
237.922	736.5
238.156	717.5
238.39	692.5
238.624	632.5
238.858	631.5
239.091	635.5
239.325	646.5
239.559	669.5
239.793	699.5
240.027	766.5
240.26	898.5
240.494	964.5
240.728	907.5
240.961	874.5
241.195	803.5
241.429	775.5
241.662	768.5
241.896	751.5
242.13	764.5
242.363	755.5
242.597	787.5
242.83	804.5
243.064	824.5
243.298	792.5
243.531	823.5
243.765	825.5
243.998	854.5
244.232	849.5
244.465	869.5
244.699	858.5
244.932	904.5
245.166	902.5
245.399	908.5
245.633	900.5
245.866	889.5
246.099	945.5
246.333	918.5
246.566	914.5
246.8	947.5
247.033	966.5
247.266	1020.5
247.5	1086.5
247.733	1119.5
247.966	1166.5
248.2	1117.5
248.433	1156.5
248.666	1216.5
248.899	1328.5
249.133	1450.5
249.366	1403.5
249.599	1339.5
249.832	1235.5
250.066	1270.5
250.299	1417.5
250.532	1606.5
250.765	1738.5
250.998	1806.5
251.231	1677.5
251.465	1527.5
251.698	1466.5
251.931	1369.5
252.164	1348.5
252.397	1392.5
252.63	1424.5
252.863	1522.5
253.096	1597.5
253.329	1681.5
253.562	1583.5
253.795	1528.5
254.028	1533.5
254.261	1601.5
254.494	1774.5
254.727	2132.5
254.96	2223.5
255.193	1954.5
255.426	1797.5
255.659	1785.5
255.892	2008.5
256.124	2297.5
256.357	2077.5
256.59	1836.5
256.823	1691.5
257.056	1569.5
257.289	1617.5
257.521	1539.5
257.754	1531.5
257.987	1529.5
258.22	1543.5
258.452	1529.5
258.685	1532.5
258.918	1537.5
259.151	1613.5
259.383	1685.5
259.616	1704.5
259.849	1723.5
260.081	1885.5
260.314	2061.5
260.547	1962.5
260.779	1833.5
261.012	1729.5
261.244	1649.5
261.477	1692.5
261.71	1717.5
261.942	1776.5
262.175	1750.5
262.407	1698.5
262.64	1633.5
262.872	1620.5
263.105	1642.5
263.337	1621.5
263.57	1671.5
263.802	1625.5
264.035	1668.5
264.267	1720.5
264.499	1617.5
264.732	1670.5
264.964	1695.5
265.197	1659.5
265.429	1702.5
265.661	1708.5
265.894	1708.5
266.126	1757.5
266.358	1759.5
266.591	1778.5
266.823	1860.5
267.055	1831.5
267.287	1867.5
267.52	1867.5
267.752	1840.5
267.984	1823.5
268.216	1870.5
268.448	1906.5
268.681	1935.5
268.913	2102.5
269.145	2321.5
269.377	2358.5
269.609	2225.5
269.841	2233.5
270.073	2319.5
270.306	2587.5
270.538	2724.5
270.77	2601.5
271.002	2405.5
271.234	2383.5
271.466	2552.5
271.698	2691.5
271.93	2692.5
272.162	2659.5
272.394	2575.5
272.626	2446.5
272.858	2267.5
273.09	2230.5
273.322	2208.5
273.553	2241.5
273.785	2220.5
274.017	2240.5
274.249	2213.5
274.481	2240.5
274.713	2227.5
274.945	2268.5
275.176	2296.5
275.408	2254.5
275.64	2263.5
275.872	2243.5
276.104	2308.5
276.335	2351.5
276.567	2397.5
276.799	2572.5
277.031	2800.5
277.262	2905.5
277.494	2775.5
277.726	2534.5
277.957	2463.5
278.189	2470.5
278.421	2401.5
278.652	2374.5
278.884	2372.5
279.115	2346.5
279.347	2367.5
279.579	2347.5
279.81	2373.5
280.042	2377.5
280.273	2416.5
280.505	2446.5
280.736	2496.5
280.968	2391.5
281.199	2426.5
281.431	2449.5
281.662	2455.5
281.894	2429.5
282.125	2484.5
282.356	2687.5
282.588	2848.5
282.819	2686.5
283.051	2476.5
283.282	2494.5
283.513	2548.5
283.745	2549.5
283.976	2624.5
284.207	2612.5
284.439	2637.5
284.67	2585.5
284.901	2580.5
285.132	2554.5
285.364	2563.5
285.595	2628.5
285.826	2599.5
286.057	2653.5
286.288	2602.5
286.52	2656.5
286.751	2597.5
286.982	2678.5
287.213	2709.5
287.444	2733.5
287.675	2788.5
287.906	2851.5
288.138	2933.5
288.369	2883.5
288.6	2859.5
288.831	2802.5
289.062	2780.5
289.293	2799.5
289.524	2761.5
289.755	2768.5
289.986	2779.5
290.217	2797.5
290.448	2775.5
290.679	2790.5
290.91	2739.5
291.141	2722.5
291.371	2744.5
291.602	2789.5
291.833	2762.5
292.064	2805.5
292.295	2814.5
292.526	2806.5
292.757	2780.5
292.987	2831.5
293.218	2804.5
293.449	2813.5
293.68	2792.5
293.91	2759.5
294.141	2852.5
294.372	2773.5
294.603	2815.5
294.833	2823.5
295.064	2884.5
295.295	2877.5
295.525	2842.5
295.756	2917.5
295.987	2987.5
296.217	3193.5
296.448	3196.5
296.679	2907.5
296.909	2860.5
297.14	2924.5
297.37	2991.5
297.601	3051.5
297.831	2976.5
298.062	2999.5
298.292	3040.5
298.523	3071.5
298.753	3061.5
298.984	3049.5
299.214	3029.5
299.445	3051.5
299.675	3066.5
299.905	3125.5
300.136	3091.5
300.366	3067.5
300.597	3158.5
300.827	3217.5
301.057	3342.5
301.288	3336.5
301.518	3224.5
301.748	3254.5
301.979	3308.5
302.209	3323.5
302.439	3379.5
302.669	3276.5
302.9	3340.5
303.13	3175.5
303.36	3320.5
303.59	3353.5
303.82	3425.5
304.051	3289.5
304.281	3265.5
304.511	3192.5
304.741	3243.5
304.971	3228.5
305.201	3176.5
305.431	3235.5
305.661	3283.5
305.891	3209.5
306.121	3228.5
306.352	3284.5
306.582	3282.5
306.812	3200.5
307.042	3261.5
307.272	3275.5
307.502	3265.5
307.731	3307.5
307.961	3249.5
308.191	3279.5
308.421	3280.5
308.651	3293.5
308.881	3240.5
309.111	3307.5
309.341	3346.5
309.571	3439.5
309.8	3469.5
310.03	3564.5
310.26	3580.5
310.49	3562.5
310.72	3747.5
310.949	3729.5
311.179	3769.5
311.409	3546.5
311.639	3596.5
311.868	3615.5
312.098	3660.5
312.328	3742.5
312.557	3876.5
312.787	3887.5
313.017	3869.5
313.246	3779.5
313.476	3692.5
313.706	3763.5
313.935	3813.5
314.165	3935.5
314.394	3934.5
314.624	3856.5
314.853	3808.5
315.083	3737.5
315.312	3697.5
315.542	3650.5
315.771	3660.5
316.001	3624.5
316.23	3645.5
316.46	3684.5
316.689	3646.5
316.919	3743.5
317.148	3773.5
317.377	3748.5
317.607	3713.5
317.836	3714.5
318.065	3636.5
318.295	3672.5
318.524	3646.5
318.753	3548.5
318.983	3665.5
319.212	3665.5
319.441	3740.5
319.67	3789.5
319.9	3672.5
320.129	3633.5
320.358	3692.5
320.587	3769.5
320.816	3828.5
321.046	3806.5
321.275	3801.5
321.504	3815.5
321.733	3861.5
321.962	3898.5
322.191	4020.5
322.42	4143.5
322.649	4195.5
322.878	4282.5
323.108	4375.5
323.337	4602.5
323.566	4745.5
323.795	5074.5
324.024	5678.5
324.253	7520.5
324.482	11286.5
324.71	15463.5
324.939	15597.5
325.168	13264.5
325.397	6706.5
325.626	5353.5
325.855	4933.5
326.084	4815.5
326.313	4873.5
326.542	4997.5
326.77	5685.5
326.999	7271.5
327.228	10649.5
327.457	14594.5
327.686	13958.5
327.914	7573.5
328.143	6359.5
328.372	6045.5
328.6	5677.5
328.829	5494.5
329.058	5704.5
329.287	5558.5
329.515	5245.5
329.744	5307.5
329.972	5504.5
330.201	6171.5
330.43	6613.5
330.658	6264.5
330.887	6219.5
331.115	5594.5
331.344	5126.5
331.572	5071.5
331.801	5155.5
332.03	5173.5
332.258	5032.5
332.486	5047.5
332.715	5125.5
332.943	5316.5
333.172	5561.5
333.4	5654.5
333.629	5842.5
333.857	6089.5
334.085	6419.5
334.314	6889.5
334.542	7575.5
334.771	7275.5
334.999	6021.5
335.227	5551.5
335.455	5381.5
335.684	5138.5
335.912	5066.5
336.14	4997.5
336.369	4992.5
336.597	5029.5
336.825	5044.5
337.053	4853.5
337.281	4787.5
337.51	4743.5
337.738	4712.5
337.966	4674.5
338.194	4689.5
338.422	4645.5
338.65	4527.5
338.878	4558.5
339.106	4528.5
339.334	4487.5
339.562	4403.5
339.79	4341.5
340.018	4388.5
340.246	4421.5
340.474	4459.5
340.702	4410.5
340.93	4372.5
341.158	4367.5
341.386	4415.5
341.614	4395.5
341.842	4317.5
342.07	4271.5
342.298	4238.5
342.526	4185.5
342.754	4212.5
342.981	4258.5
343.209	4425.5
343.437	4607.5
343.665	4858.5
343.893	5087.5
344.12	5104.5
344.348	4839.5
344.576	4714.5
344.804	4690.5
345.031	4615.5
345.259	4535.5
345.487	4415.5
345.714	4299.5
345.942	4214.5
346.17	4250.5
346.397	4150.5
346.625	4189.5
346.853	4243.5
347.08	4118.5
347.308	4204.5
347.535	4183.5
347.763	4329.5
347.99	4287.5
348.218	4254.5
348.445	4374.5
348.673	4219.5
348.9	4113.5
349.128	4064.5
349.355	4037.5
349.583	4088.5
349.81	4039.5
350.037	4062.5
350.265	3992.5
350.492	4059.5
350.72	4093.5
350.947	4131.5
351.174	4220.5
351.402	4269.5
351.629	4136.5
351.856	4205.5
352.083	4148.5
352.311	4229.5
352.538	4266.5
352.765	4210.5
352.992	4160.5
353.22	4109.5
353.447	4070.5
353.674	4023.5
353.901	3938.5
354.128	3946.5
354.355	3929.5
354.583	3913.5
354.81	3902.5
355.037	3939.5
355.264	3853.5
355.491	3874.5
355.718	3880.5
355.945	3940.5
356.172	3891.5
356.399	3962.5
356.626	3958.5
356.853	3938.5
357.08	3911.5
357.307	3941.5
357.534	3874.5
357.761	3954.5
357.988	3949.5
358.215	3906.5
358.441	3916.5
358.668	3934.5
358.895	4001.5
359.122	3981.5
359.349	4155.5
359.576	4269.5
359.802	4451.5
360.029	4663.5
360.256	4633.5
360.483	4421.5
360.709	4153.5
360.936	4134.5
361.163	4200.5
361.39	4255.5
361.616	4218.5
361.843	4146.5
362.07	4126.5
362.296	4289.5
362.523	4085.5
362.749	4120.5
362.976	4088.5
363.203	4039.5
363.429	4031.5
363.656	4030.5
363.882	4052.5
364.109	3967.5
364.335	4093.5
364.562	3988.5
364.788	4034.5
365.015	4032.5
365.241	4021.5
365.468	4056.5
365.694	4092.5
365.92	4026.5
366.147	4015.5
366.373	3997.5
366.599	4010.5
366.826	3988.5
367.052	3957.5
367.278	4007.5
367.505	4046.5
367.731	4061.5
367.957	4001.5
368.184	4107.5
368.41	4168.5
368.636	4281.5
368.862	4267.5
369.089	4179.5
369.315	4123.5
369.541	4068.5
369.767	4114.5
369.993	4120.5
370.219	4143.5
370.445	4180.5
370.672	4154.5
370.898	4152.5
371.124	4181.5
371.35	4198.5
371.576	4292.5
371.802	4244.5
372.028	4228.5
372.254	4278.5
372.48	4285.5
372.706	4370.5
372.932	4359.5
373.158	4349.5
373.384	4368.5
373.61	4274.5
373.835	4271.5
374.061	4288.5
374.287	4378.5
374.513	4415.5
374.739	4617.5
374.965	4632.5
375.191	4683.5
375.416	4558.5
375.642	4518.5
375.868	4437.5
376.094	4353.5
376.319	4280.5
376.545	4355.5
376.771	4320.5
376.997	4351.5
377.222	4265.5
377.448	4236.5
377.674	4283.5
377.899	4228.5
378.125	4192.5
378.35	4122.5
378.576	4203.5
378.802	4263.5
379.027	4145.5
379.253	4214.5
379.478	4140.5
379.704	4179.5
379.929	4228.5
380.155	4273.5
380.38	4211.5
380.606	4265.5
380.831	4200.5
381.057	4229.5
381.282	4277.5
381.507	4268.5
381.733	4319.5
381.958	4320.5
382.184	4397.5
382.409	4425.5
382.634	4537.5
382.86	4537.5
383.085	4500.5
383.31	4584.5
383.535	4650.5
383.761	4756.5
383.986	4743.5
384.211	4921.5
384.436	4991.5
384.662	5051.5
384.887	5093.5
385.112	5041.5
385.337	5145.5
385.562	5100.5
385.787	5155.5
386.013	5247.5
386.238	5239.5
386.463	5196.5
386.688	5103.5
386.913	5095.5
387.138	5058.5
387.363	5065.5
387.588	4992.5
387.813	5043.5
388.038	5038.5
388.263	5072.5
388.488	5138.5
388.713	5081.5
388.938	5043.5
389.163	5067.5
389.387	5028.5
389.612	4952.5
389.837	4984.5
390.062	5003.5
390.287	4966.5
390.512	5010.5
390.736	5041.5
390.961	5167.5
391.186	5251.5
391.411	5321.5
391.636	5470.5
391.86	5650.5
392.085	5667.5
392.31	5580.5
392.534	5429.5
392.759	5362.5
392.984	5340.5
393.208	5285.5
393.433	5287.5
393.658	5276.5
393.882	5290.5
394.107	5247.5
394.331	5327.5
394.556	5354.5
394.78	5373.5
395.005	5476.5
395.229	5423.5
395.454	5612.5
395.678	5747.5
395.903	5739.5
396.127	5788.5
396.352	5579.5
396.576	5399.5
396.801	5351.5
397.025	5441.5
397.249	5578.5
397.474	5691.5
397.698	5703.5
397.922	5856.5
398.147	5997.5
398.371	6081.5
398.595	6265.5
398.82	6496.5
399.044	7012.5
399.268	7778.5
399.492	8756.5
399.717	9401.5
399.941	9219.5
400.165	8595.5
400.389	7978.5
400.613	7225.5
400.837	6743.5
401.062	6585.5
401.286	6460.5
401.51	6383.5
401.734	6378.5
401.958	6508.5
402.182	6610.5
402.406	6792.5
402.63	6851.5
402.854	6873.5
403.078	6928.5
403.302	7141.5
403.526	7167.5
403.75	7337.5
403.974	7385.5
404.198	7413.5
404.422	7525.5
404.645	7471.5
404.869	7445.5
405.093	7708.5
405.317	8139.5
405.541	8075.5
405.765	7434.5
405.988	7278.5
406.212	7347.5
406.436	7564.5
406.66	7683.5
406.883	7639.5
407.107	8200.5
407.331	8690.5
407.555	9215.5
407.778	8885.5
408.002	8111.5
408.226	7784.5
408.449	7689.5
408.673	7522.5
408.896	7707.5
409.12	7808.5
409.344	7439.5
409.567	7007.5
409.791	7056.5
410.014	6968.5
410.238	6831.5
410.461	6897.5
410.685	6876.5
410.908	7070.5
411.132	7264.5
411.355	7239.5
411.578	6880.5
411.802	6692.5
412.025	6752.5
412.249	6998.5
412.472	7368.5
412.695	7607.5
412.919	7013.5
413.142	6797.5
413.365	6565.5
413.589	6641.5
413.812	6352.5
414.035	6259.5
414.258	6325.5
414.482	6403.5
414.705	6336.5
414.928	6431.5
415.151	6372.5
415.374	6317.5
415.597	6225.5
415.821	6157.5
416.044	6209.5
416.267	6183.5
416.49	6136.5
416.713	6067.5
416.936	6307.5
417.159	6168.5
417.382	6312.5
417.605	6356.5
417.828	6430.5
418.051	6577.5
418.274	6384.5
418.497	6246.5
418.72	6391.5
418.943	6425.5
419.166	6744.5
419.389	7179.5
419.611	7049.5
419.834	6943.5
420.057	6967.5
420.28	6892.5
420.503	6621.5
420.726	6611.5
420.948	6809.5
421.171	7039.5
421.394	6936.5
421.617	6537.5
421.839	6489.5
422.062	6545.5
422.285	6736.5
422.507	7363.5
422.73	7800.5
422.953	7296.5
423.175	6866.5
423.398	6880.5
423.621	6863.5
423.843	7171.5
424.066	7136.5
424.288	6998.5
424.511	7093.5
424.733	7685.5
424.956	8143.5
425.178	7673.5
425.401	7777.5
425.623	7599.5
425.846	6717.5
426.068	6576.5
426.291	6559.5
426.513	6474.5
426.735	6539.5
426.958	7034.5
427.18	7755.5
427.402	8871.5
427.625	9106.5
427.847	7980.5
428.069	7305.5
428.292	6587.5
428.514	6085.5
428.736	5932.5
428.958	5877.5
429.181	5760.5
429.403	5780.5
429.625	5944.5
429.847	6260.5
430.069	6641.5
430.292	6306.5
430.514	5730.5
430.736	5700.5
430.958	5709.5
431.18	5575.5
431.402	5672.5
431.624	5670.5
431.846	5581.5
432.068	5684.5
432.29	5796.5
432.512	5612.5
432.734	5841.5
432.956	5676.5
433.178	5815.5
433.4	5781.5
433.622	5655.5
433.844	5696.5
434.066	5708.5
434.287	5843.5
434.509	6036.5
434.731	6132.5
434.953	6371.5
435.175	6455.5
435.397	6584.5
435.618	6553.5
435.84	6872.5
436.062	7665.5
436.284	7632.5
436.505	6511.5
436.727	6145.5
436.949	5831.5
437.17	5824.5
437.392	5738.5
437.614	5898.5
437.835	6286.5
438.057	7240.5
438.278	7890.5
438.5	7818.5
438.721	8512.5
438.943	7464.5
439.165	6244.5
439.386	6116.5
439.608	6231.5
439.829	6274.5
440.05	6617.5
440.272	7048.5
440.493	6435.5
440.715	6096.5
440.936	6069.5
441.158	6052.5
441.379	6228.5
441.6	6578.5
441.822	6818.5
442.043	7269.5
442.264	7956.5
442.486	7638.5
442.707	6748.5
442.928	6611.5
443.149	6915.5
443.371	7132.5
443.592	7695.5
443.813	8520.5
444.034	8510.5
444.255	7329.5
444.476	7263.5
444.698	7380.5
444.919	7449.5
445.14	7349.5
445.361	7192.5
445.582	7302.5
445.803	7935.5
446.024	8532.5
446.245	8146.5
446.466	7371.5
446.687	6304.5
446.908	6026.5
447.129	5795.5
447.35	5590.5
447.571	5568.5
447.792	5522.5
448.013	5557.5
448.234	5864.5
448.455	6503.5
448.675	7637.5
448.896	8055.5
449.117	6671.5
449.338	6904.5
449.559	8109.5
449.779	8231.5
450	6395.5
450.221	5747.5
450.442	5435.5
450.662	5415.5
450.883	5476.5
451.104	5651.5
451.324	5560.5
451.545	5337.5
451.766	5160.5
451.986	5134.5
452.207	5000.5
452.428	4992.5
452.648	5085.5
452.869	5085.5
453.089	5109.5
453.31	5216.5
453.53	5039.5
453.751	4996.5
453.971	5024.5
454.192	5132.5
454.412	4943.5
454.633	4859.5
454.853	4899.5
455.073	4865.5
455.294	5282.5
455.514	5829.5
455.734	5290.5
455.955	4742.5
456.175	4681.5
456.395	4598.5
456.616	4554.5
456.836	4631.5
457.056	4607.5
457.276	4540.5
457.497	4739.5
457.717	4648.5
457.937	4725.5
458.157	4757.5
458.377	4914.5
458.598	5280.5
458.818	6090.5
459.038	6781.5
459.258	6633.5
459.478	5871.5
459.698	5764.5
459.918	5779.5
460.138	5984.5
460.358	6236.5
460.578	6206.5
460.798	6306.5
461.018	6303.5
461.238	6119.5
461.458	6220.5
461.678	6103.5
461.898	6233.5
462.118	6262.5
462.338	6563.5
462.558	6719.5
462.777	7069.5
462.997	7607.5
463.217	8033.5
463.437	7798.5
463.657	7276.5
463.876	7092.5
464.096	7184.5
464.316	7094.5
464.536	7151.5
464.755	6903.5
464.975	6905.5
465.195	7109.5
465.414	7095.5
465.634	6252.5
465.854	5773.5
466.073	5621.5
466.293	5448.5
466.512	5328.5
466.732	5117.5
466.951	5165.5
467.171	5187.5
467.391	5321.5
467.61	5275.5
467.829	5366.5
468.049	5354.5
468.268	5359.5
468.488	5100.5
468.707	5042.5
468.927	5014.5
469.146	5008.5
469.365	5095.5
469.585	5068.5
469.804	5304.5
470.023	5407.5
470.243	5435.5
470.462	5498.5
470.681	5644.5
470.901	5460.5
471.12	5336.5
471.339	5287.5
471.558	5252.5
471.777	5210.5
471.997	5147.5
472.216	5490.5
472.435	6237.5
472.654	5618.5
472.873	5178.5
473.092	5118.5
473.311	5044.5
473.53	5028.5
473.749	5127.5
473.968	5690.5
474.187	6582.5
474.406	6251.5
474.625	5302.5
474.844	5089.5
475.063	4998.5
475.282	4981.5
475.501	5071.5
475.72	5095.5
475.939	5085.5
476.158	5103.5
476.377	5154.5
476.596	5180.5
476.814	5263.5
477.033	5345.5
477.252	5508.5
477.471	5489.5
477.69	5634.5
477.908	5793.5
478.127	5885.5
478.346	5954.5
478.564	6109.5
478.783	6200.5
479.002	6230.5
479.22	6328.5
479.439	6356.5
479.658	6420.5
479.876	6602.5
480.095	6865.5
480.313	7227.5
480.532	7114.5
480.751	7066.5
480.969	7299.5
481.188	8719.5
481.406	8589.5
481.624	7035.5
481.843	6538.5
482.061	6295.5
482.28	6074.5
482.498	6050.5
482.717	5965.5
482.935	5964.5
483.153	5865.5
483.372	5871.5
483.59	5899.5
483.808	5914.5
484.027	5876.5
484.245	5921.5
484.463	5957.5
484.681	5972.5
484.9	6078.5
485.118	6103.5
485.336	6207.5
485.554	6171.5
485.772	6294.5
485.99	6205.5
486.209	6372.5
486.427	6368.5
486.645	6454.5
486.863	6527.5
487.081	6486.5
487.299	6359.5
487.517	6311.5
487.735	6285.5
487.953	6300.5
488.171	6296.5
488.389	6334.5
488.607	6314.5
488.825	6261.5
489.043	6369.5
489.261	6477.5
489.479	6502.5
489.696	6528.5
489.914	6598.5
490.132	6730.5
490.35	6727.5
490.568	6747.5
490.786	6928.5
491.003	7107.5
491.221	7171.5
491.439	7369.5
491.657	7387.5
491.874	7461.5
492.092	7480.5
492.31	7530.5
492.527	7676.5
492.745	7759.5
492.963	7794.5
493.18	7818.5
493.398	7839.5
493.615	7974.5
493.833	7916.5
494.05	7915.5
494.268	7792.5
494.485	7723.5
494.703	7613.5
494.92	7743.5
495.138	7594.5
495.355	7711.5
495.573	7586.5
495.79	7650.5
496.008	7631.5
496.225	7634.5
496.442	7646.5
496.66	7677.5
496.877	7628.5
497.094	7793.5
497.312	7846.5
497.529	8159.5
497.746	8229.5
497.963	8514.5
498.181	8814.5
498.398	9155.5
498.615	9447.5
498.832	9875.5
499.049	10365.5
499.267	11049.5
499.484	11833.5
499.701	12578.5
499.918	13348.5
500.135	14183.5
500.352	14788.5
500.569	14916.5
500.786	14834.5
501.003	14335.5
501.22	13704.5
501.437	12908.5
501.654	12185.5
501.871	11532.5
502.088	10741.5
502.305	10138.5
502.522	9655.5
502.739	9302.5
502.956	8819.5
503.172	8503.5
503.389	8163.5
503.606	8169.5
