Data from Circ_2014_H10_HRD10591_00088.txt Node
Date: Wed Jan 03 10:02:26 EST 2024
User: Yrep
Spectrometer: HR+D1059
Trigger mode: 1
Integration Time (sec): 1.000000E-1
Scans to average: 1
Electric dark correction enabled: true
Nonlinearity correction enabled: false
Boxcar width: 0
XAxis mode: Wavelengths
Number of Pixels in Spectrum: 2048
>>>>>Begin Spectral Data<<<<<
223.165	-26.81
223.4	-26.81
223.635	-26.81
223.869	-20.81
224.104	-16.81
224.338	-30.81
224.573	-8.81
224.808	4.19
225.042	-11.81
225.277	-14.81
225.511	-3.81
225.746	0.19
225.98	10.19
226.215	18.19
226.449	15.19
226.683	17.19
226.918	29.19
227.152	40.19
227.387	39.19
227.621	48.19
227.856	47.19
228.09	51.19
228.324	51.19
228.559	50.19
228.793	65.19
229.027	56.19
229.262	67.19
229.496	69.19
229.73	81.19
229.964	81.19
230.199	67.19
230.433	64.19
230.667	85.19
230.901	73.19
231.136	92.19
231.37	79.19
231.604	86.19
231.838	88.19
232.072	94.19
232.306	72.19
232.541	79.19
232.775	77.19
233.009	83.19
233.243	82.19
233.477	78.19
233.711	97.19
233.945	83.19
234.179	82.19
234.413	72.19
234.647	89.19
234.881	82.19
235.115	88.19
235.349	87.19
235.583	88.19
235.817	92.19
236.051	80.19
236.285	83.19
236.519	77.19
236.753	78.19
236.987	94.19
237.221	79.19
237.455	90.19
237.689	82.19
237.922	67.19
238.156	85.19
238.39	93.19
238.624	85.19
238.858	82.19
239.091	68.19
239.325	71.19
239.559	87.19
239.793	82.19
240.027	81.19
240.26	76.19
240.494	87.19
240.728	97.19
240.961	84.19
241.195	87.19
241.429	84.19
241.662	83.19
241.896	71.19
242.13	90.19
242.363	81.19
242.597	80.19
242.83	90.19
243.064	92.19
243.298	93.19
243.531	81.19
243.765	74.19
243.998	80.19
244.232	72.19
244.465	82.19
244.699	95.19
244.932	81.19
245.166	70.19
245.399	81.19
245.633	91.19
245.866	94.19
246.099	80.19
246.333	74.19
246.566	79.19
246.8	79.19
247.033	90.19
247.266	80.19
247.5	70.19
247.733	89.19
247.966	87.19
248.2	72.19
248.433	82.19
248.666	87.19
248.899	82.19
249.133	84.19
249.366	96.19
249.599	98.19
249.832	87.19
250.066	82.19
250.299	62.19
250.532	86.19
250.765	81.19
250.998	88.19
251.231	82.19
251.465	99.19
251.698	78.19
251.931	72.19
252.164	89.19
252.397	81.19
252.63	79.19
252.863	86.19
253.096	78.19
253.329	94.19
253.562	86.19
253.795	92.19
254.028	105.19
254.261	81.19
254.494	83.19
254.727	82.19
254.96	73.19
255.193	92.19
255.426	80.19
255.659	73.19
255.892	79.19
256.124	74.19
256.357	78.19
256.59	82.19
256.823	76.19
257.056	83.19
257.289	80.19
257.521	90.19
257.754	80.19
257.987	87.19
258.22	84.19
258.452	81.19
258.685	81.19
258.918	69.19
259.151	82.19
259.383	79.19
259.616	103.19
259.849	86.19
260.081	89.19
260.314	86.19
260.547	104.19
260.779	81.19
261.012	84.19
261.244	81.19
261.477	90.19
261.71	91.19
261.942	114.19
262.175	108.19
262.407	87.19
262.64	97.19
262.872	93.19
263.105	82.19
263.337	84.19
263.57	80.19
263.802	95.19
264.035	85.19
264.267	85.19
264.499	71.19
264.732	79.19
264.964	81.19
265.197	85.19
265.429	85.19
265.661	100.19
265.894	95.19
266.126	88.19
266.358	89.19
266.591	95.19
266.823	82.19
267.055	97.19
267.287	89.19
267.52	90.19
267.752	75.19
267.984	92.19
268.216	92.19
268.448	85.19
268.681	87.19
268.913	85.19
269.145	94.19
269.377	77.19
269.609	94.19
269.841	87.19
270.073	78.19
270.306	96.19
270.538	92.19
270.77	78.19
271.002	101.19
271.234	100.19
271.466	72.19
271.698	94.19
271.93	88.19
272.162	94.19
272.394	95.19
272.626	82.19
272.858	81.19
273.09	75.19
273.322	104.19
273.553	86.19
273.785	74.19
274.017	90.19
274.249	89.19
274.481	73.19
274.713	91.19
274.945	86.19
275.176	87.19
275.408	91.19
275.64	89.19
275.872	89.19
276.104	92.19
276.335	111.19
276.567	104.19
276.799	101.19
277.031	103.19
277.262	96.19
277.494	95.19
277.726	89.19
277.957	89.19
278.189	77.19
278.421	85.19
278.652	101.19
278.884	95.19
279.115	104.19
279.347	101.19
279.579	78.19
279.81	100.19
280.042	104.19
280.273	106.19
280.505	97.19
280.736	97.19
280.968	82.19
281.199	81.19
281.431	99.19
281.662	93.19
281.894	87.19
282.125	107.19
282.356	108.19
282.588	145.19
282.819	117.19
283.051	91.19
283.282	90.19
283.513	84.19
283.745	97.19
283.976	82.19
284.207	93.19
284.439	98.19
284.67	90.19
284.901	84.19
285.132	88.19
285.364	89.19
285.595	97.19
285.826	88.19
286.057	92.19
286.288	85.19
286.52	93.19
286.751	83.19
286.982	104.19
287.213	90.19
287.444	94.19
287.675	88.19
287.906	103.19
288.138	84.19
288.369	88.19
288.6	93.19
288.831	91.19
289.062	94.19
289.293	92.19
289.524	94.19
289.755	99.19
289.986	88.19
290.217	98.19
290.448	93.19
290.679	88.19
290.91	89.19
291.141	88.19
291.371	109.19
291.602	88.19
291.833	80.19
292.064	91.19
292.295	95.19
292.526	81.19
292.757	97.19
292.987	97.19
293.218	98.19
293.449	95.19
293.68	83.19
293.91	91.19
294.141	87.19
294.372	93.19
294.603	96.19
294.833	101.19
295.064	99.19
295.295	100.19
295.525	101.19
295.756	105.19
295.987	130.19
296.217	151.19
296.448	119.19
296.679	101.19
296.909	80.19
297.14	107.19
297.37	97.19
297.601	81.19
297.831	96.19
298.062	73.19
298.292	89.19
298.523	97.19
298.753	91.19
298.984	98.19
299.214	105.19
299.445	92.19
299.675	88.19
299.905	95.19
300.136	96.19
300.366	92.19
300.597	100.19
300.827	80.19
301.057	106.19
301.288	108.19
301.518	87.19
301.748	106.19
301.979	105.19
302.209	93.19
302.439	102.19
302.669	80.19
302.9	93.19
303.13	90.19
303.36	91.19
303.59	120.19
303.82	94.19
304.051	98.19
304.281	98.19
304.511	92.19
304.741	86.19
304.971	92.19
305.201	100.19
305.431	95.19
305.661	96.19
305.891	91.19
306.121	98.19
306.352	96.19
306.582	102.19
306.812	105.19
307.042	99.19
307.272	106.19
307.502	108.19
307.731	116.19
307.961	108.19
308.191	100.19
308.421	92.19
308.651	88.19
308.881	104.19
309.111	87.19
309.341	89.19
309.571	93.19
309.8	104.19
310.03	101.19
310.26	94.19
310.49	89.19
310.72	109.19
310.949	101.19
311.179	107.19
311.409	95.19
311.639	108.19
311.868	108.19
312.098	100.19
312.328	93.19
312.557	110.19
312.787	117.19
313.017	91.19
313.246	107.19
313.476	90.19
313.706	80.19
313.935	91.19
314.165	95.19
314.394	117.19
314.624	105.19
314.853	103.19
315.083	88.19
315.312	102.19
315.542	106.19
315.771	96.19
316.001	91.19
316.23	93.19
316.46	87.19
316.689	90.19
316.919	92.19
317.148	101.19
317.377	95.19
317.607	90.19
317.836	94.19
318.065	97.19
318.295	88.19
318.524	90.19
318.753	101.19
318.983	108.19
319.212	95.19
319.441	107.19
319.67	108.19
319.9	96.19
320.129	95.19
320.358	102.19
320.587	108.19
320.816	110.19
321.046	121.19
321.275	86.19
321.504	88.19
321.733	101.19
321.962	107.19
322.191	116.19
322.42	116.19
322.649	103.19
322.878	111.19
323.108	129.19
323.337	119.19
323.566	126.19
323.795	163.19
324.024	206.19
324.253	411.19
324.482	828.19
324.71	1750.19
324.939	2285.19
325.168	847.19
325.397	256.19
325.626	147.19
325.855	124.19
326.084	125.19
326.313	140.19
326.542	158.19
326.77	236.19
326.999	474.19
327.228	960.19
327.457	1743.19
327.686	1364.19
327.914	388.19
328.143	222.19
328.372	205.19
328.6	149.19
328.829	140.19
329.058	136.19
329.287	124.19
329.515	133.19
329.744	118.19
329.972	162.19
330.201	180.19
330.43	250.19
330.658	173.19
330.887	169.19
331.115	135.19
331.344	97.19
331.572	111.19
331.801	119.19
332.03	101.19
332.258	101.19
332.486	99.19
332.715	96.19
332.943	105.19
333.172	95.19
333.4	102.19
333.629	111.19
333.857	132.19
334.085	161.19
334.314	187.19
334.542	277.19
334.771	277.19
334.999	138.19
335.227	104.19
335.455	89.19
335.684	102.19
335.912	109.19
336.14	101.19
336.369	109.19
336.597	110.19
336.825	100.19
337.053	109.19
337.281	95.19
337.51	91.19
337.738	85.19
337.966	94.19
338.194	109.19
338.422	109.19
338.65	105.19
338.878	97.19
339.106	92.19
339.334	96.19
339.562	87.19
339.79	83.19
340.018	93.19
340.246	94.19
340.474	97.19
340.702	100.19
340.93	101.19
341.158	94.19
341.386	93.19
341.614	104.19
341.842	99.19
342.07	78.19
342.298	93.19
342.526	101.19
342.754	102.19
342.981	100.19
343.209	95.19
343.437	100.19
343.665	99.19
343.893	81.19
344.12	94.19
344.348	104.19
344.576	97.19
344.804	93.19
345.031	95.19
345.259	112.19
345.487	98.19
345.714	101.19
345.942	94.19
346.17	91.19
346.397	89.19
346.625	97.19
346.853	94.19
347.08	81.19
347.308	100.19
347.535	100.19
347.763	102.19
347.99	113.19
348.218	113.19
348.445	103.19
348.673	109.19
348.9	101.19
349.128	111.19
349.355	103.19
349.583	98.19
349.81	86.19
350.037	97.19
350.265	87.19
350.492	109.19
350.72	100.19
350.947	89.19
351.174	108.19
351.402	121.19
351.629	103.19
351.856	101.19
352.083	95.19
352.311	101.19
352.538	100.19
352.765	118.19
352.992	84.19
353.22	107.19
353.447	110.19
353.674	102.19
353.901	96.19
354.128	99.19
354.355	99.19
354.583	106.19
354.81	107.19
355.037	102.19
355.264	92.19
355.491	102.19
355.718	94.19
355.945	93.19
356.172	103.19
356.399	96.19
356.626	102.19
356.853	73.19
357.08	94.19
357.307	113.19
357.534	88.19
357.761	91.19
357.988	105.19
358.215	100.19
358.441	106.19
358.668	97.19
358.895	100.19
359.122	102.19
359.349	93.19
359.576	95.19
359.802	117.19
360.029	108.19
360.256	117.19
360.483	103.19
360.709	87.19
360.936	98.19
361.163	96.19
361.39	106.19
361.616	93.19
361.843	99.19
362.07	81.19
362.296	105.19
362.523	87.19
362.749	97.19
362.976	89.19
363.203	87.19
363.429	95.19
363.656	94.19
363.882	95.19
364.109	93.19
364.335	78.19
364.562	101.19
364.788	89.19
365.015	100.19
365.241	113.19
365.468	103.19
365.694	107.19
365.92	96.19
366.147	83.19
366.373	104.19
366.599	94.19
366.826	92.19
367.052	93.19
367.278	88.19
367.505	96.19
367.731	93.19
367.957	105.19
368.184	89.19
368.41	103.19
368.636	124.19
368.862	142.19
369.089	118.19
369.315	109.19
369.541	80.19
369.767	103.19
369.993	94.19
370.219	109.19
370.445	77.19
370.672	86.19
370.898	100.19
371.124	104.19
371.35	91.19
371.576	86.19
371.802	81.19
372.028	105.19
372.254	106.19
372.48	93.19
372.706	97.19
372.932	100.19
373.158	93.19
373.384	96.19
373.61	92.19
373.835	84.19
374.061	88.19
374.287	79.19
374.513	87.19
374.739	89.19
374.965	101.19
375.191	102.19
375.416	94.19
375.642	98.19
375.868	97.19
376.094	94.19
376.319	91.19
376.545	99.19
376.771	94.19
376.997	91.19
377.222	85.19
377.448	97.19
377.674	97.19
377.899	84.19
378.125	97.19
378.35	107.19
378.576	102.19
378.802	87.19
379.027	104.19
379.253	93.19
379.478	88.19
379.704	93.19
379.929	96.19
380.155	102.19
380.38	86.19
380.606	98.19
380.831	95.19
381.057	102.19
381.282	105.19
381.507	88.19
381.733	92.19
381.958	98.19
382.184	95.19
382.409	102.19
382.634	93.19
382.86	101.19
383.085	103.19
383.31	101.19
383.535	105.19
383.761	108.19
383.986	101.19
384.211	97.19
384.436	92.19
384.662	93.19
384.887	84.19
385.112	124.19
385.337	100.19
385.562	96.19
385.787	109.19
386.013	108.19
386.238	124.19
386.463	113.19
386.688	106.19
386.913	93.19
387.138	110.19
387.363	103.19
387.588	105.19
387.813	104.19
388.038	109.19
388.263	107.19
388.488	112.19
388.713	106.19
388.938	93.19
389.163	90.19
389.387	109.19
389.612	92.19
389.837	97.19
390.062	105.19
390.287	97.19
390.512	89.19
390.736	87.19
390.961	91.19
391.186	99.19
391.411	97.19
391.636	93.19
391.86	91.19
392.085	69.19
392.31	90.19
392.534	92.19
392.759	105.19
392.984	86.19
393.208	89.19
393.433	95.19
393.658	91.19
393.882	78.19
394.107	101.19
394.331	96.19
394.556	92.19
394.78	82.19
395.005	89.19
395.229	96.19
395.454	86.19
395.678	94.19
395.903	100.19
396.127	85.19
396.352	88.19
396.576	93.19
396.801	92.19
397.025	95.19
397.249	89.19
397.474	102.19
397.698	89.19
397.922	97.19
398.147	84.19
398.371	86.19
398.595	97.19
398.82	82.19
399.044	89.19
399.268	95.19
399.492	99.19
399.717	94.19
399.941	88.19
400.165	98.19
400.389	95.19
400.613	98.19
400.837	95.19
401.062	92.19
401.286	106.19
401.51	92.19
401.734	89.19
401.958	126.19
402.182	121.19
402.406	168.19
402.63	139.19
402.854	98.19
403.078	88.19
403.302	92.19
403.526	96.19
403.75	76.19
403.974	93.19
404.198	96.19
404.422	98.19
404.645	94.19
404.869	88.19
405.093	102.19
405.317	120.19
405.541	86.19
405.765	109.19
405.988	135.19
406.212	189.19
406.436	242.19
406.66	166.19
406.883	101.19
407.107	92.19
407.331	114.19
407.555	105.19
407.778	88.19
408.002	98.19
408.226	89.19
408.449	89.19
408.673	79.19
408.896	86.19
409.12	98.19
409.344	94.19
409.567	86.19
409.791	95.19
410.014	107.19
410.238	107.19
410.461	93.19
410.685	91.19
410.908	103.19
411.132	109.19
411.355	118.19
411.578	84.19
411.802	88.19
412.025	97.19
412.249	85.19
412.472	93.19
412.695	97.19
412.919	96.19
413.142	102.19
413.365	85.19
413.589	94.19
413.812	87.19
414.035	96.19
414.258	94.19
414.482	94.19
414.705	75.19
414.928	82.19
415.151	99.19
415.374	92.19
415.597	99.19
415.821	96.19
416.044	83.19
416.267	98.19
416.49	89.19
416.713	85.19
416.936	101.19
417.159	90.19
417.382	95.19
417.605	102.19
417.828	100.19
418.051	82.19
418.274	96.19
418.497	83.19
418.72	80.19
418.943	89.19
419.166	90.19
419.389	103.19
419.611	85.19
419.834	92.19
420.057	102.19
420.28	81.19
420.503	102.19
420.726	86.19
420.948	93.19
421.171	100.19
421.394	92.19
421.617	87.19
421.839	109.19
422.062	90.19
422.285	85.19
422.507	92.19
422.73	105.19
422.953	96.19
423.175	97.19
423.398	94.19
423.621	80.19
423.843	88.19
424.066	89.19
424.288	81.19
424.511	83.19
424.733	89.19
424.956	103.19
425.178	98.19
425.401	103.19
425.623	95.19
425.846	109.19
426.068	84.19
426.291	92.19
426.513	101.19
426.735	97.19
426.958	87.19
427.18	129.19
427.402	140.19
427.625	169.19
427.847	146.19
428.069	114.19
428.292	105.19
428.514	87.19
428.736	88.19
428.958	89.19
429.181	80.19
429.403	93.19
429.625	101.19
429.847	94.19
430.069	100.19
430.292	95.19
430.514	93.19
430.736	97.19
430.958	89.19
431.18	91.19
431.402	86.19
431.624	86.19
431.846	82.19
432.068	99.19
432.29	92.19
432.512	79.19
432.734	88.19
432.956	90.19
433.178	106.19
433.4	106.19
433.622	108.19
433.844	98.19
434.066	100.19
434.287	106.19
434.509	87.19
434.731	92.19
434.953	85.19
435.175	89.19
435.397	97.19
435.618	101.19
435.84	88.19
436.062	118.19
436.284	132.19
436.505	111.19
436.727	96.19
436.949	99.19
437.17	100.19
437.392	92.19
437.614	93.19
437.835	108.19
438.057	132.19
438.278	110.19
438.5	104.19
438.721	107.19
438.943	109.19
439.165	98.19
439.386	97.19
439.608	105.19
439.829	97.19
440.05	128.19
440.272	150.19
440.493	118.19
440.715	86.19
440.936	98.19
441.158	88.19
441.379	86.19
441.6	107.19
441.822	92.19
442.043	82.19
442.264	95.19
442.486	111.19
442.707	90.19
442.928	119.19
443.149	129.19
443.371	144.19
443.592	119.19
443.813	118.19
444.034	115.19
444.255	89.19
444.476	102.19
444.698	85.19
444.919	99.19
445.14	145.19
445.361	124.19
445.582	124.19
445.803	134.19
446.024	148.19
446.245	142.19
446.466	101.19
446.687	94.19
446.908	101.19
447.129	95.19
447.35	92.19
447.571	88.19
447.792	79.19
448.013	109.19
448.234	107.19
448.455	110.19
448.675	114.19
448.896	118.19
449.117	94.19
449.338	103.19
449.559	140.19
449.779	123.19
450	97.19
450.221	94.19
450.442	96.19
450.662	105.19
450.883	112.19
451.104	105.19
451.324	101.19
451.545	95.19
451.766	104.19
451.986	88.19
452.207	79.19
452.428	97.19
452.648	110.19
452.869	111.19
453.089	128.19
453.31	123.19
453.53	95.19
453.751	101.19
453.971	110.19
454.192	125.19
454.412	98.19
454.633	102.19
454.853	98.19
455.073	87.19
455.294	83.19
455.514	103.19
455.734	98.19
455.955	89.19
456.175	103.19
456.395	93.19
456.616	82.19
456.836	88.19
457.056	76.19
457.276	83.19
457.497	80.19
457.717	82.19
457.937	94.19
458.157	93.19
458.377	89.19
458.598	117.19
458.818	144.19
459.038	170.19
459.258	130.19
459.478	103.19
459.698	100.19
459.918	98.19
460.138	88.19
460.358	79.19
460.578	100.19
460.798	93.19
461.018	84.19
461.238	83.19
461.458	97.19
461.678	86.19
461.898	87.19
462.118	91.19
462.338	81.19
462.558	83.19
462.777	78.19
462.997	92.19
463.217	96.19
463.437	90.19
463.657	88.19
463.876	86.19
464.096	84.19
464.316	93.19
464.536	92.19
464.755	100.19
464.975	128.19
465.195	165.19
465.414	182.19
465.634	100.19
465.854	91.19
466.073	96.19
466.293	81.19
466.512	99.19
466.732	98.19
466.951	96.19
467.171	107.19
467.391	96.19
467.61	110.19
467.829	93.19
468.049	134.19
468.268	168.19
468.488	100.19
468.707	92.19
468.927	91.19
469.146	93.19
469.365	93.19
469.585	82.19
469.804	84.19
470.023	107.19
470.243	101.19
470.462	94.19
470.681	114.19
470.901	91.19
471.12	94.19
471.339	97.19
471.558	77.19
471.777	89.19
471.997	110.19
472.216	234.19
472.435	370.19
472.654	144.19
472.873	90.19
473.092	99.19
473.311	92.19
473.53	93.19
473.749	97.19
473.968	88.19
474.187	103.19
474.406	85.19
474.625	107.19
474.844	100.19
475.063	88.19
475.282	94.19
475.501	85.19
475.72	81.19
475.939	100.19
476.158	94.19
476.377	87.19
476.596	90.19
476.814	96.19
477.033	95.19
477.252	90.19
477.471	98.19
477.69	94.19
477.908	93.19
478.127	92.19
478.346	91.19
478.564	109.19
478.783	90.19
479.002	88.19
479.22	82.19
479.439	103.19
479.658	115.19
479.876	118.19
480.095	105.19
480.313	107.19
480.532	97.19
480.751	108.19
480.969	213.19
481.188	586.19
481.406	403.19
481.624	124.19
481.843	83.19
482.061	107.19
482.28	97.19
482.498	93.19
482.717	85.19
482.935	96.19
483.153	92.19
483.372	80.19
483.59	92.19
483.808	73.19
484.027	97.19
484.245	99.19
484.463	108.19
484.681	92.19
484.9	97.19
485.118	82.19
485.336	102.19
485.554	98.19
485.772	95.19
485.99	109.19
486.209	108.19
486.427	112.19
486.645	105.19
486.863	108.19
487.081	102.19
487.299	101.19
487.517	99.19
487.735	102.19
487.953	88.19
488.171	97.19
488.389	94.19
488.607	108.19
488.825	88.19
489.043	87.19
489.261	94.19
489.479	101.19
489.696	104.19
489.914	81.19
490.132	95.19
490.35	92.19
490.568	98.19
490.786	86.19
491.003	93.19
491.221	92.19
491.439	99.19
491.657	85.19
491.874	98.19
492.092	91.19
492.31	98.19
492.527	88.19
492.745	89.19
492.963	97.19
493.18	88.19
493.398	90.19
493.615	101.19
493.833	98.19
494.05	82.19
494.268	86.19
494.485	86.19
494.703	92.19
494.92	88.19
495.138	95.19
495.355	98.19
495.573	96.19
495.79	90.19
496.008	107.19
496.225	94.19
496.442	100.19
496.66	96.19
496.877	86.19
497.094	98.19
497.312	92.19
497.529	99.19
497.746	96.19
497.963	89.19
498.181	95.19
498.398	97.19
498.615	119.19
498.832	107.19
499.049	93.19
499.267	86.19
499.484	85.19
499.701	81.19
499.918	87.19
500.135	81.19
500.352	82.19
500.569	87.19
500.786	93.19
501.003	103.19
501.22	92.19
501.437	91.19
501.654	90.19
501.871	100.19
502.088	91.19
502.305	109.19
502.522	96.19
502.739	88.19
502.956	93.19
503.172	111.19
503.389	89.19
503.606	108.19
503.823	101.19
504.04	84.19
504.256	93.19
504.473	95.19
504.69	96.19
504.907	90.19
505.123	88.19
505.34	80.19
505.557	96.19
505.773	100.19
505.99	95.19
506.207	90.19
506.423	92.19
506.64	92.19
506.856	104.19
507.073	100.19
507.289	108.19
507.506	110.19
507.722	110.19
507.939	118.19
508.155	102.19
508.372	105.19
508.588	94.19
508.805	92.19
509.021	96.19
509.238	99.19
509.454	99.19
509.67	99.19
509.887	112.19
510.103	140.19
510.319	214.19
510.536	807.19
510.752	2641.19
510.968	756.19
511.184	170.19
511.401	118.19
511.617	111.19
511.833	84.19
512.049	88.19
512.265	89.19
512.481	90.19
512.698	90.19
512.914	91.19
513.13	100.19
513.346	91.19
513.562	88.19
513.778	92.19
