Data from Circ_2014_H10_HRD10591_00094.txt Node
Date: Wed Jan 03 10:02:28 EST 2024
User: Yrep
Spectrometer: HR+D1059
Trigger mode: 1
Integration Time (sec): 1.000000E-1
Scans to average: 1
Electric dark correction enabled: true
Nonlinearity correction enabled: false
Boxcar width: 0
XAxis mode: Wavelengths
Number of Pixels in Spectrum: 2048
>>>>>Begin Spectral Data<<<<<
223.165	-30.44
223.4	-30.44
223.635	-30.44
223.869	-16.44
224.104	-20.44
224.338	-21.44
224.573	-12.44
224.808	-14.44
225.042	-7.44
225.277	6.56
225.511	-0.44
225.746	14.56
225.98	20.56
226.215	12.56
226.449	9.56
226.683	9.56
226.918	18.56
227.152	31.56
227.387	39.56
227.621	48.56
227.856	42.56
228.09	51.56
228.324	54.56
228.559	66.56
228.793	65.56
229.027	64.56
229.262	60.56
229.496	79.56
229.73	97.56
229.964	70.56
230.199	86.56
230.433	87.56
230.667	65.56
230.901	79.56
231.136	94.56
231.37	99.56
231.604	80.56
231.838	79.56
232.072	73.56
232.306	86.56
232.541	74.56
232.775	81.56
233.009	79.56
233.243	81.56
233.477	102.56
233.711	60.56
233.945	93.56
234.179	79.56
234.413	88.56
234.647	91.56
234.881	82.56
235.115	84.56
235.349	88.56
235.583	85.56
235.817	87.56
236.051	84.56
236.285	87.56
236.519	74.56
236.753	81.56
236.987	103.56
237.221	85.56
237.455	85.56
237.689	76.56
237.922	88.56
238.156	80.56
238.39	79.56
238.624	86.56
238.858	69.56
239.091	70.56
239.325	79.56
239.559	77.56
239.793	81.56
240.027	84.56
240.26	69.56
240.494	80.56
240.728	74.56
240.961	79.56
241.195	81.56
241.429	82.56
241.662	75.56
241.896	76.56
242.13	83.56
242.363	77.56
242.597	90.56
242.83	83.56
243.064	77.56
243.298	88.56
243.531	82.56
243.765	72.56
243.998	83.56
244.232	76.56
244.465	88.56
244.699	81.56
244.932	81.56
245.166	77.56
245.399	71.56
245.633	81.56
245.866	75.56
246.099	80.56
246.333	82.56
246.566	79.56
246.8	83.56
247.033	71.56
247.266	77.56
247.5	88.56
247.733	85.56
247.966	84.56
248.2	97.56
248.433	75.56
248.666	86.56
248.899	83.56
249.133	93.56
249.366	88.56
249.599	97.56
249.832	79.56
250.066	75.56
250.299	92.56
250.532	75.56
250.765	90.56
250.998	79.56
251.231	92.56
251.465	73.56
251.698	79.56
251.931	80.56
252.164	90.56
252.397	85.56
252.63	84.56
252.863	78.56
253.096	74.56
253.329	79.56
253.562	81.56
253.795	84.56
254.028	66.56
254.261	81.56
254.494	78.56
254.727	94.56
254.96	79.56
255.193	84.56
255.426	84.56
255.659	78.56
255.892	90.56
256.124	89.56
256.357	77.56
256.59	84.56
256.823	81.56
257.056	89.56
257.289	83.56
257.521	85.56
257.754	90.56
257.987	96.56
258.22	81.56
258.452	92.56
258.685	91.56
258.918	87.56
259.151	81.56
259.383	80.56
259.616	91.56
259.849	81.56
260.081	76.56
260.314	73.56
260.547	89.56
260.779	87.56
261.012	82.56
261.244	91.56
261.477	95.56
261.71	87.56
261.942	110.56
262.175	129.56
262.407	94.56
262.64	87.56
262.872	94.56
263.105	84.56
263.337	86.56
263.57	90.56
263.802	85.56
264.035	77.56
264.267	87.56
264.499	92.56
264.732	74.56
264.964	90.56
265.197	80.56
265.429	82.56
265.661	88.56
265.894	76.56
266.126	86.56
266.358	76.56
266.591	76.56
266.823	87.56
267.055	93.56
267.287	81.56
267.52	82.56
267.752	78.56
267.984	92.56
268.216	76.56
268.448	97.56
268.681	84.56
268.913	89.56
269.145	91.56
269.377	87.56
269.609	93.56
269.841	82.56
270.073	77.56
270.306	88.56
270.538	83.56
270.77	83.56
271.002	85.56
271.234	88.56
271.466	89.56
271.698	74.56
271.93	93.56
272.162	92.56
272.394	94.56
272.626	96.56
272.858	105.56
273.09	88.56
273.322	85.56
273.553	101.56
273.785	84.56
274.017	71.56
274.249	87.56
274.481	98.56
274.713	91.56
274.945	103.56
275.176	90.56
275.408	81.56
275.64	94.56
275.872	62.56
276.104	89.56
276.335	81.56
276.567	93.56
276.799	105.56
277.031	118.56
277.262	92.56
277.494	95.56
277.726	91.56
277.957	81.56
278.189	95.56
278.421	91.56
278.652	92.56
278.884	86.56
279.115	89.56
279.347	86.56
279.579	81.56
279.81	84.56
280.042	102.56
280.273	116.56
280.505	89.56
280.736	103.56
280.968	90.56
281.199	91.56
281.431	90.56
281.662	87.56
281.894	95.56
282.125	114.56
282.356	133.56
282.588	135.56
282.819	111.56
283.051	92.56
283.282	90.56
283.513	93.56
283.745	71.56
283.976	79.56
284.207	89.56
284.439	85.56
284.67	93.56
284.901	95.56
285.132	100.56
285.364	85.56
285.595	91.56
285.826	91.56
286.057	94.56
286.288	76.56
286.52	99.56
286.751	80.56
286.982	79.56
287.213	103.56
287.444	93.56
287.675	91.56
287.906	94.56
288.138	85.56
288.369	96.56
288.6	84.56
288.831	110.56
289.062	84.56
289.293	85.56
289.524	85.56
289.755	73.56
289.986	100.56
290.217	86.56
290.448	86.56
290.679	90.56
290.91	92.56
291.141	75.56
291.371	79.56
291.602	64.56
291.833	86.56
292.064	98.56
292.295	93.56
292.526	93.56
292.757	78.56
292.987	94.56
293.218	86.56
293.449	95.56
293.68	93.56
293.91	87.56
294.141	85.56
294.372	94.56
294.603	91.56
294.833	82.56
295.064	80.56
295.295	82.56
295.525	93.56
295.756	102.56
295.987	116.56
296.217	146.56
296.448	116.56
296.679	102.56
296.909	88.56
297.14	89.56
297.37	91.56
297.601	83.56
297.831	96.56
298.062	93.56
298.292	86.56
298.523	97.56
298.753	88.56
298.984	89.56
299.214	84.56
299.445	80.56
299.675	94.56
299.905	96.56
300.136	99.56
300.366	95.56
300.597	93.56
300.827	98.56
301.057	95.56
301.288	109.56
301.518	98.56
301.748	98.56
301.979	103.56
302.209	93.56
302.439	96.56
302.669	88.56
302.9	94.56
303.13	81.56
303.36	87.56
303.59	120.56
303.82	102.56
304.051	105.56
304.281	105.56
304.511	86.56
304.741	102.56
304.971	92.56
305.201	88.56
305.431	91.56
305.661	100.56
305.891	97.56
306.121	107.56
306.352	109.56
306.582	118.56
306.812	106.56
307.042	92.56
307.272	92.56
307.502	127.56
307.731	105.56
307.961	88.56
308.191	101.56
308.421	87.56
308.651	89.56
308.881	69.56
309.111	99.56
309.341	87.56
309.571	94.56
309.8	83.56
310.03	90.56
310.26	107.56
310.49	95.56
310.72	101.56
310.949	108.56
311.179	97.56
311.409	94.56
311.639	89.56
311.868	86.56
312.098	85.56
312.328	90.56
312.557	99.56
312.787	125.56
313.017	95.56
313.246	103.56
313.476	102.56
313.706	84.56
313.935	106.56
314.165	87.56
314.394	93.56
314.624	98.56
314.853	98.56
315.083	92.56
315.312	109.56
315.542	101.56
315.771	108.56
316.001	94.56
316.23	88.56
316.46	103.56
316.689	99.56
316.919	105.56
317.148	97.56
317.377	96.56
317.607	85.56
317.836	108.56
318.065	91.56
318.295	91.56
318.524	97.56
318.753	86.56
318.983	91.56
319.212	103.56
319.441	111.56
319.67	110.56
319.9	101.56
320.129	112.56
320.358	107.56
320.587	83.56
320.816	92.56
321.046	111.56
321.275	98.56
321.504	89.56
321.733	104.56
321.962	108.56
322.191	105.56
322.42	106.56
322.649	113.56
322.878	114.56
323.108	114.56
323.337	122.56
323.566	131.56
323.795	167.56
324.024	217.56
324.253	387.56
324.482	847.56
324.71	1635.56
324.939	2188.56
325.168	809.56
325.397	244.56
325.626	144.56
325.855	139.56
326.084	132.56
326.313	129.56
326.542	156.56
326.77	233.56
326.999	457.56
327.228	913.56
327.457	1714.56
327.686	1353.56
327.914	384.56
328.143	232.56
328.372	199.56
328.6	169.56
328.829	122.56
329.058	140.56
329.287	145.56
329.515	123.56
329.744	122.56
329.972	160.56
330.201	222.56
330.43	266.56
330.658	192.56
330.887	157.56
331.115	126.56
331.344	94.56
331.572	107.56
331.801	103.56
332.03	108.56
332.258	109.56
332.486	89.56
332.715	99.56
332.943	97.56
333.172	90.56
333.4	116.56
333.629	121.56
333.857	135.56
334.085	152.56
334.314	224.56
334.542	321.56
334.771	288.56
334.999	145.56
335.227	118.56
335.455	86.56
335.684	96.56
335.912	100.56
336.14	94.56
336.369	112.56
336.597	107.56
336.825	95.56
337.053	103.56
337.281	105.56
337.51	97.56
337.738	85.56
337.966	100.56
338.194	106.56
338.422	106.56
338.65	97.56
338.878	88.56
339.106	87.56
339.334	103.56
339.562	109.56
339.79	97.56
340.018	94.56
340.246	98.56
340.474	98.56
340.702	93.56
340.93	96.56
341.158	93.56
341.386	100.56
341.614	109.56
341.842	99.56
342.07	97.56
342.298	93.56
342.526	92.56
342.754	83.56
342.981	99.56
343.209	90.56
343.437	92.56
343.665	81.56
343.893	76.56
344.12	91.56
344.348	89.56
344.576	87.56
344.804	79.56
345.031	108.56
345.259	99.56
345.487	100.56
345.714	105.56
345.942	87.56
346.17	98.56
346.397	101.56
346.625	88.56
346.853	111.56
347.08	94.56
347.308	87.56
347.535	92.56
347.763	101.56
347.99	110.56
348.218	120.56
348.445	102.56
348.673	98.56
348.9	107.56
349.128	91.56
349.355	99.56
349.583	90.56
349.81	102.56
350.037	94.56
350.265	102.56
350.492	90.56
350.72	89.56
350.947	99.56
351.174	122.56
351.402	109.56
351.629	110.56
351.856	101.56
352.083	106.56
352.311	109.56
352.538	121.56
352.765	115.56
352.992	110.56
353.22	119.56
353.447	96.56
353.674	107.56
353.901	99.56
354.128	90.56
354.355	90.56
354.583	100.56
354.81	100.56
355.037	113.56
355.264	111.56
355.491	104.56
355.718	81.56
355.945	108.56
356.172	95.56
356.399	90.56
356.626	96.56
356.853	93.56
357.08	78.56
357.307	93.56
357.534	109.56
357.761	96.56
357.988	100.56
358.215	115.56
358.441	80.56
358.668	92.56
358.895	91.56
359.122	100.56
359.349	84.56
359.576	91.56
359.802	96.56
360.029	111.56
360.256	131.56
360.483	124.56
360.709	86.56
360.936	105.56
361.163	104.56
361.39	95.56
361.616	104.56
361.843	87.56
362.07	88.56
362.296	82.56
362.523	74.56
362.749	102.56
362.976	94.56
363.203	97.56
363.429	98.56
363.656	91.56
363.882	88.56
364.109	79.56
364.335	78.56
364.562	92.56
364.788	109.56
365.015	109.56
365.241	100.56
365.468	120.56
365.694	105.56
365.92	94.56
366.147	74.56
366.373	90.56
366.599	87.56
366.826	102.56
367.052	88.56
367.278	93.56
367.505	87.56
367.731	78.56
367.957	81.56
368.184	103.56
368.41	100.56
368.636	111.56
368.862	113.56
369.089	103.56
369.315	94.56
369.541	90.56
369.767	102.56
369.993	89.56
370.219	89.56
370.445	77.56
370.672	82.56
370.898	76.56
371.124	85.56
371.35	86.56
371.576	88.56
371.802	81.56
372.028	99.56
372.254	78.56
372.48	92.56
372.706	93.56
372.932	107.56
373.158	105.56
373.384	98.56
373.61	104.56
373.835	92.56
374.061	97.56
374.287	89.56
374.513	77.56
374.739	97.56
374.965	75.56
375.191	87.56
375.416	86.56
375.642	94.56
375.868	96.56
376.094	101.56
376.319	77.56
376.545	91.56
376.771	87.56
376.997	87.56
377.222	94.56
377.448	96.56
377.674	87.56
377.899	92.56
378.125	99.56
378.35	101.56
378.576	88.56
378.802	89.56
379.027	93.56
379.253	72.56
379.478	86.56
379.704	86.56
379.929	89.56
380.155	106.56
380.38	103.56
380.606	98.56
380.831	111.56
381.057	102.56
381.282	95.56
381.507	106.56
381.733	97.56
381.958	88.56
382.184	95.56
382.409	106.56
382.634	114.56
382.86	103.56
383.085	109.56
383.31	116.56
383.535	108.56
383.761	113.56
383.986	104.56
384.211	92.56
384.436	103.56
384.662	97.56
384.887	107.56
385.112	95.56
385.337	104.56
385.562	104.56
385.787	104.56
386.013	112.56
386.238	124.56
386.463	120.56
386.688	117.56
386.913	96.56
387.138	114.56
387.363	105.56
387.588	100.56
387.813	97.56
388.038	104.56
388.263	92.56
388.488	92.56
388.713	100.56
388.938	106.56
389.163	75.56
389.387	82.56
389.612	99.56
389.837	96.56
390.062	97.56
390.287	101.56
390.512	92.56
390.736	93.56
390.961	76.56
391.186	91.56
391.411	91.56
391.636	100.56
391.86	103.56
392.085	61.56
392.31	94.56
392.534	85.56
392.759	94.56
392.984	86.56
393.208	95.56
393.433	84.56
393.658	94.56
393.882	94.56
394.107	103.56
394.331	88.56
394.556	88.56
394.78	95.56
395.005	91.56
395.229	87.56
395.454	87.56
395.678	77.56
395.903	91.56
396.127	78.56
396.352	95.56
396.576	84.56
396.801	84.56
397.025	85.56
397.249	93.56
397.474	111.56
397.698	90.56
397.922	91.56
398.147	75.56
398.371	103.56
398.595	99.56
398.82	90.56
399.044	83.56
399.268	72.56
399.492	100.56
399.717	88.56
399.941	89.56
400.165	103.56
400.389	95.56
400.613	72.56
400.837	86.56
401.062	99.56
401.286	94.56
401.51	96.56
401.734	95.56
401.958	107.56
402.182	127.56
402.406	171.56
402.63	121.56
402.854	92.56
403.078	81.56
403.302	92.56
403.526	98.56
403.75	71.56
403.974	90.56
404.198	87.56
404.422	83.56
404.645	73.56
404.869	85.56
405.093	95.56
405.317	108.56
405.541	101.56
405.765	116.56
405.988	118.56
406.212	185.56
406.436	240.56
406.66	164.56
406.883	113.56
407.107	95.56
407.331	104.56
407.555	101.56
407.778	105.56
408.002	103.56
408.226	78.56
408.449	93.56
408.673	90.56
408.896	90.56
409.12	100.56
409.344	94.56
409.567	98.56
409.791	94.56
410.014	96.56
410.238	83.56
410.461	94.56
410.685	93.56
410.908	109.56
411.132	119.56
411.355	92.56
411.578	93.56
411.802	92.56
412.025	75.56
412.249	81.56
412.472	94.56
412.695	107.56
412.919	103.56
413.142	99.56
413.365	75.56
413.589	93.56
413.812	101.56
414.035	86.56
414.258	85.56
414.482	89.56
414.705	99.56
414.928	83.56
415.151	90.56
415.374	87.56
415.597	85.56
415.821	89.56
416.044	93.56
416.267	85.56
416.49	80.56
416.713	100.56
416.936	88.56
417.159	99.56
417.382	83.56
417.605	99.56
417.828	99.56
418.051	93.56
418.274	100.56
418.497	94.56
418.72	79.56
418.943	87.56
419.166	85.56
419.389	79.56
419.611	107.56
419.834	89.56
420.057	102.56
420.28	64.56
420.503	76.56
420.726	80.56
420.948	83.56
421.171	108.56
421.394	104.56
421.617	78.56
421.839	99.56
422.062	92.56
422.285	91.56
422.507	110.56
422.73	83.56
422.953	86.56
423.175	101.56
423.398	90.56
423.621	81.56
423.843	93.56
424.066	81.56
424.288	91.56
424.511	80.56
424.733	115.56
424.956	106.56
425.178	92.56
425.401	95.56
425.623	105.56
425.846	101.56
426.068	95.56
426.291	88.56
426.513	84.56
426.735	87.56
426.958	101.56
427.18	115.56
427.402	149.56
427.625	179.56
427.847	162.56
428.069	141.56
428.292	104.56
428.514	88.56
428.736	96.56
428.958	87.56
429.181	81.56
429.403	80.56
429.625	68.56
429.847	87.56
430.069	108.56
430.292	94.56
430.514	96.56
430.736	81.56
430.958	86.56
431.18	85.56
431.402	89.56
431.624	80.56
431.846	82.56
432.068	97.56
432.29	89.56
432.512	101.56
432.734	84.56
432.956	94.56
433.178	107.56
433.4	99.56
433.622	96.56
433.844	98.56
434.066	81.56
434.287	84.56
434.509	89.56
434.731	87.56
434.953	90.56
435.175	84.56
435.397	97.56
435.618	93.56
435.84	93.56
436.062	125.56
436.284	121.56
436.505	107.56
436.727	95.56
436.949	88.56
437.17	92.56
437.392	94.56
437.614	91.56
437.835	103.56
438.057	112.56
438.278	110.56
438.5	111.56
438.721	122.56
438.943	87.56
439.165	85.56
439.386	81.56
439.608	98.56
439.829	104.56
440.05	124.56
440.272	144.56
440.493	94.56
440.715	85.56
440.936	99.56
441.158	86.56
441.379	96.56
441.6	96.56
441.822	100.56
442.043	99.56
442.264	92.56
442.486	102.56
442.707	87.56
442.928	103.56
443.149	126.56
443.371	139.56
443.592	106.56
443.813	118.56
444.034	113.56
444.255	84.56
444.476	108.56
444.698	91.56
444.919	91.56
445.14	128.56
445.361	129.56
445.582	123.56
445.803	133.56
446.024	137.56
446.245	130.56
446.466	115.56
446.687	85.56
446.908	85.56
447.129	95.56
447.35	91.56
447.571	97.56
447.792	97.56
448.013	101.56
448.234	110.56
448.455	104.56
448.675	115.56
448.896	119.56
449.117	89.56
449.338	111.56
449.559	129.56
449.779	129.56
450	108.56
450.221	102.56
450.442	104.56
450.662	100.56
450.883	112.56
451.104	117.56
451.324	96.56
451.545	93.56
451.766	89.56
451.986	91.56
452.207	75.56
452.428	88.56
452.648	101.56
452.869	113.56
453.089	126.56
453.31	119.56
453.53	92.56
453.751	90.56
453.971	88.56
454.192	109.56
454.412	102.56
454.633	96.56
454.853	97.56
455.073	72.56
455.294	89.56
455.514	113.56
455.734	95.56
455.955	89.56
456.175	89.56
456.395	88.56
456.616	76.56
456.836	72.56
457.056	87.56
457.276	81.56
457.497	81.56
457.717	87.56
457.937	72.56
458.157	80.56
458.377	91.56
458.598	112.56
458.818	163.56
459.038	173.56
459.258	122.56
459.478	104.56
459.698	99.56
459.918	94.56
460.138	87.56
460.358	84.56
460.578	94.56
460.798	97.56
461.018	99.56
461.238	99.56
461.458	86.56
461.678	88.56
461.898	76.56
462.118	90.56
462.338	90.56
462.558	83.56
462.777	85.56
462.997	92.56
463.217	85.56
463.437	72.56
463.657	91.56
463.876	110.56
464.096	91.56
464.316	90.56
464.536	88.56
464.755	103.56
464.975	118.56
465.195	171.56
465.414	170.56
465.634	100.56
465.854	99.56
466.073	103.56
466.293	84.56
466.512	90.56
466.732	82.56
466.951	87.56
467.171	76.56
467.391	94.56
467.61	111.56
467.829	117.56
468.049	149.56
468.268	188.56
468.488	112.56
468.707	86.56
468.927	85.56
469.146	87.56
469.365	102.56
469.585	105.56
469.804	106.56
470.023	104.56
470.243	90.56
470.462	100.56
470.681	104.56
470.901	93.56
471.12	78.56
471.339	81.56
471.558	77.56
471.777	102.56
471.997	112.56
472.216	241.56
472.435	400.56
472.654	155.56
472.873	97.56
473.092	105.56
473.311	93.56
473.53	93.56
473.749	100.56
473.968	73.56
474.187	110.56
474.406	92.56
474.625	78.56
474.844	89.56
475.063	87.56
475.282	84.56
475.501	98.56
475.72	84.56
475.939	87.56
476.158	88.56
476.377	97.56
476.596	71.56
476.814	81.56
477.033	83.56
477.252	90.56
477.471	101.56
477.69	93.56
477.908	95.56
478.127	100.56
478.346	74.56
478.564	89.56
478.783	92.56
479.002	89.56
479.22	101.56
479.439	100.56
479.658	124.56
479.876	103.56
480.095	108.56
480.313	104.56
480.532	105.56
480.751	116.56
480.969	232.56
481.188	681.56
481.406	464.56
481.624	129.56
481.843	109.56
482.061	102.56
482.28	81.56
482.498	92.56
482.717	103.56
482.935	89.56
483.153	97.56
483.372	101.56
483.59	96.56
483.808	81.56
484.027	93.56
484.245	100.56
484.463	101.56
484.681	108.56
484.9	90.56
485.118	92.56
485.336	81.56
485.554	96.56
485.772	92.56
485.99	99.56
486.209	92.56
486.427	105.56
486.645	109.56
486.863	105.56
487.081	116.56
487.299	95.56
487.517	100.56
487.735	87.56
487.953	87.56
488.171	100.56
488.389	103.56
488.607	103.56
488.825	92.56
489.043	89.56
489.261	100.56
489.479	89.56
489.696	89.56
489.914	82.56
490.132	91.56
490.35	106.56
490.568	89.56
490.786	96.56
491.003	81.56
491.221	90.56
491.439	97.56
491.657	84.56
491.874	90.56
492.092	90.56
492.31	93.56
492.527	89.56
492.745	76.56
492.963	92.56
493.18	89.56
493.398	97.56
493.615	93.56
493.833	92.56
494.05	81.56
494.268	88.56
494.485	91.56
494.703	93.56
494.92	93.56
495.138	96.56
495.355	71.56
495.573	76.56
495.79	83.56
496.008	92.56
496.225	90.56
496.442	98.56
496.66	84.56
496.877	98.56
497.094	101.56
497.312	96.56
497.529	99.56
497.746	81.56
497.963	90.56
498.181	99.56
498.398	104.56
498.615	105.56
498.832	118.56
499.049	91.56
499.267	103.56
499.484	96.56
499.701	99.56
499.918	82.56
500.135	94.56
500.352	95.56
500.569	99.56
500.786	86.56
501.003	96.56
501.22	108.56
501.437	96.56
501.654	99.56
501.871	103.56
502.088	98.56
502.305	103.56
502.522	100.56
502.739	87.56
502.956	95.56
503.172	91.56
503.389	98.56
503.606	120.56
503.823	105.56
504.04	91.56
504.256	102.56
504.473	80.56
504.69	85.56
504.907	97.56
505.123	91.56
505.34	85.56
505.557	104.56
505.773	91.56
505.99	80.56
506.207	92.56
506.423	91.56
506.64	103.56
506.856	103.56
507.073	97.56
507.289	94.56
507.506	86.56
507.722	115.56
507.939	129.56
508.155	85.56
508.372	89.56
508.588	103.56
508.805	106.56
509.021	104.56
509.238	110.56
509.454	96.56
509.67	97.56
509.887	123.56
510.103	134.56
510.319	216.56
510.536	768.56
510.752	2548.56
510.968	751.56
511.184	155.56
511.401	106.56
511.617	106.56
511.833	80.56
512.049	83.56
512.265	91.56
512.481	95.56
512.698	101.56
512.914	96.56
513.13	97.56
513.346	102.56
513.562	103.56
513.778	87.56
513.994	109.56
514.21	96.56
