Data from Circ_2014_H10_HRD10591_00020.txt Node
Date: Wed Jan 03 10:02:13 EST 2024
User: Yrep
Spectrometer: HR+D1059
Trigger mode: 1
Integration Time (sec): 1.000000E-1
Scans to average: 1
Electric dark correction enabled: true
Nonlinearity correction enabled: false
Boxcar width: 0
XAxis mode: Wavelengths
Number of Pixels in Spectrum: 2048
>>>>>Begin Spectral Data<<<<<
223.165	-17
223.4	-17
223.635	-17
223.869	-20
224.104	-22
224.338	-12
224.573	-5
224.808	-14
225.042	-17
225.277	-14
225.511	-6
225.746	12
225.98	10
226.215	16
226.449	12
226.683	14
226.918	32
227.152	31
227.387	28
227.621	52
227.856	56
228.09	55
228.324	49
228.559	44
228.793	69
229.027	58
229.262	60
229.496	63
229.73	92
229.964	76
230.199	71
230.433	77
230.667	66
230.901	74
231.136	80
231.37	92
231.604	76
231.838	79
232.072	69
232.306	84
232.541	84
232.775	86
233.009	93
233.243	80
233.477	72
233.711	86
233.945	97
234.179	82
234.413	87
234.647	80
234.881	75
235.115	79
235.349	80
235.583	85
235.817	81
236.051	85
236.285	76
236.519	81
236.753	89
236.987	88
237.221	93
237.455	96
237.689	81
237.922	85
238.156	84
238.39	78
238.624	68
238.858	98
239.091	83
239.325	100
239.559	75
239.793	74
240.027	79
240.26	92
240.494	94
240.728	65
240.961	73
241.195	95
241.429	76
241.662	84
241.896	65
242.13	77
242.363	91
242.597	80
242.83	72
243.064	72
243.298	82
243.531	89
243.765	84
243.998	72
244.232	75
244.465	86
244.699	86
244.932	88
245.166	87
245.399	71
245.633	79
245.866	77
246.099	76
246.333	82
246.566	82
246.8	80
247.033	72
247.266	70
247.5	82
247.733	66
247.966	74
248.2	71
248.433	81
248.666	70
248.899	97
249.133	81
249.366	109
249.599	105
249.832	85
250.066	90
250.299	85
250.532	93
250.765	85
250.998	89
251.231	88
251.465	76
251.698	89
251.931	83
252.164	79
252.397	77
252.63	86
252.863	80
253.096	93
253.329	79
253.562	98
253.795	84
254.028	80
254.261	82
254.494	84
254.727	98
254.96	90
255.193	101
255.426	75
255.659	67
255.892	71
256.124	85
256.357	76
256.59	87
256.823	75
257.056	75
257.289	85
257.521	81
257.754	91
257.987	92
258.22	85
258.452	81
258.685	77
258.918	91
259.151	98
259.383	94
259.616	88
259.849	88
260.081	89
260.314	92
260.547	72
260.779	95
261.012	92
261.244	85
261.477	86
261.71	97
261.942	124
262.175	141
262.407	92
262.64	81
262.872	80
263.105	88
263.337	89
263.57	96
263.802	86
264.035	78
264.267	94
264.499	98
264.732	90
264.964	76
265.197	88
265.429	80
265.661	76
265.894	74
266.126	91
266.358	91
266.591	87
266.823	74
267.055	72
267.287	84
267.52	73
267.752	78
267.984	85
268.216	91
268.448	83
268.681	99
268.913	87
269.145	81
269.377	80
269.609	87
269.841	84
270.073	84
270.306	77
270.538	97
270.77	101
271.002	86
271.234	77
271.466	86
271.698	81
271.93	88
272.162	86
272.394	79
272.626	81
272.858	105
273.09	96
273.322	81
273.553	82
273.785	82
274.017	87
274.249	77
274.481	83
274.713	82
274.945	81
275.176	82
275.408	91
275.64	87
275.872	97
276.104	100
276.335	95
276.567	98
276.799	119
277.031	107
277.262	91
277.494	88
277.726	97
277.957	95
278.189	93
278.421	86
278.652	86
278.884	86
279.115	98
279.347	94
279.579	87
279.81	83
280.042	89
280.273	86
280.505	85
280.736	97
280.968	100
281.199	88
281.431	95
281.662	91
281.894	91
282.125	124
282.356	132
282.588	145
282.819	117
283.051	88
283.282	83
283.513	84
283.745	74
283.976	80
284.207	103
284.439	86
284.67	98
284.901	81
285.132	90
285.364	84
285.595	89
285.826	102
286.057	95
286.288	86
286.52	93
286.751	84
286.982	87
287.213	93
287.444	82
287.675	88
287.906	82
288.138	91
288.369	92
288.6	95
288.831	103
289.062	75
289.293	82
289.524	87
289.755	88
289.986	97
290.217	98
290.448	86
290.679	90
290.91	85
291.141	87
291.371	88
291.602	103
291.833	97
292.064	92
292.295	105
292.526	84
292.757	102
292.987	105
293.218	80
293.449	85
293.68	92
293.91	91
294.141	89
294.372	101
294.603	105
294.833	107
295.064	105
295.295	92
295.525	93
295.756	106
295.987	112
296.217	151
296.448	141
296.679	104
296.909	103
297.14	80
297.37	74
297.601	93
297.831	90
298.062	107
298.292	92
298.523	98
298.753	89
298.984	86
299.214	99
299.445	98
299.675	95
299.905	114
300.136	88
300.366	97
300.597	86
300.827	97
301.057	113
301.288	119
301.518	88
301.748	100
301.979	105
302.209	101
302.439	92
302.669	79
302.9	88
303.13	86
303.36	109
303.59	108
303.82	113
304.051	102
304.281	100
304.511	89
304.741	100
304.971	76
305.201	100
305.431	84
305.661	98
305.891	97
306.121	103
306.352	109
306.582	109
306.812	104
307.042	94
307.272	94
307.502	98
307.731	100
307.961	88
308.191	93
308.421	95
308.651	108
308.881	95
309.111	105
309.341	111
309.571	98
309.8	91
310.03	96
310.26	111
310.49	95
310.72	98
310.949	102
311.179	114
311.409	92
311.639	93
311.868	102
312.098	103
312.328	118
312.557	116
312.787	110
313.017	103
313.246	100
313.476	97
313.706	94
313.935	107
314.165	108
314.394	99
314.624	118
314.853	94
315.083	81
315.312	87
315.542	89
315.771	109
316.001	92
316.23	105
316.46	92
316.689	108
316.919	81
317.148	88
317.377	109
317.607	102
317.836	90
318.065	89
318.295	87
318.524	93
318.753	95
318.983	113
319.212	92
319.441	116
319.67	113
319.9	97
320.129	90
320.358	87
320.587	103
320.816	101
321.046	106
321.275	112
321.504	94
321.733	98
321.962	106
322.191	110
322.42	96
322.649	107
322.878	114
323.108	112
323.337	132
323.566	141
323.795	166
324.024	222
324.253	420
324.482	896
324.71	1842
324.939	2393
325.168	894
325.397	276
325.626	146
325.855	129
326.084	143
326.313	140
326.542	162
326.77	258
326.999	480
327.228	1013
327.457	1855
327.686	1435
327.914	406
328.143	215
328.372	156
328.6	123
328.829	121
329.058	138
329.287	130
329.515	125
329.744	107
329.972	109
330.201	103
330.43	129
330.658	111
330.887	152
331.115	129
331.344	103
331.572	119
331.801	110
332.03	106
332.258	107
332.486	101
332.715	98
332.943	109
333.172	103
333.4	105
333.629	104
333.857	123
334.085	118
334.314	106
334.542	123
334.771	119
334.999	108
335.227	102
335.455	106
335.684	110
335.912	102
336.14	105
336.369	105
336.597	104
336.825	111
337.053	102
337.281	86
337.51	116
337.738	106
337.966	112
338.194	105
338.422	103
338.65	85
338.878	87
339.106	93
339.334	88
339.562	98
339.79	94
340.018	88
340.246	90
340.474	102
340.702	91
340.93	100
341.158	94
341.386	88
341.614	107
341.842	96
342.07	90
342.298	101
342.526	113
342.754	82
342.981	94
343.209	86
343.437	100
343.665	89
343.893	82
344.12	114
344.348	89
344.576	97
344.804	90
345.031	104
345.259	105
345.487	108
345.714	93
345.942	95
346.17	82
346.397	114
346.625	96
346.853	76
347.08	95
347.308	101
347.535	105
347.763	95
347.99	113
348.218	111
348.445	109
348.673	112
348.9	117
349.128	78
349.355	88
349.583	94
349.81	90
350.037	89
350.265	86
350.492	102
350.72	105
350.947	86
351.174	123
351.402	122
351.629	120
351.856	107
352.083	105
352.311	92
352.538	116
352.765	107
352.992	98
353.22	100
353.447	105
353.674	102
353.901	104
354.128	105
354.355	91
354.583	101
354.81	118
355.037	97
355.264	109
355.491	106
355.718	98
355.945	112
356.172	102
356.399	94
356.626	97
356.853	97
357.08	103
357.307	100
357.534	88
357.761	90
357.988	91
358.215	109
358.441	101
358.668	100
358.895	89
359.122	96
359.349	89
359.576	95
359.802	102
360.029	121
360.256	118
360.483	105
360.709	101
360.936	85
361.163	105
361.39	101
361.616	81
361.843	95
362.07	104
362.296	108
362.523	99
362.749	104
362.976	87
363.203	92
363.429	112
363.656	88
363.882	104
364.109	86
364.335	87
364.562	103
364.788	96
365.015	85
365.241	102
365.468	128
365.694	106
365.92	102
366.147	93
366.373	96
366.599	87
366.826	86
367.052	93
367.278	92
367.505	96
367.731	100
367.957	95
368.184	86
368.41	121
368.636	109
368.862	117
369.089	109
369.315	95
369.541	91
369.767	88
369.993	101
370.219	89
370.445	88
370.672	84
370.898	93
371.124	80
371.35	109
371.576	93
371.802	106
372.028	87
372.254	85
372.48	98
372.706	86
372.932	99
373.158	72
373.384	92
373.61	102
373.835	100
374.061	94
374.287	101
374.513	92
374.739	95
374.965	95
375.191	95
375.416	101
375.642	91
375.868	99
376.094	90
376.319	79
376.545	97
376.771	88
376.997	92
377.222	100
377.448	99
377.674	87
377.899	92
378.125	98
378.35	90
378.576	87
378.802	92
379.027	105
379.253	111
379.478	93
379.704	90
379.929	101
380.155	98
380.38	118
380.606	96
380.831	111
381.057	108
381.282	113
381.507	107
381.733	96
381.958	111
382.184	112
382.409	112
382.634	135
382.86	88
383.085	106
383.31	108
383.535	106
383.761	102
383.986	113
384.211	100
384.436	97
384.662	113
384.887	112
385.112	109
385.337	101
385.562	108
385.787	117
386.013	105
386.238	132
386.463	124
386.688	120
386.913	113
387.138	130
387.363	106
387.588	111
387.813	106
388.038	112
388.263	124
388.488	118
388.713	90
388.938	90
389.163	90
389.387	95
389.612	96
389.837	92
390.062	104
390.287	106
390.512	93
390.736	110
390.961	86
391.186	76
391.411	93
391.636	90
391.86	82
392.085	82
392.31	97
392.534	103
392.759	97
392.984	90
393.208	107
393.433	109
393.658	94
393.882	92
394.107	89
394.331	79
394.556	88
394.78	86
395.005	93
395.229	85
395.454	87
395.678	91
395.903	97
396.127	93
396.352	86
396.576	94
396.801	91
397.025	100
397.249	90
397.474	95
397.698	86
397.922	84
398.147	84
398.371	83
398.595	102
398.82	89
399.044	74
399.268	99
399.492	80
399.717	100
399.941	94
400.165	102
400.389	102
400.613	88
400.837	84
401.062	79
401.286	91
401.51	94
401.734	82
401.958	114
402.182	134
402.406	169
402.63	132
402.854	97
403.078	97
403.302	87
403.526	81
403.75	91
403.974	96
404.198	95
404.422	89
404.645	91
404.869	91
405.093	109
405.317	96
405.541	96
405.765	104
405.988	126
406.212	188
406.436	251
406.66	163
406.883	109
407.107	110
407.331	92
407.555	111
407.778	117
408.002	94
408.226	95
408.449	93
408.673	92
408.896	105
409.12	109
409.344	98
409.567	94
409.791	84
410.014	98
410.238	109
410.461	101
410.685	102
410.908	103
411.132	112
411.355	102
411.578	94
411.802	88
412.025	86
412.249	97
412.472	84
412.695	81
412.919	90
413.142	84
413.365	88
413.589	92
413.812	91
414.035	82
414.258	83
414.482	95
414.705	96
414.928	90
415.151	99
415.374	96
415.597	89
415.821	95
416.044	91
416.267	79
416.49	84
416.713	81
416.936	82
417.159	90
417.382	98
417.605	86
417.828	101
418.051	111
418.274	105
418.497	90
418.72	92
418.943	94
419.166	93
419.389	81
419.611	87
419.834	98
420.057	103
420.28	95
420.503	90
420.726	95
420.948	95
421.171	106
421.394	89
421.617	85
421.839	94
422.062	92
422.285	99
422.507	112
422.73	90
422.953	86
423.175	96
423.398	83
423.621	93
423.843	93
424.066	80
424.288	100
424.511	89
424.733	110
424.956	114
425.178	108
425.401	102
425.623	112
425.846	97
426.068	88
426.291	112
426.513	95
426.735	98
426.958	95
427.18	107
427.402	151
427.625	162
427.847	137
428.069	117
428.292	85
428.514	103
428.736	99
428.958	81
429.181	76
429.403	83
429.625	88
429.847	103
430.069	113
430.292	110
430.514	100
430.736	81
430.958	90
431.18	81
431.402	91
431.624	87
431.846	80
432.068	88
432.29	92
432.512	88
432.734	81
432.956	97
433.178	102
433.4	112
433.622	99
433.844	91
434.066	96
434.287	99
434.509	90
434.731	80
434.953	91
435.175	92
435.397	90
435.618	102
435.84	95
436.062	113
436.284	125
436.505	102
436.727	104
436.949	93
437.17	92
437.392	90
437.614	91
437.835	109
438.057	114
438.278	123
438.5	103
438.721	102
438.943	113
439.165	92
439.386	80
439.608	95
439.829	100
440.05	131
440.272	146
440.493	118
440.715	90
440.936	76
441.158	93
441.379	100
441.6	92
441.822	88
442.043	82
442.264	98
442.486	107
442.707	100
442.928	108
443.149	142
443.371	121
443.592	102
443.813	114
444.034	111
444.255	117
444.476	94
444.698	85
444.919	91
445.14	138
445.361	120
445.582	113
445.803	146
446.024	139
446.245	147
446.466	110
446.687	99
446.908	99
447.129	92
447.35	86
447.571	101
447.792	81
448.013	104
448.234	106
448.455	96
448.675	112
448.896	129
449.117	125
449.338	110
449.559	135
449.779	132
450	89
450.221	101
450.442	105
450.662	92
450.883	112
451.104	112
451.324	103
451.545	94
451.766	89
451.986	105
452.207	91
452.428	94
452.648	94
452.869	111
453.089	119
453.31	120
453.53	99
453.751	94
453.971	87
454.192	118
454.412	86
454.633	85
454.853	91
455.073	105
455.294	100
455.514	97
455.734	94
455.955	101
456.175	79
456.395	97
456.616	84
456.836	82
457.056	86
457.276	93
457.497	80
457.717	82
457.937	76
458.157	87
458.377	101
458.598	117
458.818	160
459.038	157
459.258	109
459.478	95
459.698	86
459.918	95
460.138	95
460.358	92
460.578	91
460.798	98
461.018	92
461.238	82
461.458	90
461.678	89
461.898	83
462.118	86
462.338	98
462.558	91
462.777	76
462.997	89
463.217	87
463.437	93
463.657	89
463.876	97
464.096	103
464.316	109
464.536	94
464.755	100
464.975	129
465.195	188
465.414	179
465.634	113
465.854	99
466.073	80
466.293	98
466.512	105
466.732	77
466.951	92
467.171	89
467.391	89
467.61	92
467.829	104
468.049	90
468.268	90
468.488	86
468.707	93
468.927	83
469.146	80
469.365	81
469.585	100
469.804	104
470.023	96
470.243	93
470.462	110
470.681	111
470.901	93
471.12	98
471.339	105
471.558	81
471.777	86
471.997	105
472.216	95
472.435	110
472.654	82
472.873	89
473.092	95
473.311	69
473.53	90
473.749	92
473.968	97
474.187	105
474.406	84
474.625	96
474.844	107
475.063	88
475.282	102
475.501	82
475.72	101
475.939	86
476.158	86
476.377	103
476.596	90
476.814	102
477.033	90
477.252	96
477.471	95
477.69	97
477.908	95
478.127	104
478.346	89
478.564	74
478.783	100
479.002	99
479.22	93
479.439	116
479.658	103
479.876	100
480.095	93
480.313	95
480.532	102
480.751	94
480.969	109
481.188	124
481.406	106
481.624	100
481.843	88
482.061	81
482.28	94
482.498	94
482.717	91
482.935	92
483.153	97
483.372	78
483.59	91
483.808	100
484.027	86
484.245	91
484.463	98
484.681	97
484.9	87
485.118	102
485.336	96
485.554	105
485.772	101
485.99	99
486.209	105
486.427	121
486.645	113
486.863	111
487.081	100
487.299	108
487.517	97
487.735	103
487.953	100
488.171	94
488.389	87
488.607	98
488.825	92
489.043	99
489.261	109
489.479	92
489.696	80
489.914	90
490.132	73
490.35	98
490.568	92
490.786	94
491.003	90
491.221	92
491.439	92
491.657	94
491.874	93
492.092	101
492.31	73
492.527	95
492.745	92
492.963	74
493.18	103
493.398	88
493.615	95
493.833	107
494.05	85
494.268	94
494.485	100
494.703	89
494.92	91
495.138	108
495.355	94
495.573	93
495.79	90
496.008	92
496.225	86
496.442	97
496.66	89
496.877	83
497.094	95
497.312	93
497.529	107
497.746	111
497.963	86
498.181	85
498.398	96
498.615	118
498.832	100
499.049	88
499.267	91
499.484	77
499.701	97
499.918	89
500.135	82
500.352	103
500.569	92
500.786	70
501.003	83
501.22	97
501.437	85
501.654	93
501.871	101
502.088	94
502.305	89
502.522	92
502.739	99
502.956	100
503.172	92
503.389	87
503.606	93
503.823	104
504.04	85
504.256	92
504.473	94
504.69	101
504.907	92
505.123	98
505.34	106
505.557	102
505.773	97
505.99	84
506.207	84
506.423	94
506.64	99
506.856	98
507.073	78
507.289	101
507.506	100
507.722	118
507.939	121
508.155	105
508.372	110
508.588	107
508.805	94
509.021	109
509.238	92
509.454	103
509.67	107
509.887	112
510.103	137
510.319	225
510.536	823
510.752	2784
510.968	802
511.184	156
511.401	113
511.617	104
511.833	90
512.049	90
512.265	81
512.481	90
512.698	83
512.914	81
513.13	101
513.346	105
513.562	95
513.778	97
513.994	111
514.21	111
514.426	124
514.642	152
514.858	129
515.074	200
515.29	491
515.506	1722
515.721	657
515.937	171
516.153	126
516.369	112
516.585	101
516.801	86
517.016	95
517.232	102
517.448	86
517.664	96
517.879	93
518.095	102
518.311	92
518.527	97
518.742	94
518.958	92
519.173	94
519.389	80
519.605	108
519.82	109
520.036	105
520.251	140
520.467	111
520.682	112
520.898	113
521.113	126
521.329	167
521.544	221
521.76	632
521.975	2876
522.19	1823
522.406	388
522.621	136
522.836	113
523.052	96
523.267	101
523.482	100
523.698	108
523.913	139
524.128	117
524.343	102
524.559	89
524.774	85
524.989	96
525.204	110
525.419	104
525.634	104
525.849	81
526.064	102
526.28	97
526.495	93
526.71	90
526.925	98
527.14	97
527.355	95
527.57	88
527.785	81
527.999	98
528.214	113
528.429	91
528.644	75
528.859	90
529.074	98
529.289	133
529.503	204
529.718	130
529.933	89
530.148	88
530.363	81
530.577	107
530.792	93
531.007	92
531.221	111
531.436	103
531.651	103
531.865	93
532.08	97
532.295	91
532.509	93
532.724	95
532.938	89
533.153	93
533.367	96
533.582	109
533.796	101
534.011	89
534.225	88
534.44	103
534.654	92
534.868	98
535.083	98
535.297	94
535.511	103
535.726	100
535.94	109
536.154	97
536.369	97
536.583	100
536.797	94
537.011	96
537.225	87
537.44	86
537.654	99
537.868	96
538.082	96
538.296	102
538.51	92
538.724	94
538.938	98
539.153	90
539.367	107
539.581	94
539.795	88
540.009	92
540.222	101
540.436	85
540.65	88
540.864	98
541.078	91
541.292	100
541.506	100
541.72	86
541.934	100
542.147	81
542.361	94
542.575	96
542.789	98
543.002	91
543.216	94
543.43	101
543.644	86
543.857	86
544.071	83
544.285	91
544.498	83
544.712	92
544.925	98
545.139	100
545.352	90
545.566	96
545.779	92
545.993	97
546.206	95
546.42	89
546.633	85
546.847	100
547.06	84
547.274	82
547.487	95
547.7	88
547.914	93
548.127	85
548.34	89
548.554	85
548.767	90
548.98	87
549.193	87
549.407	84
549.62	78
549.833	88
550.046	77
550.259	95
550.473	92
550.686	103
550.899	78
551.112	90
551.325	102
551.538	89
551.751	86
551.964	86
552.177	86
552.39	96
552.603	98
552.816	100
553.029	94
553.242	95
553.455	110
553.667	96
553.88	94
554.093	90
554.306	101
554.519	89
554.732	81
554.944	79
555.157	103
555.37	99
555.583	86
555.795	82
556.008	89
556.221	82
556.433	87
556.646	87
556.859	89
557.071	92
557.284	101
557.496	89
557.709	86
557.921	105
558.134	70
558.346	97
558.559	89
558.771	92
558.984	92
559.196	89
559.409	100
559.621	95
559.833	85
560.046	114
560.258	92
560.47	89
560.683	100
560.895	91
561.107	100
561.32	81
561.532	87
561.744	102
561.956	100
562.168	95
562.381	88
562.593	88
562.805	94
563.017	97
563.229	90
563.441	86
563.653	92
563.865	88
564.077	88
564.289	101
564.501	98
564.713	88
564.925	81
565.137	97
565.349	83
565.561	87
565.773	95
565.985	88
566.197	74
566.408	81
566.62	82
566.832	86
567.044	92
567.255	87
567.467	96
567.679	88
567.891	83
568.102	88
568.314	99
568.526	88
568.737	111
568.949	87
569.161	94
569.372	92
569.584	82
569.795	108
570.007	128
570.218	255
570.43	148
570.641	78
570.853	82
571.064	94
571.276	88
571.487	88
571.698	91
571.91	81
572.121	93
572.333	86
572.544	93
572.755	94
572.966	93
573.178	81
573.389	90
573.6	96
573.811	94
574.023	88
574.234	97
574.445	80
574.656	79
574.867	85
575.078	99
575.289	89
575.501	96
575.712	85
575.923	88
576.134	90
576.345	96
576.556	101
576.767	89
576.978	103
577.188	92
577.399	103
577.61	98
577.821	104
578.032	132
578.243	304
578.454	925
578.665	260
578.875	104
579.086	100
579.297	91
579.508	99
579.718	81
579.929	84
580.14	79
580.35	81
580.561	89
580.772	89
580.982	90
