Data from Circ_2014_H10_HRD10591_00063.txt Node
Date: Wed Jan 03 10:02:21 EST 2024
User: Yrep
Spectrometer: HR+D1059
Trigger mode: 1
Integration Time (sec): 1.000000E-1
Scans to average: 1
Electric dark correction enabled: true
Nonlinearity correction enabled: false
Boxcar width: 0
XAxis mode: Wavelengths
Number of Pixels in Spectrum: 2048
>>>>>Begin Spectral Data<<<<<
223.165	-16.31
223.4	-16.31
223.635	-16.31
223.869	-12.31
224.104	-23.31
224.338	-23.31
224.573	-8.31
224.808	-10.31
225.042	-7.31
225.277	-2.31
225.511	-12.31
225.746	10.69
225.98	11.69
226.215	-1.31
226.449	24.69
226.683	19.69
226.918	26.69
227.152	23.69
227.387	33.69
227.621	20.69
227.856	51.69
228.09	58.69
228.324	50.69
228.559	65.69
228.793	47.69
229.027	72.69
229.262	65.69
229.496	71.69
229.73	74.69
229.964	72.69
230.199	61.69
230.433	69.69
230.667	63.69
230.901	81.69
231.136	99.69
231.37	69.69
231.604	79.69
231.838	74.69
232.072	80.69
232.306	87.69
232.541	79.69
232.775	82.69
233.009	80.69
233.243	78.69
233.477	78.69
233.711	70.69
233.945	88.69
234.179	82.69
234.413	90.69
234.647	70.69
234.881	87.69
235.115	82.69
235.349	73.69
235.583	71.69
235.817	69.69
236.051	82.69
236.285	84.69
236.519	79.69
236.753	70.69
236.987	77.69
237.221	95.69
237.455	80.69
237.689	83.69
237.922	76.69
238.156	73.69
238.39	88.69
238.624	66.69
238.858	76.69
239.091	85.69
239.325	76.69
239.559	84.69
239.793	88.69
240.027	81.69
240.26	65.69
240.494	76.69
240.728	72.69
240.961	79.69
241.195	75.69
241.429	88.69
241.662	75.69
241.896	51.69
242.13	75.69
242.363	74.69
242.597	74.69
242.83	58.69
243.064	79.69
243.298	82.69
243.531	73.69
243.765	78.69
243.998	75.69
244.232	82.69
244.465	87.69
244.699	84.69
244.932	81.69
245.166	77.69
245.399	70.69
245.633	76.69
245.866	88.69
246.099	71.69
246.333	75.69
246.566	83.69
246.8	80.69
247.033	83.69
247.266	74.69
247.5	83.69
247.733	79.69
247.966	84.69
248.2	74.69
248.433	81.69
248.666	75.69
248.899	72.69
249.133	85.69
249.366	98.69
249.599	106.69
249.832	76.69
250.066	79.69
250.299	71.69
250.532	77.69
250.765	78.69
250.998	71.69
251.231	84.69
251.465	81.69
251.698	83.69
251.931	82.69
252.164	67.69
252.397	77.69
252.63	77.69
252.863	79.69
253.096	77.69
253.329	91.69
253.562	89.69
253.795	85.69
254.028	88.69
254.261	82.69
254.494	74.69
254.727	80.69
254.96	86.69
255.193	77.69
255.426	73.69
255.659	69.69
255.892	81.69
256.124	78.69
256.357	72.69
256.59	82.69
256.823	75.69
257.056	89.69
257.289	75.69
257.521	92.69
257.754	73.69
257.987	88.69
258.22	88.69
258.452	80.69
258.685	93.69
258.918	79.69
259.151	81.69
259.383	75.69
259.616	77.69
259.849	84.69
260.081	82.69
260.314	75.69
260.547	70.69
260.779	69.69
261.012	76.69
261.244	81.69
261.477	88.69
261.71	73.69
261.942	124.69
262.175	121.69
262.407	89.69
262.64	76.69
262.872	81.69
263.105	84.69
263.337	84.69
263.57	80.69
263.802	75.69
264.035	71.69
264.267	67.69
264.499	80.69
264.732	76.69
264.964	88.69
265.197	92.69
265.429	89.69
265.661	72.69
265.894	87.69
266.126	84.69
266.358	68.69
266.591	88.69
266.823	85.69
267.055	80.69
267.287	73.69
267.52	83.69
267.752	84.69
267.984	77.69
268.216	87.69
268.448	83.69
268.681	75.69
268.913	88.69
269.145	75.69
269.377	96.69
269.609	90.69
269.841	74.69
270.073	84.69
270.306	83.69
270.538	94.69
270.77	75.69
271.002	81.69
271.234	82.69
271.466	86.69
271.698	88.69
271.93	96.69
272.162	76.69
272.394	79.69
272.626	92.69
272.858	73.69
273.09	83.69
273.322	77.69
273.553	78.69
273.785	90.69
274.017	81.69
274.249	73.69
274.481	82.69
274.713	87.69
274.945	83.69
275.176	82.69
275.408	90.69
275.64	88.69
275.872	82.69
276.104	87.69
276.335	80.69
276.567	96.69
276.799	111.69
277.031	105.69
277.262	91.69
277.494	95.69
277.726	85.69
277.957	82.69
278.189	78.69
278.421	86.69
278.652	85.69
278.884	76.69
279.115	72.69
279.347	80.69
279.579	88.69
279.81	85.69
280.042	74.69
280.273	102.69
280.505	87.69
280.736	90.69
280.968	104.69
281.199	83.69
281.431	86.69
281.662	72.69
281.894	85.69
282.125	85.69
282.356	121.69
282.588	148.69
282.819	115.69
283.051	92.69
283.282	75.69
283.513	94.69
283.745	78.69
283.976	79.69
284.207	92.69
284.439	89.69
284.67	89.69
284.901	87.69
285.132	92.69
285.364	89.69
285.595	80.69
285.826	85.69
286.057	85.69
286.288	83.69
286.52	89.69
286.751	82.69
286.982	88.69
287.213	80.69
287.444	93.69
287.675	97.69
287.906	85.69
288.138	89.69
288.369	96.69
288.6	101.69
288.831	76.69
289.062	79.69
289.293	97.69
289.524	87.69
289.755	91.69
289.986	74.69
290.217	81.69
290.448	81.69
290.679	88.69
290.91	74.69
291.141	72.69
291.371	78.69
291.602	77.69
291.833	79.69
292.064	82.69
292.295	96.69
292.526	91.69
292.757	100.69
292.987	88.69
293.218	83.69
293.449	83.69
293.68	80.69
293.91	81.69
294.141	87.69
294.372	71.69
294.603	85.69
294.833	82.69
295.064	92.69
295.295	82.69
295.525	95.69
295.756	100.69
295.987	115.69
296.217	139.69
296.448	132.69
296.679	98.69
296.909	92.69
297.14	88.69
297.37	88.69
297.601	93.69
297.831	82.69
298.062	92.69
298.292	79.69
298.523	67.69
298.753	73.69
298.984	71.69
299.214	83.69
299.445	92.69
299.675	86.69
299.905	89.69
300.136	80.69
300.366	100.69
300.597	83.69
300.827	95.69
301.057	96.69
301.288	91.69
301.518	77.69
301.748	88.69
301.979	106.69
302.209	103.69
302.439	95.69
302.669	85.69
302.9	82.69
303.13	97.69
303.36	88.69
303.59	93.69
303.82	93.69
304.051	88.69
304.281	84.69
304.511	83.69
304.741	100.69
304.971	97.69
305.201	96.69
305.431	85.69
305.661	78.69
305.891	79.69
306.121	102.69
306.352	101.69
306.582	99.69
306.812	98.69
307.042	105.69
307.272	100.69
307.502	104.69
307.731	79.69
307.961	92.69
308.191	84.69
308.421	97.69
308.651	91.69
308.881	93.69
309.111	104.69
309.341	86.69
309.571	121.69
309.8	100.69
310.03	92.69
310.26	90.69
310.49	91.69
310.72	92.69
310.949	102.69
311.179	94.69
311.409	95.69
311.639	80.69
311.868	88.69
312.098	75.69
312.328	90.69
312.557	113.69
312.787	110.69
313.017	105.69
313.246	96.69
313.476	91.69
313.706	88.69
313.935	89.69
314.165	103.69
314.394	106.69
314.624	88.69
314.853	98.69
315.083	91.69
315.312	89.69
315.542	91.69
315.771	87.69
316.001	85.69
316.23	88.69
316.46	102.69
316.689	80.69
316.919	85.69
317.148	92.69
317.377	92.69
317.607	85.69
317.836	104.69
318.065	83.69
318.295	93.69
318.524	80.69
318.753	102.69
318.983	80.69
319.212	115.69
319.441	102.69
319.67	97.69
319.9	81.69
320.129	90.69
320.358	97.69
320.587	98.69
320.816	82.69
321.046	96.69
321.275	100.69
321.504	82.69
321.733	84.69
321.962	92.69
322.191	111.69
322.42	95.69
322.649	111.69
322.878	110.69
323.108	116.69
323.337	118.69
323.566	108.69
323.795	138.69
324.024	191.69
324.253	384.69
324.482	780.69
324.71	1576.69
324.939	2106.69
325.168	793.69
325.397	234.69
325.626	147.69
325.855	120.69
326.084	119.69
326.313	121.69
326.542	142.69
326.77	229.69
326.999	426.69
327.228	855.69
327.457	1557.69
327.686	1259.69
327.914	363.69
328.143	221.69
328.372	165.69
328.6	140.69
328.829	123.69
329.058	122.69
329.287	123.69
329.515	115.69
329.744	115.69
329.972	99.69
330.201	144.69
330.43	165.69
330.658	160.69
330.887	143.69
331.115	115.69
331.344	105.69
331.572	89.69
331.801	96.69
332.03	98.69
332.258	90.69
332.486	89.69
332.715	86.69
332.943	90.69
333.172	82.69
333.4	107.69
333.629	87.69
333.857	105.69
334.085	122.69
334.314	127.69
334.542	184.69
334.771	185.69
334.999	114.69
335.227	95.69
335.455	95.69
335.684	92.69
335.912	91.69
336.14	89.69
336.369	87.69
336.597	108.69
336.825	106.69
337.053	88.69
337.281	82.69
337.51	96.69
337.738	80.69
337.966	96.69
338.194	102.69
338.422	95.69
338.65	97.69
338.878	100.69
339.106	92.69
339.334	85.69
339.562	97.69
339.79	86.69
340.018	84.69
340.246	105.69
340.474	98.69
340.702	97.69
340.93	83.69
341.158	98.69
341.386	82.69
341.614	92.69
341.842	89.69
342.07	86.69
342.298	75.69
342.526	78.69
342.754	85.69
342.981	78.69
343.209	82.69
343.437	100.69
343.665	90.69
343.893	85.69
344.12	97.69
344.348	96.69
344.576	90.69
344.804	104.69
345.031	89.69
345.259	104.69
345.487	90.69
345.714	97.69
345.942	106.69
346.17	84.69
346.397	79.69
346.625	93.69
346.853	95.69
347.08	81.69
347.308	86.69
347.535	100.69
347.763	93.69
347.99	92.69
348.218	121.69
348.445	100.69
348.673	101.69
348.9	83.69
349.128	84.69
349.355	90.69
349.583	87.69
349.81	100.69
350.037	91.69
350.265	98.69
350.492	102.69
350.72	87.69
350.947	91.69
351.174	98.69
351.402	104.69
351.629	105.69
351.856	99.69
352.083	104.69
352.311	107.69
352.538	103.69
352.765	94.69
352.992	119.69
353.22	122.69
353.447	100.69
353.674	102.69
353.901	85.69
354.128	95.69
354.355	100.69
354.583	103.69
354.81	82.69
355.037	95.69
355.264	100.69
355.491	88.69
355.718	88.69
355.945	98.69
356.172	92.69
356.399	91.69
356.626	111.69
356.853	85.69
357.08	92.69
357.307	81.69
357.534	84.69
357.761	79.69
357.988	87.69
358.215	82.69
358.441	87.69
358.668	82.69
358.895	88.69
359.122	88.69
359.349	98.69
359.576	101.69
359.802	99.69
360.029	117.69
360.256	121.69
360.483	97.69
360.709	90.69
360.936	85.69
361.163	84.69
361.39	92.69
361.616	96.69
361.843	96.69
362.07	91.69
362.296	103.69
362.523	86.69
362.749	84.69
362.976	84.69
363.203	82.69
363.429	90.69
363.656	83.69
363.882	87.69
364.109	90.69
364.335	76.69
364.562	87.69
364.788	92.69
365.015	106.69
365.241	102.69
365.468	104.69
365.694	108.69
365.92	95.69
366.147	75.69
366.373	89.69
366.599	92.69
366.826	87.69
367.052	91.69
367.278	98.69
367.505	86.69
367.731	91.69
367.957	89.69
368.184	97.69
368.41	103.69
368.636	113.69
368.862	131.69
369.089	109.69
369.315	105.69
369.541	82.69
369.767	96.69
369.993	93.69
370.219	71.69
370.445	88.69
370.672	94.69
370.898	78.69
371.124	82.69
371.35	88.69
371.576	84.69
371.802	92.69
372.028	90.69
372.254	79.69
372.48	85.69
372.706	94.69
372.932	85.69
373.158	89.69
373.384	95.69
373.61	96.69
373.835	91.69
374.061	103.69
374.287	106.69
374.513	77.69
374.739	83.69
374.965	95.69
375.191	96.69
375.416	87.69
375.642	86.69
375.868	82.69
376.094	98.69
376.319	82.69
376.545	103.69
376.771	95.69
376.997	86.69
377.222	90.69
377.448	77.69
377.674	82.69
377.899	77.69
378.125	87.69
378.35	105.69
378.576	96.69
378.802	98.69
379.027	92.69
379.253	98.69
379.478	99.69
379.704	84.69
379.929	72.69
380.155	93.69
380.38	90.69
380.606	89.69
380.831	100.69
381.057	106.69
381.282	99.69
381.507	102.69
381.733	90.69
381.958	89.69
382.184	105.69
382.409	98.69
382.634	88.69
382.86	94.69
383.085	98.69
383.31	91.69
383.535	98.69
383.761	102.69
383.986	93.69
384.211	100.69
384.436	109.69
384.662	107.69
384.887	120.69
385.112	105.69
385.337	106.69
385.562	86.69
385.787	111.69
386.013	118.69
386.238	119.69
386.463	107.69
386.688	114.69
386.913	112.69
387.138	99.69
387.363	104.69
387.588	96.69
387.813	90.69
388.038	100.69
388.263	104.69
388.488	98.69
388.713	95.69
388.938	87.69
389.163	88.69
389.387	84.69
389.612	84.69
389.837	87.69
390.062	80.69
390.287	85.69
390.512	85.69
390.736	107.69
390.961	93.69
391.186	102.69
391.411	94.69
391.636	84.69
391.86	96.69
392.085	81.69
392.31	77.69
392.534	80.69
392.759	86.69
392.984	75.69
393.208	78.69
393.433	92.69
393.658	88.69
393.882	90.69
394.107	85.69
394.331	86.69
394.556	95.69
394.78	83.69
395.005	85.69
395.229	69.69
395.454	88.69
395.678	97.69
395.903	86.69
396.127	90.69
396.352	81.69
396.576	83.69
396.801	86.69
397.025	85.69
397.249	87.69
397.474	96.69
397.698	97.69
397.922	83.69
398.147	97.69
398.371	88.69
398.595	88.69
398.82	74.69
399.044	74.69
399.268	90.69
399.492	96.69
399.717	84.69
399.941	81.69
400.165	93.69
400.389	84.69
400.613	86.69
400.837	87.69
401.062	90.69
401.286	91.69
401.51	96.69
401.734	82.69
401.958	93.69
402.182	115.69
402.406	176.69
402.63	131.69
402.854	92.69
403.078	94.69
403.302	80.69
403.526	90.69
403.75	84.69
403.974	80.69
404.198	91.69
404.422	72.69
404.645	80.69
404.869	86.69
405.093	91.69
405.317	93.69
405.541	88.69
405.765	112.69
405.988	127.69
406.212	178.69
406.436	256.69
406.66	162.69
406.883	106.69
407.107	89.69
407.331	91.69
407.555	92.69
407.778	89.69
408.002	95.69
408.226	88.69
408.449	101.69
408.673	96.69
408.896	82.69
409.12	91.69
409.344	87.69
409.567	83.69
409.791	85.69
410.014	94.69
410.238	75.69
410.461	84.69
410.685	95.69
410.908	90.69
411.132	84.69
411.355	96.69
411.578	94.69
411.802	81.69
412.025	89.69
412.249	88.69
412.472	77.69
412.695	95.69
412.919	78.69
413.142	89.69
413.365	89.69
413.589	77.69
413.812	71.69
414.035	98.69
414.258	83.69
414.482	81.69
414.705	86.69
414.928	89.69
415.151	91.69
415.374	89.69
415.597	90.69
415.821	77.69
416.044	91.69
416.267	75.69
416.49	68.69
416.713	99.69
416.936	93.69
417.159	83.69
417.382	92.69
417.605	79.69
417.828	91.69
418.051	99.69
418.274	80.69
418.497	75.69
418.72	90.69
418.943	92.69
419.166	80.69
419.389	90.69
419.611	80.69
419.834	76.69
420.057	80.69
420.28	86.69
420.503	84.69
420.726	83.69
420.948	81.69
421.171	100.69
421.394	107.69
421.617	83.69
421.839	80.69
422.062	89.69
422.285	88.69
422.507	88.69
422.73	114.69
422.953	95.69
423.175	82.69
423.398	85.69
423.621	82.69
423.843	82.69
424.066	83.69
424.288	77.69
424.511	85.69
424.733	86.69
424.956	108.69
425.178	87.69
425.401	77.69
425.623	98.69
425.846	96.69
426.068	90.69
426.291	88.69
426.513	100.69
426.735	91.69
426.958	100.69
427.18	100.69
427.402	134.69
427.625	160.69
427.847	134.69
428.069	112.69
428.292	82.69
428.514	86.69
428.736	88.69
428.958	89.69
429.181	81.69
429.403	94.69
429.625	83.69
429.847	100.69
430.069	90.69
430.292	103.69
430.514	95.69
430.736	85.69
430.958	77.69
431.18	82.69
431.402	79.69
431.624	69.69
431.846	89.69
432.068	83.69
432.29	78.69
432.512	90.69
432.734	88.69
432.956	102.69
433.178	113.69
433.4	87.69
433.622	71.69
433.844	91.69
434.066	81.69
434.287	91.69
434.509	88.69
434.731	93.69
434.953	76.69
435.175	80.69
435.397	72.69
435.618	74.69
435.84	100.69
436.062	115.69
436.284	108.69
436.505	97.69
436.727	98.69
436.949	91.69
437.17	85.69
437.392	98.69
437.614	85.69
437.835	102.69
438.057	115.69
438.278	103.69
438.5	105.69
438.721	115.69
438.943	93.69
439.165	80.69
439.386	112.69
439.608	98.69
439.829	81.69
440.05	124.69
440.272	120.69
440.493	100.69
440.715	95.69
440.936	80.69
441.158	82.69
441.379	83.69
441.6	93.69
441.822	90.69
442.043	91.69
442.264	110.69
442.486	87.69
442.707	84.69
442.928	114.69
443.149	119.69
443.371	114.69
443.592	112.69
443.813	112.69
444.034	125.69
444.255	94.69
444.476	75.69
444.698	91.69
444.919	80.69
445.14	139.69
445.361	120.69
445.582	133.69
445.803	123.69
446.024	124.69
446.245	116.69
446.466	109.69
446.687	96.69
446.908	91.69
447.129	90.69
447.35	82.69
447.571	83.69
447.792	86.69
448.013	86.69
448.234	114.69
448.455	83.69
448.675	113.69
448.896	104.69
449.117	90.69
449.338	106.69
449.559	118.69
449.779	116.69
450	88.69
450.221	81.69
450.442	87.69
450.662	92.69
450.883	96.69
451.104	133.69
451.324	98.69
451.545	101.69
451.766	85.69
451.986	85.69
452.207	77.69
452.428	88.69
452.648	88.69
452.869	101.69
453.089	116.69
453.31	116.69
453.53	91.69
453.751	100.69
453.971	117.69
454.192	104.69
454.412	95.69
454.633	93.69
454.853	73.69
455.073	92.69
455.294	74.69
455.514	95.69
455.734	88.69
455.955	76.69
456.175	85.69
456.395	88.69
456.616	86.69
456.836	90.69
457.056	77.69
457.276	71.69
457.497	85.69
457.717	86.69
457.937	77.69
458.157	90.69
458.377	100.69
458.598	97.69
458.818	165.69
459.038	161.69
459.258	101.69
459.478	88.69
459.698	83.69
459.918	94.69
460.138	83.69
460.358	81.69
460.578	81.69
460.798	92.69
461.018	89.69
461.238	73.69
461.458	88.69
461.678	89.69
461.898	90.69
462.118	86.69
462.338	89.69
462.558	95.69
462.777	81.69
462.997	100.69
463.217	101.69
463.437	92.69
463.657	88.69
463.876	77.69
464.096	79.69
464.316	95.69
464.536	87.69
464.755	89.69
464.975	108.69
465.195	178.69
465.414	155.69
465.634	102.69
465.854	72.69
466.073	81.69
466.293	96.69
466.512	91.69
466.732	76.69
466.951	98.69
467.171	89.69
467.391	91.69
467.61	88.69
467.829	112.69
468.049	112.69
468.268	120.69
468.488	100.69
468.707	97.69
468.927	86.69
469.146	76.69
469.365	81.69
469.585	81.69
469.804	74.69
470.023	81.69
470.243	91.69
470.462	116.69
470.681	104.69
470.901	82.69
471.12	81.69
471.339	89.69
471.558	88.69
471.777	96.69
471.997	96.69
472.216	150.69
472.435	224.69
472.654	123.69
472.873	85.69
473.092	90.69
473.311	71.69
473.53	89.69
473.749	86.69
473.968	94.69
474.187	94.69
474.406	92.69
474.625	85.69
474.844	99.69
475.063	84.69
475.282	77.69
475.501	82.69
475.72	95.69
475.939	93.69
476.158	65.69
476.377	93.69
476.596	84.69
476.814	97.69
477.033	81.69
477.252	84.69
477.471	81.69
477.69	79.69
477.908	97.69
478.127	78.69
478.346	96.69
478.564	99.69
478.783	100.69
479.002	97.69
479.22	88.69
479.439	99.69
479.658	107.69
479.876	84.69
480.095	89.69
480.313	92.69
480.532	104.69
480.751	118.69
480.969	149.69
481.188	364.69
481.406	267.69
481.624	112.69
481.843	89.69
482.061	94.69
482.28	86.69
482.498	80.69
482.717	94.69
482.935	99.69
483.153	77.69
483.372	99.69
483.59	92.69
483.808	96.69
484.027	96.69
484.245	87.69
484.463	86.69
484.681	71.69
484.9	91.69
485.118	86.69
485.336	88.69
485.554	86.69
485.772	120.69
485.99	96.69
486.209	96.69
486.427	98.69
486.645	117.69
486.863	104.69
487.081	96.69
487.299	95.69
487.517	94.69
487.735	100.69
487.953	88.69
488.171	87.69
488.389	97.69
488.607	95.69
488.825	89.69
489.043	98.69
489.261	92.69
489.479	96.69
489.696	72.69
489.914	81.69
490.132	84.69
490.35	91.69
490.568	82.69
490.786	91.69
491.003	68.69
491.221	85.69
491.439	95.69
491.657	89.69
491.874	87.69
492.092	85.69
492.31	90.69
492.527	88.69
492.745	92.69
492.963	86.69
493.18	89.69
493.398	82.69
493.615	91.69
493.833	92.69
494.05	93.69
494.268	82.69
494.485	103.69
494.703	91.69
494.92	76.69
495.138	84.69
495.355	92.69
495.573	76.69
495.79	94.69
496.008	87.69
496.225	85.69
496.442	81.69
496.66	100.69
496.877	84.69
497.094	75.69
497.312	97.69
497.529	87.69
497.746	89.69
497.963	85.69
498.181	91.69
498.398	89.69
498.615	120.69
498.832	109.69
499.049	100.69
499.267	92.69
499.484	96.69
499.701	86.69
499.918	78.69
500.135	84.69
500.352	90.69
500.569	78.69
500.786	87.69
501.003	72.69
501.22	93.69
501.437	85.69
501.654	85.69
501.871	90.69
502.088	80.69
502.305	96.69
502.522	77.69
502.739	96.69
502.956	86.69
503.172	74.69
503.389	100.69
503.606	96.69
503.823	96.69
504.04	83.69
504.256	108.69
504.473	84.69
504.69	83.69
504.907	81.69
505.123	77.69
505.34	93.69
505.557	103.69
505.773	87.69
505.99	92.69
506.207	113.69
506.423	94.69
506.64	88.69
506.856	92.69
507.073	79.69
507.289	88.69
507.506	75.69
507.722	130.69
507.939	108.69
508.155	96.69
508.372	104.69
508.588	88.69
508.805	94.69
509.021	97.69
509.238	111.69
509.454	95.69
509.67	111.69
509.887	108.69
510.103	132.69
510.319	216.69
510.536	824.69
510.752	2730.69
510.968	782.69
511.184	171.69
511.401	102.69
511.617	104.69
511.833	84.69
512.049	80.69
512.265	91.69
512.481	82.69
512.698	94.69
512.914	98.69
513.13	95.69
513.346	80.69
513.562	98.69
513.778	105.69
513.994	91.69
514.21	102.69
514.426	107.69
514.642	145.69
514.858	121.69
515.074	185.69
515.29	515.69
515.506	1783.69
515.721	666.69
515.937	163.69
