Data from Circ_2014_H10_HRD10591_00012.txt Node
Date: Wed Jan 03 10:02:11 EST 2024
User: Yrep
Spectrometer: HR+D1059
Trigger mode: 1
Integration Time (sec): 1.000000E-1
Scans to average: 1
Electric dark correction enabled: true
Nonlinearity correction enabled: false
Boxcar width: 0
XAxis mode: Wavelengths
Number of Pixels in Spectrum: 2048
>>>>>Begin Spectral Data<<<<<
223.165	-10.5
223.4	-10.5
223.635	-10.5
223.869	-16.5
224.104	-4.5
224.338	-0.5
224.573	-11.5
224.808	-8.5
225.042	2.5
225.277	-2.5
225.511	-13.5
225.746	-6.5
225.98	6.5
226.215	-1.5
226.449	9.5
226.683	10.5
226.918	14.5
227.152	32.5
227.387	40.5
227.621	36.5
227.856	46.5
228.09	48.5
228.324	55.5
228.559	64.5
228.793	45.5
229.027	59.5
229.262	66.5
229.496	73.5
229.73	94.5
229.964	89.5
230.199	76.5
230.433	66.5
230.667	82.5
230.901	68.5
231.136	82.5
231.37	75.5
231.604	79.5
231.838	71.5
232.072	86.5
232.306	82.5
232.541	70.5
232.775	74.5
233.009	75.5
233.243	85.5
233.477	77.5
233.711	76.5
233.945	82.5
234.179	82.5
234.413	90.5
234.647	72.5
234.881	75.5
235.115	87.5
235.349	71.5
235.583	71.5
235.817	76.5
236.051	67.5
236.285	74.5
236.519	78.5
236.753	65.5
236.987	79.5
237.221	96.5
237.455	73.5
237.689	90.5
237.922	75.5
238.156	59.5
238.39	47.5
238.624	66.5
238.858	65.5
239.091	67.5
239.325	78.5
239.559	98.5
239.793	72.5
240.027	72.5
240.26	72.5
240.494	80.5
240.728	84.5
240.961	70.5
241.195	74.5
241.429	70.5
241.662	71.5
241.896	72.5
242.13	84.5
242.363	66.5
242.597	64.5
242.83	79.5
243.064	57.5
243.298	72.5
243.531	67.5
243.765	77.5
243.998	57.5
244.232	75.5
244.465	87.5
244.699	63.5
244.932	70.5
245.166	78.5
245.399	70.5
245.633	80.5
245.866	79.5
246.099	70.5
246.333	77.5
246.566	78.5
246.8	60.5
247.033	74.5
247.266	73.5
247.5	80.5
247.733	82.5
247.966	75.5
248.2	73.5
248.433	72.5
248.666	85.5
248.899	71.5
249.133	68.5
249.366	101.5
249.599	91.5
249.832	77.5
250.066	73.5
250.299	79.5
250.532	76.5
250.765	72.5
250.998	71.5
251.231	71.5
251.465	91.5
251.698	77.5
251.931	72.5
252.164	83.5
252.397	85.5
252.63	86.5
252.863	80.5
253.096	78.5
253.329	90.5
253.562	87.5
253.795	83.5
254.028	77.5
254.261	89.5
254.494	64.5
254.727	80.5
254.96	74.5
255.193	99.5
255.426	83.5
255.659	69.5
255.892	72.5
256.124	83.5
256.357	78.5
256.59	83.5
256.823	76.5
257.056	86.5
257.289	72.5
257.521	80.5
257.754	77.5
257.987	85.5
258.22	68.5
258.452	83.5
258.685	79.5
258.918	76.5
259.151	74.5
259.383	95.5
259.616	73.5
259.849	79.5
260.081	80.5
260.314	87.5
260.547	84.5
260.779	79.5
261.012	82.5
261.244	78.5
261.477	107.5
261.71	117.5
261.942	137.5
262.175	137.5
262.407	78.5
262.64	81.5
262.872	76.5
263.105	84.5
263.337	79.5
263.57	94.5
263.802	89.5
264.035	77.5
264.267	92.5
264.499	86.5
264.732	83.5
264.964	84.5
265.197	76.5
265.429	82.5
265.661	84.5
265.894	84.5
266.126	83.5
266.358	81.5
266.591	84.5
266.823	93.5
267.055	70.5
267.287	76.5
267.52	87.5
267.752	78.5
267.984	68.5
268.216	69.5
268.448	79.5
268.681	80.5
268.913	65.5
269.145	97.5
269.377	87.5
269.609	83.5
269.841	69.5
270.073	91.5
270.306	86.5
270.538	74.5
270.77	85.5
271.002	76.5
271.234	76.5
271.466	88.5
271.698	85.5
271.93	91.5
272.162	77.5
272.394	94.5
272.626	81.5
272.858	78.5
273.09	95.5
273.322	88.5
273.553	83.5
273.785	82.5
274.017	67.5
274.249	82.5
274.481	87.5
274.713	81.5
274.945	82.5
275.176	81.5
275.408	81.5
275.64	85.5
275.872	76.5
276.104	90.5
276.335	89.5
276.567	92.5
276.799	135.5
277.031	134.5
277.262	104.5
277.494	98.5
277.726	83.5
277.957	90.5
278.189	69.5
278.421	79.5
278.652	79.5
278.884	78.5
279.115	87.5
279.347	84.5
279.579	90.5
279.81	84.5
280.042	72.5
280.273	75.5
280.505	74.5
280.736	93.5
280.968	86.5
281.199	86.5
281.431	79.5
281.662	85.5
281.894	89.5
282.125	107.5
282.356	131.5
282.588	184.5
282.819	143.5
283.051	89.5
283.282	88.5
283.513	87.5
283.745	78.5
283.976	87.5
284.207	91.5
284.439	88.5
284.67	84.5
284.901	88.5
285.132	67.5
285.364	83.5
285.595	72.5
285.826	90.5
286.057	98.5
286.288	91.5
286.52	85.5
286.751	86.5
286.982	92.5
287.213	80.5
287.444	89.5
287.675	74.5
287.906	96.5
288.138	88.5
288.369	86.5
288.6	100.5
288.831	97.5
289.062	97.5
289.293	80.5
289.524	80.5
289.755	82.5
289.986	89.5
290.217	95.5
290.448	84.5
290.679	94.5
290.91	98.5
291.141	83.5
291.371	97.5
291.602	78.5
291.833	80.5
292.064	91.5
292.295	87.5
292.526	70.5
292.757	90.5
292.987	87.5
293.218	90.5
293.449	80.5
293.68	62.5
293.91	85.5
294.141	81.5
294.372	73.5
294.603	84.5
294.833	97.5
295.064	81.5
295.295	94.5
295.525	88.5
295.756	99.5
295.987	138.5
296.217	180.5
296.448	172.5
296.679	106.5
296.909	77.5
297.14	88.5
297.37	86.5
297.601	88.5
297.831	91.5
298.062	87.5
298.292	84.5
298.523	88.5
298.753	91.5
298.984	90.5
299.214	73.5
299.445	83.5
299.675	94.5
299.905	99.5
300.136	100.5
300.366	89.5
300.597	93.5
300.827	94.5
301.057	113.5
301.288	112.5
301.518	94.5
301.748	89.5
301.979	89.5
302.209	104.5
302.439	96.5
302.669	89.5
302.9	88.5
303.13	89.5
303.36	106.5
303.59	127.5
303.82	110.5
304.051	86.5
304.281	83.5
304.511	95.5
304.741	90.5
304.971	101.5
305.201	91.5
305.431	84.5
305.661	87.5
305.891	90.5
306.121	88.5
306.352	100.5
306.582	110.5
306.812	89.5
307.042	94.5
307.272	79.5
307.502	92.5
307.731	97.5
307.961	88.5
308.191	99.5
308.421	93.5
308.651	78.5
308.881	104.5
309.111	92.5
309.341	92.5
309.571	119.5
309.8	98.5
310.03	104.5
310.26	96.5
310.49	97.5
310.72	104.5
310.949	112.5
311.179	112.5
311.409	94.5
311.639	92.5
311.868	100.5
312.098	103.5
312.328	98.5
312.557	110.5
312.787	113.5
313.017	120.5
313.246	98.5
313.476	97.5
313.706	87.5
313.935	106.5
314.165	110.5
314.394	112.5
314.624	103.5
314.853	97.5
315.083	106.5
315.312	92.5
315.542	86.5
315.771	100.5
316.001	88.5
316.23	84.5
316.46	99.5
316.689	89.5
316.919	102.5
317.148	97.5
317.377	99.5
317.607	86.5
317.836	106.5
318.065	81.5
318.295	76.5
318.524	89.5
318.753	96.5
318.983	103.5
319.212	103.5
319.441	129.5
319.67	107.5
319.9	103.5
320.129	95.5
320.358	91.5
320.587	105.5
320.816	107.5
321.046	100.5
321.275	97.5
321.504	95.5
321.733	110.5
321.962	115.5
322.191	104.5
322.42	116.5
322.649	123.5
322.878	133.5
323.108	134.5
323.337	161.5
323.566	168.5
323.795	192.5
324.024	322.5
324.253	643.5
324.482	1472.5
324.71	3091.5
324.939	4089.5
325.168	1428.5
325.397	384.5
325.626	210.5
325.855	167.5
326.084	149.5
326.313	158.5
326.542	203.5
326.77	327.5
326.999	741.5
327.228	1535.5
327.457	2886.5
327.686	2250.5
327.914	549.5
328.143	274.5
328.372	219.5
328.6	156.5
328.829	158.5
329.058	175.5
329.287	172.5
329.515	144.5
329.744	95.5
329.972	106.5
330.201	107.5
330.43	133.5
330.658	174.5
330.887	215.5
331.115	169.5
331.344	115.5
331.572	112.5
331.801	118.5
332.03	119.5
332.258	96.5
332.486	97.5
332.715	97.5
332.943	83.5
333.172	107.5
333.4	102.5
333.629	116.5
333.857	133.5
334.085	94.5
334.314	118.5
334.542	117.5
334.771	110.5
334.999	106.5
335.227	102.5
335.455	95.5
335.684	99.5
335.912	102.5
336.14	92.5
336.369	111.5
336.597	119.5
336.825	116.5
337.053	91.5
337.281	95.5
337.51	92.5
337.738	85.5
337.966	96.5
338.194	84.5
338.422	107.5
338.65	96.5
338.878	91.5
339.106	99.5
339.334	76.5
339.562	92.5
339.79	87.5
340.018	94.5
340.246	99.5
340.474	90.5
340.702	93.5
340.93	86.5
341.158	99.5
341.386	102.5
341.614	99.5
341.842	87.5
342.07	86.5
342.298	83.5
342.526	85.5
342.754	87.5
342.981	81.5
343.209	80.5
343.437	78.5
343.665	73.5
343.893	82.5
344.12	81.5
344.348	71.5
344.576	96.5
344.804	101.5
345.031	109.5
345.259	97.5
345.487	92.5
345.714	99.5
345.942	96.5
346.17	101.5
346.397	82.5
346.625	89.5
346.853	90.5
347.08	86.5
347.308	101.5
347.535	110.5
347.763	107.5
347.99	94.5
348.218	113.5
348.445	115.5
348.673	97.5
348.9	105.5
349.128	99.5
349.355	93.5
349.583	94.5
349.81	96.5
350.037	103.5
350.265	91.5
350.492	107.5
350.72	91.5
350.947	110.5
351.174	116.5
351.402	136.5
351.629	109.5
351.856	120.5
352.083	108.5
352.311	121.5
352.538	124.5
352.765	131.5
352.992	130.5
353.22	118.5
353.447	105.5
353.674	101.5
353.901	85.5
354.128	80.5
354.355	103.5
354.583	105.5
354.81	89.5
355.037	88.5
355.264	88.5
355.491	81.5
355.718	94.5
355.945	84.5
356.172	90.5
356.399	88.5
356.626	96.5
356.853	87.5
357.08	89.5
357.307	81.5
357.534	95.5
357.761	103.5
357.988	94.5
358.215	95.5
358.441	98.5
358.668	92.5
358.895	84.5
359.122	92.5
359.349	91.5
359.576	98.5
359.802	126.5
360.029	146.5
360.256	139.5
360.483	122.5
360.709	85.5
360.936	92.5
361.163	93.5
361.39	111.5
361.616	110.5
361.843	101.5
362.07	102.5
362.296	107.5
362.523	102.5
362.749	95.5
362.976	89.5
363.203	99.5
363.429	88.5
363.656	77.5
363.882	95.5
364.109	93.5
364.335	102.5
364.562	94.5
364.788	92.5
365.015	88.5
365.241	100.5
365.468	135.5
365.694	113.5
365.92	106.5
366.147	101.5
366.373	83.5
366.599	83.5
366.826	80.5
367.052	78.5
367.278	91.5
367.505	91.5
367.731	97.5
367.957	96.5
368.184	113.5
368.41	123.5
368.636	131.5
368.862	155.5
369.089	131.5
369.315	101.5
369.541	98.5
369.767	97.5
369.993	90.5
370.219	100.5
370.445	100.5
370.672	109.5
370.898	90.5
371.124	79.5
371.35	82.5
371.576	89.5
371.802	91.5
372.028	98.5
372.254	89.5
372.48	72.5
372.706	89.5
372.932	86.5
373.158	87.5
373.384	79.5
373.61	89.5
373.835	92.5
374.061	94.5
374.287	99.5
374.513	84.5
374.739	95.5
374.965	87.5
375.191	95.5
375.416	89.5
375.642	85.5
375.868	87.5
376.094	91.5
376.319	85.5
376.545	97.5
376.771	83.5
376.997	101.5
377.222	82.5
377.448	105.5
377.674	83.5
377.899	87.5
378.125	96.5
378.35	92.5
378.576	111.5
378.802	90.5
379.027	91.5
379.253	92.5
379.478	100.5
379.704	91.5
379.929	97.5
380.155	101.5
380.38	85.5
380.606	111.5
380.831	107.5
381.057	99.5
381.282	104.5
381.507	89.5
381.733	106.5
381.958	99.5
382.184	111.5
382.409	105.5
382.634	101.5
382.86	106.5
383.085	104.5
383.31	92.5
383.535	93.5
383.761	82.5
383.986	110.5
384.211	101.5
384.436	96.5
384.662	87.5
384.887	109.5
385.112	100.5
385.337	114.5
385.562	107.5
385.787	105.5
386.013	114.5
386.238	148.5
386.463	113.5
386.688	102.5
386.913	106.5
387.138	122.5
387.363	91.5
387.588	85.5
387.813	99.5
388.038	106.5
388.263	112.5
388.488	106.5
388.713	96.5
388.938	84.5
389.163	81.5
389.387	97.5
389.612	84.5
389.837	86.5
390.062	100.5
390.287	81.5
390.512	92.5
390.736	76.5
390.961	110.5
391.186	95.5
391.411	92.5
391.636	72.5
391.86	79.5
392.085	86.5
392.31	70.5
392.534	82.5
392.759	83.5
392.984	80.5
393.208	91.5
393.433	84.5
393.658	97.5
393.882	88.5
394.107	88.5
394.331	90.5
394.556	76.5
394.78	92.5
395.005	74.5
395.229	83.5
395.454	82.5
395.678	84.5
395.903	76.5
396.127	89.5
396.352	86.5
396.576	76.5
396.801	96.5
397.025	110.5
397.249	86.5
397.474	95.5
397.698	76.5
397.922	79.5
398.147	78.5
398.371	86.5
398.595	89.5
398.82	96.5
399.044	79.5
399.268	86.5
399.492	82.5
399.717	85.5
399.941	91.5
400.165	98.5
400.389	102.5
400.613	96.5
400.837	99.5
401.062	87.5
401.286	95.5
401.51	96.5
401.734	99.5
401.958	97.5
402.182	181.5
402.406	249.5
402.63	180.5
402.854	105.5
403.078	96.5
403.302	85.5
403.526	82.5
403.75	90.5
403.974	84.5
404.198	79.5
404.422	93.5
404.645	97.5
404.869	88.5
405.093	104.5
405.317	108.5
405.541	114.5
405.765	121.5
405.988	158.5
406.212	274.5
406.436	418.5
406.66	230.5
406.883	128.5
407.107	118.5
407.331	94.5
407.555	99.5
407.778	97.5
408.002	82.5
408.226	92.5
408.449	87.5
408.673	89.5
408.896	83.5
409.12	110.5
409.344	87.5
409.567	96.5
409.791	88.5
410.014	86.5
410.238	96.5
410.461	88.5
410.685	97.5
410.908	96.5
411.132	102.5
411.355	101.5
411.578	81.5
411.802	88.5
412.025	90.5
412.249	89.5
412.472	89.5
412.695	86.5
412.919	84.5
413.142	84.5
413.365	76.5
413.589	87.5
413.812	83.5
414.035	76.5
414.258	93.5
414.482	87.5
414.705	102.5
414.928	97.5
415.151	83.5
415.374	89.5
415.597	91.5
415.821	92.5
416.044	94.5
416.267	94.5
416.49	93.5
416.713	88.5
416.936	96.5
417.159	91.5
417.382	93.5
417.605	84.5
417.828	102.5
418.051	114.5
418.274	94.5
418.497	83.5
418.72	83.5
418.943	98.5
419.166	77.5
419.389	79.5
419.611	78.5
419.834	99.5
420.057	87.5
420.28	84.5
420.503	74.5
420.726	88.5
420.948	89.5
421.171	88.5
421.394	97.5
421.617	93.5
421.839	90.5
422.062	88.5
422.285	103.5
422.507	104.5
422.73	112.5
422.953	104.5
423.175	77.5
423.398	101.5
423.621	83.5
423.843	89.5
424.066	98.5
424.288	84.5
424.511	98.5
424.733	103.5
424.956	107.5
425.178	125.5
425.401	98.5
425.623	110.5
425.846	103.5
426.068	89.5
426.291	89.5
426.513	87.5
426.735	99.5
426.958	80.5
427.18	114.5
427.402	176.5
427.625	252.5
427.847	176.5
428.069	97.5
428.292	98.5
428.514	95.5
428.736	82.5
428.958	81.5
429.181	86.5
429.403	87.5
429.625	105.5
429.847	79.5
430.069	104.5
430.292	90.5
430.514	81.5
430.736	74.5
430.958	95.5
431.18	83.5
431.402	86.5
431.624	95.5
431.846	80.5
432.068	88.5
432.29	85.5
432.512	84.5
432.734	76.5
432.956	98.5
433.178	104.5
433.4	100.5
433.622	98.5
433.844	98.5
434.066	111.5
434.287	82.5
434.509	95.5
434.731	96.5
434.953	80.5
435.175	84.5
435.397	85.5
435.618	91.5
435.84	113.5
436.062	158.5
436.284	119.5
436.505	109.5
436.727	105.5
436.949	91.5
437.17	80.5
437.392	81.5
437.614	98.5
437.835	140.5
438.057	165.5
438.278	127.5
438.5	98.5
438.721	121.5
438.943	107.5
439.165	89.5
439.386	91.5
439.608	87.5
439.829	114.5
440.05	147.5
440.272	204.5
440.493	105.5
440.715	102.5
440.936	87.5
441.158	105.5
441.379	97.5
441.6	104.5
441.822	111.5
442.043	100.5
442.264	106.5
442.486	111.5
442.707	97.5
442.928	124.5
443.149	172.5
443.371	181.5
443.592	148.5
443.813	142.5
444.034	129.5
444.255	91.5
444.476	89.5
444.698	86.5
444.919	94.5
445.14	132.5
445.361	137.5
445.582	147.5
445.803	203.5
446.024	187.5
446.245	153.5
446.466	131.5
446.687	113.5
446.908	91.5
447.129	94.5
447.35	96.5
447.571	84.5
447.792	88.5
448.013	96.5
448.234	142.5
448.455	121.5
448.675	137.5
448.896	140.5
449.117	102.5
449.338	102.5
449.559	163.5
449.779	154.5
450	97.5
450.221	96.5
450.442	85.5
450.662	107.5
450.883	137.5
451.104	160.5
451.324	113.5
451.545	89.5
451.766	96.5
451.986	86.5
452.207	88.5
452.428	99.5
452.648	119.5
452.869	142.5
453.089	150.5
453.31	165.5
453.53	104.5
453.751	99.5
453.971	133.5
454.192	151.5
454.412	107.5
454.633	94.5
454.853	82.5
455.073	78.5
455.294	89.5
455.514	103.5
455.734	98.5
455.955	80.5
456.175	96.5
456.395	87.5
456.616	82.5
456.836	98.5
457.056	85.5
457.276	82.5
457.497	78.5
457.717	94.5
457.937	84.5
458.157	80.5
458.377	101.5
458.598	144.5
458.818	227.5
459.038	256.5
459.258	139.5
459.478	118.5
459.698	100.5
459.918	73.5
460.138	81.5
460.358	91.5
460.578	78.5
460.798	91.5
461.018	72.5
461.238	84.5
461.458	86.5
461.678	75.5
461.898	87.5
462.118	73.5
462.338	83.5
462.558	77.5
462.777	89.5
462.997	76.5
463.217	70.5
463.437	86.5
463.657	86.5
463.876	84.5
464.096	84.5
464.316	89.5
464.536	97.5
464.755	94.5
464.975	129.5
465.195	288.5
465.414	278.5
465.634	111.5
465.854	83.5
466.073	82.5
466.293	93.5
466.512	94.5
466.732	70.5
466.951	93.5
467.171	93.5
467.391	88.5
467.61	112.5
467.829	129.5
468.049	99.5
468.268	92.5
468.488	68.5
468.707	75.5
468.927	73.5
469.146	91.5
469.365	76.5
469.585	91.5
469.804	104.5
470.023	118.5
470.243	114.5
470.462	117.5
470.681	151.5
470.901	96.5
471.12	100.5
471.339	85.5
471.558	89.5
471.777	97.5
471.997	77.5
472.216	89.5
472.435	120.5
472.654	79.5
472.873	74.5
473.092	102.5
473.311	95.5
473.53	97.5
473.749	99.5
473.968	91.5
474.187	118.5
474.406	104.5
474.625	84.5
474.844	75.5
475.063	85.5
475.282	82.5
475.501	94.5
475.72	84.5
475.939	90.5
476.158	70.5
476.377	80.5
476.596	90.5
476.814	100.5
477.033	103.5
477.252	67.5
477.471	95.5
477.69	80.5
477.908	91.5
478.127	83.5
478.346	78.5
478.564	89.5
478.783	97.5
479.002	95.5
479.22	114.5
479.439	111.5
479.658	134.5
479.876	107.5
480.095	99.5
480.313	98.5
480.532	88.5
480.751	86.5
480.969	97.5
481.188	126.5
481.406	115.5
481.624	98.5
481.843	88.5
482.061	80.5
482.28	81.5
482.498	83.5
482.717	104.5
482.935	80.5
483.153	100.5
483.372	95.5
483.59	88.5
483.808	99.5
484.027	89.5
484.245	77.5
484.463	113.5
484.681	90.5
484.9	99.5
485.118	83.5
485.336	88.5
485.554	97.5
485.772	108.5
485.99	107.5
486.209	100.5
486.427	116.5
486.645	130.5
486.863	138.5
487.081	115.5
487.299	88.5
487.517	79.5
487.735	104.5
487.953	97.5
488.171	86.5
488.389	95.5
488.607	127.5
488.825	81.5
489.043	102.5
489.261	100.5
489.479	81.5
489.696	94.5
489.914	104.5
490.132	89.5
490.35	79.5
490.568	85.5
490.786	96.5
491.003	95.5
491.221	103.5
491.439	87.5
491.657	90.5
491.874	87.5
492.092	91.5
492.31	91.5
492.527	89.5
492.745	84.5
492.963	93.5
493.18	88.5
493.398	114.5
493.615	77.5
493.833	81.5
494.05	89.5
494.268	91.5
494.485	85.5
494.703	94.5
494.92	98.5
495.138	76.5
495.355	95.5
495.573	84.5
495.79	89.5
496.008	91.5
496.225	92.5
496.442	83.5
496.66	89.5
496.877	89.5
497.094	93.5
497.312	94.5
497.529	106.5
497.746	97.5
497.963	102.5
498.181	104.5
498.398	99.5
498.615	132.5
498.832	120.5
499.049	100.5
499.267	75.5
499.484	76.5
499.701	98.5
499.918	91.5
500.135	83.5
500.352	86.5
500.569	81.5
500.786	85.5
501.003	95.5
501.22	94.5
501.437	71.5
501.654	98.5
501.871	131.5
502.088	112.5
502.305	94.5
502.522	91.5
502.739	94.5
502.956	91.5
503.172	91.5
503.389	108.5
503.606	137.5
503.823	111.5
504.04	90.5
504.256	77.5
504.473	88.5
504.69	90.5
504.907	95.5
505.123	87.5
505.34	82.5
505.557	100.5
505.773	89.5
505.99	106.5
506.207	90.5
506.423	83.5
506.64	82.5
506.856	89.5
507.073	97.5
507.289	103.5
507.506	110.5
507.722	128.5
507.939	138.5
508.155	98.5
508.372	90.5
508.588	101.5
508.805	98.5
509.021	103.5
509.238	106.5
509.454	99.5
509.67	122.5
509.887	144.5
510.103	167.5
510.319	289.5
510.536	1272.5
510.752	4550.5
510.968	1205.5
511.184	225.5
511.401	130.5
511.617	124.5
511.833	104.5
512.049	87.5
512.265	98.5
512.481	97.5
512.698	93.5
512.914	84.5
513.13	96.5
513.346	84.5
513.562	98.5
513.778	113.5
513.994	116.5
514.21	127.5
514.426	166.5
514.642	196.5
514.858	176.5
515.074	296.5
515.29	977.5
515.506	3512.5
515.721	1220.5
515.937	260.5
516.153	148.5
516.369	116.5
516.585	107.5
516.801	101.5
517.016	94.5
517.232	94.5
517.448	95.5
517.664	89.5
517.879	88.5
518.095	91.5
518.311	91.5
518.527	92.5
518.742	74.5
518.958	97.5
519.173	92.5
519.389	93.5
519.605	88.5
519.82	110.5
520.036	117.5
520.251	175.5
520.467	162.5
520.682	111.5
520.898	142.5
521.113	160.5
521.329	189.5
521.544	354.5
521.76	1243.5
521.975	5771.5
522.19	3515.5
522.406	640.5
522.621	200.5
522.836	125.5
523.052	119.5
523.267	101.5
523.482	117.5
523.698	113.5
523.913	180.5
524.128	122.5
524.343	95.5
524.559	96.5
524.774	86.5
524.989	114.5
525.204	137.5
525.419	122.5
525.634	97.5
525.849	95.5
526.064	83.5
526.28	84.5
526.495	90.5
526.71	83.5
526.925	88.5
527.14	95.5
527.355	79.5
527.57	87.5
527.785	86.5
527.999	89.5
528.214	69.5
528.429	103.5
528.644	89.5
528.859	88.5
529.074	118.5
529.289	169.5
529.503	306.5
529.718	137.5
529.933	89.5
530.148	98.5
530.363	100.5
530.577	88.5
530.792	99.5
531.007	99.5
531.221	95.5
531.436	83.5
531.651	91.5
531.865	81.5
532.08	93.5
532.295	90.5
532.509	84.5
532.724	89.5
532.938	79.5
533.153	102.5
533.367	86.5
533.582	100.5
533.796	91.5
534.011	94.5
