Data from Circ_2014_H10_HRD10591_00095.txt Node
Date: Wed Jan 03 10:02:28 EST 2024
User: Yrep
Spectrometer: HR+D1059
Trigger mode: 1
Integration Time (sec): 1.000000E-1
Scans to average: 1
Electric dark correction enabled: true
Nonlinearity correction enabled: false
Boxcar width: 0
XAxis mode: Wavelengths
Number of Pixels in Spectrum: 2048
>>>>>Begin Spectral Data<<<<<
223.165	-12.75
223.4	-12.75
223.635	-12.75
223.869	-36.75
224.104	-6.75
224.338	-18.75
224.573	-18.75
224.808	-15.75
225.042	-2.75
225.277	-12.75
225.511	-2.75
225.746	-8.75
225.98	17.25
226.215	2.25
226.449	25.25
226.683	26.25
226.918	30.25
227.152	35.25
227.387	18.25
227.621	26.25
227.856	40.25
228.09	60.25
228.324	58.25
228.559	64.25
228.793	73.25
229.027	49.25
229.262	56.25
229.496	65.25
229.73	81.25
229.964	83.25
230.199	69.25
230.433	75.25
230.667	79.25
230.901	71.25
231.136	66.25
231.37	74.25
231.604	77.25
231.838	92.25
232.072	80.25
232.306	64.25
232.541	87.25
232.775	78.25
233.009	75.25
233.243	79.25
233.477	93.25
233.711	100.25
233.945	90.25
234.179	77.25
234.413	79.25
234.647	78.25
234.881	70.25
235.115	72.25
235.349	62.25
235.583	74.25
235.817	78.25
236.051	70.25
236.285	79.25
236.519	82.25
236.753	71.25
236.987	93.25
237.221	85.25
237.455	70.25
237.689	79.25
237.922	79.25
238.156	54.25
238.39	70.25
238.624	79.25
238.858	87.25
239.091	72.25
239.325	73.25
239.559	78.25
239.793	64.25
240.027	82.25
240.26	82.25
240.494	75.25
240.728	69.25
240.961	70.25
241.195	70.25
241.429	63.25
241.662	86.25
241.896	82.25
242.13	67.25
242.363	81.25
242.597	83.25
242.83	81.25
243.064	74.25
243.298	81.25
243.531	68.25
243.765	79.25
243.998	72.25
244.232	69.25
244.465	70.25
244.699	85.25
244.932	79.25
245.166	69.25
245.399	82.25
245.633	82.25
245.866	80.25
246.099	81.25
246.333	69.25
246.566	75.25
246.8	70.25
247.033	63.25
247.266	64.25
247.5	89.25
247.733	64.25
247.966	89.25
248.2	69.25
248.433	69.25
248.666	72.25
248.899	89.25
249.133	77.25
249.366	97.25
249.599	86.25
249.832	79.25
250.066	62.25
250.299	85.25
250.532	73.25
250.765	88.25
250.998	91.25
251.231	77.25
251.465	70.25
251.698	70.25
251.931	89.25
252.164	70.25
252.397	86.25
252.63	82.25
252.863	75.25
253.096	67.25
253.329	74.25
253.562	75.25
253.795	90.25
254.028	84.25
254.261	78.25
254.494	64.25
254.727	84.25
254.96	87.25
255.193	76.25
255.426	81.25
255.659	74.25
255.892	93.25
256.124	76.25
256.357	65.25
256.59	73.25
256.823	72.25
257.056	93.25
257.289	79.25
257.521	71.25
257.754	74.25
257.987	83.25
258.22	55.25
258.452	78.25
258.685	82.25
258.918	73.25
259.151	71.25
259.383	92.25
259.616	76.25
259.849	80.25
260.081	74.25
260.314	80.25
260.547	88.25
260.779	87.25
261.012	78.25
261.244	70.25
261.477	91.25
261.71	101.25
261.942	104.25
262.175	106.25
262.407	77.25
262.64	82.25
262.872	73.25
263.105	91.25
263.337	94.25
263.57	88.25
263.802	71.25
264.035	73.25
264.267	88.25
264.499	66.25
264.732	79.25
264.964	81.25
265.197	71.25
265.429	86.25
265.661	68.25
265.894	69.25
266.126	87.25
266.358	84.25
266.591	80.25
266.823	66.25
267.055	88.25
267.287	95.25
267.52	78.25
267.752	80.25
267.984	71.25
268.216	64.25
268.448	70.25
268.681	71.25
268.913	93.25
269.145	78.25
269.377	82.25
269.609	74.25
269.841	77.25
270.073	71.25
270.306	87.25
270.538	84.25
270.77	87.25
271.002	75.25
271.234	73.25
271.466	88.25
271.698	78.25
271.93	75.25
272.162	68.25
272.394	79.25
272.626	85.25
272.858	68.25
273.09	78.25
273.322	74.25
273.553	73.25
273.785	68.25
274.017	88.25
274.249	84.25
274.481	77.25
274.713	81.25
274.945	82.25
275.176	84.25
275.408	77.25
275.64	74.25
275.872	95.25
276.104	80.25
276.335	91.25
276.567	99.25
276.799	114.25
277.031	94.25
277.262	98.25
277.494	82.25
277.726	87.25
277.957	93.25
278.189	92.25
278.421	89.25
278.652	79.25
278.884	72.25
279.115	77.25
279.347	89.25
279.579	81.25
279.81	88.25
280.042	97.25
280.273	96.25
280.505	77.25
280.736	73.25
280.968	92.25
281.199	95.25
281.431	79.25
281.662	98.25
281.894	96.25
282.125	100.25
282.356	116.25
282.588	138.25
282.819	124.25
283.051	98.25
283.282	95.25
283.513	81.25
283.745	83.25
283.976	98.25
284.207	71.25
284.439	83.25
284.67	78.25
284.901	89.25
285.132	61.25
285.364	85.25
285.595	102.25
285.826	83.25
286.057	75.25
286.288	92.25
286.52	76.25
286.751	74.25
286.982	90.25
287.213	86.25
287.444	90.25
287.675	93.25
287.906	79.25
288.138	84.25
288.369	83.25
288.6	87.25
288.831	79.25
289.062	85.25
289.293	83.25
289.524	90.25
289.755	86.25
289.986	86.25
290.217	95.25
290.448	74.25
290.679	85.25
290.91	81.25
291.141	89.25
291.371	82.25
291.602	88.25
291.833	94.25
292.064	77.25
292.295	87.25
292.526	84.25
292.757	89.25
292.987	90.25
293.218	90.25
293.449	82.25
293.68	76.25
293.91	76.25
294.141	83.25
294.372	98.25
294.603	89.25
294.833	106.25
295.064	98.25
295.295	85.25
295.525	102.25
295.756	95.25
295.987	131.25
296.217	134.25
296.448	116.25
296.679	101.25
296.909	85.25
297.14	79.25
297.37	81.25
297.601	92.25
297.831	89.25
298.062	85.25
298.292	81.25
298.523	90.25
298.753	87.25
298.984	87.25
299.214	105.25
299.445	83.25
299.675	103.25
299.905	88.25
300.136	85.25
300.366	88.25
300.597	99.25
300.827	81.25
301.057	99.25
301.288	105.25
301.518	96.25
301.748	92.25
301.979	101.25
302.209	86.25
302.439	74.25
302.669	97.25
302.9	82.25
303.13	80.25
303.36	86.25
303.59	95.25
303.82	94.25
304.051	98.25
304.281	94.25
304.511	89.25
304.741	84.25
304.971	87.25
305.201	84.25
305.431	90.25
305.661	82.25
305.891	74.25
306.121	99.25
306.352	121.25
306.582	102.25
306.812	88.25
307.042	101.25
307.272	94.25
307.502	112.25
307.731	97.25
307.961	92.25
308.191	90.25
308.421	96.25
308.651	90.25
308.881	81.25
309.111	93.25
309.341	109.25
309.571	114.25
309.8	94.25
310.03	89.25
310.26	99.25
310.49	88.25
310.72	104.25
310.949	96.25
311.179	102.25
311.409	74.25
311.639	91.25
311.868	87.25
312.098	97.25
312.328	97.25
312.557	96.25
312.787	103.25
313.017	115.25
313.246	93.25
313.476	93.25
313.706	73.25
313.935	92.25
314.165	98.25
314.394	89.25
314.624	90.25
314.853	100.25
315.083	73.25
315.312	94.25
315.542	83.25
315.771	88.25
316.001	90.25
316.23	95.25
316.46	86.25
316.689	92.25
316.919	90.25
317.148	104.25
317.377	107.25
317.607	90.25
317.836	84.25
318.065	81.25
318.295	86.25
318.524	91.25
318.753	97.25
318.983	96.25
319.212	100.25
319.441	119.25
319.67	103.25
319.9	91.25
320.129	88.25
320.358	88.25
320.587	98.25
320.816	89.25
321.046	103.25
321.275	96.25
321.504	84.25
321.733	100.25
321.962	88.25
322.191	112.25
322.42	103.25
322.649	119.25
322.878	114.25
323.108	133.25
323.337	126.25
323.566	115.25
323.795	147.25
324.024	208.25
324.253	384.25
324.482	806.25
324.71	1612.25
324.939	2164.25
325.168	813.25
325.397	253.25
325.626	143.25
325.855	121.25
326.084	131.25
326.313	130.25
326.542	138.25
326.77	232.25
326.999	452.25
327.228	920.25
327.457	1610.25
327.686	1283.25
327.914	371.25
328.143	240.25
328.372	213.25
328.6	152.25
328.829	120.25
329.058	130.25
329.287	135.25
329.515	137.25
329.744	124.25
329.972	147.25
330.201	224.25
330.43	273.25
330.658	197.25
330.887	163.25
331.115	122.25
331.344	91.25
331.572	109.25
331.801	109.25
332.03	86.25
332.258	108.25
332.486	85.25
332.715	91.25
332.943	86.25
333.172	89.25
333.4	96.25
333.629	109.25
333.857	115.25
334.085	169.25
334.314	219.25
334.542	340.25
334.771	317.25
334.999	154.25
335.227	104.25
335.455	96.25
335.684	90.25
335.912	93.25
336.14	85.25
336.369	106.25
336.597	114.25
336.825	89.25
337.053	89.25
337.281	60.25
337.51	85.25
337.738	93.25
337.966	105.25
338.194	101.25
338.422	93.25
338.65	100.25
338.878	89.25
339.106	88.25
339.334	97.25
339.562	81.25
339.79	94.25
340.018	94.25
340.246	80.25
340.474	82.25
340.702	90.25
340.93	89.25
341.158	96.25
341.386	100.25
341.614	88.25
341.842	103.25
342.07	107.25
342.298	83.25
342.526	89.25
342.754	84.25
342.981	90.25
343.209	69.25
343.437	89.25
343.665	83.25
343.893	97.25
344.12	87.25
344.348	90.25
344.576	76.25
344.804	91.25
345.031	97.25
345.259	97.25
345.487	78.25
345.714	101.25
345.942	85.25
346.17	95.25
346.397	88.25
346.625	96.25
346.853	97.25
347.08	88.25
347.308	87.25
347.535	87.25
347.763	99.25
347.99	94.25
348.218	102.25
348.445	110.25
348.673	97.25
348.9	79.25
349.128	74.25
349.355	105.25
349.583	91.25
349.81	97.25
350.037	89.25
350.265	97.25
350.492	81.25
350.72	92.25
350.947	110.25
351.174	109.25
351.402	119.25
351.629	106.25
351.856	97.25
352.083	101.25
352.311	102.25
352.538	101.25
352.765	117.25
352.992	113.25
353.22	90.25
353.447	116.25
353.674	95.25
353.901	85.25
354.128	99.25
354.355	82.25
354.583	95.25
354.81	87.25
355.037	79.25
355.264	88.25
355.491	100.25
355.718	101.25
355.945	96.25
356.172	92.25
356.399	89.25
356.626	86.25
356.853	98.25
357.08	80.25
357.307	88.25
357.534	85.25
357.761	88.25
357.988	98.25
358.215	95.25
358.441	81.25
358.668	93.25
358.895	90.25
359.122	101.25
359.349	82.25
359.576	103.25
359.802	110.25
360.029	102.25
360.256	117.25
360.483	90.25
360.709	82.25
360.936	87.25
361.163	91.25
361.39	93.25
361.616	94.25
361.843	76.25
362.07	95.25
362.296	97.25
362.523	79.25
362.749	92.25
362.976	86.25
363.203	94.25
363.429	82.25
363.656	74.25
363.882	91.25
364.109	79.25
364.335	86.25
364.562	83.25
364.788	73.25
365.015	87.25
365.241	82.25
365.468	105.25
365.694	102.25
365.92	91.25
366.147	86.25
366.373	85.25
366.599	94.25
366.826	85.25
367.052	82.25
367.278	111.25
367.505	88.25
367.731	109.25
367.957	88.25
368.184	108.25
368.41	111.25
368.636	112.25
368.862	105.25
369.089	87.25
369.315	101.25
369.541	95.25
369.767	80.25
369.993	90.25
370.219	90.25
370.445	79.25
370.672	89.25
370.898	72.25
371.124	87.25
371.35	87.25
371.576	95.25
371.802	74.25
372.028	88.25
372.254	100.25
372.48	91.25
372.706	82.25
372.932	78.25
373.158	86.25
373.384	93.25
373.61	81.25
373.835	84.25
374.061	84.25
374.287	80.25
374.513	80.25
374.739	75.25
374.965	104.25
375.191	98.25
375.416	75.25
375.642	76.25
375.868	90.25
376.094	87.25
376.319	95.25
376.545	100.25
376.771	74.25
376.997	92.25
377.222	87.25
377.448	95.25
377.674	97.25
377.899	77.25
378.125	75.25
378.35	92.25
378.576	86.25
378.802	69.25
379.027	87.25
379.253	85.25
379.478	76.25
379.704	98.25
379.929	87.25
380.155	87.25
380.38	81.25
380.606	92.25
380.831	91.25
381.057	84.25
381.282	97.25
381.507	88.25
381.733	104.25
381.958	90.25
382.184	90.25
382.409	103.25
382.634	96.25
382.86	105.25
383.085	113.25
383.31	89.25
383.535	99.25
383.761	87.25
383.986	88.25
384.211	95.25
384.436	92.25
384.662	85.25
384.887	83.25
385.112	89.25
385.337	95.25
385.562	98.25
385.787	101.25
386.013	106.25
386.238	99.25
386.463	93.25
386.688	93.25
386.913	104.25
387.138	107.25
387.363	108.25
387.588	95.25
387.813	102.25
388.038	85.25
388.263	106.25
388.488	102.25
388.713	91.25
388.938	98.25
389.163	99.25
389.387	83.25
389.612	88.25
389.837	96.25
390.062	83.25
390.287	79.25
390.512	77.25
390.736	77.25
390.961	82.25
391.186	96.25
391.411	83.25
391.636	80.25
391.86	84.25
392.085	93.25
392.31	83.25
392.534	94.25
392.759	95.25
392.984	84.25
393.208	90.25
393.433	88.25
393.658	75.25
393.882	79.25
394.107	75.25
394.331	96.25
394.556	88.25
394.78	91.25
395.005	85.25
395.229	79.25
395.454	84.25
395.678	79.25
395.903	75.25
396.127	82.25
396.352	74.25
396.576	86.25
396.801	81.25
397.025	97.25
397.249	99.25
397.474	84.25
397.698	94.25
397.922	81.25
398.147	80.25
398.371	76.25
398.595	70.25
398.82	83.25
399.044	79.25
399.268	80.25
399.492	91.25
399.717	84.25
399.941	78.25
400.165	70.25
400.389	91.25
400.613	94.25
400.837	91.25
401.062	82.25
401.286	102.25
401.51	94.25
401.734	82.25
401.958	91.25
402.182	121.25
402.406	166.25
402.63	123.25
402.854	101.25
403.078	86.25
403.302	89.25
403.526	83.25
403.75	88.25
403.974	84.25
404.198	83.25
404.422	71.25
404.645	81.25
404.869	81.25
405.093	90.25
405.317	110.25
405.541	114.25
405.765	94.25
405.988	129.25
406.212	177.25
406.436	253.25
406.66	151.25
406.883	98.25
407.107	90.25
407.331	87.25
407.555	87.25
407.778	87.25
408.002	95.25
408.226	89.25
408.449	85.25
408.673	87.25
408.896	98.25
409.12	88.25
409.344	93.25
409.567	97.25
409.791	89.25
410.014	79.25
410.238	85.25
410.461	71.25
410.685	83.25
410.908	101.25
411.132	97.25
411.355	78.25
411.578	91.25
411.802	74.25
412.025	87.25
412.249	91.25
412.472	89.25
412.695	101.25
412.919	92.25
413.142	73.25
413.365	81.25
413.589	112.25
413.812	75.25
414.035	90.25
414.258	85.25
414.482	92.25
414.705	94.25
414.928	89.25
415.151	88.25
415.374	80.25
415.597	85.25
415.821	85.25
416.044	84.25
416.267	77.25
416.49	97.25
416.713	81.25
416.936	83.25
417.159	88.25
417.382	90.25
417.605	82.25
417.828	102.25
418.051	86.25
418.274	80.25
418.497	89.25
418.72	83.25
418.943	91.25
419.166	82.25
419.389	103.25
419.611	78.25
419.834	87.25
420.057	93.25
420.28	84.25
420.503	88.25
420.726	77.25
420.948	83.25
421.171	82.25
421.394	85.25
421.617	86.25
421.839	76.25
422.062	88.25
422.285	81.25
422.507	84.25
422.73	95.25
422.953	91.25
423.175	64.25
423.398	85.25
423.621	81.25
423.843	80.25
424.066	82.25
424.288	85.25
424.511	73.25
424.733	96.25
424.956	110.25
425.178	100.25
425.401	87.25
425.623	84.25
425.846	84.25
426.068	89.25
426.291	91.25
426.513	74.25
426.735	89.25
426.958	86.25
427.18	95.25
427.402	143.25
427.625	174.25
427.847	153.25
428.069	133.25
428.292	92.25
428.514	92.25
428.736	104.25
428.958	88.25
429.181	78.25
429.403	76.25
429.625	79.25
429.847	87.25
430.069	104.25
430.292	98.25
430.514	74.25
430.736	78.25
430.958	90.25
431.18	74.25
431.402	73.25
431.624	79.25
431.846	67.25
432.068	86.25
432.29	72.25
432.512	93.25
432.734	78.25
432.956	94.25
433.178	106.25
433.4	90.25
433.622	84.25
433.844	86.25
434.066	87.25
434.287	81.25
434.509	68.25
434.731	63.25
434.953	91.25
435.175	70.25
435.397	77.25
435.618	85.25
435.84	97.25
436.062	122.25
436.284	104.25
436.505	94.25
436.727	90.25
436.949	89.25
437.17	83.25
437.392	89.25
437.614	78.25
437.835	97.25
438.057	127.25
438.278	112.25
438.5	95.25
438.721	93.25
438.943	98.25
439.165	83.25
439.386	75.25
439.608	97.25
439.829	98.25
440.05	114.25
440.272	130.25
440.493	112.25
440.715	99.25
440.936	77.25
441.158	83.25
441.379	83.25
441.6	117.25
441.822	82.25
442.043	76.25
442.264	98.25
442.486	98.25
442.707	83.25
442.928	104.25
443.149	137.25
443.371	128.25
443.592	104.25
443.813	106.25
444.034	110.25
444.255	81.25
444.476	90.25
444.698	93.25
444.919	85.25
445.14	123.25
445.361	113.25
445.582	123.25
445.803	135.25
446.024	124.25
446.245	125.25
446.466	113.25
446.687	79.25
446.908	67.25
447.129	85.25
447.35	95.25
447.571	92.25
447.792	97.25
448.013	105.25
448.234	107.25
448.455	99.25
448.675	117.25
448.896	125.25
449.117	100.25
449.338	101.25
449.559	126.25
449.779	123.25
450	81.25
450.221	87.25
450.442	73.25
450.662	95.25
450.883	91.25
451.104	109.25
451.324	99.25
451.545	86.25
451.766	79.25
451.986	77.25
452.207	87.25
452.428	83.25
452.648	94.25
452.869	104.25
453.089	92.25
453.31	113.25
453.53	90.25
453.751	79.25
453.971	108.25
454.192	99.25
454.412	94.25
454.633	91.25
454.853	89.25
455.073	94.25
455.294	100.25
455.514	92.25
455.734	84.25
455.955	81.25
456.175	82.25
456.395	82.25
456.616	83.25
456.836	72.25
457.056	72.25
457.276	84.25
457.497	90.25
457.717	72.25
457.937	82.25
458.157	81.25
458.377	99.25
458.598	116.25
458.818	154.25
459.038	173.25
459.258	114.25
459.478	81.25
459.698	83.25
459.918	92.25
460.138	73.25
460.358	94.25
460.578	85.25
460.798	74.25
461.018	93.25
461.238	84.25
461.458	73.25
461.678	78.25
461.898	72.25
462.118	70.25
462.338	66.25
462.558	83.25
462.777	75.25
462.997	74.25
463.217	89.25
463.437	84.25
463.657	81.25
463.876	71.25
464.096	72.25
464.316	85.25
464.536	91.25
464.755	98.25
464.975	101.25
465.195	160.25
465.414	185.25
465.634	109.25
465.854	70.25
466.073	71.25
466.293	87.25
466.512	77.25
466.732	84.25
466.951	85.25
467.171	93.25
467.391	95.25
467.61	95.25
467.829	97.25
468.049	152.25
468.268	182.25
468.488	83.25
468.707	72.25
468.927	85.25
469.146	77.25
469.365	84.25
469.585	90.25
469.804	97.25
470.023	97.25
470.243	92.25
470.462	97.25
470.681	116.25
470.901	91.25
471.12	73.25
471.339	83.25
471.558	90.25
471.777	90.25
471.997	109.25
472.216	239.25
472.435	433.25
472.654	159.25
472.873	79.25
473.092	94.25
473.311	83.25
473.53	85.25
473.749	87.25
473.968	87.25
474.187	107.25
474.406	78.25
474.625	87.25
474.844	86.25
475.063	78.25
475.282	77.25
475.501	81.25
475.72	81.25
475.939	88.25
476.158	81.25
476.377	94.25
476.596	75.25
476.814	82.25
477.033	101.25
477.252	81.25
477.471	79.25
477.69	75.25
477.908	96.25
478.127	87.25
478.346	105.25
478.564	83.25
478.783	88.25
479.002	93.25
479.22	90.25
479.439	101.25
479.658	106.25
479.876	115.25
480.095	89.25
480.313	103.25
480.532	83.25
480.751	109.25
480.969	207.25
481.188	700.25
481.406	484.25
481.624	121.25
481.843	95.25
482.061	74.25
482.28	86.25
482.498	86.25
482.717	89.25
482.935	83.25
483.153	70.25
483.372	83.25
483.59	89.25
483.808	85.25
484.027	86.25
484.245	80.25
484.463	81.25
484.681	82.25
484.9	88.25
485.118	82.25
485.336	77.25
485.554	92.25
485.772	97.25
485.99	101.25
486.209	98.25
486.427	101.25
486.645	88.25
486.863	109.25
487.081	101.25
487.299	106.25
487.517	98.25
487.735	97.25
487.953	93.25
488.171	91.25
488.389	90.25
488.607	84.25
488.825	74.25
489.043	81.25
489.261	89.25
489.479	87.25
489.696	71.25
489.914	79.25
490.132	89.25
490.35	74.25
490.568	88.25
490.786	87.25
491.003	83.25
491.221	77.25
491.439	88.25
491.657	98.25
491.874	88.25
492.092	74.25
492.31	82.25
492.527	88.25
492.745	86.25
492.963	89.25
493.18	82.25
493.398	84.25
493.615	92.25
493.833	97.25
494.05	87.25
494.268	72.25
494.485	86.25
494.703	88.25
494.92	98.25
495.138	91.25
495.355	75.25
495.573	92.25
495.79	90.25
496.008	89.25
496.225	86.25
496.442	86.25
496.66	75.25
496.877	73.25
497.094	94.25
497.312	82.25
497.529	93.25
497.746	89.25
497.963	89.25
498.181	100.25
498.398	85.25
498.615	105.25
498.832	102.25
499.049	90.25
499.267	86.25
499.484	86.25
499.701	92.25
499.918	77.25
500.135	75.25
500.352	74.25
500.569	84.25
500.786	81.25
501.003	90.25
501.22	81.25
501.437	82.25
501.654	81.25
501.871	112.25
502.088	85.25
502.305	75.25
502.522	93.25
502.739	94.25
502.956	81.25
503.172	94.25
503.389	68.25
503.606	114.25
503.823	92.25
504.04	93.25
504.256	92.25
504.473	89.25
504.69	73.25
504.907	85.25
505.123	80.25
505.34	87.25
505.557	74.25
505.773	86.25
505.99	88.25
506.207	77.25
506.423	94.25
506.64	83.25
506.856	88.25
507.073	85.25
507.289	87.25
507.506	82.25
507.722	106.25
507.939	104.25
508.155	87.25
508.372	90.25
508.588	104.25
508.805	94.25
509.021	99.25
509.238	107.25
509.454	102.25
509.67	110.25
509.887	94.25
510.103	132.25
510.319	213.25
510.536	771.25
510.752	2519.25
510.968	754.25
511.184	163.25
511.401	100.25
511.617	101.25
511.833	102.25
512.049	93.25
512.265	87.25
512.481	85.25
512.698	75.25
512.914	89.25
513.13	90.25
513.346	86.25
513.562	70.25
513.778	73.25
513.994	102.25
514.21	103.25
514.426	110.25
514.642	133.25
514.858	122.25
515.074	181.25
515.29	490.25
515.506	1689.25
515.721	629.25
515.937	170.25
516.153	110.25
516.369	96.25
