Data from Circ_2014_H10_HRD10591_00017.txt Node
Date: Wed Jan 03 10:02:12 EST 2024
User: Yrep
Spectrometer: HR+D1059
Trigger mode: 1
Integration Time (sec): 1.000000E-1
Scans to average: 1
Electric dark correction enabled: true
Nonlinearity correction enabled: false
Boxcar width: 0
XAxis mode: Wavelengths
Number of Pixels in Spectrum: 2048
>>>>>Begin Spectral Data<<<<<
223.165	-16.19
223.4	-16.19
223.635	-16.19
223.869	-14.19
224.104	-34.19
224.338	-8.19
224.573	-28.19
224.808	-31.19
225.042	-13.19
225.277	-0.19
225.511	0.81
225.746	-2.19
225.98	13.81
226.215	21.81
226.449	17.81
226.683	36.81
226.918	32.81
227.152	23.81
227.387	32.81
227.621	38.81
227.856	33.81
228.09	33.81
228.324	51.81
228.559	57.81
228.793	67.81
229.027	71.81
229.262	58.81
229.496	58.81
229.73	77.81
229.964	82.81
230.199	69.81
230.433	71.81
230.667	77.81
230.901	69.81
231.136	64.81
231.37	74.81
231.604	83.81
231.838	78.81
232.072	82.81
232.306	79.81
232.541	87.81
232.775	78.81
233.009	82.81
233.243	74.81
233.477	70.81
233.711	76.81
233.945	81.81
234.179	75.81
234.413	80.81
234.647	81.81
234.881	88.81
235.115	70.81
235.349	82.81
235.583	81.81
235.817	80.81
236.051	68.81
236.285	71.81
236.519	75.81
236.753	76.81
236.987	82.81
237.221	86.81
237.455	75.81
237.689	67.81
237.922	71.81
238.156	82.81
238.39	59.81
238.624	80.81
238.858	92.81
239.091	80.81
239.325	77.81
239.559	84.81
239.793	83.81
240.027	80.81
240.26	73.81
240.494	66.81
240.728	79.81
240.961	90.81
241.195	71.81
241.429	75.81
241.662	86.81
241.896	77.81
242.13	91.81
242.363	72.81
242.597	73.81
242.83	66.81
243.064	65.81
243.298	69.81
243.531	72.81
243.765	65.81
243.998	79.81
244.232	67.81
244.465	88.81
244.699	65.81
244.932	74.81
245.166	73.81
245.399	61.81
245.633	63.81
245.866	66.81
246.099	65.81
246.333	72.81
246.566	74.81
246.8	70.81
247.033	77.81
247.266	82.81
247.5	71.81
247.733	79.81
247.966	72.81
248.2	62.81
248.433	75.81
248.666	58.81
248.899	84.81
249.133	71.81
249.366	98.81
249.599	85.81
249.832	89.81
250.066	87.81
250.299	72.81
250.532	84.81
250.765	63.81
250.998	81.81
251.231	76.81
251.465	66.81
251.698	87.81
251.931	80.81
252.164	86.81
252.397	78.81
252.63	75.81
252.863	71.81
253.096	77.81
253.329	77.81
253.562	70.81
253.795	78.81
254.028	83.81
254.261	79.81
254.494	85.81
254.727	87.81
254.96	79.81
255.193	67.81
255.426	82.81
255.659	82.81
255.892	81.81
256.124	86.81
256.357	79.81
256.59	78.81
256.823	75.81
257.056	75.81
257.289	75.81
257.521	83.81
257.754	78.81
257.987	89.81
258.22	71.81
258.452	70.81
258.685	78.81
258.918	66.81
259.151	78.81
259.383	83.81
259.616	89.81
259.849	84.81
260.081	67.81
260.314	79.81
260.547	69.81
260.779	97.81
261.012	81.81
261.244	81.81
261.477	93.81
261.71	93.81
261.942	118.81
262.175	135.81
262.407	69.81
262.64	72.81
262.872	76.81
263.105	95.81
263.337	81.81
263.57	75.81
263.802	68.81
264.035	82.81
264.267	80.81
264.499	83.81
264.732	72.81
264.964	80.81
265.197	76.81
265.429	79.81
265.661	74.81
265.894	80.81
266.126	81.81
266.358	83.81
266.591	92.81
266.823	71.81
267.055	71.81
267.287	90.81
267.52	78.81
267.752	83.81
267.984	68.81
268.216	79.81
268.448	85.81
268.681	82.81
268.913	78.81
269.145	68.81
269.377	86.81
269.609	78.81
269.841	90.81
270.073	86.81
270.306	83.81
270.538	92.81
270.77	85.81
271.002	85.81
271.234	79.81
271.466	84.81
271.698	72.81
271.93	70.81
272.162	78.81
272.394	84.81
272.626	84.81
272.858	85.81
273.09	78.81
273.322	93.81
273.553	78.81
273.785	85.81
274.017	76.81
274.249	84.81
274.481	75.81
274.713	79.81
274.945	79.81
275.176	78.81
275.408	93.81
275.64	80.81
275.872	80.81
276.104	83.81
276.335	97.81
276.567	118.81
276.799	121.81
277.031	109.81
277.262	89.81
277.494	85.81
277.726	74.81
277.957	70.81
278.189	71.81
278.421	86.81
278.652	71.81
278.884	89.81
279.115	79.81
279.347	80.81
279.579	77.81
279.81	90.81
280.042	84.81
280.273	79.81
280.505	84.81
280.736	84.81
280.968	89.81
281.199	89.81
281.431	85.81
281.662	91.81
281.894	90.81
282.125	105.81
282.356	121.81
282.588	159.81
282.819	135.81
283.051	87.81
283.282	82.81
283.513	89.81
283.745	83.81
283.976	68.81
284.207	74.81
284.439	84.81
284.67	79.81
284.901	81.81
285.132	87.81
285.364	78.81
285.595	89.81
285.826	90.81
286.057	81.81
286.288	79.81
286.52	80.81
286.751	68.81
286.982	88.81
287.213	87.81
287.444	76.81
287.675	64.81
287.906	70.81
288.138	89.81
288.369	96.81
288.6	86.81
288.831	86.81
289.062	89.81
289.293	98.81
289.524	67.81
289.755	87.81
289.986	80.81
290.217	84.81
290.448	81.81
290.679	87.81
290.91	81.81
291.141	85.81
291.371	97.81
291.602	89.81
291.833	81.81
292.064	86.81
292.295	75.81
292.526	82.81
292.757	100.81
292.987	87.81
293.218	78.81
293.449	87.81
293.68	84.81
293.91	88.81
294.141	93.81
294.372	93.81
294.603	93.81
294.833	93.81
295.064	78.81
295.295	89.81
295.525	97.81
295.756	93.81
295.987	137.81
296.217	163.81
296.448	136.81
296.679	94.81
296.909	87.81
297.14	109.81
297.37	82.81
297.601	91.81
297.831	86.81
298.062	92.81
298.292	90.81
298.523	88.81
298.753	84.81
298.984	79.81
299.214	91.81
299.445	91.81
299.675	88.81
299.905	80.81
300.136	77.81
300.366	82.81
300.597	83.81
300.827	101.81
301.057	92.81
301.288	96.81
301.518	88.81
301.748	82.81
301.979	93.81
302.209	69.81
302.439	83.81
302.669	83.81
302.9	91.81
303.13	104.81
303.36	91.81
303.59	97.81
303.82	95.81
304.051	85.81
304.281	93.81
304.511	89.81
304.741	74.81
304.971	85.81
305.201	59.81
305.431	88.81
305.661	95.81
305.891	92.81
306.121	98.81
306.352	102.81
306.582	99.81
306.812	111.81
307.042	92.81
307.272	103.81
307.502	96.81
307.731	85.81
307.961	87.81
308.191	81.81
308.421	81.81
308.651	77.81
308.881	101.81
309.111	98.81
309.341	97.81
309.571	107.81
309.8	88.81
310.03	96.81
310.26	89.81
310.49	87.81
310.72	103.81
310.949	103.81
311.179	106.81
311.409	78.81
311.639	93.81
311.868	91.81
312.098	88.81
312.328	79.81
312.557	92.81
312.787	105.81
313.017	88.81
313.246	94.81
313.476	94.81
313.706	93.81
313.935	90.81
314.165	112.81
314.394	94.81
314.624	93.81
314.853	88.81
315.083	78.81
315.312	86.81
315.542	93.81
315.771	92.81
316.001	91.81
316.23	86.81
316.46	87.81
316.689	95.81
316.919	105.81
317.148	100.81
317.377	104.81
317.607	93.81
317.836	88.81
318.065	96.81
318.295	84.81
318.524	82.81
318.753	90.81
318.983	82.81
319.212	113.81
319.441	115.81
319.67	113.81
319.9	87.81
320.129	86.81
320.358	96.81
320.587	98.81
320.816	91.81
321.046	98.81
321.275	97.81
321.504	98.81
321.733	99.81
321.962	97.81
322.191	93.81
322.42	109.81
322.649	108.81
322.878	101.81
323.108	124.81
323.337	127.81
323.566	149.81
323.795	187.81
324.024	247.81
324.253	510.81
324.482	1139.81
324.71	2314.81
324.939	3032.81
325.168	1125.81
325.397	309.81
325.626	186.81
325.855	136.81
326.084	143.81
326.313	137.81
326.542	183.81
326.77	270.81
326.999	570.81
327.228	1201.81
327.457	2256.81
327.686	1755.81
327.914	472.81
328.143	230.81
328.372	166.81
328.6	139.81
328.829	132.81
329.058	161.81
329.287	144.81
329.515	109.81
329.744	122.81
329.972	103.81
330.201	120.81
330.43	119.81
330.658	136.81
330.887	186.81
331.115	145.81
331.344	118.81
331.572	117.81
331.801	106.81
332.03	102.81
332.258	109.81
332.486	82.81
332.715	95.81
332.943	95.81
333.172	89.81
333.4	86.81
333.629	98.81
333.857	114.81
334.085	122.81
334.314	104.81
334.542	112.81
334.771	124.81
334.999	104.81
335.227	102.81
335.455	91.81
335.684	87.81
335.912	114.81
336.14	75.81
336.369	99.81
336.597	115.81
336.825	96.81
337.053	99.81
337.281	87.81
337.51	91.81
337.738	86.81
337.966	76.81
338.194	109.81
338.422	105.81
338.65	105.81
338.878	94.81
339.106	83.81
339.334	94.81
339.562	77.81
339.79	81.81
340.018	80.81
340.246	99.81
340.474	88.81
340.702	87.81
340.93	91.81
341.158	94.81
341.386	88.81
341.614	93.81
341.842	98.81
342.07	92.81
342.298	99.81
342.526	85.81
342.754	85.81
342.981	99.81
343.209	91.81
343.437	92.81
343.665	75.81
343.893	82.81
344.12	99.81
344.348	85.81
344.576	85.81
344.804	80.81
345.031	91.81
345.259	91.81
345.487	93.81
345.714	95.81
345.942	78.81
346.17	73.81
346.397	94.81
346.625	101.81
346.853	92.81
347.08	83.81
347.308	91.81
347.535	96.81
347.763	111.81
347.99	100.81
348.218	98.81
348.445	114.81
348.673	109.81
348.9	88.81
349.128	94.81
349.355	84.81
349.583	79.81
349.81	91.81
350.037	77.81
350.265	79.81
350.492	97.81
350.72	95.81
350.947	98.81
351.174	105.81
351.402	100.81
351.629	97.81
351.856	98.81
352.083	114.81
352.311	105.81
352.538	109.81
352.765	125.81
352.992	110.81
353.22	94.81
353.447	110.81
353.674	96.81
353.901	101.81
354.128	103.81
354.355	104.81
354.583	85.81
354.81	101.81
355.037	89.81
355.264	102.81
355.491	98.81
355.718	85.81
355.945	75.81
356.172	104.81
356.399	96.81
356.626	95.81
356.853	84.81
357.08	84.81
357.307	79.81
357.534	103.81
357.761	95.81
357.988	88.81
358.215	101.81
358.441	103.81
358.668	96.81
358.895	81.81
359.122	83.81
359.349	90.81
359.576	89.81
359.802	103.81
360.029	121.81
360.256	119.81
360.483	102.81
360.709	79.81
360.936	86.81
361.163	94.81
361.39	111.81
361.616	95.81
361.843	90.81
362.07	84.81
362.296	110.81
362.523	99.81
362.749	80.81
362.976	81.81
363.203	90.81
363.429	91.81
363.656	86.81
363.882	93.81
364.109	88.81
364.335	90.81
364.562	87.81
364.788	82.81
365.015	99.81
365.241	93.81
365.468	104.81
365.694	113.81
365.92	91.81
366.147	90.81
366.373	92.81
366.599	76.81
366.826	79.81
367.052	92.81
367.278	96.81
367.505	93.81
367.731	91.81
367.957	86.81
368.184	93.81
368.41	106.81
368.636	137.81
368.862	138.81
369.089	113.81
369.315	86.81
369.541	108.81
369.767	82.81
369.993	99.81
370.219	85.81
370.445	83.81
370.672	82.81
370.898	86.81
371.124	80.81
371.35	95.81
371.576	105.81
371.802	87.81
372.028	86.81
372.254	86.81
372.48	81.81
372.706	96.81
372.932	78.81
373.158	101.81
373.384	95.81
373.61	79.81
373.835	91.81
374.061	81.81
374.287	86.81
374.513	83.81
374.739	93.81
374.965	84.81
375.191	93.81
375.416	96.81
375.642	78.81
375.868	73.81
376.094	79.81
376.319	77.81
376.545	81.81
376.771	67.81
376.997	101.81
377.222	83.81
377.448	83.81
377.674	97.81
377.899	76.81
378.125	71.81
378.35	94.81
378.576	84.81
378.802	87.81
379.027	85.81
379.253	75.81
379.478	85.81
379.704	90.81
379.929	86.81
380.155	94.81
380.38	97.81
380.606	95.81
380.831	96.81
381.057	93.81
381.282	80.81
381.507	91.81
381.733	101.81
381.958	93.81
382.184	102.81
382.409	98.81
382.634	109.81
382.86	95.81
383.085	111.81
383.31	97.81
383.535	90.81
383.761	95.81
383.986	87.81
384.211	90.81
384.436	93.81
384.662	102.81
384.887	118.81
385.112	115.81
385.337	98.81
385.562	102.81
385.787	97.81
386.013	106.81
386.238	122.81
386.463	103.81
386.688	102.81
386.913	94.81
387.138	114.81
387.363	99.81
387.588	108.81
387.813	75.81
388.038	106.81
388.263	117.81
388.488	116.81
388.713	96.81
388.938	103.81
389.163	82.81
389.387	101.81
389.612	107.81
389.837	93.81
390.062	109.81
390.287	102.81
390.512	82.81
390.736	94.81
390.961	91.81
391.186	96.81
391.411	87.81
391.636	83.81
391.86	84.81
392.085	75.81
392.31	102.81
392.534	72.81
392.759	85.81
392.984	102.81
393.208	81.81
393.433	89.81
393.658	66.81
393.882	80.81
394.107	70.81
394.331	79.81
394.556	84.81
394.78	90.81
395.005	84.81
395.229	79.81
395.454	85.81
395.678	82.81
395.903	85.81
396.127	85.81
396.352	74.81
396.576	83.81
396.801	89.81
397.025	92.81
397.249	78.81
397.474	75.81
397.698	77.81
397.922	84.81
398.147	98.81
398.371	85.81
398.595	79.81
398.82	79.81
399.044	72.81
399.268	90.81
399.492	83.81
399.717	78.81
399.941	74.81
400.165	87.81
400.389	89.81
400.613	94.81
400.837	82.81
401.062	90.81
401.286	76.81
401.51	95.81
401.734	87.81
401.958	90.81
402.182	142.81
402.406	198.81
402.63	151.81
402.854	104.81
403.078	89.81
403.302	76.81
403.526	81.81
403.75	87.81
403.974	93.81
404.198	90.81
404.422	74.81
404.645	91.81
404.869	81.81
405.093	89.81
405.317	90.81
405.541	109.81
405.765	97.81
405.988	125.81
406.212	221.81
406.436	318.81
406.66	200.81
406.883	108.81
407.107	97.81
407.331	88.81
407.555	95.81
407.778	99.81
408.002	94.81
408.226	80.81
408.449	93.81
408.673	88.81
408.896	96.81
409.12	93.81
409.344	81.81
409.567	93.81
409.791	78.81
410.014	90.81
410.238	94.81
410.461	109.81
410.685	76.81
410.908	99.81
411.132	88.81
411.355	97.81
411.578	95.81
411.802	89.81
412.025	98.81
412.249	102.81
412.472	91.81
412.695	96.81
412.919	97.81
413.142	78.81
413.365	93.81
413.589	90.81
413.812	85.81
414.035	85.81
414.258	86.81
414.482	74.81
414.705	82.81
414.928	89.81
415.151	99.81
415.374	86.81
415.597	83.81
415.821	80.81
416.044	86.81
416.267	76.81
416.49	85.81
416.713	77.81
416.936	73.81
417.159	86.81
417.382	89.81
417.605	91.81
417.828	94.81
418.051	77.81
418.274	94.81
418.497	82.81
418.72	72.81
418.943	69.81
419.166	90.81
419.389	82.81
419.611	81.81
419.834	86.81
420.057	87.81
420.28	85.81
420.503	71.81
420.726	74.81
420.948	94.81
421.171	101.81
421.394	86.81
421.617	67.81
421.839	81.81
422.062	77.81
422.285	86.81
422.507	102.81
422.73	90.81
422.953	74.81
423.175	83.81
423.398	100.81
423.621	85.81
423.843	89.81
424.066	67.81
424.288	90.81
424.511	86.81
424.733	94.81
424.956	101.81
425.178	95.81
425.401	99.81
425.623	79.81
425.846	84.81
426.068	95.81
426.291	91.81
426.513	87.81
426.735	106.81
426.958	99.81
427.18	102.81
427.402	155.81
427.625	201.81
427.847	162.81
428.069	99.81
428.292	81.81
428.514	87.81
428.736	72.81
428.958	72.81
429.181	101.81
429.403	86.81
429.625	78.81
429.847	72.81
430.069	100.81
430.292	71.81
430.514	66.81
430.736	96.81
430.958	75.81
431.18	81.81
431.402	85.81
431.624	73.81
431.846	81.81
432.068	73.81
432.29	87.81
432.512	88.81
432.734	93.81
432.956	89.81
433.178	90.81
433.4	104.81
433.622	88.81
433.844	84.81
434.066	83.81
434.287	88.81
434.509	86.81
434.731	84.81
434.953	86.81
435.175	83.81
435.397	97.81
435.618	102.81
435.84	89.81
436.062	113.81
436.284	117.81
436.505	98.81
436.727	114.81
436.949	89.81
437.17	85.81
437.392	80.81
437.614	91.81
437.835	129.81
438.057	130.81
438.278	106.81
438.5	102.81
438.721	127.81
438.943	108.81
439.165	81.81
439.386	68.81
439.608	94.81
439.829	99.81
440.05	148.81
440.272	145.81
440.493	110.81
440.715	77.81
440.936	103.81
441.158	74.81
441.379	75.81
441.6	94.81
441.822	94.81
442.043	103.81
442.264	112.81
442.486	93.81
442.707	86.81
442.928	109.81
443.149	155.81
443.371	151.81
443.592	128.81
443.813	135.81
444.034	104.81
444.255	87.81
444.476	85.81
444.698	95.81
444.919	88.81
445.14	142.81
445.361	124.81
445.582	131.81
445.803	158.81
446.024	144.81
446.245	135.81
446.466	113.81
446.687	73.81
446.908	78.81
447.129	92.81
447.35	79.81
447.571	93.81
447.792	81.81
448.013	101.81
448.234	103.81
448.455	110.81
448.675	119.81
448.896	126.81
449.117	106.81
449.338	105.81
449.559	135.81
449.779	145.81
450	95.81
450.221	76.81
450.442	80.81
450.662	98.81
450.883	94.81
451.104	126.81
451.324	97.81
451.545	85.81
451.766	87.81
451.986	88.81
452.207	84.81
452.428	103.81
452.648	112.81
452.869	109.81
453.089	131.81
453.31	139.81
453.53	101.81
453.751	88.81
453.971	99.81
454.192	118.81
454.412	87.81
454.633	82.81
454.853	95.81
455.073	78.81
455.294	90.81
455.514	94.81
455.734	97.81
455.955	105.81
456.175	77.81
456.395	69.81
456.616	82.81
456.836	71.81
457.056	80.81
457.276	81.81
457.497	76.81
457.717	79.81
457.937	81.81
458.157	83.81
458.377	95.81
458.598	116.81
458.818	186.81
459.038	185.81
459.258	134.81
459.478	95.81
459.698	78.81
459.918	82.81
460.138	89.81
460.358	82.81
460.578	75.81
460.798	83.81
461.018	91.81
461.238	101.81
461.458	83.81
461.678	73.81
461.898	78.81
462.118	79.81
462.338	70.81
462.558	81.81
462.777	84.81
462.997	73.81
463.217	79.81
463.437	76.81
463.657	89.81
463.876	68.81
464.096	87.81
464.316	93.81
464.536	79.81
464.755	96.81
464.975	125.81
465.195	220.81
465.414	208.81
465.634	99.81
465.854	81.81
466.073	94.81
466.293	86.81
466.512	80.81
466.732	79.81
466.951	80.81
467.171	85.81
467.391	94.81
467.61	114.81
467.829	96.81
468.049	82.81
468.268	96.81
468.488	78.81
468.707	89.81
468.927	81.81
469.146	76.81
469.365	94.81
469.585	89.81
469.804	96.81
470.023	102.81
470.243	71.81
470.462	103.81
470.681	129.81
470.901	83.81
471.12	94.81
471.339	88.81
471.558	79.81
471.777	79.81
471.997	91.81
472.216	112.81
472.435	110.81
472.654	95.81
472.873	86.81
473.092	92.81
473.311	76.81
473.53	77.81
473.749	91.81
473.968	96.81
474.187	119.81
474.406	103.81
474.625	84.81
474.844	79.81
475.063	82.81
475.282	72.81
475.501	83.81
475.72	94.81
475.939	78.81
476.158	83.81
476.377	75.81
476.596	73.81
476.814	92.81
477.033	81.81
477.252	76.81
477.471	87.81
477.69	84.81
477.908	89.81
478.127	96.81
478.346	74.81
478.564	93.81
478.783	89.81
479.002	90.81
479.22	84.81
479.439	100.81
479.658	114.81
479.876	99.81
480.095	100.81
480.313	102.81
480.532	80.81
480.751	82.81
480.969	93.81
481.188	129.81
481.406	129.81
481.624	99.81
481.843	91.81
482.061	85.81
482.28	77.81
482.498	79.81
482.717	87.81
482.935	85.81
483.153	76.81
483.372	90.81
483.59	86.81
483.808	72.81
484.027	76.81
484.245	74.81
484.463	90.81
484.681	95.81
484.9	93.81
485.118	85.81
485.336	81.81
485.554	87.81
485.772	94.81
485.99	102.81
486.209	90.81
486.427	108.81
486.645	113.81
486.863	116.81
487.081	94.81
487.299	104.81
487.517	73.81
487.735	91.81
487.953	91.81
488.171	99.81
488.389	105.81
488.607	96.81
488.825	95.81
489.043	88.81
489.261	88.81
489.479	98.81
489.696	81.81
489.914	90.81
490.132	85.81
490.35	89.81
490.568	83.81
490.786	90.81
491.003	74.81
491.221	86.81
491.439	90.81
491.657	84.81
491.874	93.81
492.092	89.81
492.31	103.81
492.527	87.81
492.745	93.81
492.963	78.81
493.18	69.81
493.398	99.81
493.615	91.81
493.833	86.81
494.05	93.81
494.268	90.81
494.485	86.81
494.703	86.81
494.92	80.81
495.138	86.81
495.355	94.81
495.573	82.81
495.79	69.81
496.008	92.81
496.225	83.81
496.442	75.81
496.66	80.81
496.877	78.81
497.094	102.81
497.312	92.81
497.529	96.81
497.746	91.81
497.963	90.81
498.181	96.81
498.398	86.81
498.615	112.81
498.832	102.81
499.049	89.81
499.267	87.81
499.484	94.81
499.701	106.81
499.918	86.81
500.135	82.81
500.352	95.81
500.569	71.81
500.786	90.81
501.003	93.81
501.22	85.81
501.437	94.81
501.654	96.81
501.871	106.81
502.088	87.81
502.305	93.81
502.522	90.81
502.739	98.81
502.956	79.81
503.172	94.81
503.389	81.81
503.606	129.81
503.823	99.81
504.04	96.81
504.256	90.81
504.473	94.81
504.69	95.81
504.907	102.81
505.123	79.81
505.34	82.81
505.557	81.81
505.773	86.81
505.99	81.81
506.207	75.81
506.423	93.81
506.64	78.81
506.856	94.81
507.073	89.81
507.289	89.81
507.506	90.81
507.722	132.81
507.939	122.81
508.155	93.81
508.372	104.81
508.588	89.81
508.805	86.81
509.021	89.81
509.238	94.81
509.454	113.81
509.67	103.81
509.887	117.81
510.103	143.81
510.319	253.81
510.536	1041.81
510.752	3605.81
510.968	988.81
511.184	197.81
511.401	121.81
511.617	92.81
511.833	101.81
512.049	86.81
512.265	89.81
512.481	81.81
512.698	68.81
512.914	91.81
513.13	91.81
513.346	101.81
513.562	87.81
513.778	101.81
513.994	97.81
514.21	109.81
514.426	133.81
514.642	168.81
514.858	143.81
515.074	217.81
515.29	682.81
515.506	2456.81
515.721	871.81
515.937	217.81
