Data from Circ_2014_H10_HRD10591_00015.txt Node
Date: Wed Jan 03 10:02:12 EST 2024
User: Yrep
Spectrometer: HR+D1059
Trigger mode: 1
Integration Time (sec): 1.000000E-1
Scans to average: 1
Electric dark correction enabled: true
Nonlinearity correction enabled: false
Boxcar width: 0
XAxis mode: Wavelengths
Number of Pixels in Spectrum: 2048
>>>>>Begin Spectral Data<<<<<
223.165	-9.38
223.4	-9.38
223.635	-9.38
223.869	-5.38
224.104	-12.38
224.338	-8.38
224.573	-13.38
224.808	-16.38
225.042	-11.38
225.277	-8.38
225.511	-8.38
225.746	5.62
225.98	-0.38
226.215	2.62
226.449	18.62
226.683	22.62
226.918	23.62
227.152	20.62
227.387	29.62
227.621	47.62
227.856	36.62
228.09	47.62
228.324	55.62
228.559	50.62
228.793	68.62
229.027	53.62
229.262	62.62
229.496	89.62
229.73	103.62
229.964	95.62
230.199	76.62
230.433	69.62
230.667	87.62
230.901	86.62
231.136	90.62
231.37	80.62
231.604	80.62
231.838	85.62
232.072	64.62
232.306	90.62
232.541	79.62
232.775	83.62
233.009	87.62
233.243	75.62
233.477	71.62
233.711	74.62
233.945	87.62
234.179	77.62
234.413	79.62
234.647	82.62
234.881	83.62
235.115	88.62
235.349	85.62
235.583	69.62
235.817	79.62
236.051	79.62
236.285	78.62
236.519	66.62
236.753	77.62
236.987	75.62
237.221	89.62
237.455	86.62
237.689	95.62
237.922	71.62
238.156	64.62
238.39	70.62
238.624	75.62
238.858	86.62
239.091	87.62
239.325	86.62
239.559	88.62
239.793	84.62
240.027	68.62
240.26	82.62
240.494	75.62
240.728	72.62
240.961	80.62
241.195	90.62
241.429	77.62
241.662	76.62
241.896	79.62
242.13	65.62
242.363	79.62
242.597	70.62
242.83	54.62
243.064	84.62
243.298	72.62
243.531	83.62
243.765	88.62
243.998	71.62
244.232	82.62
244.465	88.62
244.699	74.62
244.932	77.62
245.166	75.62
245.399	73.62
245.633	76.62
245.866	61.62
246.099	61.62
246.333	93.62
246.566	86.62
246.8	79.62
247.033	82.62
247.266	86.62
247.5	84.62
247.733	83.62
247.966	90.62
248.2	74.62
248.433	77.62
248.666	77.62
248.899	82.62
249.133	76.62
249.366	108.62
249.599	97.62
249.832	86.62
250.066	92.62
250.299	91.62
250.532	90.62
250.765	83.62
250.998	64.62
251.231	74.62
251.465	76.62
251.698	96.62
251.931	65.62
252.164	91.62
252.397	87.62
252.63	87.62
252.863	87.62
253.096	98.62
253.329	80.62
253.562	82.62
253.795	88.62
254.028	82.62
254.261	79.62
254.494	93.62
254.727	102.62
254.96	80.62
255.193	80.62
255.426	88.62
255.659	84.62
255.892	84.62
256.124	79.62
256.357	78.62
256.59	92.62
256.823	94.62
257.056	70.62
257.289	85.62
257.521	84.62
257.754	80.62
257.987	85.62
258.22	84.62
258.452	74.62
258.685	68.62
258.918	86.62
259.151	78.62
259.383	79.62
259.616	93.62
259.849	75.62
260.081	80.62
260.314	87.62
260.547	89.62
260.779	92.62
261.012	94.62
261.244	75.62
261.477	86.62
261.71	104.62
261.942	138.62
262.175	154.62
262.407	94.62
262.64	91.62
262.872	80.62
263.105	74.62
263.337	81.62
263.57	84.62
263.802	91.62
264.035	87.62
264.267	79.62
264.499	96.62
264.732	71.62
264.964	69.62
265.197	85.62
265.429	94.62
265.661	84.62
265.894	69.62
266.126	92.62
266.358	105.62
266.591	88.62
266.823	79.62
267.055	90.62
267.287	83.62
267.52	92.62
267.752	80.62
267.984	78.62
268.216	82.62
268.448	87.62
268.681	77.62
268.913	77.62
269.145	83.62
269.377	81.62
269.609	79.62
269.841	86.62
270.073	80.62
270.306	84.62
270.538	92.62
270.77	90.62
271.002	93.62
271.234	92.62
271.466	88.62
271.698	95.62
271.93	94.62
272.162	82.62
272.394	83.62
272.626	99.62
272.858	87.62
273.09	78.62
273.322	87.62
273.553	78.62
273.785	92.62
274.017	82.62
274.249	83.62
274.481	84.62
274.713	90.62
274.945	83.62
275.176	84.62
275.408	96.62
275.64	91.62
275.872	68.62
276.104	85.62
276.335	96.62
276.567	107.62
276.799	117.62
277.031	117.62
277.262	100.62
277.494	99.62
277.726	91.62
277.957	73.62
278.189	98.62
278.421	73.62
278.652	95.62
278.884	86.62
279.115	81.62
279.347	86.62
279.579	87.62
279.81	97.62
280.042	89.62
280.273	94.62
280.505	76.62
280.736	79.62
280.968	80.62
281.199	76.62
281.431	98.62
281.662	84.62
281.894	97.62
282.125	103.62
282.356	147.62
282.588	168.62
282.819	126.62
283.051	90.62
283.282	83.62
283.513	91.62
283.745	80.62
283.976	88.62
284.207	75.62
284.439	84.62
284.67	86.62
284.901	84.62
285.132	95.62
285.364	87.62
285.595	87.62
285.826	86.62
286.057	85.62
286.288	78.62
286.52	71.62
286.751	101.62
286.982	78.62
287.213	91.62
287.444	93.62
287.675	98.62
287.906	100.62
288.138	92.62
288.369	102.62
288.6	85.62
288.831	92.62
289.062	94.62
289.293	97.62
289.524	82.62
289.755	90.62
289.986	79.62
290.217	99.62
290.448	95.62
290.679	92.62
290.91	85.62
291.141	85.62
291.371	92.62
291.602	94.62
291.833	92.62
292.064	88.62
292.295	93.62
292.526	94.62
292.757	92.62
292.987	110.62
293.218	78.62
293.449	84.62
293.68	90.62
293.91	98.62
294.141	95.62
294.372	85.62
294.603	84.62
294.833	79.62
295.064	85.62
295.295	93.62
295.525	83.62
295.756	110.62
295.987	138.62
296.217	164.62
296.448	142.62
296.679	91.62
296.909	85.62
297.14	86.62
297.37	77.62
297.601	93.62
297.831	85.62
298.062	80.62
298.292	97.62
298.523	80.62
298.753	78.62
298.984	77.62
299.214	99.62
299.445	103.62
299.675	98.62
299.905	105.62
300.136	95.62
300.366	78.62
300.597	91.62
300.827	105.62
301.057	110.62
301.288	107.62
301.518	102.62
301.748	99.62
301.979	99.62
302.209	97.62
302.439	88.62
302.669	78.62
302.9	76.62
303.13	90.62
303.36	93.62
303.59	101.62
303.82	119.62
304.051	94.62
304.281	85.62
304.511	92.62
304.741	79.62
304.971	103.62
305.201	96.62
305.431	91.62
305.661	87.62
305.891	90.62
306.121	107.62
306.352	111.62
306.582	116.62
306.812	107.62
307.042	100.62
307.272	105.62
307.502	102.62
307.731	109.62
307.961	98.62
308.191	99.62
308.421	75.62
308.651	97.62
308.881	94.62
309.111	91.62
309.341	105.62
309.571	110.62
309.8	110.62
310.03	100.62
310.26	118.62
310.49	109.62
310.72	116.62
310.949	114.62
311.179	111.62
311.409	97.62
311.639	105.62
311.868	90.62
312.098	87.62
312.328	111.62
312.557	109.62
312.787	111.62
313.017	117.62
313.246	103.62
313.476	86.62
313.706	99.62
313.935	106.62
314.165	94.62
314.394	88.62
314.624	103.62
314.853	94.62
315.083	86.62
315.312	106.62
315.542	89.62
315.771	96.62
316.001	107.62
316.23	99.62
316.46	99.62
316.689	95.62
316.919	97.62
317.148	111.62
317.377	106.62
317.607	107.62
317.836	86.62
318.065	96.62
318.295	97.62
318.524	91.62
318.753	98.62
318.983	95.62
319.212	122.62
319.441	111.62
319.67	118.62
319.9	92.62
320.129	103.62
320.358	100.62
320.587	90.62
320.816	110.62
321.046	118.62
321.275	108.62
321.504	99.62
321.733	91.62
321.962	107.62
322.191	111.62
322.42	104.62
322.649	110.62
322.878	125.62
323.108	130.62
323.337	148.62
323.566	154.62
323.795	172.62
324.024	253.62
324.253	526.62
324.482	1173.62
324.71	2366.62
324.939	3193.62
325.168	1171.62
325.397	322.62
325.626	182.62
325.855	147.62
326.084	146.62
326.313	150.62
326.542	192.62
326.77	299.62
326.999	608.62
327.228	1274.62
327.457	2266.62
327.686	1820.62
327.914	518.62
328.143	241.62
328.372	169.62
328.6	155.62
328.829	138.62
329.058	144.62
329.287	149.62
329.515	118.62
329.744	108.62
329.972	121.62
330.201	110.62
330.43	147.62
330.658	150.62
330.887	175.62
331.115	151.62
331.344	105.62
331.572	118.62
331.801	122.62
332.03	118.62
332.258	100.62
332.486	94.62
332.715	101.62
332.943	87.62
333.172	88.62
333.4	114.62
333.629	109.62
333.857	134.62
334.085	122.62
334.314	128.62
334.542	141.62
334.771	124.62
334.999	105.62
335.227	92.62
335.455	98.62
335.684	110.62
335.912	102.62
336.14	90.62
336.369	107.62
336.597	102.62
336.825	101.62
337.053	86.62
337.281	90.62
337.51	89.62
337.738	102.62
337.966	103.62
338.194	109.62
338.422	95.62
338.65	98.62
338.878	78.62
339.106	83.62
339.334	92.62
339.562	87.62
339.79	93.62
340.018	102.62
340.246	80.62
340.474	104.62
340.702	107.62
340.93	98.62
341.158	95.62
341.386	90.62
341.614	102.62
341.842	103.62
342.07	99.62
342.298	108.62
342.526	92.62
342.754	94.62
342.981	91.62
343.209	85.62
343.437	99.62
343.665	80.62
343.893	101.62
344.12	93.62
344.348	96.62
344.576	92.62
344.804	98.62
345.031	117.62
345.259	116.62
345.487	105.62
345.714	96.62
345.942	101.62
346.17	97.62
346.397	108.62
346.625	96.62
346.853	97.62
347.08	94.62
347.308	97.62
347.535	110.62
347.763	119.62
347.99	91.62
348.218	109.62
348.445	118.62
348.673	110.62
348.9	102.62
349.128	111.62
349.355	90.62
349.583	94.62
349.81	102.62
350.037	91.62
350.265	103.62
350.492	93.62
350.72	95.62
350.947	95.62
351.174	114.62
351.402	125.62
351.629	116.62
351.856	104.62
352.083	103.62
352.311	99.62
352.538	123.62
352.765	106.62
352.992	121.62
353.22	125.62
353.447	107.62
353.674	97.62
353.901	96.62
354.128	102.62
354.355	113.62
354.583	104.62
354.81	96.62
355.037	94.62
355.264	90.62
355.491	85.62
355.718	98.62
355.945	88.62
356.172	93.62
356.399	109.62
356.626	103.62
356.853	88.62
357.08	91.62
357.307	92.62
357.534	85.62
357.761	110.62
357.988	101.62
358.215	103.62
358.441	103.62
358.668	98.62
358.895	94.62
359.122	82.62
359.349	84.62
359.576	84.62
359.802	103.62
360.029	134.62
360.256	142.62
360.483	116.62
360.709	106.62
360.936	91.62
361.163	106.62
361.39	100.62
361.616	113.62
361.843	87.62
362.07	89.62
362.296	114.62
362.523	87.62
362.749	93.62
362.976	94.62
363.203	84.62
363.429	89.62
363.656	84.62
363.882	88.62
364.109	98.62
364.335	103.62
364.562	95.62
364.788	91.62
365.015	101.62
365.241	109.62
365.468	127.62
365.694	130.62
365.92	106.62
366.147	93.62
366.373	90.62
366.599	87.62
366.826	102.62
367.052	100.62
367.278	95.62
367.505	93.62
367.731	110.62
367.957	90.62
368.184	107.62
368.41	112.62
368.636	122.62
368.862	132.62
369.089	117.62
369.315	93.62
369.541	100.62
369.767	104.62
369.993	105.62
370.219	93.62
370.445	86.62
370.672	89.62
370.898	97.62
371.124	94.62
371.35	103.62
371.576	90.62
371.802	74.62
372.028	94.62
372.254	102.62
372.48	102.62
372.706	90.62
372.932	93.62
373.158	93.62
373.384	81.62
373.61	90.62
373.835	90.62
374.061	92.62
374.287	100.62
374.513	100.62
374.739	91.62
374.965	86.62
375.191	86.62
375.416	88.62
375.642	82.62
375.868	90.62
376.094	102.62
376.319	99.62
376.545	99.62
376.771	93.62
376.997	79.62
377.222	85.62
377.448	93.62
377.674	99.62
377.899	88.62
378.125	89.62
378.35	97.62
378.576	85.62
378.802	91.62
379.027	95.62
379.253	78.62
379.478	82.62
379.704	93.62
379.929	93.62
380.155	100.62
380.38	96.62
380.606	90.62
380.831	100.62
381.057	96.62
381.282	89.62
381.507	91.62
381.733	94.62
381.958	98.62
382.184	94.62
382.409	112.62
382.634	102.62
382.86	100.62
383.085	116.62
383.31	95.62
383.535	111.62
383.761	114.62
383.986	99.62
384.211	106.62
384.436	106.62
384.662	91.62
384.887	91.62
385.112	115.62
385.337	100.62
385.562	113.62
385.787	132.62
386.013	114.62
386.238	118.62
386.463	109.62
386.688	111.62
386.913	102.62
387.138	114.62
387.363	98.62
387.588	114.62
387.813	106.62
388.038	104.62
388.263	122.62
388.488	110.62
388.713	92.62
388.938	96.62
389.163	101.62
389.387	92.62
389.612	100.62
389.837	104.62
390.062	107.62
390.287	78.62
390.512	88.62
390.736	89.62
390.961	90.62
391.186	83.62
391.411	89.62
391.636	93.62
391.86	92.62
392.085	91.62
392.31	73.62
392.534	77.62
392.759	80.62
392.984	76.62
393.208	94.62
393.433	108.62
393.658	102.62
393.882	100.62
394.107	92.62
394.331	83.62
394.556	80.62
394.78	90.62
395.005	82.62
395.229	94.62
395.454	99.62
395.678	84.62
395.903	95.62
396.127	94.62
396.352	77.62
396.576	85.62
396.801	96.62
397.025	86.62
397.249	93.62
397.474	91.62
397.698	103.62
397.922	92.62
398.147	91.62
398.371	61.62
398.595	82.62
398.82	86.62
399.044	86.62
399.268	79.62
399.492	75.62
399.717	91.62
399.941	83.62
400.165	84.62
400.389	99.62
400.613	92.62
400.837	83.62
401.062	89.62
401.286	95.62
401.51	104.62
401.734	107.62
401.958	103.62
402.182	147.62
402.406	187.62
402.63	137.62
402.854	100.62
403.078	93.62
403.302	90.62
403.526	88.62
403.75	92.62
403.974	82.62
404.198	91.62
404.422	93.62
404.645	93.62
404.869	102.62
405.093	91.62
405.317	111.62
405.541	97.62
405.765	109.62
405.988	147.62
406.212	221.62
406.436	332.62
406.66	194.62
406.883	111.62
407.107	116.62
407.331	104.62
407.555	101.62
407.778	91.62
408.002	76.62
408.226	87.62
408.449	96.62
408.673	79.62
408.896	98.62
409.12	104.62
409.344	87.62
409.567	88.62
409.791	80.62
410.014	85.62
410.238	91.62
410.461	91.62
410.685	107.62
410.908	74.62
411.132	103.62
411.355	83.62
411.578	86.62
411.802	88.62
412.025	91.62
412.249	113.62
412.472	108.62
412.695	95.62
412.919	73.62
413.142	86.62
413.365	93.62
413.589	91.62
413.812	93.62
414.035	81.62
414.258	76.62
414.482	79.62
414.705	88.62
414.928	88.62
415.151	116.62
415.374	84.62
415.597	88.62
415.821	90.62
416.044	90.62
416.267	95.62
416.49	99.62
416.713	106.62
416.936	85.62
417.159	78.62
417.382	91.62
417.605	93.62
417.828	95.62
418.051	103.62
418.274	92.62
418.497	90.62
418.72	100.62
418.943	103.62
419.166	98.62
419.389	85.62
419.611	91.62
419.834	90.62
420.057	79.62
420.28	97.62
420.503	77.62
420.726	97.62
420.948	94.62
421.171	100.62
421.394	85.62
421.617	86.62
421.839	108.62
422.062	89.62
422.285	90.62
422.507	91.62
422.73	90.62
422.953	93.62
423.175	91.62
423.398	95.62
423.621	86.62
423.843	88.62
424.066	99.62
424.288	90.62
424.511	90.62
424.733	105.62
424.956	120.62
425.178	94.62
425.401	107.62
425.623	114.62
425.846	93.62
426.068	90.62
426.291	108.62
426.513	90.62
426.735	72.62
426.958	95.62
427.18	98.62
427.402	145.62
427.625	214.62
427.847	159.62
428.069	127.62
428.292	100.62
428.514	95.62
428.736	85.62
428.958	80.62
429.181	80.62
429.403	89.62
429.625	88.62
429.847	108.62
430.069	105.62
430.292	99.62
430.514	89.62
430.736	84.62
430.958	88.62
431.18	79.62
431.402	79.62
431.624	88.62
431.846	97.62
432.068	76.62
432.29	95.62
432.512	87.62
432.734	87.62
432.956	109.62
433.178	98.62
433.4	107.62
433.622	91.62
433.844	90.62
434.066	82.62
434.287	94.62
434.509	93.62
434.731	87.62
434.953	87.62
435.175	89.62
435.397	97.62
435.618	97.62
435.84	106.62
436.062	132.62
436.284	119.62
436.505	101.62
436.727	101.62
436.949	98.62
437.17	79.62
437.392	93.62
437.614	95.62
437.835	119.62
438.057	143.62
438.278	114.62
438.5	115.62
438.721	105.62
438.943	96.62
439.165	74.62
439.386	82.62
439.608	94.62
439.829	102.62
440.05	148.62
440.272	169.62
440.493	116.62
440.715	100.62
440.936	100.62
441.158	80.62
441.379	93.62
441.6	86.62
441.822	110.62
442.043	110.62
442.264	101.62
442.486	106.62
442.707	96.62
442.928	116.62
443.149	154.62
443.371	162.62
443.592	120.62
443.813	113.62
444.034	135.62
444.255	85.62
444.476	84.62
444.698	96.62
444.919	100.62
445.14	123.62
445.361	139.62
445.582	140.62
445.803	162.62
446.024	154.62
446.245	154.62
446.466	101.62
446.687	92.62
446.908	83.62
447.129	100.62
447.35	90.62
447.571	94.62
447.792	87.62
448.013	103.62
448.234	118.62
448.455	104.62
448.675	109.62
448.896	127.62
449.117	119.62
449.338	109.62
449.559	141.62
449.779	144.62
450	102.62
450.221	87.62
450.442	89.62
450.662	98.62
450.883	138.62
451.104	131.62
451.324	87.62
451.545	96.62
451.766	85.62
451.986	100.62
452.207	99.62
452.428	95.62
452.648	108.62
452.869	122.62
453.089	138.62
453.31	140.62
453.53	106.62
453.751	107.62
453.971	96.62
454.192	123.62
454.412	125.62
454.633	97.62
454.853	93.62
455.073	98.62
455.294	90.62
455.514	105.62
455.734	104.62
455.955	83.62
456.175	99.62
456.395	86.62
456.616	72.62
456.836	92.62
457.056	80.62
457.276	91.62
457.497	86.62
457.717	87.62
457.937	86.62
458.157	93.62
458.377	92.62
458.598	126.62
458.818	205.62
459.038	231.62
459.258	144.62
459.478	95.62
459.698	85.62
459.918	96.62
460.138	93.62
460.358	94.62
460.578	94.62
460.798	94.62
461.018	95.62
461.238	94.62
461.458	85.62
461.678	81.62
461.898	78.62
462.118	78.62
462.338	89.62
462.558	87.62
462.777	85.62
462.997	93.62
463.217	87.62
463.437	88.62
463.657	91.62
463.876	84.62
464.096	87.62
464.316	82.62
464.536	96.62
464.755	102.62
464.975	130.62
465.195	224.62
465.414	237.62
465.634	126.62
465.854	109.62
466.073	92.62
466.293	95.62
466.512	81.62
466.732	74.62
466.951	77.62
467.171	96.62
467.391	100.62
467.61	136.62
467.829	105.62
468.049	94.62
468.268	95.62
468.488	88.62
468.707	89.62
468.927	86.62
469.146	80.62
469.365	90.62
469.585	84.62
469.804	102.62
470.023	109.62
470.243	91.62
470.462	102.62
470.681	130.62
470.901	100.62
471.12	91.62
471.339	90.62
471.558	84.62
471.777	75.62
471.997	70.62
472.216	126.62
472.435	133.62
472.654	91.62
472.873	103.62
473.092	95.62
473.311	90.62
473.53	94.62
473.749	110.62
473.968	103.62
474.187	116.62
474.406	105.62
474.625	97.62
474.844	87.62
475.063	86.62
475.282	74.62
475.501	89.62
475.72	89.62
475.939	92.62
476.158	85.62
476.377	97.62
476.596	94.62
476.814	101.62
477.033	84.62
477.252	86.62
477.471	86.62
477.69	98.62
477.908	98.62
478.127	98.62
478.346	98.62
478.564	93.62
478.783	106.62
479.002	95.62
479.22	96.62
479.439	95.62
479.658	91.62
479.876	87.62
480.095	87.62
480.313	93.62
480.532	105.62
480.751	89.62
480.969	104.62
481.188	185.62
481.406	156.62
481.624	98.62
481.843	87.62
482.061	82.62
482.28	75.62
482.498	90.62
482.717	76.62
482.935	84.62
483.153	91.62
483.372	94.62
483.59	77.62
483.808	94.62
484.027	98.62
484.245	105.62
484.463	87.62
484.681	115.62
484.9	85.62
485.118	83.62
485.336	92.62
485.554	96.62
485.772	90.62
485.99	110.62
486.209	94.62
486.427	100.62
486.645	122.62
486.863	131.62
487.081	105.62
487.299	98.62
487.517	113.62
487.735	111.62
487.953	101.62
488.171	80.62
488.389	95.62
488.607	114.62
488.825	91.62
489.043	71.62
489.261	91.62
489.479	97.62
489.696	95.62
489.914	88.62
490.132	96.62
490.35	87.62
490.568	88.62
490.786	92.62
491.003	93.62
491.221	97.62
491.439	88.62
491.657	98.62
491.874	90.62
492.092	86.62
492.31	97.62
492.527	86.62
492.745	85.62
492.963	95.62
493.18	95.62
493.398	87.62
493.615	111.62
493.833	84.62
494.05	97.62
494.268	92.62
494.485	94.62
494.703	98.62
494.92	89.62
495.138	83.62
495.355	79.62
495.573	90.62
495.79	95.62
496.008	97.62
496.225	96.62
496.442	85.62
496.66	95.62
496.877	86.62
497.094	99.62
497.312	93.62
497.529	99.62
497.746	86.62
497.963	84.62
498.181	91.62
498.398	91.62
498.615	108.62
498.832	108.62
499.049	88.62
499.267	99.62
499.484	96.62
499.701	88.62
499.918	86.62
500.135	86.62
500.352	89.62
500.569	80.62
500.786	84.62
501.003	97.62
501.22	84.62
501.437	90.62
501.654	103.62
501.871	137.62
502.088	95.62
502.305	89.62
502.522	84.62
502.739	89.62
502.956	97.62
503.172	95.62
503.389	98.62
503.606	108.62
503.823	106.62
504.04	99.62
504.256	90.62
504.473	79.62
504.69	89.62
504.907	93.62
505.123	97.62
505.34	95.62
505.557	87.62
505.773	102.62
505.99	93.62
506.207	104.62
506.423	93.62
506.64	90.62
506.856	98.62
507.073	104.62
507.289	86.62
507.506	106.62
507.722	133.62
507.939	134.62
508.155	109.62
508.372	84.62
508.588	104.62
508.805	103.62
509.021	92.62
509.238	106.62
509.454	101.62
509.67	122.62
509.887	122.62
510.103	152.62
510.319	254.62
510.536	1042.62
510.752	3818.62
510.968	1028.62
511.184	207.62
511.401	119.62
511.617	98.62
511.833	90.62
512.049	102.62
512.265	98.62
512.481	94.62
512.698	94.62
512.914	91.62
513.13	88.62
513.346	93.62
513.562	100.62
513.778	105.62
513.994	114.62
514.21	118.62
