Data from Circ_2014_H10_HRD10591_00024.txt Node
Date: Wed Jan 03 10:02:14 EST 2024
User: Yrep
Spectrometer: HR+D1059
Trigger mode: 1
Integration Time (sec): 1.000000E-1
Scans to average: 1
Electric dark correction enabled: true
Nonlinearity correction enabled: false
Boxcar width: 0
XAxis mode: Wavelengths
Number of Pixels in Spectrum: 2048
>>>>>Begin Spectral Data<<<<<
223.165	-7.38
223.4	-7.38
223.635	-7.38
223.869	-25.38
224.104	-18.38
224.338	-7.38
224.573	-14.38
224.808	-17.38
225.042	-1.38
225.277	-7.38
225.511	-4.38
225.746	9.62
225.98	-1.38
226.215	3.62
226.449	17.62
226.683	15.62
226.918	29.62
227.152	28.62
227.387	33.62
227.621	30.62
227.856	46.62
228.09	43.62
228.324	40.62
228.559	52.62
228.793	63.62
229.027	60.62
229.262	60.62
229.496	71.62
229.73	91.62
229.964	84.62
230.199	80.62
230.433	76.62
230.667	75.62
230.901	67.62
231.136	73.62
231.37	74.62
231.604	73.62
231.838	87.62
232.072	77.62
232.306	90.62
232.541	99.62
232.775	87.62
233.009	82.62
233.243	87.62
233.477	86.62
233.711	81.62
233.945	81.62
234.179	95.62
234.413	77.62
234.647	82.62
234.881	81.62
235.115	80.62
235.349	81.62
235.583	75.62
235.817	79.62
236.051	80.62
236.285	80.62
236.519	74.62
236.753	87.62
236.987	93.62
237.221	80.62
237.455	80.62
237.689	93.62
237.922	79.62
238.156	93.62
238.39	82.62
238.624	76.62
238.858	81.62
239.091	65.62
239.325	75.62
239.559	85.62
239.793	85.62
240.027	97.62
240.26	90.62
240.494	102.62
240.728	78.62
240.961	77.62
241.195	76.62
241.429	62.62
241.662	79.62
241.896	78.62
242.13	76.62
242.363	64.62
242.597	94.62
242.83	81.62
243.064	78.62
243.298	82.62
243.531	80.62
243.765	84.62
243.998	72.62
244.232	81.62
244.465	88.62
244.699	76.62
244.932	87.62
245.166	74.62
245.399	79.62
245.633	78.62
245.866	76.62
246.099	78.62
246.333	81.62
246.566	88.62
246.8	79.62
247.033	78.62
247.266	75.62
247.5	75.62
247.733	95.62
247.966	93.62
248.2	96.62
248.433	85.62
248.666	88.62
248.899	87.62
249.133	90.62
249.366	96.62
249.599	109.62
249.832	79.62
250.066	75.62
250.299	94.62
250.532	89.62
250.765	84.62
250.998	91.62
251.231	78.62
251.465	72.62
251.698	78.62
251.931	68.62
252.164	72.62
252.397	87.62
252.63	95.62
252.863	85.62
253.096	68.62
253.329	84.62
253.562	68.62
253.795	85.62
254.028	80.62
254.261	85.62
254.494	79.62
254.727	90.62
254.96	79.62
255.193	83.62
255.426	87.62
255.659	79.62
255.892	95.62
256.124	72.62
256.357	81.62
256.59	94.62
256.823	88.62
257.056	82.62
257.289	88.62
257.521	85.62
257.754	98.62
257.987	83.62
258.22	83.62
258.452	77.62
258.685	79.62
258.918	85.62
259.151	89.62
259.383	87.62
259.616	88.62
259.849	86.62
260.081	89.62
260.314	91.62
260.547	80.62
260.779	86.62
261.012	90.62
261.244	88.62
261.477	81.62
261.71	108.62
261.942	118.62
262.175	137.62
262.407	102.62
262.64	106.62
262.872	94.62
263.105	84.62
263.337	81.62
263.57	101.62
263.802	78.62
264.035	90.62
264.267	79.62
264.499	83.62
264.732	77.62
264.964	76.62
265.197	87.62
265.429	73.62
265.661	67.62
265.894	90.62
266.126	87.62
266.358	86.62
266.591	92.62
266.823	83.62
267.055	78.62
267.287	96.62
267.52	85.62
267.752	100.62
267.984	68.62
268.216	87.62
268.448	89.62
268.681	92.62
268.913	83.62
269.145	100.62
269.377	85.62
269.609	71.62
269.841	95.62
270.073	93.62
270.306	90.62
270.538	89.62
270.77	90.62
271.002	92.62
271.234	85.62
271.466	99.62
271.698	84.62
271.93	81.62
272.162	93.62
272.394	83.62
272.626	93.62
272.858	84.62
273.09	75.62
273.322	97.62
273.553	81.62
273.785	77.62
274.017	89.62
274.249	83.62
274.481	82.62
274.713	78.62
274.945	81.62
275.176	84.62
275.408	88.62
275.64	88.62
275.872	86.62
276.104	98.62
276.335	100.62
276.567	107.62
276.799	127.62
277.031	106.62
277.262	96.62
277.494	88.62
277.726	104.62
277.957	94.62
278.189	99.62
278.421	94.62
278.652	104.62
278.884	95.62
279.115	93.62
279.347	78.62
279.579	81.62
279.81	93.62
280.042	93.62
280.273	84.62
280.505	97.62
280.736	74.62
280.968	89.62
281.199	88.62
281.431	82.62
281.662	100.62
281.894	90.62
282.125	117.62
282.356	140.62
282.588	157.62
282.819	122.62
283.051	111.62
283.282	96.62
283.513	106.62
283.745	95.62
283.976	81.62
284.207	88.62
284.439	97.62
284.67	91.62
284.901	96.62
285.132	71.62
285.364	97.62
285.595	93.62
285.826	87.62
286.057	84.62
286.288	95.62
286.52	91.62
286.751	96.62
286.982	97.62
287.213	90.62
287.444	92.62
287.675	85.62
287.906	93.62
288.138	100.62
288.369	103.62
288.6	100.62
288.831	102.62
289.062	99.62
289.293	93.62
289.524	91.62
289.755	91.62
289.986	81.62
290.217	86.62
290.448	84.62
290.679	98.62
290.91	101.62
291.141	80.62
291.371	84.62
291.602	91.62
291.833	80.62
292.064	87.62
292.295	86.62
292.526	99.62
292.757	107.62
292.987	89.62
293.218	95.62
293.449	90.62
293.68	86.62
293.91	98.62
294.141	105.62
294.372	93.62
294.603	79.62
294.833	91.62
295.064	96.62
295.295	93.62
295.525	106.62
295.756	110.62
295.987	145.62
296.217	164.62
296.448	152.62
296.679	101.62
296.909	105.62
297.14	94.62
297.37	95.62
297.601	96.62
297.831	101.62
298.062	87.62
298.292	87.62
298.523	103.62
298.753	88.62
298.984	87.62
299.214	89.62
299.445	91.62
299.675	102.62
299.905	101.62
300.136	97.62
300.366	93.62
300.597	100.62
300.827	85.62
301.057	103.62
301.288	113.62
301.518	93.62
301.748	104.62
301.979	96.62
302.209	84.62
302.439	112.62
302.669	98.62
302.9	94.62
303.13	94.62
303.36	96.62
303.59	104.62
303.82	111.62
304.051	99.62
304.281	97.62
304.511	97.62
304.741	98.62
304.971	83.62
305.201	96.62
305.431	103.62
305.661	90.62
305.891	96.62
306.121	93.62
306.352	109.62
306.582	123.62
306.812	100.62
307.042	95.62
307.272	104.62
307.502	94.62
307.731	92.62
307.961	81.62
308.191	101.62
308.421	88.62
308.651	91.62
308.881	98.62
309.111	103.62
309.341	101.62
309.571	101.62
309.8	107.62
310.03	104.62
310.26	104.62
310.49	92.62
310.72	94.62
310.949	111.62
311.179	124.62
311.409	97.62
311.639	114.62
311.868	98.62
312.098	101.62
312.328	115.62
312.557	124.62
312.787	122.62
313.017	120.62
313.246	92.62
313.476	92.62
313.706	84.62
313.935	109.62
314.165	107.62
314.394	115.62
314.624	97.62
314.853	97.62
315.083	97.62
315.312	95.62
315.542	93.62
315.771	102.62
316.001	94.62
316.23	82.62
316.46	110.62
316.689	90.62
316.919	101.62
317.148	97.62
317.377	106.62
317.607	99.62
317.836	86.62
318.065	97.62
318.295	104.62
318.524	85.62
318.753	103.62
318.983	99.62
319.212	119.62
319.441	112.62
319.67	115.62
319.9	114.62
320.129	99.62
320.358	92.62
320.587	104.62
320.816	119.62
321.046	106.62
321.275	115.62
321.504	94.62
321.733	102.62
321.962	89.62
322.191	116.62
322.42	110.62
322.649	129.62
322.878	118.62
323.108	119.62
323.337	142.62
323.566	148.62
323.795	174.62
324.024	242.62
324.253	477.62
324.482	1025.62
324.71	2076.62
324.939	2849.62
325.168	1012.62
325.397	272.62
325.626	174.62
325.855	139.62
326.084	153.62
326.313	149.62
326.542	180.62
326.77	269.62
326.999	541.62
327.228	1152.62
327.457	2063.62
327.686	1653.62
327.914	441.62
328.143	221.62
328.372	172.62
328.6	135.62
328.829	143.62
329.058	132.62
329.287	131.62
329.515	121.62
329.744	111.62
329.972	125.62
330.201	126.62
330.43	132.62
330.658	152.62
330.887	185.62
331.115	149.62
331.344	115.62
331.572	102.62
331.801	121.62
332.03	121.62
332.258	115.62
332.486	93.62
332.715	92.62
332.943	111.62
333.172	104.62
333.4	101.62
333.629	107.62
333.857	111.62
334.085	115.62
334.314	117.62
334.542	135.62
334.771	128.62
334.999	118.62
335.227	109.62
335.455	101.62
335.684	100.62
335.912	94.62
336.14	97.62
336.369	102.62
336.597	112.62
336.825	99.62
337.053	98.62
337.281	104.62
337.51	121.62
337.738	108.62
337.966	104.62
338.194	121.62
338.422	120.62
338.65	104.62
338.878	77.62
339.106	97.62
339.334	105.62
339.562	92.62
339.79	100.62
340.018	111.62
340.246	96.62
340.474	116.62
340.702	107.62
340.93	87.62
341.158	102.62
341.386	92.62
341.614	92.62
341.842	100.62
342.07	104.62
342.298	84.62
342.526	104.62
342.754	95.62
342.981	104.62
343.209	97.62
343.437	111.62
343.665	99.62
343.893	89.62
344.12	87.62
344.348	88.62
344.576	99.62
344.804	99.62
345.031	106.62
345.259	104.62
345.487	100.62
345.714	95.62
345.942	103.62
346.17	95.62
346.397	92.62
346.625	100.62
346.853	97.62
347.08	87.62
347.308	100.62
347.535	114.62
347.763	107.62
347.99	119.62
348.218	116.62
348.445	118.62
348.673	107.62
348.9	112.62
349.128	97.62
349.355	95.62
349.583	90.62
349.81	93.62
350.037	106.62
350.265	106.62
350.492	101.62
350.72	99.62
350.947	98.62
351.174	112.62
351.402	118.62
351.629	116.62
351.856	130.62
352.083	104.62
352.311	120.62
352.538	127.62
352.765	139.62
352.992	124.62
353.22	119.62
353.447	114.62
353.674	93.62
353.901	105.62
354.128	105.62
354.355	107.62
354.583	118.62
354.81	100.62
355.037	103.62
355.264	118.62
355.491	100.62
355.718	93.62
355.945	83.62
356.172	93.62
356.399	104.62
356.626	103.62
356.853	110.62
357.08	107.62
357.307	100.62
357.534	101.62
357.761	103.62
357.988	109.62
358.215	109.62
358.441	81.62
358.668	90.62
358.895	97.62
359.122	87.62
359.349	92.62
359.576	93.62
359.802	98.62
360.029	117.62
360.256	131.62
360.483	117.62
360.709	89.62
360.936	103.62
361.163	107.62
361.39	99.62
361.616	115.62
361.843	94.62
362.07	88.62
362.296	104.62
362.523	85.62
362.749	97.62
362.976	93.62
363.203	97.62
363.429	84.62
363.656	92.62
363.882	81.62
364.109	99.62
364.335	110.62
364.562	88.62
364.788	96.62
365.015	99.62
365.241	112.62
365.468	108.62
365.694	109.62
365.92	102.62
366.147	92.62
366.373	95.62
366.599	99.62
366.826	97.62
367.052	102.62
367.278	100.62
367.505	98.62
367.731	91.62
367.957	97.62
368.184	111.62
368.41	99.62
368.636	117.62
368.862	131.62
369.089	116.62
369.315	105.62
369.541	94.62
369.767	90.62
369.993	97.62
370.219	123.62
370.445	117.62
370.672	97.62
370.898	92.62
371.124	74.62
371.35	90.62
371.576	95.62
371.802	91.62
372.028	97.62
372.254	95.62
372.48	96.62
372.706	90.62
372.932	92.62
373.158	88.62
373.384	96.62
373.61	84.62
373.835	92.62
374.061	94.62
374.287	97.62
374.513	110.62
374.739	95.62
374.965	97.62
375.191	94.62
375.416	87.62
375.642	105.62
375.868	104.62
376.094	94.62
376.319	77.62
376.545	99.62
376.771	82.62
376.997	97.62
377.222	96.62
377.448	107.62
377.674	92.62
377.899	96.62
378.125	89.62
378.35	94.62
378.576	88.62
378.802	96.62
379.027	102.62
379.253	81.62
379.478	83.62
379.704	102.62
379.929	107.62
380.155	100.62
380.38	108.62
380.606	100.62
380.831	95.62
381.057	104.62
381.282	94.62
381.507	91.62
381.733	95.62
381.958	98.62
382.184	104.62
382.409	108.62
382.634	104.62
382.86	104.62
383.085	101.62
383.31	116.62
383.535	84.62
383.761	102.62
383.986	107.62
384.211	102.62
384.436	105.62
384.662	106.62
384.887	106.62
385.112	118.62
385.337	117.62
385.562	108.62
385.787	107.62
386.013	124.62
386.238	132.62
386.463	117.62
386.688	101.62
386.913	109.62
387.138	112.62
387.363	115.62
387.588	117.62
387.813	104.62
388.038	107.62
388.263	118.62
388.488	123.62
388.713	111.62
388.938	106.62
389.163	87.62
389.387	87.62
389.612	94.62
389.837	104.62
390.062	101.62
390.287	93.62
390.512	99.62
390.736	102.62
390.961	92.62
391.186	95.62
391.411	101.62
391.636	97.62
391.86	89.62
392.085	99.62
392.31	96.62
392.534	93.62
392.759	87.62
392.984	108.62
393.208	100.62
393.433	115.62
393.658	94.62
393.882	96.62
394.107	93.62
394.331	71.62
394.556	69.62
394.78	101.62
395.005	70.62
395.229	86.62
395.454	92.62
395.678	92.62
395.903	86.62
396.127	80.62
396.352	85.62
396.576	85.62
396.801	87.62
397.025	97.62
397.249	100.62
397.474	87.62
397.698	92.62
397.922	100.62
398.147	91.62
398.371	84.62
398.595	88.62
398.82	84.62
399.044	95.62
399.268	81.62
399.492	102.62
399.717	92.62
399.941	86.62
400.165	88.62
400.389	98.62
400.613	86.62
400.837	87.62
401.062	94.62
401.286	111.62
401.51	105.62
401.734	99.62
401.958	108.62
402.182	147.62
402.406	196.62
402.63	140.62
402.854	111.62
403.078	101.62
403.302	99.62
403.526	89.62
403.75	84.62
403.974	88.62
404.198	80.62
404.422	99.62
404.645	92.62
404.869	103.62
405.093	96.62
405.317	101.62
405.541	109.62
405.765	108.62
405.988	129.62
406.212	214.62
406.436	290.62
406.66	203.62
406.883	101.62
407.107	100.62
407.331	103.62
407.555	101.62
407.778	94.62
408.002	105.62
408.226	94.62
408.449	91.62
408.673	101.62
408.896	107.62
409.12	107.62
409.344	91.62
409.567	90.62
409.791	86.62
410.014	89.62
410.238	93.62
410.461	99.62
410.685	102.62
410.908	95.62
411.132	112.62
411.355	107.62
411.578	105.62
411.802	85.62
412.025	94.62
412.249	91.62
412.472	85.62
412.695	102.62
412.919	93.62
413.142	81.62
413.365	97.62
413.589	82.62
413.812	77.62
414.035	97.62
414.258	87.62
414.482	97.62
414.705	92.62
414.928	83.62
415.151	94.62
415.374	107.62
415.597	91.62
415.821	92.62
416.044	92.62
416.267	89.62
416.49	91.62
416.713	99.62
416.936	77.62
417.159	90.62
417.382	91.62
417.605	100.62
417.828	106.62
418.051	104.62
418.274	87.62
418.497	90.62
418.72	92.62
418.943	99.62
419.166	89.62
419.389	85.62
419.611	92.62
419.834	96.62
420.057	101.62
420.28	92.62
420.503	96.62
420.726	78.62
420.948	95.62
421.171	94.62
421.394	90.62
421.617	91.62
421.839	112.62
422.062	93.62
422.285	92.62
422.507	110.62
422.73	112.62
422.953	108.62
423.175	95.62
423.398	92.62
423.621	96.62
423.843	72.62
424.066	89.62
424.288	80.62
424.511	94.62
424.733	112.62
424.956	120.62
425.178	121.62
425.401	110.62
425.623	104.62
425.846	90.62
426.068	89.62
426.291	96.62
426.513	91.62
426.735	82.62
426.958	117.62
427.18	118.62
427.402	133.62
427.625	192.62
427.847	161.62
428.069	109.62
428.292	92.62
428.514	85.62
428.736	68.62
428.958	80.62
429.181	86.62
429.403	81.62
429.625	91.62
429.847	94.62
430.069	104.62
430.292	100.62
430.514	89.62
430.736	85.62
430.958	89.62
431.18	85.62
431.402	80.62
431.624	85.62
431.846	79.62
432.068	91.62
432.29	95.62
432.512	90.62
432.734	102.62
432.956	92.62
433.178	97.62
433.4	107.62
433.622	101.62
433.844	84.62
434.066	96.62
434.287	89.62
434.509	103.62
434.731	82.62
434.953	80.62
435.175	96.62
435.397	92.62
435.618	81.62
435.84	96.62
436.062	132.62
436.284	129.62
436.505	110.62
436.727	101.62
436.949	96.62
437.17	96.62
437.392	98.62
437.614	88.62
437.835	109.62
438.057	139.62
438.278	117.62
438.5	83.62
438.721	117.62
438.943	116.62
439.165	96.62
439.386	94.62
439.608	91.62
439.829	95.62
440.05	126.62
440.272	142.62
440.493	112.62
440.715	82.62
440.936	83.62
441.158	89.62
441.379	94.62
441.6	111.62
441.822	102.62
442.043	79.62
442.264	112.62
442.486	106.62
442.707	92.62
442.928	109.62
443.149	152.62
443.371	161.62
443.592	132.62
443.813	111.62
444.034	100.62
444.255	101.62
444.476	94.62
444.698	92.62
444.919	100.62
445.14	135.62
445.361	123.62
445.582	135.62
445.803	165.62
446.024	145.62
446.245	149.62
446.466	115.62
446.687	102.62
446.908	94.62
447.129	94.62
447.35	93.62
447.571	107.62
447.792	105.62
448.013	107.62
448.234	116.62
448.455	112.62
448.675	115.62
448.896	131.62
449.117	108.62
449.338	107.62
449.559	134.62
449.779	160.62
450	102.62
450.221	109.62
450.442	98.62
450.662	103.62
450.883	122.62
451.104	113.62
451.324	95.62
451.545	95.62
451.766	89.62
451.986	79.62
452.207	95.62
452.428	108.62
452.648	107.62
452.869	124.62
453.089	141.62
453.31	136.62
453.53	100.62
453.751	99.62
453.971	99.62
454.192	131.62
454.412	81.62
454.633	103.62
454.853	86.62
455.073	79.62
455.294	99.62
455.514	94.62
455.734	103.62
455.955	99.62
456.175	97.62
456.395	85.62
456.616	86.62
456.836	99.62
457.056	102.62
457.276	85.62
457.497	86.62
457.717	85.62
457.937	93.62
458.157	93.62
458.377	104.62
458.598	122.62
458.818	193.62
459.038	196.62
459.258	139.62
459.478	98.62
459.698	99.62
459.918	96.62
460.138	87.62
460.358	91.62
460.578	77.62
460.798	87.62
461.018	91.62
461.238	88.62
461.458	89.62
461.678	78.62
461.898	74.62
462.118	89.62
462.338	82.62
462.558	92.62
462.777	91.62
462.997	84.62
463.217	88.62
463.437	85.62
463.657	77.62
463.876	92.62
464.096	89.62
464.316	101.62
464.536	120.62
464.755	105.62
464.975	119.62
465.195	199.62
465.414	219.62
465.634	103.62
465.854	106.62
466.073	93.62
466.293	86.62
466.512	96.62
466.732	98.62
466.951	78.62
467.171	87.62
467.391	87.62
467.61	108.62
467.829	112.62
468.049	105.62
468.268	109.62
468.488	91.62
468.707	81.62
468.927	82.62
469.146	91.62
469.365	83.62
469.585	95.62
469.804	96.62
470.023	103.62
470.243	97.62
470.462	92.62
470.681	135.62
470.901	105.62
471.12	80.62
471.339	86.62
471.558	80.62
471.777	87.62
471.997	92.62
472.216	93.62
472.435	117.62
472.654	99.62
472.873	93.62
473.092	105.62
473.311	84.62
473.53	75.62
473.749	87.62
473.968	96.62
474.187	108.62
474.406	97.62
474.625	87.62
474.844	88.62
475.063	71.62
475.282	91.62
475.501	91.62
475.72	91.62
475.939	90.62
476.158	91.62
476.377	97.62
476.596	96.62
476.814	95.62
477.033	108.62
477.252	97.62
477.471	102.62
477.69	104.62
477.908	103.62
478.127	95.62
478.346	86.62
478.564	81.62
478.783	103.62
479.002	96.62
479.22	93.62
479.439	117.62
479.658	98.62
479.876	96.62
480.095	96.62
480.313	110.62
480.532	96.62
480.751	112.62
480.969	101.62
481.188	162.62
481.406	130.62
481.624	87.62
481.843	91.62
482.061	90.62
482.28	74.62
482.498	101.62
482.717	96.62
482.935	93.62
483.153	77.62
483.372	108.62
483.59	83.62
483.808	87.62
484.027	97.62
484.245	92.62
484.463	106.62
484.681	89.62
484.9	93.62
485.118	105.62
485.336	106.62
485.554	103.62
485.772	107.62
485.99	101.62
486.209	102.62
486.427	82.62
486.645	123.62
486.863	132.62
487.081	96.62
487.299	98.62
487.517	95.62
487.735	80.62
487.953	86.62
488.171	98.62
488.389	91.62
488.607	101.62
488.825	100.62
489.043	100.62
489.261	89.62
489.479	99.62
489.696	85.62
489.914	93.62
490.132	80.62
490.35	103.62
490.568	90.62
490.786	102.62
491.003	81.62
491.221	78.62
491.439	100.62
491.657	93.62
491.874	100.62
492.092	97.62
492.31	92.62
492.527	87.62
492.745	100.62
492.963	84.62
493.18	86.62
493.398	75.62
493.615	101.62
493.833	103.62
494.05	84.62
494.268	80.62
494.485	96.62
494.703	97.62
494.92	87.62
495.138	97.62
495.355	90.62
495.573	94.62
495.79	96.62
496.008	103.62
496.225	93.62
496.442	85.62
496.66	106.62
496.877	98.62
497.094	104.62
497.312	87.62
497.529	83.62
497.746	91.62
497.963	96.62
498.181	107.62
498.398	103.62
498.615	110.62
498.832	121.62
499.049	91.62
499.267	78.62
499.484	94.62
499.701	93.62
499.918	111.62
500.135	91.62
500.352	93.62
500.569	87.62
500.786	88.62
501.003	89.62
501.22	97.62
501.437	89.62
501.654	99.62
501.871	131.62
502.088	100.62
502.305	99.62
502.522	103.62
502.739	100.62
502.956	92.62
503.172	87.62
503.389	96.62
503.606	116.62
503.823	96.62
504.04	94.62
504.256	94.62
504.473	85.62
504.69	88.62
504.907	87.62
505.123	96.62
505.34	88.62
505.557	87.62
505.773	86.62
505.99	103.62
506.207	84.62
506.423	96.62
506.64	93.62
506.856	97.62
507.073	98.62
507.289	98.62
507.506	102.62
507.722	139.62
507.939	140.62
508.155	116.62
508.372	102.62
508.588	95.62
508.805	94.62
509.021	92.62
509.238	89.62
509.454	108.62
509.67	111.62
509.887	108.62
510.103	149.62
510.319	248.62
510.536	973.62
510.752	3374.62
510.968	955.62
511.184	186.62
511.401	117.62
511.617	100.62
511.833	103.62
512.049	87.62
512.265	97.62
512.481	104.62
512.698	100.62
512.914	102.62
513.13	93.62
