Data from Circ_2014_H10_HRD10591_00054.txt Node
Date: Wed Jan 03 10:02:19 EST 2024
User: Yrep
Spectrometer: HR+D1059
Trigger mode: 1
Integration Time (sec): 1.000000E-1
Scans to average: 1
Electric dark correction enabled: true
Nonlinearity correction enabled: false
Boxcar width: 0
XAxis mode: Wavelengths
Number of Pixels in Spectrum: 2048
>>>>>Begin Spectral Data<<<<<
223.165	-9.44
223.4	-9.44
223.635	-9.44
223.869	-20.44
224.104	-21.44
224.338	-2.44
224.573	-17.44
224.808	-7.44
225.042	-2.44
225.277	-6.44
225.511	-12.44
225.746	10.56
225.98	-4.44
226.215	-4.44
226.449	11.56
226.683	21.56
226.918	36.56
227.152	28.56
227.387	43.56
227.621	45.56
227.856	36.56
228.09	28.56
228.324	49.56
228.559	70.56
228.793	45.56
229.027	56.56
229.262	69.56
229.496	69.56
229.73	78.56
229.964	102.56
230.199	71.56
230.433	69.56
230.667	78.56
230.901	90.56
231.136	76.56
231.37	74.56
231.604	76.56
231.838	79.56
232.072	84.56
232.306	84.56
232.541	90.56
232.775	77.56
233.009	85.56
233.243	83.56
233.477	89.56
233.711	98.56
233.945	75.56
234.179	87.56
234.413	82.56
234.647	84.56
234.881	78.56
235.115	78.56
235.349	79.56
235.583	84.56
235.817	67.56
236.051	83.56
236.285	78.56
236.519	70.56
236.753	75.56
236.987	75.56
237.221	88.56
237.455	87.56
237.689	79.56
237.922	83.56
238.156	65.56
238.39	62.56
238.624	74.56
238.858	78.56
239.091	74.56
239.325	84.56
239.559	63.56
239.793	92.56
240.027	65.56
240.26	71.56
240.494	82.56
240.728	71.56
240.961	70.56
241.195	83.56
241.429	75.56
241.662	70.56
241.896	73.56
242.13	76.56
242.363	62.56
242.597	86.56
242.83	69.56
243.064	83.56
243.298	83.56
243.531	84.56
243.765	63.56
243.998	75.56
244.232	85.56
244.465	75.56
244.699	67.56
244.932	65.56
245.166	69.56
245.399	73.56
245.633	87.56
245.866	80.56
246.099	79.56
246.333	89.56
246.566	78.56
246.8	73.56
247.033	76.56
247.266	78.56
247.5	77.56
247.733	88.56
247.966	83.56
248.2	86.56
248.433	71.56
248.666	83.56
248.899	72.56
249.133	83.56
249.366	95.56
249.599	90.56
249.832	78.56
250.066	82.56
250.299	86.56
250.532	82.56
250.765	84.56
250.998	62.56
251.231	81.56
251.465	92.56
251.698	83.56
251.931	76.56
252.164	89.56
252.397	82.56
252.63	103.56
252.863	84.56
253.096	76.56
253.329	80.56
253.562	79.56
253.795	83.56
254.028	77.56
254.261	89.56
254.494	85.56
254.727	69.56
254.96	76.56
255.193	73.56
255.426	80.56
255.659	78.56
255.892	77.56
256.124	86.56
256.357	67.56
256.59	85.56
256.823	77.56
257.056	78.56
257.289	80.56
257.521	81.56
257.754	88.56
257.987	82.56
258.22	77.56
258.452	82.56
258.685	63.56
258.918	74.56
259.151	76.56
259.383	91.56
259.616	78.56
259.849	83.56
260.081	91.56
260.314	82.56
260.547	88.56
260.779	74.56
261.012	76.56
261.244	88.56
261.477	95.56
261.71	86.56
261.942	113.56
262.175	101.56
262.407	95.56
262.64	70.56
262.872	82.56
263.105	90.56
263.337	85.56
263.57	92.56
263.802	71.56
264.035	82.56
264.267	100.56
264.499	83.56
264.732	85.56
264.964	85.56
265.197	79.56
265.429	88.56
265.661	76.56
265.894	87.56
266.126	94.56
266.358	84.56
266.591	93.56
266.823	82.56
267.055	80.56
267.287	91.56
267.52	92.56
267.752	84.56
267.984	80.56
268.216	90.56
268.448	88.56
268.681	81.56
268.913	73.56
269.145	79.56
269.377	79.56
269.609	83.56
269.841	77.56
270.073	88.56
270.306	82.56
270.538	73.56
270.77	84.56
271.002	70.56
271.234	86.56
271.466	98.56
271.698	87.56
271.93	85.56
272.162	98.56
272.394	81.56
272.626	98.56
272.858	92.56
273.09	82.56
273.322	90.56
273.553	68.56
273.785	83.56
274.017	85.56
274.249	89.56
274.481	85.56
274.713	78.56
274.945	81.56
275.176	77.56
275.408	90.56
275.64	92.56
275.872	78.56
276.104	82.56
276.335	91.56
276.567	100.56
276.799	100.56
277.031	92.56
277.262	90.56
277.494	83.56
277.726	95.56
277.957	81.56
278.189	84.56
278.421	85.56
278.652	89.56
278.884	80.56
279.115	88.56
279.347	87.56
279.579	83.56
279.81	77.56
280.042	90.56
280.273	90.56
280.505	88.56
280.736	101.56
280.968	85.56
281.199	85.56
281.431	89.56
281.662	84.56
281.894	86.56
282.125	92.56
282.356	109.56
282.588	127.56
282.819	109.56
283.051	83.56
283.282	88.56
283.513	103.56
283.745	88.56
283.976	79.56
284.207	83.56
284.439	74.56
284.67	83.56
284.901	97.56
285.132	85.56
285.364	95.56
285.595	85.56
285.826	81.56
286.057	81.56
286.288	76.56
286.52	79.56
286.751	75.56
286.982	76.56
287.213	91.56
287.444	85.56
287.675	90.56
287.906	87.56
288.138	95.56
288.369	92.56
288.6	96.56
288.831	75.56
289.062	92.56
289.293	78.56
289.524	85.56
289.755	89.56
289.986	78.56
290.217	99.56
290.448	94.56
290.679	69.56
290.91	93.56
291.141	84.56
291.371	103.56
291.602	95.56
291.833	93.56
292.064	92.56
292.295	93.56
292.526	79.56
292.757	104.56
292.987	86.56
293.218	96.56
293.449	84.56
293.68	88.56
293.91	87.56
294.141	95.56
294.372	98.56
294.603	99.56
294.833	90.56
295.064	97.56
295.295	91.56
295.525	91.56
295.756	103.56
295.987	108.56
296.217	118.56
296.448	127.56
296.679	106.56
296.909	109.56
297.14	83.56
297.37	89.56
297.601	96.56
297.831	93.56
298.062	73.56
298.292	90.56
298.523	92.56
298.753	89.56
298.984	64.56
299.214	92.56
299.445	101.56
299.675	83.56
299.905	90.56
300.136	88.56
300.366	109.56
300.597	97.56
300.827	106.56
301.057	99.56
301.288	98.56
301.518	96.56
301.748	91.56
301.979	102.56
302.209	97.56
302.439	81.56
302.669	83.56
302.9	101.56
303.13	93.56
303.36	108.56
303.59	97.56
303.82	86.56
304.051	106.56
304.281	84.56
304.511	86.56
304.741	79.56
304.971	95.56
305.201	82.56
305.431	100.56
305.661	97.56
305.891	90.56
306.121	88.56
306.352	84.56
306.582	94.56
306.812	102.56
307.042	91.56
307.272	101.56
307.502	90.56
307.731	104.56
307.961	95.56
308.191	95.56
308.421	87.56
308.651	93.56
308.881	90.56
309.111	89.56
309.341	92.56
309.571	102.56
309.8	109.56
310.03	101.56
310.26	93.56
310.49	102.56
310.72	92.56
310.949	111.56
311.179	94.56
311.409	94.56
311.639	91.56
311.868	86.56
312.098	92.56
312.328	96.56
312.557	88.56
312.787	99.56
313.017	87.56
313.246	90.56
313.476	90.56
313.706	92.56
313.935	87.56
314.165	111.56
314.394	99.56
314.624	110.56
314.853	105.56
315.083	92.56
315.312	92.56
315.542	92.56
315.771	93.56
316.001	75.56
316.23	96.56
316.46	80.56
316.689	98.56
316.919	106.56
317.148	98.56
317.377	104.56
317.607	109.56
317.836	92.56
318.065	96.56
318.295	85.56
318.524	73.56
318.753	91.56
318.983	96.56
319.212	95.56
319.441	101.56
319.67	108.56
319.9	97.56
320.129	95.56
320.358	102.56
320.587	100.56
320.816	83.56
321.046	98.56
321.275	114.56
321.504	87.56
321.733	111.56
321.962	109.56
322.191	100.56
322.42	100.56
322.649	96.56
322.878	93.56
323.108	109.56
323.337	122.56
323.566	118.56
323.795	139.56
324.024	187.56
324.253	350.56
324.482	713.56
324.71	1377.56
324.939	1860.56
325.168	724.56
325.397	230.56
325.626	149.56
325.855	117.56
326.084	114.56
326.313	119.56
326.542	141.56
326.77	200.56
326.999	418.56
327.228	803.56
327.457	1448.56
327.686	1092.56
327.914	311.56
328.143	193.56
328.372	143.56
328.6	120.56
328.829	118.56
329.058	123.56
329.287	129.56
329.515	112.56
329.744	99.56
329.972	98.56
330.201	123.56
330.43	140.56
330.658	131.56
330.887	145.56
331.115	115.56
331.344	99.56
331.572	114.56
331.801	111.56
332.03	98.56
332.258	94.56
332.486	88.56
332.715	102.56
332.943	90.56
333.172	96.56
333.4	78.56
333.629	105.56
333.857	123.56
334.085	127.56
334.314	120.56
334.542	149.56
334.771	141.56
334.999	106.56
335.227	108.56
335.455	103.56
335.684	91.56
335.912	89.56
336.14	92.56
336.369	92.56
336.597	97.56
336.825	104.56
337.053	77.56
337.281	99.56
337.51	86.56
337.738	90.56
337.966	88.56
338.194	98.56
338.422	99.56
338.65	94.56
338.878	98.56
339.106	88.56
339.334	96.56
339.562	93.56
339.79	87.56
340.018	94.56
340.246	84.56
340.474	91.56
340.702	89.56
340.93	114.56
341.158	89.56
341.386	81.56
341.614	90.56
341.842	84.56
342.07	85.56
342.298	88.56
342.526	104.56
342.754	85.56
342.981	107.56
343.209	85.56
343.437	89.56
343.665	91.56
343.893	96.56
344.12	95.56
344.348	98.56
344.576	99.56
344.804	90.56
345.031	93.56
345.259	98.56
345.487	94.56
345.714	86.56
345.942	94.56
346.17	110.56
346.397	96.56
346.625	82.56
346.853	91.56
347.08	86.56
347.308	93.56
347.535	96.56
347.763	112.56
347.99	94.56
348.218	83.56
348.445	106.56
348.673	91.56
348.9	99.56
349.128	95.56
349.355	97.56
349.583	83.56
349.81	102.56
350.037	98.56
350.265	92.56
350.492	99.56
350.72	83.56
350.947	117.56
351.174	114.56
351.402	121.56
351.629	93.56
351.856	105.56
352.083	101.56
352.311	95.56
352.538	106.56
352.765	116.56
352.992	110.56
353.22	108.56
353.447	101.56
353.674	99.56
353.901	97.56
354.128	94.56
354.355	95.56
354.583	101.56
354.81	118.56
355.037	103.56
355.264	85.56
355.491	98.56
355.718	77.56
355.945	100.56
356.172	96.56
356.399	105.56
356.626	95.56
356.853	100.56
357.08	87.56
357.307	92.56
357.534	88.56
357.761	98.56
357.988	96.56
358.215	94.56
358.441	101.56
358.668	83.56
358.895	92.56
359.122	96.56
359.349	103.56
359.576	106.56
359.802	105.56
360.029	101.56
360.256	102.56
360.483	100.56
360.709	104.56
360.936	113.56
361.163	87.56
361.39	75.56
361.616	85.56
361.843	105.56
362.07	95.56
362.296	107.56
362.523	100.56
362.749	104.56
362.976	92.56
363.203	89.56
363.429	91.56
363.656	81.56
363.882	91.56
364.109	102.56
364.335	82.56
364.562	83.56
364.788	89.56
365.015	95.56
365.241	103.56
365.468	120.56
365.694	101.56
365.92	83.56
366.147	91.56
366.373	92.56
366.599	85.56
366.826	106.56
367.052	92.56
367.278	93.56
367.505	95.56
367.731	88.56
367.957	92.56
368.184	94.56
368.41	102.56
368.636	123.56
368.862	117.56
369.089	92.56
369.315	86.56
369.541	102.56
369.767	89.56
369.993	92.56
370.219	89.56
370.445	78.56
370.672	95.56
370.898	103.56
371.124	82.56
371.35	71.56
371.576	77.56
371.802	79.56
372.028	99.56
372.254	103.56
372.48	89.56
372.706	79.56
372.932	99.56
373.158	94.56
373.384	97.56
373.61	69.56
373.835	97.56
374.061	89.56
374.287	100.56
374.513	94.56
374.739	78.56
374.965	82.56
375.191	93.56
375.416	86.56
375.642	88.56
375.868	111.56
376.094	101.56
376.319	84.56
376.545	105.56
376.771	85.56
376.997	81.56
377.222	101.56
377.448	100.56
377.674	99.56
377.899	95.56
378.125	90.56
378.35	74.56
378.576	100.56
378.802	89.56
379.027	95.56
379.253	85.56
379.478	92.56
379.704	92.56
379.929	100.56
380.155	88.56
380.38	89.56
380.606	98.56
380.831	84.56
381.057	84.56
381.282	116.56
381.507	96.56
381.733	110.56
381.958	95.56
382.184	101.56
382.409	91.56
382.634	103.56
382.86	102.56
383.085	105.56
383.31	101.56
383.535	109.56
383.761	95.56
383.986	110.56
384.211	105.56
384.436	113.56
384.662	93.56
384.887	104.56
385.112	107.56
385.337	117.56
385.562	118.56
385.787	89.56
386.013	104.56
386.238	110.56
386.463	102.56
386.688	115.56
386.913	102.56
387.138	111.56
387.363	97.56
387.588	113.56
387.813	96.56
388.038	105.56
388.263	112.56
388.488	101.56
388.713	103.56
388.938	99.56
389.163	93.56
389.387	88.56
389.612	97.56
389.837	79.56
390.062	93.56
390.287	90.56
390.512	86.56
390.736	86.56
390.961	89.56
391.186	96.56
391.411	111.56
391.636	100.56
391.86	85.56
392.085	82.56
392.31	80.56
392.534	90.56
392.759	81.56
392.984	102.56
393.208	81.56
393.433	91.56
393.658	103.56
393.882	100.56
394.107	85.56
394.331	106.56
394.556	85.56
394.78	73.56
395.005	95.56
395.229	99.56
395.454	83.56
395.678	104.56
395.903	86.56
396.127	75.56
396.352	77.56
396.576	77.56
396.801	95.56
397.025	93.56
397.249	79.56
397.474	83.56
397.698	83.56
397.922	87.56
398.147	94.56
398.371	102.56
398.595	99.56
398.82	82.56
399.044	88.56
399.268	102.56
399.492	83.56
399.717	91.56
399.941	97.56
400.165	104.56
400.389	83.56
400.613	78.56
400.837	98.56
401.062	97.56
401.286	88.56
401.51	96.56
401.734	102.56
401.958	102.56
402.182	119.56
402.406	157.56
402.63	130.56
402.854	99.56
403.078	94.56
403.302	85.56
403.526	91.56
403.75	101.56
403.974	91.56
404.198	93.56
404.422	82.56
404.645	113.56
404.869	85.56
405.093	91.56
405.317	108.56
405.541	88.56
405.765	87.56
405.988	109.56
406.212	154.56
406.436	211.56
406.66	135.56
406.883	102.56
407.107	104.56
407.331	90.56
407.555	94.56
407.778	106.56
408.002	87.56
408.226	95.56
408.449	95.56
408.673	96.56
408.896	106.56
409.12	98.56
409.344	94.56
409.567	87.56
409.791	101.56
410.014	89.56
410.238	100.56
410.461	100.56
410.685	75.56
410.908	94.56
411.132	99.56
411.355	93.56
411.578	93.56
411.802	77.56
412.025	83.56
412.249	94.56
412.472	91.56
412.695	92.56
412.919	91.56
413.142	87.56
413.365	93.56
413.589	90.56
413.812	90.56
414.035	85.56
414.258	92.56
414.482	98.56
414.705	87.56
414.928	97.56
415.151	88.56
415.374	82.56
415.597	94.56
415.821	99.56
416.044	88.56
416.267	84.56
416.49	78.56
416.713	74.56
416.936	98.56
417.159	98.56
417.382	92.56
417.605	88.56
417.828	103.56
418.051	85.56
418.274	84.56
418.497	99.56
418.72	91.56
418.943	82.56
419.166	90.56
419.389	81.56
419.611	87.56
419.834	91.56
420.057	94.56
420.28	87.56
420.503	91.56
420.726	89.56
420.948	78.56
421.171	95.56
421.394	90.56
421.617	95.56
421.839	102.56
422.062	81.56
422.285	91.56
422.507	85.56
422.73	97.56
422.953	92.56
423.175	93.56
423.398	94.56
423.621	92.56
423.843	81.56
424.066	93.56
424.288	90.56
424.511	94.56
424.733	96.56
424.956	87.56
425.178	95.56
425.401	78.56
425.623	88.56
425.846	81.56
426.068	106.56
426.291	91.56
426.513	98.56
426.735	100.56
426.958	94.56
427.18	104.56
427.402	139.56
427.625	156.56
427.847	130.56
428.069	107.56
428.292	90.56
428.514	79.56
428.736	93.56
428.958	77.56
429.181	77.56
429.403	84.56
429.625	94.56
429.847	99.56
430.069	103.56
430.292	85.56
430.514	86.56
430.736	93.56
430.958	85.56
431.18	79.56
431.402	100.56
431.624	83.56
431.846	88.56
432.068	84.56
432.29	79.56
432.512	94.56
432.734	89.56
432.956	94.56
433.178	97.56
433.4	104.56
433.622	90.56
433.844	96.56
434.066	91.56
434.287	84.56
434.509	91.56
434.731	88.56
434.953	77.56
435.175	95.56
435.397	90.56
435.618	91.56
435.84	90.56
436.062	113.56
436.284	109.56
436.505	84.56
436.727	88.56
436.949	84.56
437.17	83.56
437.392	83.56
437.614	95.56
437.835	107.56
438.057	116.56
438.278	114.56
438.5	108.56
438.721	100.56
438.943	109.56
439.165	105.56
439.386	83.56
439.608	95.56
439.829	113.56
440.05	121.56
440.272	122.56
440.493	108.56
440.715	89.56
440.936	97.56
441.158	94.56
441.379	89.56
441.6	97.56
441.822	98.56
442.043	85.56
442.264	105.56
442.486	115.56
442.707	99.56
442.928	97.56
443.149	109.56
443.371	135.56
443.592	95.56
443.813	102.56
444.034	103.56
444.255	96.56
444.476	84.56
444.698	85.56
444.919	91.56
445.14	143.56
445.361	98.56
445.582	102.56
445.803	139.56
446.024	141.56
446.245	126.56
446.466	109.56
446.687	91.56
446.908	78.56
447.129	76.56
447.35	77.56
447.571	82.56
447.792	102.56
448.013	109.56
448.234	96.56
448.455	106.56
448.675	129.56
448.896	98.56
449.117	109.56
449.338	103.56
449.559	112.56
449.779	121.56
450	108.56
450.221	86.56
450.442	88.56
450.662	98.56
450.883	100.56
451.104	101.56
451.324	103.56
451.545	90.56
451.766	97.56
451.986	98.56
452.207	82.56
452.428	99.56
452.648	98.56
452.869	106.56
453.089	113.56
453.31	117.56
453.53	93.56
453.751	89.56
453.971	97.56
454.192	95.56
454.412	97.56
454.633	83.56
454.853	80.56
455.073	95.56
455.294	84.56
455.514	90.56
455.734	99.56
455.955	89.56
456.175	78.56
456.395	78.56
456.616	84.56
456.836	89.56
457.056	88.56
457.276	88.56
457.497	88.56
457.717	76.56
457.937	85.56
458.157	92.56
458.377	85.56
458.598	120.56
458.818	145.56
459.038	146.56
459.258	117.56
459.478	95.56
459.698	87.56
459.918	82.56
460.138	84.56
460.358	81.56
460.578	91.56
460.798	84.56
461.018	96.56
461.238	86.56
461.458	77.56
461.678	86.56
461.898	90.56
462.118	94.56
462.338	91.56
462.558	94.56
462.777	84.56
462.997	84.56
463.217	84.56
463.437	76.56
463.657	80.56
463.876	73.56
464.096	102.56
464.316	85.56
464.536	102.56
464.755	102.56
464.975	95.56
465.195	149.56
465.414	134.56
465.634	103.56
465.854	87.56
466.073	100.56
466.293	102.56
466.512	85.56
466.732	86.56
466.951	92.56
467.171	90.56
467.391	95.56
467.61	101.56
467.829	93.56
468.049	106.56
468.268	93.56
468.488	81.56
468.707	96.56
468.927	85.56
469.146	83.56
469.365	81.56
469.585	97.56
469.804	94.56
470.023	91.56
470.243	87.56
470.462	97.56
470.681	132.56
470.901	100.56
471.12	99.56
471.339	82.56
471.558	97.56
471.777	93.56
471.997	114.56
472.216	135.56
472.435	171.56
472.654	120.56
472.873	91.56
473.092	76.56
473.311	82.56
473.53	90.56
473.749	93.56
473.968	80.56
474.187	97.56
474.406	88.56
474.625	90.56
474.844	88.56
475.063	86.56
475.282	90.56
475.501	85.56
475.72	92.56
475.939	80.56
476.158	82.56
476.377	94.56
476.596	91.56
476.814	95.56
477.033	99.56
477.252	87.56
477.471	78.56
477.69	78.56
477.908	70.56
478.127	104.56
478.346	79.56
478.564	79.56
478.783	98.56
479.002	98.56
479.22	91.56
479.439	118.56
479.658	93.56
479.876	90.56
480.095	98.56
480.313	72.56
480.532	96.56
480.751	99.56
480.969	111.56
481.188	222.56
481.406	177.56
481.624	103.56
481.843	89.56
482.061	74.56
482.28	83.56
482.498	84.56
482.717	79.56
482.935	82.56
483.153	89.56
483.372	81.56
483.59	83.56
483.808	90.56
484.027	97.56
484.245	98.56
484.463	92.56
484.681	96.56
484.9	89.56
485.118	96.56
485.336	94.56
485.554	100.56
485.772	97.56
485.99	110.56
486.209	92.56
486.427	93.56
486.645	94.56
486.863	108.56
487.081	97.56
487.299	84.56
487.517	95.56
487.735	106.56
487.953	90.56
488.171	99.56
488.389	106.56
488.607	84.56
488.825	97.56
489.043	104.56
489.261	83.56
489.479	98.56
489.696	86.56
489.914	98.56
490.132	78.56
490.35	93.56
490.568	84.56
490.786	90.56
491.003	97.56
491.221	85.56
491.439	86.56
491.657	97.56
491.874	84.56
492.092	92.56
492.31	108.56
492.527	99.56
492.745	86.56
492.963	89.56
493.18	97.56
493.398	103.56
493.615	99.56
493.833	91.56
494.05	69.56
494.268	90.56
494.485	91.56
494.703	96.56
494.92	98.56
495.138	87.56
495.355	85.56
495.573	86.56
495.79	98.56
496.008	98.56
496.225	88.56
496.442	99.56
496.66	91.56
496.877	92.56
497.094	106.56
497.312	95.56
497.529	89.56
497.746	106.56
497.963	104.56
498.181	94.56
498.398	83.56
498.615	102.56
498.832	95.56
499.049	89.56
499.267	83.56
499.484	93.56
499.701	91.56
499.918	88.56
500.135	89.56
500.352	105.56
500.569	85.56
500.786	85.56
501.003	86.56
501.22	93.56
501.437	85.56
501.654	105.56
501.871	106.56
502.088	96.56
502.305	88.56
502.522	87.56
502.739	58.56
502.956	87.56
503.172	81.56
503.389	94.56
503.606	92.56
503.823	95.56
504.04	94.56
504.256	83.56
504.473	93.56
504.69	77.56
504.907	93.56
505.123	98.56
505.34	95.56
505.557	93.56
505.773	83.56
505.99	88.56
506.207	85.56
506.423	83.56
506.64	78.56
506.856	93.56
507.073	79.56
507.289	91.56
507.506	87.56
507.722	108.56
507.939	115.56
508.155	105.56
508.372	103.56
508.588	94.56
508.805	86.56
509.021	92.56
509.238	106.56
509.454	86.56
509.67	101.56
509.887	101.56
510.103	110.56
510.319	207.56
510.536	718.56
510.752	2346.56
510.968	683.56
511.184	155.56
511.401	100.56
511.617	103.56
511.833	94.56
512.049	90.56
512.265	75.56
512.481	109.56
512.698	78.56
512.914	101.56
513.13	103.56
513.346	86.56
513.562	88.56
513.778	93.56
513.994	87.56
514.21	93.56
514.426	106.56
514.642	118.56
514.858	132.56
515.074	154.56
515.29	417.56
515.506	1403.56
