Data from Circ_2014_H10_HRD10591_00062.txt Node
Date: Wed Jan 03 10:02:21 EST 2024
User: Yrep
Spectrometer: HR+D1059
Trigger mode: 1
Integration Time (sec): 1.000000E-1
Scans to average: 1
Electric dark correction enabled: true
Nonlinearity correction enabled: false
Boxcar width: 0
XAxis mode: Wavelengths
Number of Pixels in Spectrum: 2048
>>>>>Begin Spectral Data<<<<<
223.165	-12.12
223.4	-12.12
223.635	-12.12
223.869	-19.12
224.104	-18.12
224.338	-23.12
224.573	-26.12
224.808	-3.12
225.042	-12.12
225.277	-3.12
225.511	4.88
225.746	0.88
225.98	15.88
226.215	13.88
226.449	25.88
226.683	11.88
226.918	12.88
227.152	30.88
227.387	45.88
227.621	34.88
227.856	54.88
228.09	48.88
228.324	48.88
228.559	53.88
228.793	44.88
229.027	58.88
229.262	53.88
229.496	65.88
229.73	86.88
229.964	78.88
230.199	74.88
230.433	78.88
230.667	74.88
230.901	73.88
231.136	81.88
231.37	82.88
231.604	64.88
231.838	73.88
232.072	85.88
232.306	66.88
232.541	70.88
232.775	80.88
233.009	78.88
233.243	73.88
233.477	70.88
233.711	66.88
233.945	81.88
234.179	82.88
234.413	82.88
234.647	72.88
234.881	78.88
235.115	58.88
235.349	64.88
235.583	75.88
235.817	73.88
236.051	73.88
236.285	68.88
236.519	57.88
236.753	64.88
236.987	69.88
237.221	83.88
237.455	75.88
237.689	77.88
237.922	72.88
238.156	75.88
238.39	76.88
238.624	80.88
238.858	72.88
239.091	66.88
239.325	52.88
239.559	68.88
239.793	71.88
240.027	74.88
240.26	60.88
240.494	69.88
240.728	74.88
240.961	69.88
241.195	75.88
241.429	73.88
241.662	78.88
241.896	70.88
242.13	71.88
242.363	79.88
242.597	80.88
242.83	72.88
243.064	67.88
243.298	67.88
243.531	75.88
243.765	64.88
243.998	61.88
244.232	75.88
244.465	84.88
244.699	72.88
244.932	67.88
245.166	61.88
245.399	87.88
245.633	74.88
245.866	81.88
246.099	72.88
246.333	78.88
246.566	72.88
246.8	61.88
247.033	62.88
247.266	64.88
247.5	66.88
247.733	66.88
247.966	66.88
248.2	73.88
248.433	64.88
248.666	76.88
248.899	73.88
249.133	86.88
249.366	86.88
249.599	84.88
249.832	86.88
250.066	76.88
250.299	67.88
250.532	78.88
250.765	60.88
250.998	86.88
251.231	86.88
251.465	88.88
251.698	70.88
251.931	84.88
252.164	68.88
252.397	86.88
252.63	81.88
252.863	76.88
253.096	71.88
253.329	85.88
253.562	83.88
253.795	57.88
254.028	72.88
254.261	72.88
254.494	72.88
254.727	76.88
254.96	80.88
255.193	59.88
255.426	66.88
255.659	71.88
255.892	85.88
256.124	85.88
256.357	82.88
256.59	71.88
256.823	80.88
257.056	91.88
257.289	77.88
257.521	76.88
257.754	72.88
257.987	68.88
258.22	70.88
258.452	83.88
258.685	64.88
258.918	86.88
259.151	76.88
259.383	72.88
259.616	74.88
259.849	74.88
260.081	76.88
260.314	73.88
260.547	71.88
260.779	72.88
261.012	76.88
261.244	72.88
261.477	78.88
261.71	78.88
261.942	111.88
262.175	112.88
262.407	92.88
262.64	82.88
262.872	65.88
263.105	66.88
263.337	73.88
263.57	75.88
263.802	71.88
264.035	64.88
264.267	73.88
264.499	85.88
264.732	73.88
264.964	72.88
265.197	81.88
265.429	87.88
265.661	89.88
265.894	86.88
266.126	87.88
266.358	77.88
266.591	78.88
266.823	83.88
267.055	73.88
267.287	73.88
267.52	68.88
267.752	74.88
267.984	66.88
268.216	67.88
268.448	78.88
268.681	88.88
268.913	87.88
269.145	88.88
269.377	63.88
269.609	86.88
269.841	88.88
270.073	81.88
270.306	78.88
270.538	75.88
270.77	65.88
271.002	78.88
271.234	85.88
271.466	82.88
271.698	70.88
271.93	88.88
272.162	78.88
272.394	78.88
272.626	79.88
272.858	76.88
273.09	90.88
273.322	83.88
273.553	80.88
273.785	73.88
274.017	83.88
274.249	69.88
274.481	82.88
274.713	74.88
274.945	84.88
275.176	81.88
275.408	75.88
275.64	75.88
275.872	85.88
276.104	87.88
276.335	94.88
276.567	99.88
276.799	110.88
277.031	118.88
277.262	88.88
277.494	95.88
277.726	82.88
277.957	81.88
278.189	76.88
278.421	81.88
278.652	75.88
278.884	83.88
279.115	81.88
279.347	79.88
279.579	86.88
279.81	88.88
280.042	77.88
280.273	95.88
280.505	86.88
280.736	82.88
280.968	72.88
281.199	86.88
281.431	91.88
281.662	86.88
281.894	97.88
282.125	99.88
282.356	127.88
282.588	135.88
282.819	109.88
283.051	89.88
283.282	78.88
283.513	82.88
283.745	71.88
283.976	103.88
284.207	83.88
284.439	91.88
284.67	82.88
284.901	82.88
285.132	86.88
285.364	75.88
285.595	79.88
285.826	78.88
286.057	81.88
286.288	84.88
286.52	86.88
286.751	85.88
286.982	95.88
287.213	81.88
287.444	75.88
287.675	85.88
287.906	87.88
288.138	90.88
288.369	102.88
288.6	83.88
288.831	72.88
289.062	74.88
289.293	83.88
289.524	68.88
289.755	74.88
289.986	80.88
290.217	83.88
290.448	90.88
290.679	84.88
290.91	85.88
291.141	74.88
291.371	80.88
291.602	70.88
291.833	81.88
292.064	97.88
292.295	77.88
292.526	81.88
292.757	94.88
292.987	96.88
293.218	87.88
293.449	84.88
293.68	73.88
293.91	91.88
294.141	90.88
294.372	92.88
294.603	83.88
294.833	78.88
295.064	68.88
295.295	78.88
295.525	87.88
295.756	89.88
295.987	113.88
296.217	135.88
296.448	126.88
296.679	89.88
296.909	84.88
297.14	78.88
297.37	83.88
297.601	86.88
297.831	81.88
298.062	90.88
298.292	82.88
298.523	76.88
298.753	86.88
298.984	90.88
299.214	80.88
299.445	74.88
299.675	79.88
299.905	92.88
300.136	100.88
300.366	80.88
300.597	91.88
300.827	82.88
301.057	89.88
301.288	111.88
301.518	88.88
301.748	73.88
301.979	81.88
302.209	87.88
302.439	85.88
302.669	100.88
302.9	79.88
303.13	92.88
303.36	97.88
303.59	91.88
303.82	87.88
304.051	88.88
304.281	91.88
304.511	87.88
304.741	85.88
304.971	88.88
305.201	81.88
305.431	76.88
305.661	83.88
305.891	74.88
306.121	87.88
306.352	107.88
306.582	95.88
306.812	97.88
307.042	78.88
307.272	81.88
307.502	97.88
307.731	92.88
307.961	97.88
308.191	95.88
308.421	88.88
308.651	86.88
308.881	81.88
309.111	82.88
309.341	83.88
309.571	101.88
309.8	94.88
310.03	94.88
310.26	81.88
310.49	96.88
310.72	106.88
310.949	86.88
311.179	99.88
311.409	98.88
311.639	92.88
311.868	97.88
312.098	92.88
312.328	93.88
312.557	92.88
312.787	93.88
313.017	105.88
313.246	96.88
313.476	94.88
313.706	92.88
313.935	89.88
314.165	91.88
314.394	81.88
314.624	93.88
314.853	105.88
315.083	100.88
315.312	91.88
315.542	84.88
315.771	91.88
316.001	86.88
316.23	74.88
316.46	70.88
316.689	85.88
316.919	91.88
317.148	86.88
317.377	97.88
317.607	95.88
317.836	95.88
318.065	77.88
318.295	92.88
318.524	92.88
318.753	83.88
318.983	72.88
319.212	86.88
319.441	87.88
319.67	111.88
319.9	95.88
320.129	84.88
320.358	93.88
320.587	99.88
320.816	93.88
321.046	92.88
321.275	85.88
321.504	83.88
321.733	97.88
321.962	98.88
322.191	97.88
322.42	97.88
322.649	121.88
322.878	105.88
323.108	108.88
323.337	116.88
323.566	133.88
323.795	144.88
324.024	201.88
324.253	402.88
324.482	840.88
324.71	1664.88
324.939	2232.88
325.168	833.88
325.397	244.88
325.626	136.88
325.855	128.88
326.084	123.88
326.313	135.88
326.542	147.88
326.77	240.88
326.999	443.88
327.228	926.88
327.457	1676.88
327.686	1324.88
327.914	361.88
328.143	215.88
328.372	189.88
328.6	134.88
328.829	113.88
329.058	144.88
329.287	133.88
329.515	118.88
329.744	101.88
329.972	124.88
330.201	156.88
330.43	221.88
330.658	158.88
330.887	141.88
331.115	118.88
331.344	103.88
331.572	104.88
331.801	118.88
332.03	86.88
332.258	89.88
332.486	102.88
332.715	95.88
332.943	97.88
333.172	96.88
333.4	104.88
333.629	111.88
333.857	106.88
334.085	133.88
334.314	154.88
334.542	227.88
334.771	201.88
334.999	103.88
335.227	108.88
335.455	105.88
335.684	92.88
335.912	89.88
336.14	81.88
336.369	99.88
336.597	91.88
336.825	97.88
337.053	87.88
337.281	92.88
337.51	78.88
337.738	99.88
337.966	94.88
338.194	99.88
338.422	87.88
338.65	77.88
338.878	66.88
339.106	86.88
339.334	88.88
339.562	92.88
339.79	93.88
340.018	101.88
340.246	69.88
340.474	88.88
340.702	83.88
340.93	76.88
341.158	83.88
341.386	88.88
341.614	87.88
341.842	98.88
342.07	94.88
342.298	98.88
342.526	83.88
342.754	84.88
342.981	80.88
343.209	92.88
343.437	86.88
343.665	94.88
343.893	87.88
344.12	84.88
344.348	82.88
344.576	77.88
344.804	97.88
345.031	113.88
345.259	92.88
345.487	96.88
345.714	89.88
345.942	84.88
346.17	80.88
346.397	78.88
346.625	90.88
346.853	94.88
347.08	92.88
347.308	85.88
347.535	93.88
347.763	100.88
347.99	118.88
348.218	90.88
348.445	99.88
348.673	93.88
348.9	103.88
349.128	102.88
349.355	89.88
349.583	89.88
349.81	76.88
350.037	89.88
350.265	92.88
350.492	82.88
350.72	95.88
350.947	92.88
351.174	112.88
351.402	117.88
351.629	105.88
351.856	120.88
352.083	83.88
352.311	88.88
352.538	108.88
352.765	110.88
352.992	87.88
353.22	118.88
353.447	103.88
353.674	99.88
353.901	92.88
354.128	98.88
354.355	92.88
354.583	85.88
354.81	92.88
355.037	84.88
355.264	87.88
355.491	72.88
355.718	82.88
355.945	96.88
356.172	85.88
356.399	88.88
356.626	89.88
356.853	81.88
357.08	89.88
357.307	76.88
357.534	80.88
357.761	91.88
357.988	82.88
358.215	97.88
358.441	96.88
358.668	96.88
358.895	87.88
359.122	96.88
359.349	86.88
359.576	96.88
359.802	94.88
360.029	110.88
360.256	109.88
360.483	98.88
360.709	93.88
360.936	97.88
361.163	95.88
361.39	91.88
361.616	81.88
361.843	84.88
362.07	72.88
362.296	99.88
362.523	81.88
362.749	74.88
362.976	85.88
363.203	87.88
363.429	85.88
363.656	93.88
363.882	96.88
364.109	76.88
364.335	90.88
364.562	80.88
364.788	88.88
365.015	95.88
365.241	91.88
365.468	105.88
365.694	104.88
365.92	86.88
366.147	82.88
366.373	84.88
366.599	84.88
366.826	101.88
367.052	87.88
367.278	72.88
367.505	94.88
367.731	96.88
367.957	90.88
368.184	93.88
368.41	96.88
368.636	117.88
368.862	137.88
369.089	121.88
369.315	87.88
369.541	71.88
369.767	84.88
369.993	95.88
370.219	89.88
370.445	88.88
370.672	79.88
370.898	82.88
371.124	81.88
371.35	80.88
371.576	87.88
371.802	86.88
372.028	87.88
372.254	87.88
372.48	81.88
372.706	78.88
372.932	81.88
373.158	79.88
373.384	89.88
373.61	83.88
373.835	84.88
374.061	87.88
374.287	102.88
374.513	84.88
374.739	69.88
374.965	87.88
375.191	83.88
375.416	83.88
375.642	95.88
375.868	77.88
376.094	79.88
376.319	88.88
376.545	97.88
376.771	88.88
376.997	99.88
377.222	80.88
377.448	82.88
377.674	91.88
377.899	97.88
378.125	91.88
378.35	95.88
378.576	82.88
378.802	85.88
379.027	101.88
379.253	97.88
379.478	79.88
379.704	92.88
379.929	93.88
380.155	86.88
380.38	79.88
380.606	92.88
380.831	85.88
381.057	99.88
381.282	91.88
381.507	98.88
381.733	90.88
381.958	93.88
382.184	84.88
382.409	89.88
382.634	88.88
382.86	88.88
383.085	87.88
383.31	102.88
383.535	111.88
383.761	83.88
383.986	93.88
384.211	94.88
384.436	89.88
384.662	84.88
384.887	95.88
385.112	78.88
385.337	92.88
385.562	97.88
385.787	88.88
386.013	114.88
386.238	120.88
386.463	107.88
386.688	100.88
386.913	96.88
387.138	91.88
387.363	100.88
387.588	82.88
387.813	79.88
388.038	124.88
388.263	102.88
388.488	121.88
388.713	101.88
388.938	97.88
389.163	74.88
389.387	96.88
389.612	90.88
389.837	94.88
390.062	88.88
390.287	87.88
390.512	80.88
390.736	93.88
390.961	98.88
391.186	82.88
391.411	88.88
391.636	101.88
391.86	81.88
392.085	88.88
392.31	95.88
392.534	78.88
392.759	84.88
392.984	88.88
393.208	72.88
393.433	74.88
393.658	101.88
393.882	96.88
394.107	84.88
394.331	94.88
394.556	76.88
394.78	76.88
395.005	96.88
395.229	74.88
395.454	97.88
395.678	79.88
395.903	73.88
396.127	78.88
396.352	77.88
396.576	89.88
396.801	73.88
397.025	79.88
397.249	84.88
397.474	75.88
397.698	90.88
397.922	80.88
398.147	97.88
398.371	83.88
398.595	84.88
398.82	69.88
399.044	80.88
399.268	66.88
399.492	63.88
399.717	79.88
399.941	89.88
400.165	96.88
400.389	105.88
400.613	93.88
400.837	92.88
401.062	85.88
401.286	84.88
401.51	72.88
401.734	73.88
401.958	90.88
402.182	136.88
402.406	169.88
402.63	118.88
402.854	98.88
403.078	79.88
403.302	79.88
403.526	73.88
403.75	93.88
403.974	82.88
404.198	73.88
404.422	79.88
404.645	94.88
404.869	91.88
405.093	83.88
405.317	92.88
405.541	104.88
405.765	101.88
405.988	112.88
406.212	180.88
406.436	226.88
406.66	156.88
406.883	99.88
407.107	80.88
407.331	92.88
407.555	88.88
407.778	113.88
408.002	89.88
408.226	90.88
408.449	70.88
408.673	94.88
408.896	88.88
409.12	93.88
409.344	82.88
409.567	94.88
409.791	85.88
410.014	89.88
410.238	87.88
410.461	72.88
410.685	95.88
410.908	95.88
411.132	109.88
411.355	95.88
411.578	100.88
411.802	85.88
412.025	74.88
412.249	89.88
412.472	101.88
412.695	83.88
412.919	87.88
413.142	71.88
413.365	80.88
413.589	90.88
413.812	71.88
414.035	84.88
414.258	86.88
414.482	85.88
414.705	80.88
414.928	79.88
415.151	88.88
415.374	88.88
415.597	81.88
415.821	86.88
416.044	84.88
416.267	92.88
416.49	80.88
416.713	92.88
416.936	89.88
417.159	82.88
417.382	85.88
417.605	81.88
417.828	90.88
418.051	69.88
418.274	78.88
418.497	82.88
418.72	80.88
418.943	78.88
419.166	72.88
419.389	82.88
419.611	70.88
419.834	81.88
420.057	85.88
420.28	86.88
420.503	90.88
420.726	87.88
420.948	82.88
421.171	95.88
421.394	73.88
421.617	84.88
421.839	84.88
422.062	86.88
422.285	76.88
422.507	88.88
422.73	92.88
422.953	96.88
423.175	74.88
423.398	97.88
423.621	91.88
423.843	81.88
424.066	80.88
424.288	89.88
424.511	78.88
424.733	101.88
424.956	100.88
425.178	100.88
425.401	110.88
425.623	106.88
425.846	89.88
426.068	88.88
426.291	92.88
426.513	95.88
426.735	74.88
426.958	81.88
427.18	115.88
427.402	146.88
427.625	167.88
427.847	143.88
428.069	120.88
428.292	79.88
428.514	94.88
428.736	86.88
428.958	80.88
429.181	82.88
429.403	78.88
429.625	79.88
429.847	96.88
430.069	104.88
430.292	68.88
430.514	66.88
430.736	97.88
430.958	81.88
431.18	82.88
431.402	72.88
431.624	78.88
431.846	69.88
432.068	97.88
432.29	95.88
432.512	86.88
432.734	90.88
432.956	84.88
433.178	83.88
433.4	99.88
433.622	78.88
433.844	89.88
434.066	91.88
434.287	89.88
434.509	70.88
434.731	85.88
434.953	89.88
435.175	83.88
435.397	99.88
435.618	98.88
435.84	99.88
436.062	120.88
436.284	123.88
436.505	97.88
436.727	87.88
436.949	77.88
437.17	74.88
437.392	83.88
437.614	77.88
437.835	102.88
438.057	126.88
438.278	119.88
438.5	90.88
438.721	116.88
438.943	86.88
439.165	82.88
439.386	77.88
439.608	77.88
439.829	80.88
440.05	112.88
440.272	144.88
440.493	89.88
440.715	75.88
440.936	92.88
441.158	91.88
441.379	83.88
441.6	92.88
441.822	79.88
442.043	94.88
442.264	100.88
442.486	80.88
442.707	74.88
442.928	105.88
443.149	110.88
443.371	128.88
443.592	119.88
443.813	113.88
444.034	95.88
444.255	81.88
444.476	84.88
444.698	73.88
444.919	97.88
445.14	135.88
445.361	124.88
445.582	110.88
445.803	132.88
446.024	140.88
446.245	151.88
446.466	105.88
446.687	63.88
446.908	78.88
447.129	76.88
447.35	90.88
447.571	84.88
447.792	77.88
448.013	99.88
448.234	101.88
448.455	97.88
448.675	121.88
448.896	120.88
449.117	109.88
449.338	103.88
449.559	117.88
449.779	126.88
450	79.88
450.221	80.88
450.442	83.88
450.662	80.88
450.883	112.88
451.104	112.88
451.324	82.88
451.545	88.88
451.766	84.88
451.986	70.88
452.207	77.88
452.428	85.88
452.648	83.88
452.869	98.88
453.089	113.88
453.31	127.88
453.53	85.88
453.751	80.88
453.971	100.88
454.192	100.88
454.412	96.88
454.633	89.88
454.853	94.88
455.073	87.88
455.294	83.88
455.514	98.88
455.734	80.88
455.955	82.88
456.175	67.88
456.395	91.88
456.616	83.88
456.836	86.88
457.056	85.88
457.276	78.88
457.497	64.88
457.717	75.88
457.937	77.88
458.157	81.88
458.377	89.88
458.598	95.88
458.818	148.88
459.038	158.88
459.258	122.88
459.478	94.88
459.698	87.88
459.918	78.88
460.138	81.88
460.358	77.88
460.578	93.88
460.798	84.88
461.018	79.88
461.238	88.88
461.458	80.88
461.678	96.88
461.898	83.88
462.118	78.88
462.338	94.88
462.558	84.88
462.777	108.88
462.997	86.88
463.217	94.88
463.437	99.88
463.657	76.88
463.876	83.88
464.096	74.88
464.316	75.88
464.536	89.88
464.755	79.88
464.975	99.88
465.195	170.88
465.414	177.88
465.634	98.88
465.854	88.88
466.073	77.88
466.293	89.88
466.512	84.88
466.732	89.88
466.951	80.88
467.171	69.88
467.391	98.88
467.61	105.88
467.829	101.88
468.049	120.88
468.268	139.88
468.488	86.88
468.707	87.88
468.927	78.88
469.146	75.88
469.365	78.88
469.585	90.88
469.804	86.88
470.023	97.88
470.243	96.88
470.462	102.88
470.681	108.88
470.901	86.88
471.12	81.88
471.339	83.88
471.558	83.88
471.777	76.88
471.997	100.88
472.216	158.88
472.435	283.88
472.654	122.88
472.873	82.88
473.092	67.88
473.311	82.88
473.53	87.88
473.749	69.88
473.968	95.88
474.187	125.88
474.406	100.88
474.625	89.88
474.844	91.88
475.063	76.88
475.282	74.88
475.501	73.88
475.72	80.88
475.939	84.88
476.158	77.88
476.377	69.88
476.596	99.88
476.814	80.88
477.033	99.88
477.252	86.88
477.471	103.88
477.69	76.88
477.908	81.88
478.127	95.88
478.346	84.88
478.564	94.88
478.783	89.88
479.002	87.88
479.22	88.88
479.439	97.88
479.658	106.88
479.876	92.88
480.095	101.88
480.313	104.88
480.532	78.88
480.751	99.88
480.969	171.88
481.188	404.88
481.406	286.88
481.624	107.88
481.843	78.88
482.061	81.88
482.28	80.88
482.498	88.88
482.717	88.88
482.935	88.88
483.153	85.88
483.372	85.88
483.59	78.88
483.808	80.88
484.027	84.88
484.245	79.88
484.463	72.88
484.681	95.88
484.9	86.88
485.118	85.88
485.336	76.88
485.554	90.88
485.772	94.88
485.99	85.88
486.209	100.88
486.427	87.88
486.645	96.88
486.863	96.88
487.081	89.88
487.299	88.88
487.517	85.88
487.735	87.88
487.953	76.88
488.171	87.88
488.389	79.88
488.607	89.88
488.825	89.88
489.043	104.88
489.261	86.88
489.479	70.88
489.696	90.88
489.914	77.88
490.132	92.88
490.35	84.88
490.568	92.88
490.786	89.88
491.003	76.88
491.221	71.88
491.439	83.88
491.657	88.88
491.874	78.88
492.092	92.88
492.31	95.88
492.527	73.88
492.745	99.88
492.963	83.88
493.18	85.88
493.398	83.88
493.615	89.88
493.833	100.88
494.05	85.88
494.268	74.88
494.485	70.88
494.703	83.88
494.92	78.88
495.138	79.88
495.355	87.88
495.573	80.88
495.79	90.88
496.008	80.88
496.225	89.88
496.442	73.88
496.66	68.88
496.877	83.88
497.094	72.88
497.312	70.88
497.529	84.88
497.746	89.88
497.963	80.88
498.181	88.88
498.398	98.88
498.615	100.88
498.832	110.88
499.049	79.88
499.267	70.88
499.484	89.88
499.701	76.88
499.918	88.88
500.135	90.88
500.352	88.88
500.569	86.88
500.786	78.88
501.003	94.88
501.22	80.88
501.437	96.88
501.654	89.88
501.871	92.88
502.088	81.88
502.305	95.88
502.522	92.88
502.739	75.88
502.956	80.88
503.172	70.88
503.389	97.88
503.606	96.88
503.823	110.88
504.04	78.88
504.256	79.88
504.473	97.88
504.69	86.88
504.907	94.88
505.123	75.88
505.34	88.88
505.557	85.88
505.773	89.88
505.99	70.88
506.207	73.88
506.423	84.88
506.64	92.88
506.856	90.88
507.073	92.88
507.289	97.88
507.506	96.88
507.722	104.88
507.939	94.88
508.155	86.88
508.372	88.88
508.588	87.88
508.805	83.88
509.021	96.88
509.238	102.88
509.454	93.88
509.67	98.88
509.887	99.88
510.103	128.88
510.319	218.88
510.536	776.88
510.752	2644.88
510.968	750.88
511.184	161.88
511.401	124.88
511.617	98.88
511.833	98.88
512.049	92.88
512.265	73.88
512.481	86.88
512.698	78.88
512.914	70.88
513.13	83.88
513.346	95.88
513.562	93.88
513.778	89.88
513.994	92.88
514.21	98.88
514.426	126.88
514.642	145.88
514.858	135.88
515.074	178.88
515.29	480.88
515.506	1790.88
515.721	673.88
515.937	167.88
516.153	118.88
516.369	89.88
516.585	93.88
516.801	93.88
517.016	80.88
