Data from Circ_2014_H10_HRD10591_00018.txt Node
Date: Wed Jan 03 10:02:12 EST 2024
User: Yrep
Spectrometer: HR+D1059
Trigger mode: 1
Integration Time (sec): 1.000000E-1
Scans to average: 1
Electric dark correction enabled: true
Nonlinearity correction enabled: false
Boxcar width: 0
XAxis mode: Wavelengths
Number of Pixels in Spectrum: 2048
>>>>>Begin Spectral Data<<<<<
223.165	-21.31
223.4	-21.31
223.635	-21.31
223.869	-25.31
224.104	-11.31
224.338	-17.31
224.573	-8.31
224.808	-13.31
225.042	-17.31
225.277	-9.31
225.511	13.69
225.746	9.69
225.98	-0.31
226.215	11.69
226.449	12.69
226.683	24.69
226.918	25.69
227.152	25.69
227.387	37.69
227.621	44.69
227.856	46.69
228.09	44.69
228.324	59.69
228.559	46.69
228.793	79.69
229.027	76.69
229.262	72.69
229.496	75.69
229.73	74.69
229.964	71.69
230.199	83.69
230.433	94.69
230.667	81.69
230.901	73.69
231.136	83.69
231.37	94.69
231.604	79.69
231.838	71.69
232.072	82.69
232.306	72.69
232.541	72.69
232.775	72.69
233.009	81.69
233.243	78.69
233.477	76.69
233.711	70.69
233.945	80.69
234.179	72.69
234.413	78.69
234.647	83.69
234.881	82.69
235.115	82.69
235.349	79.69
235.583	83.69
235.817	93.69
236.051	88.69
236.285	69.69
236.519	83.69
236.753	83.69
236.987	73.69
237.221	89.69
237.455	88.69
237.689	78.69
237.922	77.69
238.156	70.69
238.39	68.69
238.624	70.69
238.858	94.69
239.091	74.69
239.325	79.69
239.559	83.69
239.793	90.69
240.027	63.69
240.26	79.69
240.494	70.69
240.728	91.69
240.961	65.69
241.195	86.69
241.429	81.69
241.662	70.69
241.896	82.69
242.13	62.69
242.363	69.69
242.597	86.69
242.83	74.69
243.064	84.69
243.298	60.69
243.531	69.69
243.765	74.69
243.998	66.69
244.232	90.69
244.465	80.69
244.699	82.69
244.932	93.69
245.166	96.69
245.399	81.69
245.633	75.69
245.866	79.69
246.099	76.69
246.333	77.69
246.566	68.69
246.8	78.69
247.033	75.69
247.266	89.69
247.5	71.69
247.733	72.69
247.966	77.69
248.2	80.69
248.433	85.69
248.666	75.69
248.899	88.69
249.133	79.69
249.366	110.69
249.599	98.69
249.832	84.69
250.066	71.69
250.299	71.69
250.532	74.69
250.765	73.69
250.998	91.69
251.231	89.69
251.465	83.69
251.698	85.69
251.931	78.69
252.164	81.69
252.397	72.69
252.63	79.69
252.863	83.69
253.096	78.69
253.329	86.69
253.562	83.69
253.795	83.69
254.028	74.69
254.261	87.69
254.494	73.69
254.727	86.69
254.96	77.69
255.193	89.69
255.426	75.69
255.659	73.69
255.892	93.69
256.124	65.69
256.357	76.69
256.59	90.69
256.823	76.69
257.056	58.69
257.289	91.69
257.521	75.69
257.754	101.69
257.987	69.69
258.22	78.69
258.452	87.69
258.685	81.69
258.918	85.69
259.151	72.69
259.383	79.69
259.616	83.69
259.849	79.69
260.081	97.69
260.314	77.69
260.547	84.69
260.779	73.69
261.012	72.69
261.244	72.69
261.477	92.69
261.71	95.69
261.942	107.69
262.175	120.69
262.407	101.69
262.64	73.69
262.872	73.69
263.105	77.69
263.337	85.69
263.57	91.69
263.802	81.69
264.035	86.69
264.267	88.69
264.499	86.69
264.732	87.69
264.964	93.69
265.197	90.69
265.429	81.69
265.661	86.69
265.894	82.69
266.126	68.69
266.358	95.69
266.591	72.69
266.823	85.69
267.055	96.69
267.287	95.69
267.52	83.69
267.752	94.69
267.984	97.69
268.216	79.69
268.448	82.69
268.681	88.69
268.913	90.69
269.145	76.69
269.377	79.69
269.609	93.69
269.841	75.69
270.073	90.69
270.306	82.69
270.538	71.69
270.77	58.69
271.002	86.69
271.234	83.69
271.466	92.69
271.698	85.69
271.93	74.69
272.162	87.69
272.394	96.69
272.626	85.69
272.858	93.69
273.09	86.69
273.322	67.69
273.553	82.69
273.785	80.69
274.017	64.69
274.249	79.69
274.481	82.69
274.713	84.69
274.945	91.69
275.176	102.69
275.408	89.69
275.64	74.69
275.872	81.69
276.104	73.69
276.335	90.69
276.567	92.69
276.799	107.69
277.031	86.69
277.262	95.69
277.494	87.69
277.726	77.69
277.957	84.69
278.189	87.69
278.421	70.69
278.652	78.69
278.884	76.69
279.115	92.69
279.347	91.69
279.579	83.69
279.81	78.69
280.042	92.69
280.273	91.69
280.505	87.69
280.736	84.69
280.968	90.69
281.199	83.69
281.431	98.69
281.662	92.69
281.894	81.69
282.125	97.69
282.356	117.69
282.588	147.69
282.819	108.69
283.051	91.69
283.282	90.69
283.513	96.69
283.745	84.69
283.976	92.69
284.207	94.69
284.439	84.69
284.67	99.69
284.901	78.69
285.132	83.69
285.364	75.69
285.595	87.69
285.826	87.69
286.057	89.69
286.288	83.69
286.52	85.69
286.751	79.69
286.982	91.69
287.213	89.69
287.444	89.69
287.675	90.69
287.906	77.69
288.138	94.69
288.369	91.69
288.6	100.69
288.831	83.69
289.062	97.69
289.293	100.69
289.524	86.69
289.755	90.69
289.986	94.69
290.217	90.69
290.448	82.69
290.679	99.69
290.91	93.69
291.141	93.69
291.371	95.69
291.602	88.69
291.833	91.69
292.064	76.69
292.295	90.69
292.526	74.69
292.757	91.69
292.987	94.69
293.218	85.69
293.449	90.69
293.68	86.69
293.91	90.69
294.141	88.69
294.372	90.69
294.603	90.69
294.833	92.69
295.064	104.69
295.295	79.69
295.525	82.69
295.756	108.69
295.987	137.69
296.217	141.69
296.448	126.69
296.679	89.69
296.909	91.69
297.14	83.69
297.37	81.69
297.601	84.69
297.831	102.69
298.062	87.69
298.292	88.69
298.523	90.69
298.753	100.69
298.984	87.69
299.214	103.69
299.445	97.69
299.675	107.69
299.905	97.69
300.136	98.69
300.366	93.69
300.597	103.69
300.827	79.69
301.057	96.69
301.288	102.69
301.518	94.69
301.748	78.69
301.979	96.69
302.209	99.69
302.439	98.69
302.669	83.69
302.9	90.69
303.13	84.69
303.36	87.69
303.59	105.69
303.82	96.69
304.051	77.69
304.281	96.69
304.511	94.69
304.741	90.69
304.971	85.69
305.201	104.69
305.431	94.69
305.661	83.69
305.891	97.69
306.121	85.69
306.352	106.69
306.582	109.69
306.812	97.69
307.042	103.69
307.272	85.69
307.502	86.69
307.731	105.69
307.961	87.69
308.191	90.69
308.421	91.69
308.651	94.69
308.881	92.69
309.111	97.69
309.341	90.69
309.571	78.69
309.8	83.69
310.03	105.69
310.26	90.69
310.49	108.69
310.72	106.69
310.949	102.69
311.179	109.69
311.409	93.69
311.639	99.69
311.868	104.69
312.098	105.69
312.328	98.69
312.557	101.69
312.787	101.69
313.017	102.69
313.246	80.69
313.476	96.69
313.706	86.69
313.935	96.69
314.165	94.69
314.394	101.69
314.624	87.69
314.853	96.69
315.083	93.69
315.312	98.69
315.542	99.69
315.771	86.69
316.001	86.69
316.23	89.69
316.46	79.69
316.689	90.69
316.919	96.69
317.148	92.69
317.377	89.69
317.607	83.69
317.836	101.69
318.065	98.69
318.295	95.69
318.524	83.69
318.753	72.69
318.983	89.69
319.212	103.69
319.441	106.69
319.67	125.69
319.9	105.69
320.129	95.69
320.358	95.69
320.587	108.69
320.816	101.69
321.046	94.69
321.275	109.69
321.504	97.69
321.733	108.69
321.962	110.69
322.191	111.69
322.42	110.69
322.649	104.69
322.878	105.69
323.108	114.69
323.337	115.69
323.566	128.69
323.795	157.69
324.024	209.69
324.253	415.69
324.482	855.69
324.71	1800.69
324.939	2260.69
325.168	853.69
325.397	247.69
325.626	143.69
325.855	135.69
326.084	123.69
326.313	124.69
326.542	161.69
326.77	243.69
326.999	466.69
327.228	969.69
327.457	1766.69
327.686	1360.69
327.914	397.69
328.143	190.69
328.372	168.69
328.6	113.69
328.829	114.69
329.058	129.69
329.287	116.69
329.515	114.69
329.744	117.69
329.972	98.69
330.201	108.69
330.43	133.69
330.658	125.69
330.887	158.69
331.115	124.69
331.344	93.69
331.572	105.69
331.801	114.69
332.03	107.69
332.258	87.69
332.486	103.69
332.715	93.69
332.943	92.69
333.172	99.69
333.4	105.69
333.629	89.69
333.857	113.69
334.085	113.69
334.314	94.69
334.542	108.69
334.771	116.69
334.999	97.69
335.227	103.69
335.455	90.69
335.684	97.69
335.912	97.69
336.14	104.69
336.369	96.69
336.597	99.69
336.825	101.69
337.053	95.69
337.281	93.69
337.51	94.69
337.738	94.69
337.966	103.69
338.194	103.69
338.422	99.69
338.65	101.69
338.878	103.69
339.106	92.69
339.334	88.69
339.562	85.69
339.79	88.69
340.018	89.69
340.246	89.69
340.474	109.69
340.702	90.69
340.93	90.69
341.158	89.69
341.386	97.69
341.614	102.69
341.842	81.69
342.07	97.69
342.298	98.69
342.526	85.69
342.754	92.69
342.981	94.69
343.209	89.69
343.437	92.69
343.665	77.69
343.893	91.69
344.12	93.69
344.348	85.69
344.576	88.69
344.804	99.69
345.031	92.69
345.259	100.69
345.487	100.69
345.714	98.69
345.942	100.69
346.17	106.69
346.397	97.69
346.625	80.69
346.853	88.69
347.08	79.69
347.308	79.69
347.535	100.69
347.763	94.69
347.99	90.69
348.218	94.69
348.445	104.69
348.673	105.69
348.9	91.69
349.128	98.69
349.355	99.69
349.583	83.69
349.81	94.69
350.037	102.69
350.265	91.69
350.492	97.69
350.72	91.69
350.947	93.69
351.174	86.69
351.402	107.69
351.629	97.69
351.856	99.69
352.083	128.69
352.311	104.69
352.538	119.69
352.765	104.69
352.992	115.69
353.22	106.69
353.447	101.69
353.674	109.69
353.901	90.69
354.128	97.69
354.355	103.69
354.583	95.69
354.81	88.69
355.037	111.69
355.264	107.69
355.491	106.69
355.718	97.69
355.945	93.69
356.172	77.69
356.399	94.69
356.626	97.69
356.853	98.69
357.08	91.69
357.307	108.69
357.534	89.69
357.761	102.69
357.988	93.69
358.215	104.69
358.441	90.69
358.668	90.69
358.895	89.69
359.122	98.69
359.349	86.69
359.576	74.69
359.802	90.69
360.029	101.69
360.256	120.69
360.483	117.69
360.709	88.69
360.936	89.69
361.163	93.69
361.39	95.69
361.616	98.69
361.843	83.69
362.07	88.69
362.296	92.69
362.523	87.69
362.749	86.69
362.976	92.69
363.203	107.69
363.429	87.69
363.656	105.69
363.882	95.69
364.109	90.69
364.335	110.69
364.562	99.69
364.788	110.69
365.015	87.69
365.241	106.69
365.468	117.69
365.694	109.69
365.92	92.69
366.147	76.69
366.373	92.69
366.599	80.69
366.826	93.69
367.052	101.69
367.278	90.69
367.505	86.69
367.731	98.69
367.957	85.69
368.184	91.69
368.41	94.69
368.636	114.69
368.862	118.69
369.089	104.69
369.315	93.69
369.541	96.69
369.767	100.69
369.993	83.69
370.219	101.69
370.445	78.69
370.672	84.69
370.898	87.69
371.124	90.69
371.35	77.69
371.576	82.69
371.802	85.69
372.028	94.69
372.254	93.69
372.48	80.69
372.706	85.69
372.932	87.69
373.158	89.69
373.384	86.69
373.61	91.69
373.835	94.69
374.061	86.69
374.287	90.69
374.513	89.69
374.739	91.69
374.965	99.69
375.191	100.69
375.416	88.69
375.642	85.69
375.868	97.69
376.094	84.69
376.319	96.69
376.545	94.69
376.771	96.69
376.997	88.69
377.222	92.69
377.448	82.69
377.674	94.69
377.899	98.69
378.125	82.69
378.35	97.69
378.576	98.69
378.802	81.69
379.027	92.69
379.253	78.69
379.478	94.69
379.704	105.69
379.929	91.69
380.155	92.69
380.38	100.69
380.606	115.69
380.831	97.69
381.057	102.69
381.282	105.69
381.507	114.69
381.733	87.69
381.958	90.69
382.184	88.69
382.409	98.69
382.634	97.69
382.86	101.69
383.085	103.69
383.31	106.69
383.535	95.69
383.761	119.69
383.986	95.69
384.211	99.69
384.436	103.69
384.662	103.69
384.887	102.69
385.112	117.69
385.337	110.69
385.562	92.69
385.787	110.69
386.013	116.69
386.238	118.69
386.463	122.69
386.688	143.69
386.913	100.69
387.138	102.69
387.363	116.69
387.588	109.69
387.813	101.69
388.038	129.69
388.263	123.69
388.488	112.69
388.713	103.69
388.938	99.69
389.163	89.69
389.387	109.69
389.612	80.69
389.837	86.69
390.062	97.69
390.287	103.69
390.512	82.69
390.736	90.69
390.961	92.69
391.186	97.69
391.411	89.69
391.636	77.69
391.86	83.69
392.085	101.69
392.31	97.69
392.534	87.69
392.759	96.69
392.984	97.69
393.208	82.69
393.433	94.69
393.658	116.69
393.882	89.69
394.107	91.69
394.331	93.69
394.556	75.69
394.78	95.69
395.005	94.69
395.229	82.69
395.454	82.69
395.678	65.69
395.903	71.69
396.127	92.69
396.352	91.69
396.576	76.69
396.801	94.69
397.025	90.69
397.249	90.69
397.474	94.69
397.698	86.69
397.922	96.69
398.147	95.69
398.371	86.69
398.595	79.69
398.82	90.69
399.044	85.69
399.268	91.69
399.492	95.69
399.717	92.69
399.941	92.69
400.165	97.69
400.389	101.69
400.613	84.69
400.837	87.69
401.062	90.69
401.286	89.69
401.51	107.69
401.734	89.69
401.958	98.69
402.182	138.69
402.406	181.69
402.63	108.69
402.854	90.69
403.078	86.69
403.302	89.69
403.526	75.69
403.75	75.69
403.974	85.69
404.198	94.69
404.422	90.69
404.645	79.69
404.869	87.69
405.093	86.69
405.317	86.69
405.541	106.69
405.765	114.69
405.988	131.69
406.212	179.69
406.436	234.69
406.66	152.69
406.883	111.69
407.107	116.69
407.331	95.69
407.555	95.69
407.778	97.69
408.002	87.69
408.226	92.69
408.449	82.69
408.673	88.69
408.896	94.69
409.12	102.69
409.344	90.69
409.567	82.69
409.791	91.69
410.014	100.69
410.238	94.69
410.461	77.69
410.685	92.69
410.908	84.69
411.132	112.69
411.355	95.69
411.578	85.69
411.802	86.69
412.025	78.69
412.249	86.69
412.472	83.69
412.695	75.69
412.919	92.69
413.142	99.69
413.365	94.69
413.589	102.69
413.812	84.69
414.035	71.69
414.258	96.69
414.482	94.69
414.705	92.69
414.928	97.69
415.151	92.69
415.374	87.69
415.597	96.69
415.821	87.69
416.044	90.69
416.267	91.69
416.49	92.69
416.713	81.69
416.936	86.69
417.159	79.69
417.382	98.69
417.605	107.69
417.828	113.69
418.051	91.69
418.274	81.69
418.497	74.69
418.72	86.69
418.943	80.69
419.166	89.69
419.389	113.69
419.611	89.69
419.834	101.69
420.057	99.69
420.28	71.69
420.503	85.69
420.726	89.69
420.948	94.69
421.171	87.69
421.394	88.69
421.617	80.69
421.839	73.69
422.062	92.69
422.285	93.69
422.507	95.69
422.73	92.69
422.953	68.69
423.175	94.69
423.398	92.69
423.621	101.69
423.843	79.69
424.066	95.69
424.288	83.69
424.511	82.69
424.733	98.69
424.956	99.69
425.178	111.69
425.401	102.69
425.623	107.69
425.846	88.69
426.068	86.69
426.291	99.69
426.513	86.69
426.735	87.69
426.958	94.69
427.18	99.69
427.402	141.69
427.625	177.69
427.847	123.69
428.069	115.69
428.292	82.69
428.514	82.69
428.736	94.69
428.958	89.69
429.181	84.69
429.403	67.69
429.625	68.69
429.847	73.69
430.069	96.69
430.292	93.69
430.514	80.69
430.736	83.69
430.958	79.69
431.18	82.69
431.402	73.69
431.624	83.69
431.846	91.69
432.068	72.69
432.29	90.69
432.512	94.69
432.734	81.69
432.956	82.69
433.178	102.69
433.4	93.69
433.622	84.69
433.844	83.69
434.066	93.69
434.287	74.69
434.509	88.69
434.731	86.69
434.953	79.69
435.175	86.69
435.397	85.69
435.618	80.69
435.84	89.69
436.062	126.69
436.284	119.69
436.505	114.69
436.727	97.69
436.949	84.69
437.17	85.69
437.392	82.69
437.614	95.69
437.835	116.69
438.057	115.69
438.278	114.69
438.5	105.69
438.721	131.69
438.943	102.69
439.165	87.69
439.386	89.69
439.608	91.69
439.829	102.69
440.05	119.69
440.272	151.69
440.493	100.69
440.715	91.69
440.936	81.69
441.158	74.69
441.379	88.69
441.6	84.69
441.822	100.69
442.043	96.69
442.264	108.69
442.486	93.69
442.707	96.69
442.928	104.69
443.149	147.69
443.371	123.69
443.592	103.69
443.813	88.69
444.034	105.69
444.255	82.69
444.476	91.69
444.698	75.69
444.919	72.69
445.14	123.69
445.361	127.69
445.582	103.69
445.803	139.69
446.024	134.69
446.245	140.69
446.466	105.69
446.687	83.69
446.908	98.69
447.129	79.69
447.35	86.69
447.571	74.69
447.792	105.69
448.013	85.69
448.234	109.69
448.455	101.69
448.675	118.69
448.896	109.69
449.117	100.69
449.338	95.69
449.559	123.69
449.779	142.69
450	84.69
450.221	88.69
450.442	90.69
450.662	100.69
450.883	101.69
451.104	111.69
451.324	89.69
451.545	84.69
451.766	83.69
451.986	77.69
452.207	83.69
452.428	80.69
452.648	99.69
452.869	115.69
453.089	116.69
453.31	130.69
453.53	99.69
453.751	97.69
453.971	105.69
454.192	99.69
454.412	81.69
454.633	85.69
454.853	97.69
455.073	84.69
455.294	91.69
455.514	92.69
455.734	81.69
455.955	75.69
456.175	86.69
456.395	96.69
456.616	90.69
456.836	74.69
457.056	82.69
457.276	84.69
457.497	75.69
457.717	86.69
457.937	92.69
458.157	72.69
458.377	71.69
458.598	113.69
458.818	161.69
459.038	164.69
459.258	122.69
459.478	114.69
459.698	87.69
459.918	89.69
460.138	97.69
460.358	75.69
460.578	89.69
460.798	87.69
461.018	86.69
461.238	81.69
461.458	71.69
461.678	93.69
461.898	75.69
462.118	87.69
462.338	86.69
462.558	98.69
462.777	82.69
462.997	78.69
463.217	100.69
463.437	98.69
463.657	84.69
463.876	78.69
464.096	82.69
464.316	89.69
464.536	86.69
464.755	88.69
464.975	120.69
465.195	185.69
465.414	174.69
465.634	87.69
465.854	86.69
466.073	75.69
466.293	91.69
466.512	79.69
466.732	91.69
466.951	90.69
467.171	80.69
467.391	91.69
467.61	105.69
467.829	108.69
468.049	77.69
468.268	82.69
468.488	96.69
468.707	76.69
468.927	88.69
469.146	80.69
469.365	92.69
469.585	78.69
469.804	84.69
470.023	96.69
470.243	89.69
470.462	107.69
470.681	119.69
470.901	75.69
471.12	85.69
471.339	83.69
471.558	86.69
471.777	85.69
471.997	84.69
472.216	86.69
472.435	102.69
472.654	93.69
472.873	99.69
473.092	99.69
473.311	73.69
473.53	88.69
473.749	80.69
473.968	100.69
474.187	109.69
474.406	85.69
474.625	78.69
474.844	93.69
475.063	96.69
475.282	93.69
475.501	87.69
475.72	90.69
475.939	88.69
476.158	70.69
476.377	94.69
476.596	80.69
476.814	91.69
477.033	89.69
477.252	90.69
477.471	97.69
477.69	97.69
477.908	87.69
478.127	89.69
478.346	96.69
478.564	93.69
478.783	76.69
479.002	96.69
479.22	84.69
479.439	94.69
479.658	103.69
479.876	93.69
480.095	84.69
480.313	85.69
480.532	108.69
480.751	95.69
480.969	95.69
481.188	134.69
481.406	115.69
481.624	92.69
481.843	79.69
482.061	97.69
482.28	97.69
482.498	90.69
482.717	93.69
482.935	82.69
483.153	92.69
483.372	93.69
483.59	93.69
483.808	91.69
484.027	114.69
484.245	103.69
484.463	84.69
484.681	98.69
484.9	90.69
485.118	89.69
485.336	98.69
485.554	86.69
485.772	104.69
485.99	98.69
486.209	101.69
486.427	101.69
486.645	92.69
486.863	106.69
487.081	94.69
487.299	88.69
487.517	88.69
487.735	92.69
487.953	82.69
488.171	97.69
488.389	100.69
488.607	93.69
488.825	95.69
489.043	89.69
489.261	93.69
489.479	96.69
489.696	85.69
489.914	88.69
490.132	88.69
490.35	91.69
490.568	79.69
490.786	76.69
491.003	94.69
491.221	91.69
491.439	89.69
491.657	103.69
491.874	96.69
492.092	95.69
492.31	99.69
492.527	94.69
492.745	88.69
492.963	93.69
493.18	84.69
493.398	83.69
493.615	101.69
493.833	99.69
494.05	76.69
494.268	84.69
494.485	87.69
494.703	83.69
494.92	87.69
495.138	91.69
495.355	90.69
495.573	86.69
495.79	91.69
496.008	97.69
496.225	93.69
496.442	99.69
496.66	97.69
496.877	95.69
497.094	94.69
497.312	101.69
497.529	89.69
497.746	88.69
497.963	77.69
498.181	88.69
498.398	92.69
498.615	108.69
498.832	111.69
499.049	104.69
499.267	86.69
499.484	78.69
499.701	91.69
499.918	83.69
500.135	73.69
500.352	92.69
500.569	89.69
500.786	92.69
501.003	86.69
501.22	82.69
501.437	78.69
501.654	77.69
501.871	98.69
502.088	96.69
502.305	84.69
502.522	91.69
502.739	94.69
502.956	92.69
503.172	78.69
503.389	80.69
503.606	106.69
503.823	102.69
504.04	86.69
504.256	100.69
504.473	82.69
504.69	89.69
504.907	99.69
505.123	104.69
505.34	90.69
505.557	88.69
505.773	101.69
505.99	90.69
506.207	90.69
506.423	88.69
506.64	81.69
506.856	82.69
507.073	83.69
507.289	77.69
507.506	101.69
507.722	131.69
507.939	104.69
508.155	99.69
508.372	105.69
508.588	97.69
508.805	104.69
509.021	97.69
509.238	103.69
509.454	94.69
509.67	97.69
509.887	103.69
510.103	131.69
510.319	210.69
510.536	828.69
510.752	2750.69
510.968	780.69
511.184	164.69
511.401	105.69
511.617	103.69
511.833	100.69
512.049	89.69
512.265	90.69
512.481	93.69
512.698	89.69
512.914	93.69
513.13	99.69
513.346	93.69
513.562	101.69
513.778	100.69
513.994	103.69
514.21	99.69
514.426	125.69
514.642	129.69
514.858	137.69
515.074	163.69
515.29	505.69
515.506	1751.69
