Data from Circ_2014_H10_HRD10591_00089.txt Node
Date: Wed Jan 03 10:02:27 EST 2024
User: Yrep
Spectrometer: HR+D1059
Trigger mode: 1
Integration Time (sec): 1.000000E-1
Scans to average: 1
Electric dark correction enabled: true
Nonlinearity correction enabled: false
Boxcar width: 0
XAxis mode: Wavelengths
Number of Pixels in Spectrum: 2048
>>>>>Begin Spectral Data<<<<<
223.165	-18.25
223.4	-18.25
223.635	-18.25
223.869	-20.25
224.104	-21.25
224.338	-18.25
224.573	-17.25
224.808	-12.25
225.042	-4.25
225.277	-2.25
225.511	-10.25
225.746	2.75
225.98	-1.25
226.215	5.75
226.449	32.75
226.683	22.75
226.918	28.75
227.152	32.75
227.387	40.75
227.621	54.75
227.856	46.75
228.09	44.75
228.324	53.75
228.559	54.75
228.793	67.75
229.027	68.75
229.262	75.75
229.496	69.75
229.73	81.75
229.964	86.75
230.199	80.75
230.433	75.75
230.667	93.75
230.901	76.75
231.136	79.75
231.37	70.75
231.604	68.75
231.838	72.75
232.072	91.75
232.306	91.75
232.541	84.75
232.775	92.75
233.009	75.75
233.243	63.75
233.477	71.75
233.711	76.75
233.945	60.75
234.179	76.75
234.413	77.75
234.647	88.75
234.881	72.75
235.115	87.75
235.349	86.75
235.583	74.75
235.817	71.75
236.051	77.75
236.285	74.75
236.519	68.75
236.753	76.75
236.987	80.75
237.221	80.75
237.455	86.75
237.689	77.75
237.922	74.75
238.156	71.75
238.39	76.75
238.624	79.75
238.858	69.75
239.091	94.75
239.325	71.75
239.559	83.75
239.793	78.75
240.027	74.75
240.26	86.75
240.494	72.75
240.728	87.75
240.961	79.75
241.195	81.75
241.429	81.75
241.662	71.75
241.896	71.75
242.13	94.75
242.363	76.75
242.597	68.75
242.83	98.75
243.064	76.75
243.298	77.75
243.531	76.75
243.765	85.75
243.998	72.75
244.232	77.75
244.465	89.75
244.699	80.75
244.932	86.75
245.166	92.75
245.399	88.75
245.633	80.75
245.866	83.75
246.099	75.75
246.333	75.75
246.566	73.75
246.8	82.75
247.033	77.75
247.266	84.75
247.5	85.75
247.733	80.75
247.966	88.75
248.2	80.75
248.433	89.75
248.666	63.75
248.899	75.75
249.133	86.75
249.366	93.75
249.599	89.75
249.832	76.75
250.066	69.75
250.299	78.75
250.532	91.75
250.765	86.75
250.998	73.75
251.231	88.75
251.465	88.75
251.698	79.75
251.931	96.75
252.164	77.75
252.397	88.75
252.63	94.75
252.863	87.75
253.096	77.75
253.329	77.75
253.562	100.75
253.795	85.75
254.028	71.75
254.261	83.75
254.494	77.75
254.727	92.75
254.96	87.75
255.193	76.75
255.426	78.75
255.659	79.75
255.892	77.75
256.124	95.75
256.357	76.75
256.59	60.75
256.823	90.75
257.056	80.75
257.289	83.75
257.521	79.75
257.754	71.75
257.987	89.75
258.22	66.75
258.452	92.75
258.685	96.75
258.918	72.75
259.151	71.75
259.383	87.75
259.616	84.75
259.849	101.75
260.081	88.75
260.314	92.75
260.547	79.75
260.779	80.75
261.012	90.75
261.244	107.75
261.477	98.75
261.71	96.75
261.942	116.75
262.175	119.75
262.407	90.75
262.64	80.75
262.872	104.75
263.105	78.75
263.337	85.75
263.57	88.75
263.802	80.75
264.035	85.75
264.267	92.75
264.499	94.75
264.732	80.75
264.964	91.75
265.197	96.75
265.429	94.75
265.661	76.75
265.894	85.75
266.126	79.75
266.358	83.75
266.591	71.75
266.823	89.75
267.055	90.75
267.287	75.75
267.52	77.75
267.752	90.75
267.984	84.75
268.216	81.75
268.448	83.75
268.681	86.75
268.913	91.75
269.145	88.75
269.377	87.75
269.609	79.75
269.841	96.75
270.073	83.75
270.306	73.75
270.538	94.75
270.77	98.75
271.002	90.75
271.234	92.75
271.466	82.75
271.698	76.75
271.93	88.75
272.162	84.75
272.394	92.75
272.626	70.75
272.858	84.75
273.09	94.75
273.322	89.75
273.553	87.75
273.785	85.75
274.017	89.75
274.249	89.75
274.481	80.75
274.713	79.75
274.945	84.75
275.176	75.75
275.408	102.75
275.64	94.75
275.872	74.75
276.104	90.75
276.335	99.75
276.567	109.75
276.799	111.75
277.031	117.75
277.262	89.75
277.494	83.75
277.726	96.75
277.957	77.75
278.189	77.75
278.421	92.75
278.652	77.75
278.884	101.75
279.115	79.75
279.347	78.75
279.579	98.75
279.81	91.75
280.042	94.75
280.273	99.75
280.505	94.75
280.736	91.75
280.968	85.75
281.199	93.75
281.431	95.75
281.662	90.75
281.894	94.75
282.125	99.75
282.356	122.75
282.588	144.75
282.819	114.75
283.051	95.75
283.282	76.75
283.513	78.75
283.745	97.75
283.976	91.75
284.207	87.75
284.439	88.75
284.67	94.75
284.901	90.75
285.132	99.75
285.364	93.75
285.595	87.75
285.826	83.75
286.057	82.75
286.288	94.75
286.52	100.75
286.751	94.75
286.982	83.75
287.213	91.75
287.444	75.75
287.675	92.75
287.906	85.75
288.138	95.75
288.369	92.75
288.6	94.75
288.831	87.75
289.062	94.75
289.293	95.75
289.524	85.75
289.755	87.75
289.986	82.75
290.217	96.75
290.448	86.75
290.679	96.75
290.91	78.75
291.141	87.75
291.371	86.75
291.602	70.75
291.833	94.75
292.064	104.75
292.295	90.75
292.526	90.75
292.757	93.75
292.987	83.75
293.218	98.75
293.449	96.75
293.68	93.75
293.91	91.75
294.141	91.75
294.372	81.75
294.603	86.75
294.833	97.75
295.064	90.75
295.295	95.75
295.525	103.75
295.756	102.75
295.987	121.75
296.217	137.75
296.448	140.75
296.679	103.75
296.909	94.75
297.14	79.75
297.37	79.75
297.601	91.75
297.831	76.75
298.062	81.75
298.292	87.75
298.523	91.75
298.753	74.75
298.984	89.75
299.214	80.75
299.445	98.75
299.675	101.75
299.905	98.75
300.136	83.75
300.366	96.75
300.597	93.75
300.827	100.75
301.057	104.75
301.288	116.75
301.518	89.75
301.748	100.75
301.979	92.75
302.209	88.75
302.439	78.75
302.669	99.75
302.9	86.75
303.13	83.75
303.36	87.75
303.59	94.75
303.82	108.75
304.051	102.75
304.281	94.75
304.511	94.75
304.741	94.75
304.971	98.75
305.201	98.75
305.431	89.75
305.661	73.75
305.891	92.75
306.121	106.75
306.352	98.75
306.582	118.75
306.812	85.75
307.042	92.75
307.272	98.75
307.502	91.75
307.731	90.75
307.961	111.75
308.191	102.75
308.421	103.75
308.651	77.75
308.881	95.75
309.111	91.75
309.341	89.75
309.571	111.75
309.8	99.75
310.03	98.75
310.26	104.75
310.49	99.75
310.72	93.75
310.949	98.75
311.179	110.75
311.409	83.75
311.639	102.75
311.868	94.75
312.098	100.75
312.328	104.75
312.557	110.75
312.787	105.75
313.017	100.75
313.246	96.75
313.476	91.75
313.706	84.75
313.935	91.75
314.165	115.75
314.394	94.75
314.624	89.75
314.853	83.75
315.083	86.75
315.312	76.75
315.542	84.75
315.771	94.75
316.001	94.75
316.23	104.75
316.46	99.75
316.689	93.75
316.919	89.75
317.148	100.75
317.377	108.75
317.607	101.75
317.836	96.75
318.065	103.75
318.295	93.75
318.524	77.75
318.753	93.75
318.983	94.75
319.212	93.75
319.441	110.75
319.67	125.75
319.9	101.75
320.129	98.75
320.358	98.75
320.587	108.75
320.816	96.75
321.046	97.75
321.275	95.75
321.504	104.75
321.733	114.75
321.962	99.75
322.191	100.75
322.42	113.75
322.649	100.75
322.878	129.75
323.108	111.75
323.337	125.75
323.566	137.75
323.795	157.75
324.024	218.75
324.253	413.75
324.482	820.75
324.71	1656.75
324.939	2184.75
325.168	843.75
325.397	252.75
325.626	143.75
325.855	154.75
326.084	116.75
326.313	152.75
326.542	157.75
326.77	233.75
326.999	455.75
327.228	914.75
327.457	1653.75
327.686	1340.75
327.914	393.75
328.143	221.75
328.372	190.75
328.6	151.75
328.829	116.75
329.058	144.75
329.287	136.75
329.515	109.75
329.744	111.75
329.972	137.75
330.201	199.75
330.43	268.75
330.658	186.75
330.887	160.75
331.115	136.75
331.344	91.75
331.572	90.75
331.801	114.75
332.03	105.75
332.258	93.75
332.486	92.75
332.715	101.75
332.943	103.75
333.172	94.75
333.4	118.75
333.629	114.75
333.857	124.75
334.085	153.75
334.314	188.75
334.542	312.75
334.771	308.75
334.999	143.75
335.227	116.75
335.455	93.75
335.684	91.75
335.912	93.75
336.14	102.75
336.369	96.75
336.597	107.75
336.825	87.75
337.053	94.75
337.281	97.75
337.51	94.75
337.738	90.75
337.966	103.75
338.194	99.75
338.422	93.75
338.65	91.75
338.878	108.75
339.106	105.75
339.334	92.75
339.562	88.75
339.79	94.75
340.018	98.75
340.246	94.75
340.474	99.75
340.702	99.75
340.93	106.75
341.158	110.75
341.386	110.75
341.614	103.75
341.842	103.75
342.07	93.75
342.298	91.75
342.526	88.75
342.754	91.75
342.981	85.75
343.209	94.75
343.437	95.75
343.665	105.75
343.893	104.75
344.12	93.75
344.348	90.75
344.576	88.75
344.804	95.75
345.031	101.75
345.259	104.75
345.487	101.75
345.714	102.75
345.942	89.75
346.17	92.75
346.397	102.75
346.625	98.75
346.853	79.75
347.08	96.75
347.308	92.75
347.535	95.75
347.763	87.75
347.99	81.75
348.218	89.75
348.445	106.75
348.673	104.75
348.9	106.75
349.128	99.75
349.355	89.75
349.583	89.75
349.81	98.75
350.037	93.75
350.265	91.75
350.492	95.75
350.72	96.75
350.947	100.75
351.174	111.75
351.402	108.75
351.629	98.75
351.856	104.75
352.083	106.75
352.311	102.75
352.538	104.75
352.765	110.75
352.992	102.75
353.22	110.75
353.447	102.75
353.674	98.75
353.901	97.75
354.128	102.75
354.355	93.75
354.583	86.75
354.81	93.75
355.037	82.75
355.264	84.75
355.491	94.75
355.718	84.75
355.945	98.75
356.172	106.75
356.399	83.75
356.626	101.75
356.853	109.75
357.08	99.75
357.307	97.75
357.534	101.75
357.761	91.75
357.988	89.75
358.215	95.75
358.441	97.75
358.668	90.75
358.895	96.75
359.122	86.75
359.349	88.75
359.576	87.75
359.802	106.75
360.029	115.75
360.256	116.75
360.483	112.75
360.709	92.75
360.936	101.75
361.163	116.75
361.39	92.75
361.616	102.75
361.843	83.75
362.07	102.75
362.296	93.75
362.523	98.75
362.749	90.75
362.976	101.75
363.203	90.75
363.429	89.75
363.656	95.75
363.882	88.75
364.109	92.75
364.335	84.75
364.562	92.75
364.788	96.75
365.015	95.75
365.241	107.75
365.468	112.75
365.694	119.75
365.92	94.75
366.147	95.75
366.373	76.75
366.599	79.75
366.826	96.75
367.052	90.75
367.278	102.75
367.505	94.75
367.731	110.75
367.957	84.75
368.184	102.75
368.41	106.75
368.636	111.75
368.862	134.75
369.089	114.75
369.315	88.75
369.541	94.75
369.767	107.75
369.993	84.75
370.219	91.75
370.445	87.75
370.672	98.75
370.898	88.75
371.124	75.75
371.35	92.75
371.576	92.75
371.802	82.75
372.028	84.75
372.254	85.75
372.48	88.75
372.706	87.75
372.932	94.75
373.158	82.75
373.384	87.75
373.61	75.75
373.835	87.75
374.061	94.75
374.287	94.75
374.513	87.75
374.739	84.75
374.965	89.75
375.191	81.75
375.416	101.75
375.642	88.75
375.868	83.75
376.094	83.75
376.319	91.75
376.545	109.75
376.771	83.75
376.997	94.75
377.222	93.75
377.448	90.75
377.674	88.75
377.899	94.75
378.125	84.75
378.35	105.75
378.576	95.75
378.802	76.75
379.027	85.75
379.253	93.75
379.478	99.75
379.704	88.75
379.929	110.75
380.155	109.75
380.38	89.75
380.606	91.75
380.831	108.75
381.057	104.75
381.282	90.75
381.507	84.75
381.733	88.75
381.958	97.75
382.184	93.75
382.409	99.75
382.634	102.75
382.86	107.75
383.085	98.75
383.31	103.75
383.535	98.75
383.761	79.75
383.986	93.75
384.211	91.75
384.436	98.75
384.662	88.75
384.887	100.75
385.112	93.75
385.337	96.75
385.562	99.75
385.787	104.75
386.013	102.75
386.238	107.75
386.463	114.75
386.688	99.75
386.913	95.75
387.138	93.75
387.363	109.75
387.588	101.75
387.813	99.75
388.038	108.75
388.263	101.75
388.488	100.75
388.713	95.75
388.938	100.75
389.163	83.75
389.387	102.75
389.612	116.75
389.837	97.75
390.062	104.75
390.287	93.75
390.512	83.75
390.736	74.75
390.961	82.75
391.186	79.75
391.411	90.75
391.636	94.75
391.86	95.75
392.085	94.75
392.31	91.75
392.534	102.75
392.759	82.75
392.984	90.75
393.208	83.75
393.433	90.75
393.658	102.75
393.882	85.75
394.107	83.75
394.331	93.75
394.556	92.75
394.78	105.75
395.005	85.75
395.229	87.75
395.454	87.75
395.678	88.75
395.903	94.75
396.127	93.75
396.352	87.75
396.576	87.75
396.801	92.75
397.025	91.75
397.249	87.75
397.474	89.75
397.698	87.75
397.922	82.75
398.147	91.75
398.371	81.75
398.595	95.75
398.82	91.75
399.044	76.75
399.268	90.75
399.492	90.75
399.717	84.75
399.941	103.75
400.165	88.75
400.389	93.75
400.613	93.75
400.837	74.75
401.062	93.75
401.286	89.75
401.51	85.75
401.734	87.75
401.958	119.75
402.182	135.75
402.406	180.75
402.63	136.75
402.854	93.75
403.078	100.75
403.302	88.75
403.526	85.75
403.75	93.75
403.974	99.75
404.198	91.75
404.422	76.75
404.645	91.75
404.869	78.75
405.093	103.75
405.317	108.75
405.541	100.75
405.765	107.75
405.988	117.75
406.212	182.75
406.436	252.75
406.66	155.75
406.883	102.75
407.107	97.75
407.331	104.75
407.555	89.75
407.778	85.75
408.002	92.75
408.226	73.75
408.449	77.75
408.673	73.75
408.896	92.75
409.12	94.75
409.344	97.75
409.567	97.75
409.791	88.75
410.014	91.75
410.238	89.75
410.461	91.75
410.685	100.75
410.908	91.75
411.132	110.75
411.355	103.75
411.578	84.75
411.802	81.75
412.025	94.75
412.249	91.75
412.472	80.75
412.695	101.75
412.919	99.75
413.142	78.75
413.365	84.75
413.589	90.75
413.812	79.75
414.035	93.75
414.258	86.75
414.482	90.75
414.705	92.75
414.928	92.75
415.151	100.75
415.374	96.75
415.597	96.75
415.821	98.75
416.044	87.75
416.267	80.75
416.49	97.75
416.713	87.75
416.936	90.75
417.159	94.75
417.382	81.75
417.605	105.75
417.828	87.75
418.051	84.75
418.274	88.75
418.497	99.75
418.72	93.75
418.943	96.75
419.166	83.75
419.389	90.75
419.611	97.75
419.834	92.75
420.057	88.75
420.28	89.75
420.503	87.75
420.726	86.75
420.948	95.75
421.171	91.75
421.394	79.75
421.617	85.75
421.839	91.75
422.062	98.75
422.285	101.75
422.507	102.75
422.73	95.75
422.953	109.75
423.175	95.75
423.398	90.75
423.621	98.75
423.843	101.75
424.066	83.75
424.288	83.75
424.511	91.75
424.733	107.75
424.956	102.75
425.178	105.75
425.401	101.75
425.623	90.75
425.846	90.75
426.068	94.75
426.291	102.75
426.513	83.75
426.735	85.75
426.958	86.75
427.18	102.75
427.402	130.75
427.625	181.75
427.847	171.75
428.069	129.75
428.292	90.75
428.514	97.75
428.736	99.75
428.958	94.75
429.181	85.75
429.403	86.75
429.625	93.75
429.847	96.75
430.069	101.75
430.292	84.75
430.514	91.75
430.736	90.75
430.958	89.75
431.18	84.75
431.402	82.75
431.624	75.75
431.846	85.75
432.068	93.75
432.29	76.75
432.512	82.75
432.734	86.75
432.956	93.75
433.178	98.75
433.4	89.75
433.622	88.75
433.844	87.75
434.066	106.75
434.287	110.75
434.509	92.75
434.731	91.75
434.953	82.75
435.175	82.75
435.397	83.75
435.618	91.75
435.84	114.75
436.062	125.75
436.284	122.75
436.505	93.75
436.727	105.75
436.949	93.75
437.17	84.75
437.392	90.75
437.614	91.75
437.835	111.75
438.057	123.75
438.278	110.75
438.5	110.75
438.721	117.75
438.943	104.75
439.165	91.75
439.386	82.75
439.608	89.75
439.829	99.75
440.05	123.75
440.272	134.75
440.493	104.75
440.715	84.75
440.936	82.75
441.158	90.75
441.379	92.75
441.6	109.75
441.822	93.75
442.043	91.75
442.264	119.75
442.486	100.75
442.707	104.75
442.928	100.75
443.149	134.75
443.371	148.75
443.592	110.75
443.813	114.75
444.034	104.75
444.255	104.75
444.476	90.75
444.698	88.75
444.919	76.75
445.14	131.75
445.361	116.75
445.582	108.75
445.803	146.75
446.024	128.75
446.245	135.75
446.466	97.75
446.687	82.75
446.908	69.75
447.129	81.75
447.35	99.75
447.571	78.75
447.792	94.75
448.013	87.75
448.234	103.75
448.455	94.75
448.675	116.75
448.896	126.75
449.117	94.75
449.338	104.75
449.559	139.75
449.779	140.75
450	88.75
450.221	77.75
450.442	96.75
450.662	91.75
450.883	109.75
451.104	95.75
451.324	87.75
451.545	96.75
451.766	87.75
451.986	92.75
452.207	87.75
452.428	95.75
452.648	105.75
452.869	117.75
453.089	118.75
453.31	111.75
453.53	95.75
453.751	94.75
453.971	112.75
454.192	103.75
454.412	114.75
454.633	88.75
454.853	100.75
455.073	86.75
455.294	95.75
455.514	99.75
455.734	82.75
455.955	84.75
456.175	84.75
456.395	84.75
456.616	78.75
456.836	92.75
457.056	89.75
457.276	95.75
457.497	92.75
457.717	87.75
457.937	95.75
458.157	90.75
458.377	100.75
458.598	120.75
458.818	157.75
459.038	162.75
459.258	123.75
459.478	91.75
459.698	90.75
459.918	104.75
460.138	81.75
460.358	83.75
460.578	86.75
460.798	84.75
461.018	102.75
461.238	89.75
461.458	93.75
461.678	88.75
461.898	84.75
462.118	84.75
462.338	77.75
462.558	77.75
462.777	88.75
462.997	94.75
463.217	94.75
463.437	87.75
463.657	84.75
463.876	98.75
464.096	83.75
464.316	99.75
464.536	96.75
464.755	109.75
464.975	115.75
465.195	176.75
465.414	190.75
465.634	103.75
465.854	91.75
466.073	96.75
466.293	86.75
466.512	89.75
466.732	99.75
466.951	75.75
467.171	97.75
467.391	95.75
467.61	116.75
467.829	102.75
468.049	154.75
468.268	180.75
468.488	116.75
468.707	83.75
468.927	95.75
469.146	82.75
469.365	91.75
469.585	95.75
469.804	104.75
470.023	86.75
470.243	86.75
470.462	106.75
470.681	108.75
470.901	97.75
471.12	84.75
471.339	95.75
471.558	100.75
471.777	106.75
471.997	111.75
472.216	211.75
472.435	412.75
472.654	164.75
472.873	111.75
473.092	95.75
473.311	99.75
473.53	88.75
473.749	92.75
473.968	84.75
474.187	99.75
474.406	94.75
474.625	86.75
474.844	90.75
475.063	86.75
475.282	84.75
475.501	71.75
475.72	92.75
475.939	92.75
476.158	81.75
476.377	96.75
476.596	92.75
476.814	83.75
477.033	97.75
477.252	79.75
477.471	90.75
477.69	86.75
477.908	95.75
478.127	86.75
478.346	85.75
478.564	93.75
478.783	104.75
479.002	90.75
479.22	98.75
479.439	100.75
479.658	102.75
479.876	114.75
480.095	85.75
480.313	86.75
480.532	109.75
480.751	112.75
480.969	222.75
481.188	668.75
481.406	430.75
481.624	137.75
481.843	92.75
482.061	88.75
482.28	95.75
482.498	89.75
482.717	96.75
482.935	86.75
483.153	88.75
483.372	75.75
483.59	80.75
483.808	92.75
484.027	77.75
484.245	85.75
484.463	84.75
484.681	99.75
484.9	104.75
485.118	90.75
485.336	109.75
485.554	102.75
485.772	98.75
485.99	92.75
486.209	100.75
486.427	112.75
486.645	117.75
486.863	114.75
487.081	86.75
487.299	89.75
487.517	98.75
487.735	93.75
487.953	90.75
488.171	101.75
488.389	104.75
488.607	99.75
488.825	107.75
489.043	92.75
489.261	103.75
489.479	89.75
489.696	90.75
489.914	89.75
490.132	99.75
490.35	100.75
490.568	70.75
490.786	95.75
491.003	99.75
491.221	88.75
491.439	82.75
491.657	83.75
491.874	92.75
492.092	105.75
492.31	99.75
492.527	96.75
492.745	106.75
492.963	80.75
493.18	92.75
493.398	85.75
493.615	95.75
493.833	101.75
494.05	88.75
494.268	88.75
494.485	91.75
494.703	80.75
494.92	88.75
495.138	93.75
495.355	92.75
495.573	96.75
495.79	96.75
496.008	94.75
496.225	88.75
496.442	86.75
496.66	102.75
496.877	101.75
497.094	88.75
497.312	81.75
497.529	91.75
497.746	88.75
497.963	94.75
498.181	108.75
498.398	92.75
498.615	97.75
498.832	110.75
499.049	94.75
499.267	104.75
499.484	90.75
499.701	103.75
499.918	90.75
500.135	83.75
500.352	88.75
500.569	88.75
500.786	82.75
501.003	94.75
501.22	84.75
501.437	89.75
501.654	80.75
501.871	104.75
502.088	114.75
502.305	99.75
502.522	87.75
502.739	104.75
502.956	96.75
503.172	90.75
503.389	91.75
503.606	101.75
503.823	90.75
504.04	98.75
504.256	97.75
504.473	89.75
504.69	90.75
504.907	89.75
505.123	93.75
505.34	96.75
505.557	79.75
505.773	81.75
505.99	86.75
506.207	102.75
506.423	103.75
506.64	80.75
506.856	82.75
507.073	89.75
507.289	93.75
507.506	112.75
507.722	120.75
507.939	116.75
508.155	100.75
508.372	90.75
508.588	91.75
508.805	104.75
509.021	101.75
509.238	95.75
509.454	85.75
509.67	117.75
509.887	108.75
510.103	158.75
510.319	223.75
510.536	805.75
510.752	2707.75
510.968	782.75
511.184	164.75
511.401	120.75
511.617	97.75
511.833	101.75
512.049	94.75
512.265	86.75
512.481	93.75
512.698	91.75
512.914	101.75
513.13	92.75
513.346	92.75
513.562	105.75
513.778	93.75
513.994	109.75
514.21	100.75
514.426	119.75
514.642	137.75
514.858	145.75
