Data from Circ_2014_H10_HRD10591_00034.txt Node
Date: Wed Jan 03 10:02:16 EST 2024
User: Yrep
Spectrometer: HR+D1059
Trigger mode: 1
Integration Time (sec): 1.000000E-1
Scans to average: 1
Electric dark correction enabled: true
Nonlinearity correction enabled: false
Boxcar width: 0
XAxis mode: Wavelengths
Number of Pixels in Spectrum: 2048
>>>>>Begin Spectral Data<<<<<
223.165	-23.75
223.4	-23.75
223.635	-23.75
223.869	-4.75
224.104	-13.75
224.338	-21.75
224.573	-18.75
224.808	-7.75
225.042	-13.75
225.277	-12.75
225.511	-4.75
225.746	1.25
225.98	12.25
226.215	10.25
226.449	17.25
226.683	11.25
226.918	33.25
227.152	36.25
227.387	34.25
227.621	41.25
227.856	37.25
228.09	45.25
228.324	58.25
228.559	45.25
228.793	67.25
229.027	63.25
229.262	74.25
229.496	75.25
229.73	80.25
229.964	85.25
230.199	81.25
230.433	84.25
230.667	86.25
230.901	57.25
231.136	87.25
231.37	66.25
231.604	60.25
231.838	76.25
232.072	82.25
232.306	88.25
232.541	75.25
232.775	81.25
233.009	74.25
233.243	90.25
233.477	76.25
233.711	89.25
233.945	79.25
234.179	85.25
234.413	86.25
234.647	80.25
234.881	83.25
235.115	77.25
235.349	83.25
235.583	87.25
235.817	74.25
236.051	66.25
236.285	67.25
236.519	77.25
236.753	75.25
236.987	83.25
237.221	82.25
237.455	82.25
237.689	79.25
237.922	64.25
238.156	73.25
238.39	74.25
238.624	66.25
238.858	77.25
239.091	75.25
239.325	77.25
239.559	72.25
239.793	74.25
240.027	69.25
240.26	75.25
240.494	70.25
240.728	67.25
240.961	78.25
241.195	86.25
241.429	73.25
241.662	75.25
241.896	83.25
242.13	69.25
242.363	76.25
242.597	77.25
242.83	55.25
243.064	63.25
243.298	66.25
243.531	69.25
243.765	81.25
243.998	76.25
244.232	75.25
244.465	77.25
244.699	87.25
244.932	76.25
245.166	76.25
245.399	71.25
245.633	82.25
245.866	78.25
246.099	81.25
246.333	72.25
246.566	80.25
246.8	77.25
247.033	80.25
247.266	74.25
247.5	79.25
247.733	69.25
247.966	72.25
248.2	72.25
248.433	73.25
248.666	84.25
248.899	79.25
249.133	80.25
249.366	92.25
249.599	102.25
249.832	86.25
250.066	76.25
250.299	88.25
250.532	77.25
250.765	77.25
250.998	81.25
251.231	85.25
251.465	73.25
251.698	77.25
251.931	73.25
252.164	85.25
252.397	77.25
252.63	77.25
252.863	70.25
253.096	69.25
253.329	87.25
253.562	86.25
253.795	81.25
254.028	86.25
254.261	84.25
254.494	92.25
254.727	76.25
254.96	65.25
255.193	66.25
255.426	72.25
255.659	76.25
255.892	79.25
256.124	84.25
256.357	88.25
256.59	87.25
256.823	91.25
257.056	77.25
257.289	76.25
257.521	67.25
257.754	75.25
257.987	71.25
258.22	84.25
258.452	91.25
258.685	79.25
258.918	67.25
259.151	82.25
259.383	80.25
259.616	67.25
259.849	84.25
260.081	62.25
260.314	92.25
260.547	75.25
260.779	78.25
261.012	85.25
261.244	84.25
261.477	77.25
261.71	76.25
261.942	120.25
262.175	119.25
262.407	84.25
262.64	102.25
262.872	68.25
263.105	81.25
263.337	85.25
263.57	83.25
263.802	76.25
264.035	76.25
264.267	81.25
264.499	76.25
264.732	85.25
264.964	76.25
265.197	82.25
265.429	80.25
265.661	76.25
265.894	66.25
266.126	76.25
266.358	72.25
266.591	87.25
266.823	75.25
267.055	82.25
267.287	75.25
267.52	83.25
267.752	80.25
267.984	77.25
268.216	84.25
268.448	99.25
268.681	73.25
268.913	85.25
269.145	82.25
269.377	74.25
269.609	86.25
269.841	82.25
270.073	77.25
270.306	74.25
270.538	75.25
270.77	73.25
271.002	78.25
271.234	80.25
271.466	91.25
271.698	83.25
271.93	85.25
272.162	88.25
272.394	76.25
272.626	74.25
272.858	95.25
273.09	81.25
273.322	90.25
273.553	77.25
273.785	68.25
274.017	72.25
274.249	80.25
274.481	88.25
274.713	82.25
274.945	84.25
275.176	75.25
275.408	93.25
275.64	96.25
275.872	77.25
276.104	99.25
276.335	106.25
276.567	106.25
276.799	109.25
277.031	96.25
277.262	85.25
277.494	83.25
277.726	80.25
277.957	78.25
278.189	85.25
278.421	80.25
278.652	85.25
278.884	89.25
279.115	69.25
279.347	74.25
279.579	96.25
279.81	89.25
280.042	90.25
280.273	80.25
280.505	91.25
280.736	77.25
280.968	86.25
281.199	82.25
281.431	77.25
281.662	83.25
281.894	89.25
282.125	101.25
282.356	120.25
282.588	151.25
282.819	122.25
283.051	72.25
283.282	87.25
283.513	79.25
283.745	101.25
283.976	86.25
284.207	69.25
284.439	83.25
284.67	87.25
284.901	84.25
285.132	81.25
285.364	67.25
285.595	88.25
285.826	79.25
286.057	88.25
286.288	85.25
286.52	93.25
286.751	96.25
286.982	89.25
287.213	77.25
287.444	77.25
287.675	85.25
287.906	98.25
288.138	91.25
288.369	80.25
288.6	95.25
288.831	85.25
289.062	85.25
289.293	79.25
289.524	88.25
289.755	96.25
289.986	74.25
290.217	80.25
290.448	87.25
290.679	91.25
290.91	93.25
291.141	86.25
291.371	82.25
291.602	65.25
291.833	96.25
292.064	77.25
292.295	82.25
292.526	78.25
292.757	95.25
292.987	82.25
293.218	89.25
293.449	75.25
293.68	83.25
293.91	66.25
294.141	84.25
294.372	94.25
294.603	83.25
294.833	92.25
295.064	80.25
295.295	75.25
295.525	91.25
295.756	102.25
295.987	112.25
296.217	166.25
296.448	116.25
296.679	81.25
296.909	95.25
297.14	91.25
297.37	81.25
297.601	92.25
297.831	80.25
298.062	85.25
298.292	90.25
298.523	84.25
298.753	87.25
298.984	98.25
299.214	93.25
299.445	97.25
299.675	102.25
299.905	96.25
300.136	80.25
300.366	100.25
300.597	93.25
300.827	98.25
301.057	99.25
301.288	91.25
301.518	100.25
301.748	95.25
301.979	98.25
302.209	88.25
302.439	76.25
302.669	82.25
302.9	86.25
303.13	86.25
303.36	79.25
303.59	106.25
303.82	121.25
304.051	94.25
304.281	89.25
304.511	87.25
304.741	83.25
304.971	85.25
305.201	78.25
305.431	92.25
305.661	90.25
305.891	86.25
306.121	101.25
306.352	99.25
306.582	100.25
306.812	101.25
307.042	91.25
307.272	84.25
307.502	93.25
307.731	93.25
307.961	92.25
308.191	87.25
308.421	103.25
308.651	88.25
308.881	88.25
309.111	93.25
309.341	89.25
309.571	96.25
309.8	91.25
310.03	96.25
310.26	105.25
310.49	93.25
310.72	104.25
310.949	97.25
311.179	87.25
311.409	92.25
311.639	99.25
311.868	100.25
312.098	83.25
312.328	104.25
312.557	104.25
312.787	107.25
313.017	105.25
313.246	99.25
313.476	100.25
313.706	104.25
313.935	89.25
314.165	98.25
314.394	105.25
314.624	108.25
314.853	82.25
315.083	87.25
315.312	92.25
315.542	71.25
315.771	76.25
316.001	93.25
316.23	94.25
316.46	84.25
316.689	92.25
316.919	88.25
317.148	93.25
317.377	95.25
317.607	101.25
317.836	98.25
318.065	89.25
318.295	75.25
318.524	80.25
318.753	90.25
318.983	80.25
319.212	105.25
319.441	115.25
319.67	104.25
319.9	88.25
320.129	108.25
320.358	101.25
320.587	87.25
320.816	100.25
321.046	97.25
321.275	97.25
321.504	96.25
321.733	94.25
321.962	103.25
322.191	117.25
322.42	115.25
322.649	106.25
322.878	111.25
323.108	112.25
323.337	132.25
323.566	135.25
323.795	173.25
324.024	214.25
324.253	439.25
324.482	971.25
324.71	1931.25
324.939	2578.25
325.168	928.25
325.397	276.25
325.626	162.25
325.855	137.25
326.084	133.25
326.313	138.25
326.542	155.25
326.77	254.25
326.999	515.25
327.228	1037.25
327.457	1886.25
327.686	1535.25
327.914	412.25
328.143	213.25
328.372	163.25
328.6	128.25
328.829	116.25
329.058	132.25
329.287	143.25
329.515	121.25
329.744	106.25
329.972	95.25
330.201	115.25
330.43	126.25
330.658	141.25
330.887	156.25
331.115	126.25
331.344	121.25
331.572	110.25
331.801	107.25
332.03	87.25
332.258	97.25
332.486	89.25
332.715	86.25
332.943	87.25
333.172	98.25
333.4	99.25
333.629	121.25
333.857	117.25
334.085	125.25
334.314	119.25
334.542	137.25
334.771	139.25
334.999	106.25
335.227	93.25
335.455	83.25
335.684	100.25
335.912	93.25
336.14	89.25
336.369	112.25
336.597	95.25
336.825	93.25
337.053	77.25
337.281	92.25
337.51	95.25
337.738	97.25
337.966	111.25
338.194	93.25
338.422	102.25
338.65	84.25
338.878	88.25
339.106	101.25
339.334	95.25
339.562	96.25
339.79	71.25
340.018	96.25
340.246	99.25
340.474	96.25
340.702	87.25
340.93	80.25
341.158	84.25
341.386	85.25
341.614	105.25
341.842	96.25
342.07	89.25
342.298	88.25
342.526	84.25
342.754	87.25
342.981	103.25
343.209	94.25
343.437	113.25
343.665	80.25
343.893	93.25
344.12	90.25
344.348	100.25
344.576	85.25
344.804	82.25
345.031	96.25
345.259	105.25
345.487	111.25
345.714	94.25
345.942	99.25
346.17	88.25
346.397	88.25
346.625	111.25
346.853	116.25
347.08	95.25
347.308	98.25
347.535	101.25
347.763	115.25
347.99	101.25
348.218	110.25
348.445	100.25
348.673	98.25
348.9	100.25
349.128	91.25
349.355	88.25
349.583	89.25
349.81	104.25
350.037	94.25
350.265	75.25
350.492	105.25
350.72	92.25
350.947	100.25
351.174	107.25
351.402	106.25
351.629	97.25
351.856	113.25
352.083	105.25
352.311	101.25
352.538	118.25
352.765	106.25
352.992	108.25
353.22	113.25
353.447	106.25
353.674	100.25
353.901	108.25
354.128	90.25
354.355	105.25
354.583	97.25
354.81	104.25
355.037	91.25
355.264	95.25
355.491	91.25
355.718	89.25
355.945	98.25
356.172	97.25
356.399	94.25
356.626	97.25
356.853	86.25
357.08	89.25
357.307	100.25
357.534	99.25
357.761	92.25
357.988	80.25
358.215	82.25
358.441	94.25
358.668	83.25
358.895	85.25
359.122	81.25
359.349	91.25
359.576	92.25
359.802	102.25
360.029	118.25
360.256	132.25
360.483	106.25
360.709	88.25
360.936	108.25
361.163	91.25
361.39	91.25
361.616	103.25
361.843	91.25
362.07	92.25
362.296	91.25
362.523	91.25
362.749	93.25
362.976	96.25
363.203	84.25
363.429	80.25
363.656	91.25
363.882	87.25
364.109	100.25
364.335	99.25
364.562	93.25
364.788	90.25
365.015	95.25
365.241	88.25
365.468	126.25
365.694	107.25
365.92	105.25
366.147	87.25
366.373	71.25
366.599	86.25
366.826	88.25
367.052	97.25
367.278	94.25
367.505	96.25
367.731	100.25
367.957	86.25
368.184	89.25
368.41	89.25
368.636	130.25
368.862	127.25
369.089	115.25
369.315	101.25
369.541	99.25
369.767	83.25
369.993	106.25
370.219	94.25
370.445	77.25
370.672	79.25
370.898	83.25
371.124	94.25
371.35	83.25
371.576	73.25
371.802	85.25
372.028	96.25
372.254	82.25
372.48	95.25
372.706	77.25
372.932	69.25
373.158	78.25
373.384	98.25
373.61	88.25
373.835	90.25
374.061	84.25
374.287	81.25
374.513	81.25
374.739	86.25
374.965	87.25
375.191	93.25
375.416	94.25
375.642	81.25
375.868	73.25
376.094	77.25
376.319	89.25
376.545	72.25
376.771	85.25
376.997	79.25
377.222	84.25
377.448	89.25
377.674	100.25
377.899	106.25
378.125	89.25
378.35	101.25
378.576	83.25
378.802	84.25
379.027	89.25
379.253	84.25
379.478	113.25
379.704	93.25
379.929	90.25
380.155	101.25
380.38	100.25
380.606	96.25
380.831	96.25
381.057	87.25
381.282	92.25
381.507	108.25
381.733	92.25
381.958	96.25
382.184	101.25
382.409	87.25
382.634	114.25
382.86	115.25
383.085	116.25
383.31	101.25
383.535	96.25
383.761	116.25
383.986	103.25
384.211	90.25
384.436	98.25
384.662	88.25
384.887	124.25
385.112	112.25
385.337	95.25
385.562	99.25
385.787	116.25
386.013	106.25
386.238	125.25
386.463	99.25
386.688	115.25
386.913	115.25
387.138	97.25
387.363	98.25
387.588	95.25
387.813	93.25
388.038	106.25
388.263	112.25
388.488	108.25
388.713	99.25
388.938	82.25
389.163	89.25
389.387	84.25
389.612	87.25
389.837	89.25
390.062	92.25
390.287	83.25
390.512	99.25
390.736	92.25
390.961	88.25
391.186	93.25
391.411	96.25
391.636	91.25
391.86	104.25
392.085	92.25
392.31	87.25
392.534	89.25
392.759	96.25
392.984	84.25
393.208	86.25
393.433	98.25
393.658	92.25
393.882	83.25
394.107	72.25
394.331	80.25
394.556	95.25
394.78	98.25
395.005	69.25
395.229	80.25
395.454	72.25
395.678	77.25
395.903	80.25
396.127	97.25
396.352	86.25
396.576	91.25
396.801	85.25
397.025	81.25
397.249	87.25
397.474	79.25
397.698	99.25
397.922	96.25
398.147	87.25
398.371	84.25
398.595	82.25
398.82	83.25
399.044	72.25
399.268	103.25
399.492	93.25
399.717	93.25
399.941	82.25
400.165	93.25
400.389	97.25
400.613	77.25
400.837	80.25
401.062	81.25
401.286	85.25
401.51	78.25
401.734	94.25
401.958	108.25
402.182	129.25
402.406	177.25
402.63	129.25
402.854	80.25
403.078	100.25
403.302	84.25
403.526	84.25
403.75	83.25
403.974	89.25
404.198	73.25
404.422	88.25
404.645	91.25
404.869	88.25
405.093	98.25
405.317	96.25
405.541	104.25
405.765	104.25
405.988	114.25
406.212	195.25
406.436	266.25
406.66	157.25
406.883	105.25
407.107	102.25
407.331	90.25
407.555	92.25
407.778	100.25
408.002	80.25
408.226	84.25
408.449	91.25
408.673	92.25
408.896	89.25
409.12	94.25
409.344	106.25
409.567	87.25
409.791	66.25
410.014	102.25
410.238	98.25
410.461	84.25
410.685	89.25
410.908	93.25
411.132	103.25
411.355	109.25
411.578	94.25
411.802	85.25
412.025	82.25
412.249	83.25
412.472	96.25
412.695	89.25
412.919	100.25
413.142	80.25
413.365	98.25
413.589	95.25
413.812	95.25
414.035	92.25
414.258	85.25
414.482	89.25
414.705	87.25
414.928	98.25
415.151	86.25
415.374	84.25
415.597	95.25
415.821	100.25
416.044	83.25
416.267	101.25
416.49	96.25
416.713	73.25
416.936	85.25
417.159	94.25
417.382	81.25
417.605	88.25
417.828	96.25
418.051	89.25
418.274	91.25
418.497	68.25
418.72	89.25
418.943	91.25
419.166	75.25
419.389	84.25
419.611	84.25
419.834	90.25
420.057	74.25
420.28	93.25
420.503	66.25
420.726	72.25
420.948	83.25
421.171	90.25
421.394	74.25
421.617	85.25
421.839	77.25
422.062	91.25
422.285	103.25
422.507	95.25
422.73	104.25
422.953	92.25
423.175	86.25
423.398	95.25
423.621	90.25
423.843	80.25
424.066	87.25
424.288	93.25
424.511	96.25
424.733	103.25
424.956	108.25
425.178	105.25
425.401	98.25
425.623	85.25
425.846	95.25
426.068	92.25
426.291	71.25
426.513	94.25
426.735	89.25
426.958	98.25
427.18	117.25
427.402	143.25
427.625	169.25
427.847	140.25
428.069	109.25
428.292	80.25
428.514	72.25
428.736	83.25
428.958	80.25
429.181	83.25
429.403	76.25
429.625	81.25
429.847	103.25
430.069	102.25
430.292	96.25
430.514	77.25
430.736	90.25
430.958	78.25
431.18	79.25
431.402	88.25
431.624	75.25
431.846	86.25
432.068	97.25
432.29	84.25
432.512	81.25
432.734	106.25
432.956	86.25
433.178	99.25
433.4	103.25
433.622	97.25
433.844	79.25
434.066	92.25
434.287	76.25
434.509	83.25
434.731	89.25
434.953	81.25
435.175	98.25
435.397	79.25
435.618	91.25
435.84	100.25
436.062	112.25
436.284	117.25
436.505	116.25
436.727	112.25
436.949	97.25
437.17	94.25
437.392	88.25
437.614	66.25
437.835	109.25
438.057	128.25
438.278	133.25
438.5	112.25
438.721	127.25
438.943	95.25
439.165	84.25
439.386	91.25
439.608	89.25
439.829	103.25
440.05	133.25
440.272	161.25
440.493	102.25
440.715	76.25
440.936	77.25
441.158	90.25
441.379	86.25
441.6	87.25
441.822	101.25
442.043	76.25
442.264	118.25
442.486	115.25
442.707	100.25
442.928	113.25
443.149	142.25
443.371	141.25
443.592	113.25
443.813	103.25
444.034	109.25
444.255	82.25
444.476	104.25
444.698	76.25
444.919	98.25
445.14	117.25
445.361	136.25
445.582	131.25
445.803	160.25
446.024	161.25
446.245	143.25
446.466	108.25
446.687	84.25
446.908	87.25
447.129	113.25
447.35	87.25
447.571	98.25
447.792	79.25
448.013	95.25
448.234	102.25
448.455	105.25
448.675	100.25
448.896	121.25
449.117	99.25
449.338	103.25
449.559	128.25
449.779	123.25
450	96.25
450.221	79.25
450.442	85.25
450.662	77.25
450.883	108.25
451.104	121.25
451.324	92.25
451.545	77.25
451.766	76.25
451.986	74.25
452.207	89.25
452.428	88.25
452.648	103.25
452.869	115.25
453.089	127.25
453.31	110.25
453.53	80.25
453.751	91.25
453.971	111.25
454.192	115.25
454.412	104.25
454.633	92.25
454.853	76.25
455.073	90.25
455.294	95.25
455.514	106.25
455.734	93.25
455.955	72.25
456.175	78.25
456.395	72.25
456.616	87.25
456.836	81.25
457.056	92.25
457.276	92.25
457.497	83.25
457.717	91.25
457.937	85.25
458.157	95.25
458.377	100.25
458.598	111.25
458.818	154.25
459.038	179.25
459.258	113.25
459.478	90.25
459.698	86.25
459.918	85.25
460.138	70.25
460.358	82.25
460.578	82.25
460.798	85.25
461.018	95.25
461.238	92.25
461.458	88.25
461.678	84.25
461.898	85.25
462.118	90.25
462.338	93.25
462.558	92.25
462.777	81.25
462.997	92.25
463.217	70.25
463.437	74.25
463.657	76.25
463.876	85.25
464.096	89.25
464.316	94.25
464.536	83.25
464.755	91.25
464.975	115.25
465.195	189.25
465.414	177.25
465.634	101.25
465.854	99.25
466.073	90.25
466.293	80.25
466.512	83.25
466.732	69.25
466.951	89.25
467.171	76.25
467.391	99.25
467.61	108.25
467.829	97.25
468.049	100.25
468.268	113.25
468.488	85.25
468.707	87.25
468.927	65.25
469.146	94.25
469.365	89.25
469.585	89.25
469.804	99.25
470.023	115.25
470.243	82.25
470.462	113.25
470.681	108.25
470.901	76.25
471.12	76.25
471.339	82.25
471.558	87.25
471.777	76.25
471.997	79.25
472.216	92.25
472.435	142.25
472.654	96.25
472.873	94.25
473.092	61.25
473.311	83.25
473.53	86.25
473.749	88.25
473.968	92.25
474.187	109.25
474.406	96.25
474.625	90.25
474.844	81.25
475.063	75.25
475.282	83.25
475.501	89.25
475.72	87.25
475.939	93.25
476.158	90.25
476.377	78.25
476.596	69.25
476.814	93.25
477.033	101.25
477.252	98.25
477.471	74.25
477.69	87.25
477.908	92.25
478.127	87.25
478.346	85.25
478.564	84.25
478.783	95.25
479.002	86.25
479.22	97.25
479.439	112.25
479.658	122.25
479.876	92.25
480.095	99.25
480.313	83.25
480.532	84.25
480.751	90.25
480.969	115.25
481.188	190.25
481.406	137.25
481.624	101.25
481.843	82.25
482.061	96.25
482.28	93.25
482.498	79.25
482.717	93.25
482.935	83.25
483.153	82.25
483.372	88.25
483.59	88.25
483.808	82.25
484.027	86.25
484.245	83.25
484.463	97.25
484.681	95.25
484.9	88.25
485.118	90.25
485.336	85.25
485.554	95.25
485.772	92.25
485.99	99.25
486.209	90.25
486.427	100.25
486.645	113.25
486.863	116.25
487.081	89.25
487.299	83.25
487.517	95.25
487.735	98.25
487.953	88.25
488.171	89.25
488.389	103.25
488.607	88.25
488.825	93.25
489.043	82.25
489.261	81.25
489.479	103.25
489.696	87.25
489.914	82.25
490.132	103.25
490.35	96.25
490.568	99.25
490.786	86.25
491.003	93.25
491.221	105.25
491.439	96.25
491.657	97.25
491.874	75.25
492.092	76.25
492.31	89.25
492.527	83.25
492.745	97.25
492.963	85.25
493.18	102.25
493.398	98.25
493.615	95.25
493.833	87.25
494.05	89.25
494.268	84.25
494.485	77.25
494.703	76.25
494.92	104.25
495.138	97.25
495.355	75.25
495.573	81.25
495.79	77.25
496.008	87.25
496.225	79.25
496.442	86.25
496.66	82.25
496.877	101.25
497.094	79.25
497.312	79.25
497.529	84.25
497.746	99.25
497.963	95.25
498.181	79.25
498.398	103.25
498.615	87.25
498.832	106.25
499.049	89.25
499.267	92.25
499.484	88.25
499.701	104.25
499.918	84.25
500.135	81.25
500.352	91.25
500.569	79.25
500.786	91.25
501.003	84.25
501.22	78.25
501.437	86.25
501.654	104.25
501.871	112.25
502.088	86.25
502.305	83.25
502.522	89.25
502.739	74.25
502.956	83.25
503.172	94.25
503.389	91.25
503.606	120.25
503.823	81.25
504.04	83.25
504.256	100.25
504.473	86.25
504.69	91.25
504.907	99.25
505.123	87.25
505.34	73.25
505.557	92.25
505.773	101.25
505.99	87.25
506.207	85.25
506.423	88.25
506.64	90.25
506.856	90.25
507.073	88.25
507.289	98.25
507.506	85.25
507.722	107.25
507.939	100.25
508.155	104.25
508.372	99.25
508.588	92.25
508.805	91.25
509.021	106.25
509.238	98.25
509.454	102.25
509.67	114.25
509.887	115.25
510.103	139.25
510.319	235.25
510.536	883.25
510.752	3028.25
510.968	861.25
511.184	191.25
511.401	114.25
511.617	109.25
511.833	93.25
512.049	83.25
512.265	80.25
512.481	76.25
512.698	103.25
512.914	90.25
513.13	76.25
513.346	83.25
513.562	96.25
513.778	90.25
513.994	98.25
514.21	104.25
514.426	107.25
514.642	161.25
514.858	139.25
515.074	177.25
515.29	577.25
515.506	2017.25
