Data from Circ_2014_H10_HRD10591_00083.txt Node
Date: Wed Jan 03 10:02:25 EST 2024
User: Yrep
Spectrometer: HR+D1059
Trigger mode: 1
Integration Time (sec): 1.000000E-1
Scans to average: 1
Electric dark correction enabled: true
Nonlinearity correction enabled: false
Boxcar width: 0
XAxis mode: Wavelengths
Number of Pixels in Spectrum: 2048
>>>>>Begin Spectral Data<<<<<
223.165	-30.31
223.4	-30.31
223.635	-30.31
223.869	-11.31
224.104	-8.31
224.338	-20.31
224.573	-14.31
224.808	-8.31
225.042	-17.31
225.277	-6.31
225.511	11.69
225.746	3.69
225.98	-5.31
226.215	13.69
226.449	17.69
226.683	26.69
226.918	20.69
227.152	27.69
227.387	34.69
227.621	53.69
227.856	42.69
228.09	43.69
228.324	40.69
228.559	57.69
228.793	59.69
229.027	53.69
229.262	66.69
229.496	89.69
229.73	71.69
229.964	68.69
230.199	79.69
230.433	69.69
230.667	51.69
230.901	76.69
231.136	76.69
231.37	74.69
231.604	77.69
231.838	61.69
232.072	86.69
232.306	71.69
232.541	85.69
232.775	82.69
233.009	73.69
233.243	77.69
233.477	68.69
233.711	85.69
233.945	81.69
234.179	89.69
234.413	89.69
234.647	82.69
234.881	66.69
235.115	86.69
235.349	74.69
235.583	73.69
235.817	75.69
236.051	70.69
236.285	94.69
236.519	56.69
236.753	75.69
236.987	80.69
237.221	88.69
237.455	89.69
237.689	73.69
237.922	83.69
238.156	65.69
238.39	71.69
238.624	78.69
238.858	65.69
239.091	69.69
239.325	82.69
239.559	87.69
239.793	83.69
240.027	85.69
240.26	75.69
240.494	70.69
240.728	75.69
240.961	74.69
241.195	67.69
241.429	84.69
241.662	72.69
241.896	81.69
242.13	83.69
242.363	71.69
242.597	77.69
242.83	69.69
243.064	68.69
243.298	80.69
243.531	71.69
243.765	75.69
243.998	74.69
244.232	82.69
244.465	92.69
244.699	77.69
244.932	72.69
245.166	81.69
245.399	81.69
245.633	78.69
245.866	79.69
246.099	75.69
246.333	96.69
246.566	73.69
246.8	80.69
247.033	84.69
247.266	83.69
247.5	72.69
247.733	83.69
247.966	77.69
248.2	73.69
248.433	67.69
248.666	84.69
248.899	79.69
249.133	92.69
249.366	107.69
249.599	89.69
249.832	78.69
250.066	77.69
250.299	89.69
250.532	80.69
250.765	83.69
250.998	96.69
251.231	66.69
251.465	73.69
251.698	69.69
251.931	67.69
252.164	83.69
252.397	65.69
252.63	72.69
252.863	82.69
253.096	75.69
253.329	83.69
253.562	91.69
253.795	80.69
254.028	75.69
254.261	71.69
254.494	87.69
254.727	79.69
254.96	80.69
255.193	94.69
255.426	83.69
255.659	69.69
255.892	69.69
256.124	76.69
256.357	72.69
256.59	74.69
256.823	73.69
257.056	73.69
257.289	87.69
257.521	76.69
257.754	82.69
257.987	61.69
258.22	87.69
258.452	95.69
258.685	77.69
258.918	100.69
259.151	68.69
259.383	77.69
259.616	73.69
259.849	73.69
260.081	80.69
260.314	101.69
260.547	84.69
260.779	83.69
261.012	79.69
261.244	91.69
261.477	87.69
261.71	90.69
261.942	98.69
262.175	93.69
262.407	86.69
262.64	91.69
262.872	84.69
263.105	85.69
263.337	79.69
263.57	79.69
263.802	84.69
264.035	79.69
264.267	76.69
264.499	84.69
264.732	83.69
264.964	86.69
265.197	76.69
265.429	84.69
265.661	83.69
265.894	82.69
266.126	79.69
266.358	100.69
266.591	83.69
266.823	93.69
267.055	78.69
267.287	77.69
267.52	84.69
267.752	79.69
267.984	78.69
268.216	78.69
268.448	73.69
268.681	91.69
268.913	87.69
269.145	79.69
269.377	72.69
269.609	77.69
269.841	72.69
270.073	85.69
270.306	70.69
270.538	76.69
270.77	95.69
271.002	83.69
271.234	83.69
271.466	81.69
271.698	79.69
271.93	69.69
272.162	75.69
272.394	82.69
272.626	87.69
272.858	76.69
273.09	74.69
273.322	82.69
273.553	85.69
273.785	88.69
274.017	85.69
274.249	62.69
274.481	79.69
274.713	83.69
274.945	77.69
275.176	79.69
275.408	83.69
275.64	72.69
275.872	92.69
276.104	90.69
276.335	82.69
276.567	92.69
276.799	104.69
277.031	108.69
277.262	104.69
277.494	88.69
277.726	79.69
277.957	75.69
278.189	83.69
278.421	94.69
278.652	98.69
278.884	98.69
279.115	94.69
279.347	91.69
279.579	87.69
279.81	86.69
280.042	90.69
280.273	97.69
280.505	88.69
280.736	97.69
280.968	91.69
281.199	85.69
281.431	93.69
281.662	85.69
281.894	85.69
282.125	100.69
282.356	125.69
282.588	152.69
282.819	131.69
283.051	93.69
283.282	93.69
283.513	84.69
283.745	92.69
283.976	93.69
284.207	79.69
284.439	93.69
284.67	77.69
284.901	80.69
285.132	79.69
285.364	81.69
285.595	76.69
285.826	82.69
286.057	87.69
286.288	85.69
286.52	92.69
286.751	99.69
286.982	92.69
287.213	84.69
287.444	74.69
287.675	87.69
287.906	84.69
288.138	74.69
288.369	96.69
288.6	90.69
288.831	92.69
289.062	83.69
289.293	89.69
289.524	92.69
289.755	77.69
289.986	81.69
290.217	84.69
290.448	81.69
290.679	88.69
290.91	89.69
291.141	88.69
291.371	89.69
291.602	75.69
291.833	75.69
292.064	81.69
292.295	87.69
292.526	85.69
292.757	82.69
292.987	84.69
293.218	81.69
293.449	75.69
293.68	83.69
293.91	80.69
294.141	89.69
294.372	87.69
294.603	91.69
294.833	84.69
295.064	103.69
295.295	84.69
295.525	81.69
295.756	105.69
295.987	119.69
296.217	132.69
296.448	114.69
296.679	96.69
296.909	85.69
297.14	101.69
297.37	85.69
297.601	99.69
297.831	83.69
298.062	93.69
298.292	84.69
298.523	98.69
298.753	85.69
298.984	90.69
299.214	83.69
299.445	105.69
299.675	91.69
299.905	89.69
300.136	94.69
300.366	80.69
300.597	72.69
300.827	96.69
301.057	106.69
301.288	96.69
301.518	91.69
301.748	72.69
301.979	100.69
302.209	78.69
302.439	95.69
302.669	77.69
302.9	88.69
303.13	85.69
303.36	84.69
303.59	89.69
303.82	103.69
304.051	95.69
304.281	89.69
304.511	107.69
304.741	97.69
304.971	97.69
305.201	92.69
305.431	92.69
305.661	83.69
305.891	94.69
306.121	80.69
306.352	107.69
306.582	96.69
306.812	90.69
307.042	90.69
307.272	99.69
307.502	92.69
307.731	101.69
307.961	76.69
308.191	85.69
308.421	89.69
308.651	92.69
308.881	91.69
309.111	104.69
309.341	89.69
309.571	100.69
309.8	96.69
310.03	99.69
310.26	100.69
310.49	88.69
310.72	99.69
310.949	98.69
311.179	95.69
311.409	84.69
311.639	81.69
311.868	84.69
312.098	98.69
312.328	91.69
312.557	99.69
312.787	105.69
313.017	99.69
313.246	86.69
313.476	90.69
313.706	82.69
313.935	91.69
314.165	101.69
314.394	93.69
314.624	96.69
314.853	103.69
315.083	87.69
315.312	80.69
315.542	90.69
315.771	89.69
316.001	99.69
316.23	102.69
316.46	96.69
316.689	101.69
316.919	101.69
317.148	115.69
317.377	100.69
317.607	97.69
317.836	90.69
318.065	93.69
318.295	91.69
318.524	91.69
318.753	85.69
318.983	102.69
319.212	103.69
319.441	76.69
319.67	100.69
319.9	79.69
320.129	92.69
320.358	87.69
320.587	96.69
320.816	113.69
321.046	97.69
321.275	88.69
321.504	81.69
321.733	87.69
321.962	109.69
322.191	96.69
322.42	93.69
322.649	116.69
322.878	100.69
323.108	109.69
323.337	111.69
323.566	132.69
323.795	139.69
324.024	196.69
324.253	354.69
324.482	763.69
324.71	1519.69
324.939	1934.69
325.168	745.69
325.397	251.69
325.626	135.69
325.855	119.69
326.084	113.69
326.313	124.69
326.542	155.69
326.77	220.69
326.999	404.69
327.228	845.69
327.457	1491.69
327.686	1209.69
327.914	347.69
328.143	209.69
328.372	178.69
328.6	155.69
328.829	119.69
329.058	123.69
329.287	129.69
329.515	103.69
329.744	118.69
329.972	137.69
330.201	175.69
330.43	195.69
330.658	157.69
330.887	151.69
331.115	122.69
331.344	108.69
331.572	96.69
331.801	101.69
332.03	106.69
332.258	94.69
332.486	93.69
332.715	86.69
332.943	89.69
333.172	80.69
333.4	92.69
333.629	93.69
333.857	113.69
334.085	131.69
334.314	170.69
334.542	243.69
334.771	231.69
334.999	127.69
335.227	115.69
335.455	98.69
335.684	107.69
335.912	112.69
336.14	82.69
336.369	105.69
336.597	103.69
336.825	107.69
337.053	79.69
337.281	103.69
337.51	98.69
337.738	92.69
337.966	83.69
338.194	87.69
338.422	87.69
338.65	89.69
338.878	100.69
339.106	94.69
339.334	105.69
339.562	77.69
339.79	80.69
340.018	102.69
340.246	97.69
340.474	89.69
340.702	89.69
340.93	103.69
341.158	84.69
341.386	80.69
341.614	77.69
341.842	91.69
342.07	98.69
342.298	89.69
342.526	94.69
342.754	83.69
342.981	76.69
343.209	99.69
343.437	103.69
343.665	84.69
343.893	81.69
344.12	107.69
344.348	87.69
344.576	85.69
344.804	92.69
345.031	99.69
345.259	98.69
345.487	87.69
345.714	95.69
345.942	100.69
346.17	75.69
346.397	97.69
346.625	82.69
346.853	68.69
347.08	77.69
347.308	89.69
347.535	82.69
347.763	106.69
347.99	98.69
348.218	88.69
348.445	104.69
348.673	106.69
348.9	88.69
349.128	82.69
349.355	98.69
349.583	90.69
349.81	85.69
350.037	97.69
350.265	91.69
350.492	86.69
350.72	90.69
350.947	91.69
351.174	108.69
351.402	106.69
351.629	113.69
351.856	88.69
352.083	100.69
352.311	81.69
352.538	105.69
352.765	101.69
352.992	101.69
353.22	88.69
353.447	98.69
353.674	93.69
353.901	83.69
354.128	102.69
354.355	87.69
354.583	96.69
354.81	101.69
355.037	98.69
355.264	92.69
355.491	95.69
355.718	94.69
355.945	83.69
356.172	100.69
356.399	95.69
356.626	95.69
356.853	101.69
357.08	90.69
357.307	95.69
357.534	90.69
357.761	90.69
357.988	83.69
358.215	93.69
358.441	89.69
358.668	91.69
358.895	71.69
359.122	76.69
359.349	94.69
359.576	101.69
359.802	93.69
360.029	92.69
360.256	112.69
360.483	89.69
360.709	82.69
360.936	92.69
361.163	92.69
361.39	105.69
361.616	84.69
361.843	84.69
362.07	83.69
362.296	84.69
362.523	106.69
362.749	83.69
362.976	95.69
363.203	84.69
363.429	93.69
363.656	87.69
363.882	74.69
364.109	90.69
364.335	94.69
364.562	76.69
364.788	95.69
365.015	84.69
365.241	79.69
365.468	98.69
365.694	90.69
365.92	98.69
366.147	85.69
366.373	78.69
366.599	73.69
366.826	90.69
367.052	107.69
367.278	79.69
367.505	89.69
367.731	81.69
367.957	95.69
368.184	96.69
368.41	83.69
368.636	108.69
368.862	129.69
369.089	101.69
369.315	88.69
369.541	100.69
369.767	87.69
369.993	92.69
370.219	85.69
370.445	77.69
370.672	74.69
370.898	91.69
371.124	87.69
371.35	80.69
371.576	87.69
371.802	84.69
372.028	84.69
372.254	80.69
372.48	101.69
372.706	85.69
372.932	81.69
373.158	87.69
373.384	99.69
373.61	85.69
373.835	84.69
374.061	89.69
374.287	84.69
374.513	100.69
374.739	92.69
374.965	87.69
375.191	72.69
375.416	82.69
375.642	90.69
375.868	82.69
376.094	93.69
376.319	96.69
376.545	87.69
376.771	83.69
376.997	86.69
377.222	96.69
377.448	90.69
377.674	93.69
377.899	96.69
378.125	81.69
378.35	83.69
378.576	88.69
378.802	82.69
379.027	92.69
379.253	86.69
379.478	82.69
379.704	95.69
379.929	95.69
380.155	104.69
380.38	91.69
380.606	87.69
380.831	92.69
381.057	100.69
381.282	84.69
381.507	87.69
381.733	95.69
381.958	106.69
382.184	81.69
382.409	75.69
382.634	101.69
382.86	98.69
383.085	82.69
383.31	103.69
383.535	92.69
383.761	94.69
383.986	93.69
384.211	91.69
384.436	94.69
384.662	86.69
384.887	88.69
385.112	111.69
385.337	95.69
385.562	97.69
385.787	104.69
386.013	98.69
386.238	113.69
386.463	85.69
386.688	123.69
386.913	99.69
387.138	93.69
387.363	92.69
387.588	104.69
387.813	105.69
388.038	94.69
388.263	101.69
388.488	93.69
388.713	88.69
388.938	87.69
389.163	86.69
389.387	97.69
389.612	107.69
389.837	98.69
390.062	78.69
390.287	93.69
390.512	84.69
390.736	90.69
390.961	104.69
391.186	100.69
391.411	92.69
391.636	85.69
391.86	73.69
392.085	84.69
392.31	86.69
392.534	80.69
392.759	75.69
392.984	81.69
393.208	83.69
393.433	72.69
393.658	99.69
393.882	97.69
394.107	88.69
394.331	75.69
394.556	83.69
394.78	82.69
395.005	86.69
395.229	74.69
395.454	70.69
395.678	66.69
395.903	82.69
396.127	84.69
396.352	87.69
396.576	94.69
396.801	99.69
397.025	93.69
397.249	76.69
397.474	78.69
397.698	89.69
397.922	87.69
398.147	93.69
398.371	78.69
398.595	96.69
398.82	77.69
399.044	79.69
399.268	89.69
399.492	91.69
399.717	88.69
399.941	97.69
400.165	96.69
400.389	93.69
400.613	84.69
400.837	81.69
401.062	100.69
401.286	92.69
401.51	100.69
401.734	90.69
401.958	81.69
402.182	115.69
402.406	155.69
402.63	116.69
402.854	95.69
403.078	78.69
403.302	95.69
403.526	93.69
403.75	99.69
403.974	75.69
404.198	84.69
404.422	82.69
404.645	85.69
404.869	88.69
405.093	100.69
405.317	101.69
405.541	114.69
405.765	100.69
405.988	109.69
406.212	166.69
406.436	211.69
406.66	137.69
406.883	97.69
407.107	83.69
407.331	76.69
407.555	96.69
407.778	104.69
408.002	93.69
408.226	97.69
408.449	96.69
408.673	83.69
408.896	87.69
409.12	97.69
409.344	83.69
409.567	82.69
409.791	99.69
410.014	98.69
410.238	87.69
410.461	92.69
410.685	92.69
410.908	96.69
411.132	97.69
411.355	84.69
411.578	95.69
411.802	98.69
412.025	88.69
412.249	83.69
412.472	80.69
412.695	100.69
412.919	81.69
413.142	86.69
413.365	96.69
413.589	85.69
413.812	98.69
414.035	81.69
414.258	96.69
414.482	91.69
414.705	85.69
414.928	78.69
415.151	80.69
415.374	92.69
415.597	82.69
415.821	87.69
416.044	89.69
416.267	82.69
416.49	93.69
416.713	87.69
416.936	75.69
417.159	85.69
417.382	78.69
417.605	78.69
417.828	88.69
418.051	82.69
418.274	84.69
418.497	91.69
418.72	90.69
418.943	85.69
419.166	90.69
419.389	92.69
419.611	95.69
419.834	92.69
420.057	97.69
420.28	98.69
420.503	88.69
420.726	79.69
420.948	88.69
421.171	88.69
421.394	96.69
421.617	81.69
421.839	86.69
422.062	75.69
422.285	83.69
422.507	87.69
422.73	120.69
422.953	78.69
423.175	84.69
423.398	89.69
423.621	85.69
423.843	80.69
424.066	87.69
424.288	97.69
424.511	84.69
424.733	90.69
424.956	107.69
425.178	90.69
425.401	101.69
425.623	98.69
425.846	91.69
426.068	85.69
426.291	91.69
426.513	84.69
426.735	87.69
426.958	85.69
427.18	108.69
427.402	126.69
427.625	160.69
427.847	138.69
428.069	117.69
428.292	93.69
428.514	82.69
428.736	77.69
428.958	100.69
429.181	74.69
429.403	68.69
429.625	86.69
429.847	100.69
430.069	102.69
430.292	85.69
430.514	78.69
430.736	95.69
430.958	83.69
431.18	70.69
431.402	88.69
431.624	82.69
431.846	73.69
432.068	69.69
432.29	97.69
432.512	95.69
432.734	86.69
432.956	66.69
433.178	91.69
433.4	101.69
433.622	91.69
433.844	84.69
434.066	85.69
434.287	71.69
434.509	86.69
434.731	85.69
434.953	90.69
435.175	85.69
435.397	94.69
435.618	93.69
435.84	84.69
436.062	114.69
436.284	100.69
436.505	86.69
436.727	106.69
436.949	104.69
437.17	88.69
437.392	83.69
437.614	105.69
437.835	111.69
438.057	119.69
438.278	100.69
438.5	93.69
438.721	123.69
438.943	96.69
439.165	87.69
439.386	93.69
439.608	81.69
439.829	91.69
440.05	116.69
440.272	139.69
440.493	94.69
440.715	71.69
440.936	78.69
441.158	89.69
441.379	89.69
441.6	107.69
441.822	100.69
442.043	99.69
442.264	104.69
442.486	100.69
442.707	102.69
442.928	114.69
443.149	127.69
443.371	120.69
443.592	106.69
443.813	103.69
444.034	98.69
444.255	88.69
444.476	86.69
444.698	72.69
444.919	73.69
445.14	135.69
445.361	124.69
445.582	115.69
445.803	123.69
446.024	129.69
446.245	120.69
446.466	101.69
446.687	89.69
446.908	80.69
447.129	97.69
447.35	97.69
447.571	91.69
447.792	95.69
448.013	92.69
448.234	109.69
448.455	98.69
448.675	103.69
448.896	107.69
449.117	87.69
449.338	104.69
449.559	132.69
449.779	134.69
450	81.69
450.221	82.69
450.442	77.69
450.662	89.69
450.883	103.69
451.104	102.69
451.324	102.69
451.545	94.69
451.766	71.69
451.986	83.69
452.207	81.69
452.428	96.69
452.648	90.69
452.869	97.69
453.089	102.69
453.31	119.69
453.53	93.69
453.751	91.69
453.971	109.69
454.192	125.69
454.412	89.69
454.633	68.69
454.853	86.69
455.073	93.69
455.294	97.69
455.514	99.69
455.734	86.69
455.955	82.69
456.175	92.69
456.395	83.69
456.616	85.69
456.836	82.69
457.056	94.69
457.276	83.69
457.497	103.69
457.717	83.69
457.937	97.69
458.157	89.69
458.377	83.69
458.598	92.69
458.818	146.69
459.038	158.69
459.258	105.69
459.478	90.69
459.698	76.69
459.918	83.69
460.138	81.69
460.358	91.69
460.578	105.69
460.798	83.69
461.018	89.69
461.238	79.69
461.458	75.69
461.678	72.69
461.898	75.69
462.118	81.69
462.338	91.69
462.558	95.69
462.777	99.69
462.997	81.69
463.217	71.69
463.437	87.69
463.657	84.69
463.876	77.69
464.096	90.69
464.316	85.69
464.536	90.69
464.755	87.69
464.975	110.69
465.195	148.69
465.414	147.69
465.634	95.69
465.854	89.69
466.073	85.69
466.293	68.69
466.512	88.69
466.732	72.69
466.951	86.69
467.171	88.69
467.391	83.69
467.61	99.69
467.829	100.69
468.049	123.69
468.268	152.69
468.488	93.69
468.707	84.69
468.927	83.69
469.146	98.69
469.365	86.69
469.585	89.69
469.804	85.69
470.023	98.69
470.243	104.69
470.462	101.69
470.681	118.69
470.901	91.69
471.12	75.69
471.339	76.69
471.558	87.69
471.777	106.69
471.997	96.69
472.216	168.69
472.435	313.69
472.654	140.69
472.873	84.69
473.092	86.69
473.311	88.69
473.53	107.69
473.749	84.69
473.968	84.69
474.187	89.69
474.406	93.69
474.625	94.69
474.844	84.69
475.063	96.69
475.282	81.69
475.501	72.69
475.72	80.69
475.939	84.69
476.158	83.69
476.377	79.69
476.596	96.69
476.814	70.69
477.033	87.69
477.252	95.69
477.471	98.69
477.69	95.69
477.908	80.69
478.127	96.69
478.346	92.69
478.564	77.69
478.783	100.69
479.002	86.69
479.22	94.69
479.439	98.69
479.658	99.69
479.876	101.69
480.095	88.69
480.313	91.69
480.532	95.69
480.751	114.69
480.969	177.69
481.188	483.69
481.406	346.69
481.624	111.69
481.843	115.69
482.061	83.69
482.28	91.69
482.498	82.69
482.717	83.69
482.935	84.69
483.153	84.69
483.372	89.69
483.59	90.69
483.808	83.69
484.027	99.69
484.245	78.69
484.463	71.69
484.681	80.69
484.9	93.69
485.118	88.69
485.336	90.69
485.554	92.69
485.772	93.69
485.99	106.69
486.209	92.69
486.427	96.69
486.645	101.69
486.863	123.69
487.081	106.69
487.299	101.69
487.517	91.69
487.735	104.69
487.953	92.69
488.171	92.69
488.389	84.69
488.607	96.69
488.825	92.69
489.043	92.69
489.261	86.69
489.479	81.69
489.696	92.69
489.914	91.69
490.132	83.69
490.35	83.69
490.568	82.69
490.786	90.69
491.003	84.69
491.221	89.69
491.439	98.69
491.657	81.69
491.874	77.69
492.092	72.69
492.31	88.69
492.527	104.69
492.745	83.69
492.963	94.69
493.18	74.69
493.398	114.69
493.615	89.69
493.833	83.69
494.05	86.69
494.268	92.69
494.485	91.69
494.703	83.69
494.92	80.69
495.138	99.69
495.355	97.69
495.573	88.69
495.79	92.69
496.008	97.69
496.225	87.69
496.442	74.69
496.66	86.69
496.877	95.69
497.094	76.69
497.312	97.69
497.529	82.69
497.746	86.69
497.963	82.69
498.181	92.69
498.398	91.69
498.615	111.69
498.832	113.69
499.049	83.69
499.267	102.69
499.484	88.69
499.701	85.69
499.918	85.69
500.135	90.69
500.352	79.69
500.569	88.69
500.786	90.69
501.003	94.69
501.22	79.69
501.437	92.69
501.654	84.69
501.871	95.69
502.088	94.69
502.305	91.69
502.522	90.69
502.739	80.69
502.956	93.69
503.172	93.69
503.389	91.69
503.606	108.69
503.823	93.69
504.04	89.69
504.256	92.69
504.473	91.69
504.69	81.69
504.907	82.69
505.123	89.69
505.34	91.69
505.557	90.69
505.773	93.69
505.99	93.69
506.207	84.69
506.423	94.69
506.64	79.69
506.856	81.69
507.073	94.69
507.289	76.69
507.506	99.69
507.722	94.69
507.939	122.69
508.155	94.69
508.372	112.69
508.588	83.69
508.805	107.69
509.021	98.69
509.238	112.69
509.454	97.69
509.67	95.69
509.887	109.69
510.103	134.69
510.319	223.69
510.536	714.69
510.752	2444.69
510.968	699.69
511.184	170.69
511.401	108.69
511.617	87.69
511.833	96.69
512.049	87.69
512.265	81.69
512.481	92.69
512.698	88.69
512.914	81.69
513.13	84.69
513.346	93.69
513.562	100.69
513.778	95.69
513.994	101.69
514.21	103.69
514.426	115.69
514.642	131.69
514.858	127.69
515.074	172.69
515.29	462.69
515.506	1571.69
515.721	609.69
515.937	160.69
516.153	118.69
