Data from Circ_2014_H10_HRD10591_00100.txt Node
Date: Wed Jan 03 10:02:29 EST 2024
User: Yrep
Spectrometer: HR+D1059
Trigger mode: 1
Integration Time (sec): 1.000000E-1
Scans to average: 1
Electric dark correction enabled: true
Nonlinearity correction enabled: false
Boxcar width: 0
XAxis mode: Wavelengths
Number of Pixels in Spectrum: 2048
>>>>>Begin Spectral Data<<<<<
223.165	-20.38
223.4	-20.38
223.635	-20.38
223.869	-7.38
224.104	-23.38
224.338	-1.38
224.573	-22.38
224.808	-23.38
225.042	-7.38
225.277	14.62
225.511	-0.38
225.746	-6.38
225.98	-11.38
226.215	22.62
226.449	15.62
226.683	14.62
226.918	21.62
227.152	34.62
227.387	26.62
227.621	46.62
227.856	59.62
228.09	42.62
228.324	52.62
228.559	66.62
228.793	59.62
229.027	52.62
229.262	58.62
229.496	72.62
229.73	82.62
229.964	96.62
230.199	79.62
230.433	61.62
230.667	80.62
230.901	83.62
231.136	74.62
231.37	74.62
231.604	81.62
231.838	75.62
232.072	82.62
232.306	70.62
232.541	82.62
232.775	94.62
233.009	77.62
233.243	72.62
233.477	71.62
233.711	89.62
233.945	81.62
234.179	92.62
234.413	89.62
234.647	86.62
234.881	80.62
235.115	83.62
235.349	76.62
235.583	86.62
235.817	76.62
236.051	75.62
236.285	81.62
236.519	73.62
236.753	89.62
236.987	78.62
237.221	78.62
237.455	93.62
237.689	76.62
237.922	69.62
238.156	92.62
238.39	76.62
238.624	71.62
238.858	85.62
239.091	88.62
239.325	74.62
239.559	86.62
239.793	67.62
240.027	83.62
240.26	72.62
240.494	77.62
240.728	76.62
240.961	81.62
241.195	75.62
241.429	88.62
241.662	80.62
241.896	65.62
242.13	87.62
242.363	69.62
242.597	74.62
242.83	80.62
243.064	93.62
243.298	83.62
243.531	83.62
243.765	85.62
243.998	94.62
244.232	81.62
244.465	90.62
244.699	71.62
244.932	91.62
245.166	64.62
245.399	86.62
245.633	88.62
245.866	77.62
246.099	70.62
246.333	81.62
246.566	78.62
246.8	73.62
247.033	68.62
247.266	94.62
247.5	90.62
247.733	89.62
247.966	90.62
248.2	74.62
248.433	75.62
248.666	61.62
248.899	78.62
249.133	83.62
249.366	103.62
249.599	100.62
249.832	82.62
250.066	86.62
250.299	80.62
250.532	83.62
250.765	61.62
250.998	78.62
251.231	83.62
251.465	82.62
251.698	94.62
251.931	83.62
252.164	77.62
252.397	64.62
252.63	81.62
252.863	80.62
253.096	74.62
253.329	88.62
253.562	71.62
253.795	84.62
254.028	93.62
254.261	75.62
254.494	85.62
254.727	89.62
254.96	86.62
255.193	99.62
255.426	72.62
255.659	84.62
255.892	83.62
256.124	68.62
256.357	86.62
256.59	86.62
256.823	94.62
257.056	79.62
257.289	86.62
257.521	90.62
257.754	95.62
257.987	79.62
258.22	87.62
258.452	87.62
258.685	85.62
258.918	75.62
259.151	75.62
259.383	78.62
259.616	83.62
259.849	84.62
260.081	85.62
260.314	91.62
260.547	77.62
260.779	69.62
261.012	87.62
261.244	90.62
261.477	99.62
261.71	95.62
261.942	124.62
262.175	107.62
262.407	94.62
262.64	79.62
262.872	88.62
263.105	74.62
263.337	90.62
263.57	78.62
263.802	83.62
264.035	81.62
264.267	78.62
264.499	87.62
264.732	93.62
264.964	87.62
265.197	82.62
265.429	89.62
265.661	101.62
265.894	92.62
266.126	87.62
266.358	77.62
266.591	72.62
266.823	80.62
267.055	86.62
267.287	105.62
267.52	76.62
267.752	83.62
267.984	88.62
268.216	75.62
268.448	87.62
268.681	86.62
268.913	78.62
269.145	81.62
269.377	72.62
269.609	81.62
269.841	86.62
270.073	88.62
270.306	84.62
270.538	91.62
270.77	75.62
271.002	91.62
271.234	81.62
271.466	93.62
271.698	93.62
271.93	82.62
272.162	80.62
272.394	91.62
272.626	92.62
272.858	78.62
273.09	84.62
273.322	90.62
273.553	78.62
273.785	90.62
274.017	67.62
274.249	83.62
274.481	85.62
274.713	99.62
274.945	87.62
275.176	95.62
275.408	85.62
275.64	79.62
275.872	83.62
276.104	92.62
276.335	98.62
276.567	105.62
276.799	121.62
277.031	122.62
277.262	112.62
277.494	93.62
277.726	84.62
277.957	77.62
278.189	94.62
278.421	85.62
278.652	96.62
278.884	82.62
279.115	92.62
279.347	82.62
279.579	86.62
279.81	87.62
280.042	102.62
280.273	119.62
280.505	109.62
280.736	96.62
280.968	61.62
281.199	89.62
281.431	86.62
281.662	82.62
281.894	90.62
282.125	90.62
282.356	124.62
282.588	148.62
282.819	128.62
283.051	91.62
283.282	83.62
283.513	92.62
283.745	93.62
283.976	92.62
284.207	88.62
284.439	73.62
284.67	86.62
284.901	88.62
285.132	88.62
285.364	85.62
285.595	82.62
285.826	90.62
286.057	88.62
286.288	82.62
286.52	83.62
286.751	80.62
286.982	87.62
287.213	92.62
287.444	92.62
287.675	83.62
287.906	94.62
288.138	101.62
288.369	106.62
288.6	94.62
288.831	90.62
289.062	80.62
289.293	85.62
289.524	101.62
289.755	92.62
289.986	91.62
290.217	77.62
290.448	89.62
290.679	85.62
290.91	81.62
291.141	80.62
291.371	87.62
291.602	98.62
291.833	73.62
292.064	90.62
292.295	81.62
292.526	98.62
292.757	107.62
292.987	97.62
293.218	97.62
293.449	82.62
293.68	91.62
293.91	66.62
294.141	106.62
294.372	101.62
294.603	87.62
294.833	93.62
295.064	91.62
295.295	93.62
295.525	104.62
295.756	115.62
295.987	114.62
296.217	162.62
296.448	134.62
296.679	105.62
296.909	84.62
297.14	75.62
297.37	72.62
297.601	76.62
297.831	97.62
298.062	85.62
298.292	73.62
298.523	80.62
298.753	81.62
298.984	95.62
299.214	84.62
299.445	97.62
299.675	93.62
299.905	97.62
300.136	97.62
300.366	80.62
300.597	91.62
300.827	84.62
301.057	106.62
301.288	110.62
301.518	100.62
301.748	86.62
301.979	106.62
302.209	88.62
302.439	97.62
302.669	100.62
302.9	79.62
303.13	100.62
303.36	88.62
303.59	85.62
303.82	97.62
304.051	99.62
304.281	90.62
304.511	91.62
304.741	99.62
304.971	95.62
305.201	93.62
305.431	88.62
305.661	83.62
305.891	93.62
306.121	89.62
306.352	103.62
306.582	103.62
306.812	89.62
307.042	93.62
307.272	93.62
307.502	116.62
307.731	117.62
307.961	97.62
308.191	94.62
308.421	94.62
308.651	93.62
308.881	82.62
309.111	99.62
309.341	80.62
309.571	88.62
309.8	89.62
310.03	89.62
310.26	103.62
310.49	104.62
310.72	111.62
310.949	99.62
311.179	108.62
311.409	86.62
311.639	83.62
311.868	86.62
312.098	96.62
312.328	98.62
312.557	107.62
312.787	126.62
313.017	108.62
313.246	89.62
313.476	89.62
313.706	90.62
313.935	91.62
314.165	114.62
314.394	97.62
314.624	107.62
314.853	101.62
315.083	101.62
315.312	97.62
315.542	103.62
315.771	93.62
316.001	81.62
316.23	110.62
316.46	99.62
316.689	99.62
316.919	91.62
317.148	91.62
317.377	90.62
317.607	103.62
317.836	97.62
318.065	86.62
318.295	84.62
318.524	85.62
318.753	99.62
318.983	95.62
319.212	101.62
319.441	102.62
319.67	108.62
319.9	93.62
320.129	92.62
320.358	98.62
320.587	96.62
320.816	104.62
321.046	108.62
321.275	109.62
321.504	79.62
321.733	85.62
321.962	99.62
322.191	96.62
322.42	102.62
322.649	116.62
322.878	117.62
323.108	128.62
323.337	127.62
323.566	143.62
323.795	170.62
324.024	220.62
324.253	427.62
324.482	852.62
324.71	1749.62
324.939	2395.62
325.168	881.62
325.397	256.62
325.626	155.62
325.855	142.62
326.084	138.62
326.313	137.62
326.542	141.62
326.77	240.62
326.999	465.62
327.228	954.62
327.457	1730.62
327.686	1392.62
327.914	415.62
328.143	264.62
328.372	249.62
328.6	168.62
328.829	132.62
329.058	147.62
329.287	134.62
329.515	126.62
329.744	133.62
329.972	167.62
330.201	275.62
330.43	400.62
330.658	233.62
330.887	179.62
331.115	150.62
331.344	114.62
331.572	100.62
331.801	106.62
332.03	124.62
332.258	96.62
332.486	97.62
332.715	82.62
332.943	90.62
333.172	106.62
333.4	106.62
333.629	112.62
333.857	157.62
334.085	196.62
334.314	267.62
334.542	464.62
334.771	446.62
334.999	173.62
335.227	128.62
335.455	104.62
335.684	107.62
335.912	92.62
336.14	100.62
336.369	100.62
336.597	85.62
336.825	105.62
337.053	98.62
337.281	95.62
337.51	86.62
337.738	93.62
337.966	96.62
338.194	115.62
338.422	87.62
338.65	95.62
338.878	96.62
339.106	81.62
339.334	101.62
339.562	86.62
339.79	89.62
340.018	97.62
340.246	90.62
340.474	97.62
340.702	101.62
340.93	86.62
341.158	103.62
341.386	98.62
341.614	87.62
341.842	97.62
342.07	107.62
342.298	96.62
342.526	83.62
342.754	87.62
342.981	100.62
343.209	82.62
343.437	103.62
343.665	83.62
343.893	74.62
344.12	93.62
344.348	97.62
344.576	75.62
344.804	97.62
345.031	105.62
345.259	99.62
345.487	94.62
345.714	103.62
345.942	91.62
346.17	84.62
346.397	96.62
346.625	89.62
346.853	80.62
347.08	88.62
347.308	90.62
347.535	106.62
347.763	107.62
347.99	104.62
348.218	110.62
348.445	118.62
348.673	115.62
348.9	80.62
349.128	92.62
349.355	92.62
349.583	94.62
349.81	101.62
350.037	89.62
350.265	84.62
350.492	108.62
350.72	105.62
350.947	106.62
351.174	113.62
351.402	123.62
351.629	92.62
351.856	99.62
352.083	107.62
352.311	105.62
352.538	111.62
352.765	102.62
352.992	119.62
353.22	118.62
353.447	97.62
353.674	100.62
353.901	96.62
354.128	102.62
354.355	96.62
354.583	82.62
354.81	99.62
355.037	82.62
355.264	82.62
355.491	102.62
355.718	89.62
355.945	104.62
356.172	101.62
356.399	90.62
356.626	87.62
356.853	99.62
357.08	83.62
357.307	83.62
357.534	82.62
357.761	90.62
357.988	88.62
358.215	89.62
358.441	88.62
358.668	84.62
358.895	94.62
359.122	87.62
359.349	98.62
359.576	90.62
359.802	112.62
360.029	124.62
360.256	106.62
360.483	118.62
360.709	82.62
360.936	104.62
361.163	103.62
361.39	112.62
361.616	96.62
361.843	94.62
362.07	100.62
362.296	97.62
362.523	107.62
362.749	91.62
362.976	99.62
363.203	81.62
363.429	102.62
363.656	92.62
363.882	103.62
364.109	99.62
364.335	102.62
364.562	98.62
364.788	83.62
365.015	85.62
365.241	102.62
365.468	118.62
365.694	130.62
365.92	112.62
366.147	99.62
366.373	67.62
366.599	97.62
366.826	105.62
367.052	76.62
367.278	100.62
367.505	103.62
367.731	84.62
367.957	106.62
368.184	90.62
368.41	109.62
368.636	113.62
368.862	122.62
369.089	113.62
369.315	97.62
369.541	84.62
369.767	84.62
369.993	94.62
370.219	101.62
370.445	85.62
370.672	93.62
370.898	86.62
371.124	80.62
371.35	99.62
371.576	99.62
371.802	105.62
372.028	83.62
372.254	89.62
372.48	83.62
372.706	78.62
372.932	80.62
373.158	90.62
373.384	78.62
373.61	85.62
373.835	82.62
374.061	98.62
374.287	96.62
374.513	100.62
374.739	100.62
374.965	94.62
375.191	97.62
375.416	90.62
375.642	84.62
375.868	86.62
376.094	66.62
376.319	93.62
376.545	82.62
376.771	82.62
376.997	88.62
377.222	90.62
377.448	96.62
377.674	96.62
377.899	89.62
378.125	93.62
378.35	91.62
378.576	95.62
378.802	83.62
379.027	82.62
379.253	94.62
379.478	85.62
379.704	96.62
379.929	95.62
380.155	83.62
380.38	82.62
380.606	81.62
380.831	87.62
381.057	82.62
381.282	100.62
381.507	83.62
381.733	91.62
381.958	95.62
382.184	106.62
382.409	101.62
382.634	106.62
382.86	89.62
383.085	90.62
383.31	90.62
383.535	99.62
383.761	89.62
383.986	98.62
384.211	104.62
384.436	97.62
384.662	103.62
384.887	100.62
385.112	113.62
385.337	109.62
385.562	98.62
385.787	92.62
386.013	107.62
386.238	120.62
386.463	110.62
386.688	107.62
386.913	104.62
387.138	107.62
387.363	88.62
387.588	99.62
387.813	103.62
388.038	94.62
388.263	88.62
388.488	106.62
388.713	101.62
388.938	95.62
389.163	89.62
389.387	94.62
389.612	91.62
389.837	82.62
390.062	82.62
390.287	105.62
390.512	101.62
390.736	94.62
390.961	86.62
391.186	84.62
391.411	78.62
391.636	80.62
391.86	83.62
392.085	76.62
392.31	92.62
392.534	96.62
392.759	93.62
392.984	76.62
393.208	96.62
393.433	91.62
393.658	95.62
393.882	84.62
394.107	96.62
394.331	91.62
394.556	84.62
394.78	88.62
395.005	83.62
395.229	84.62
395.454	83.62
395.678	84.62
395.903	87.62
396.127	91.62
396.352	83.62
396.576	78.62
396.801	82.62
397.025	82.62
397.249	96.62
397.474	87.62
397.698	91.62
397.922	91.62
398.147	85.62
398.371	84.62
398.595	86.62
398.82	78.62
399.044	78.62
399.268	93.62
399.492	83.62
399.717	82.62
399.941	77.62
400.165	104.62
400.389	98.62
400.613	102.62
400.837	86.62
401.062	83.62
401.286	89.62
401.51	102.62
401.734	100.62
401.958	90.62
402.182	121.62
402.406	188.62
402.63	121.62
402.854	89.62
403.078	79.62
403.302	100.62
403.526	94.62
403.75	81.62
403.974	97.62
404.198	85.62
404.422	85.62
404.645	74.62
404.869	90.62
405.093	100.62
405.317	122.62
405.541	121.62
405.765	111.62
405.988	131.62
406.212	198.62
406.436	280.62
406.66	181.62
406.883	109.62
407.107	100.62
407.331	100.62
407.555	105.62
407.778	102.62
408.002	87.62
408.226	89.62
408.449	88.62
408.673	91.62
408.896	101.62
409.12	107.62
409.344	83.62
409.567	95.62
409.791	88.62
410.014	86.62
410.238	84.62
410.461	101.62
410.685	95.62
410.908	93.62
411.132	104.62
411.355	92.62
411.578	92.62
411.802	85.62
412.025	88.62
412.249	98.62
412.472	95.62
412.695	110.62
412.919	92.62
413.142	81.62
413.365	86.62
413.589	78.62
413.812	103.62
414.035	101.62
414.258	86.62
414.482	91.62
414.705	86.62
414.928	91.62
415.151	88.62
415.374	94.62
415.597	87.62
415.821	90.62
416.044	80.62
416.267	90.62
416.49	82.62
416.713	94.62
416.936	87.62
417.159	83.62
417.382	81.62
417.605	89.62
417.828	94.62
418.051	99.62
418.274	77.62
418.497	90.62
418.72	85.62
418.943	82.62
419.166	93.62
419.389	86.62
419.611	95.62
419.834	100.62
420.057	93.62
420.28	86.62
420.503	96.62
420.726	79.62
420.948	77.62
421.171	104.62
421.394	94.62
421.617	90.62
421.839	99.62
422.062	85.62
422.285	91.62
422.507	102.62
422.73	106.62
422.953	99.62
423.175	92.62
423.398	93.62
423.621	83.62
423.843	88.62
424.066	91.62
424.288	85.62
424.511	100.62
424.733	91.62
424.956	118.62
425.178	99.62
425.401	117.62
425.623	118.62
425.846	89.62
426.068	91.62
426.291	87.62
426.513	95.62
426.735	97.62
426.958	99.62
427.18	98.62
427.402	160.62
427.625	204.62
427.847	161.62
428.069	148.62
428.292	90.62
428.514	78.62
428.736	93.62
428.958	89.62
429.181	86.62
429.403	81.62
429.625	88.62
429.847	78.62
430.069	97.62
430.292	101.62
430.514	97.62
430.736	93.62
430.958	89.62
431.18	88.62
431.402	86.62
431.624	77.62
431.846	92.62
432.068	87.62
432.29	90.62
432.512	95.62
432.734	80.62
432.956	93.62
433.178	113.62
433.4	97.62
433.622	98.62
433.844	89.62
434.066	90.62
434.287	93.62
434.509	67.62
434.731	91.62
434.953	90.62
435.175	89.62
435.397	78.62
435.618	94.62
435.84	112.62
436.062	126.62
436.284	130.62
436.505	101.62
436.727	88.62
436.949	106.62
437.17	82.62
437.392	83.62
437.614	95.62
437.835	126.62
438.057	137.62
438.278	125.62
438.5	117.62
438.721	124.62
438.943	101.62
439.165	86.62
439.386	84.62
439.608	86.62
439.829	92.62
440.05	153.62
440.272	159.62
440.493	103.62
440.715	101.62
440.936	74.62
441.158	85.62
441.379	84.62
441.6	99.62
441.822	107.62
442.043	105.62
442.264	127.62
442.486	112.62
442.707	94.62
442.928	115.62
443.149	137.62
443.371	140.62
443.592	132.62
443.813	109.62
444.034	117.62
444.255	100.62
444.476	90.62
444.698	88.62
444.919	85.62
445.14	132.62
445.361	128.62
445.582	130.62
445.803	149.62
446.024	161.62
446.245	143.62
446.466	126.62
446.687	87.62
446.908	89.62
447.129	95.62
447.35	102.62
447.571	90.62
447.792	85.62
448.013	94.62
448.234	106.62
448.455	102.62
448.675	120.62
448.896	136.62
449.117	99.62
449.338	117.62
449.559	142.62
449.779	122.62
450	97.62
450.221	87.62
450.442	93.62
450.662	109.62
450.883	110.62
451.104	120.62
451.324	102.62
451.545	96.62
451.766	81.62
451.986	84.62
452.207	101.62
452.428	92.62
452.648	109.62
452.869	108.62
453.089	132.62
453.31	130.62
453.53	102.62
453.751	89.62
453.971	120.62
454.192	129.62
454.412	97.62
454.633	92.62
454.853	96.62
455.073	90.62
455.294	90.62
455.514	107.62
455.734	98.62
455.955	108.62
456.175	82.62
456.395	87.62
456.616	100.62
456.836	89.62
457.056	87.62
457.276	75.62
457.497	94.62
457.717	95.62
457.937	88.62
458.157	79.62
458.377	81.62
458.598	122.62
458.818	173.62
459.038	197.62
459.258	135.62
459.478	89.62
459.698	76.62
459.918	89.62
460.138	76.62
460.358	91.62
460.578	84.62
460.798	89.62
461.018	82.62
461.238	98.62
461.458	100.62
461.678	86.62
461.898	80.62
462.118	94.62
462.338	85.62
462.558	72.62
462.777	93.62
462.997	111.62
463.217	90.62
463.437	89.62
463.657	102.62
463.876	88.62
464.096	96.62
464.316	88.62
464.536	104.62
464.755	103.62
464.975	113.62
465.195	201.62
465.414	199.62
465.634	98.62
465.854	93.62
466.073	105.62
466.293	86.62
466.512	84.62
466.732	87.62
466.951	88.62
467.171	92.62
467.391	114.62
467.61	114.62
467.829	121.62
468.049	173.62
468.268	223.62
468.488	119.62
468.707	89.62
468.927	92.62
469.146	84.62
469.365	77.62
469.585	99.62
469.804	103.62
470.023	113.62
470.243	97.62
470.462	113.62
470.681	132.62
470.901	84.62
471.12	87.62
471.339	102.62
471.558	92.62
471.777	96.62
471.997	127.62
472.216	311.62
472.435	596.62
472.654	210.62
472.873	126.62
473.092	109.62
473.311	87.62
473.53	92.62
473.749	81.62
473.968	98.62
474.187	108.62
474.406	111.62
474.625	82.62
474.844	102.62
475.063	92.62
475.282	92.62
475.501	88.62
475.72	85.62
475.939	83.62
476.158	101.62
476.377	102.62
476.596	85.62
476.814	98.62
477.033	97.62
477.252	89.62
477.471	92.62
477.69	96.62
477.908	91.62
478.127	91.62
478.346	77.62
478.564	101.62
478.783	105.62
479.002	106.62
479.22	89.62
479.439	114.62
479.658	128.62
479.876	107.62
480.095	105.62
480.313	108.62
480.532	99.62
480.751	134.62
480.969	285.62
481.188	1043.62
481.406	651.62
481.624	154.62
481.843	115.62
482.061	96.62
482.28	98.62
482.498	86.62
482.717	74.62
482.935	92.62
483.153	95.62
483.372	92.62
483.59	107.62
483.808	97.62
484.027	94.62
484.245	87.62
484.463	88.62
484.681	89.62
484.9	103.62
485.118	90.62
485.336	102.62
485.554	100.62
485.772	102.62
485.99	106.62
486.209	98.62
486.427	119.62
486.645	113.62
486.863	114.62
487.081	103.62
487.299	108.62
487.517	96.62
487.735	89.62
487.953	98.62
488.171	77.62
488.389	99.62
488.607	90.62
488.825	78.62
489.043	78.62
489.261	100.62
489.479	89.62
489.696	97.62
489.914	75.62
490.132	86.62
490.35	94.62
490.568	92.62
490.786	97.62
491.003	86.62
491.221	89.62
491.439	91.62
491.657	96.62
491.874	74.62
492.092	60.62
492.31	81.62
492.527	99.62
492.745	93.62
492.963	91.62
493.18	100.62
493.398	92.62
493.615	82.62
493.833	95.62
494.05	89.62
494.268	80.62
494.485	88.62
494.703	90.62
494.92	87.62
495.138	102.62
495.355	91.62
495.573	88.62
495.79	89.62
496.008	105.62
496.225	95.62
496.442	94.62
496.66	88.62
496.877	95.62
497.094	95.62
497.312	86.62
497.529	74.62
497.746	97.62
497.963	83.62
498.181	88.62
498.398	99.62
498.615	99.62
498.832	103.62
499.049	98.62
499.267	87.62
499.484	83.62
499.701	90.62
499.918	83.62
500.135	98.62
500.352	99.62
500.569	93.62
500.786	97.62
501.003	92.62
501.22	96.62
501.437	102.62
501.654	107.62
501.871	108.62
502.088	109.62
502.305	92.62
502.522	92.62
502.739	87.62
502.956	93.62
503.172	95.62
503.389	107.62
503.606	133.62
503.823	85.62
504.04	92.62
504.256	100.62
504.473	98.62
504.69	83.62
504.907	100.62
505.123	90.62
505.34	78.62
505.557	98.62
505.773	100.62
505.99	84.62
506.207	85.62
506.423	101.62
506.64	84.62
506.856	90.62
507.073	92.62
507.289	98.62
507.506	96.62
507.722	121.62
507.939	121.62
508.155	93.62
508.372	87.62
508.588	86.62
508.805	103.62
509.021	99.62
509.238	101.62
509.454	112.62
509.67	107.62
509.887	122.62
510.103	141.62
510.319	227.62
510.536	814.62
510.752	2878.62
510.968	791.62
511.184	172.62
511.401	120.62
511.617	100.62
511.833	100.62
512.049	90.62
512.265	94.62
512.481	92.62
512.698	89.62
512.914	90.62
513.13	91.62
513.346	97.62
513.562	90.62
513.778	111.62
513.994	107.62
514.21	109.62
514.426	128.62
