Data from Circ_2014_H10_HRD10591_00002.txt Node
Date: Wed Jan 03 10:02:09 EST 2024
User: Yrep
Spectrometer: HR+D1059
Trigger mode: 1
Integration Time (sec): 1.000000E-1
Scans to average: 1
Electric dark correction enabled: true
Nonlinearity correction enabled: false
Boxcar width: 0
XAxis mode: Wavelengths
Number of Pixels in Spectrum: 2048
>>>>>Begin Spectral Data<<<<<
223.165	-14.38
223.4	-14.38
223.635	-14.38
223.869	-21.38
224.104	-30.38
224.338	-26.38
224.573	-12.38
224.808	-4.38
225.042	-2.38
225.277	-17.38
225.511	4.62
225.746	-6.38
225.98	8.62
226.215	8.62
226.449	13.62
226.683	28.62
226.918	40.62
227.152	30.62
227.387	35.62
227.621	29.62
227.856	42.62
228.09	53.62
228.324	59.62
228.559	57.62
228.793	61.62
229.027	77.62
229.262	60.62
229.496	66.62
229.73	90.62
229.964	77.62
230.199	72.62
230.433	84.62
230.667	80.62
230.901	83.62
231.136	75.62
231.37	77.62
231.604	88.62
231.838	76.62
232.072	93.62
232.306	85.62
232.541	75.62
232.775	75.62
233.009	80.62
233.243	72.62
233.477	75.62
233.711	74.62
233.945	69.62
234.179	85.62
234.413	93.62
234.647	86.62
234.881	77.62
235.115	85.62
235.349	77.62
235.583	77.62
235.817	73.62
236.051	78.62
236.285	79.62
236.519	74.62
236.753	82.62
236.987	93.62
237.221	82.62
237.455	90.62
237.689	73.62
237.922	71.62
238.156	59.62
238.39	68.62
238.624	68.62
238.858	81.62
239.091	86.62
239.325	72.62
239.559	82.62
239.793	85.62
240.027	64.62
240.26	80.62
240.494	85.62
240.728	81.62
240.961	77.62
241.195	70.62
241.429	78.62
241.662	86.62
241.896	77.62
242.13	79.62
242.363	81.62
242.597	82.62
242.83	60.62
243.064	83.62
243.298	77.62
243.531	92.62
243.765	97.62
243.998	76.62
244.232	83.62
244.465	96.62
244.699	77.62
244.932	79.62
245.166	73.62
245.399	75.62
245.633	64.62
245.866	87.62
246.099	74.62
246.333	81.62
246.566	79.62
246.8	75.62
247.033	67.62
247.266	88.62
247.5	86.62
247.733	73.62
247.966	75.62
248.2	72.62
248.433	84.62
248.666	89.62
248.899	83.62
249.133	80.62
249.366	97.62
249.599	93.62
249.832	85.62
250.066	75.62
250.299	75.62
250.532	84.62
250.765	81.62
250.998	75.62
251.231	85.62
251.465	83.62
251.698	70.62
251.931	86.62
252.164	82.62
252.397	78.62
252.63	85.62
252.863	70.62
253.096	89.62
253.329	88.62
253.562	86.62
253.795	82.62
254.028	64.62
254.261	78.62
254.494	85.62
254.727	77.62
254.96	73.62
255.193	73.62
255.426	84.62
255.659	77.62
255.892	69.62
256.124	81.62
256.357	89.62
256.59	90.62
256.823	91.62
257.056	86.62
257.289	88.62
257.521	77.62
257.754	87.62
257.987	86.62
258.22	78.62
258.452	81.62
258.685	76.62
258.918	85.62
259.151	74.62
259.383	76.62
259.616	80.62
259.849	72.62
260.081	76.62
260.314	69.62
260.547	86.62
260.779	96.62
261.012	87.62
261.244	99.62
261.477	86.62
261.71	87.62
261.942	114.62
262.175	122.62
262.407	106.62
262.64	85.62
262.872	96.62
263.105	83.62
263.337	93.62
263.57	83.62
263.802	84.62
264.035	71.62
264.267	88.62
264.499	81.62
264.732	77.62
264.964	87.62
265.197	95.62
265.429	78.62
265.661	94.62
265.894	81.62
266.126	80.62
266.358	69.62
266.591	90.62
266.823	85.62
267.055	91.62
267.287	93.62
267.52	100.62
267.752	81.62
267.984	85.62
268.216	88.62
268.448	87.62
268.681	88.62
268.913	80.62
269.145	99.62
269.377	76.62
269.609	82.62
269.841	89.62
270.073	102.62
270.306	94.62
270.538	84.62
270.77	87.62
271.002	89.62
271.234	84.62
271.466	96.62
271.698	86.62
271.93	90.62
272.162	74.62
272.394	74.62
272.626	73.62
272.858	68.62
273.09	98.62
273.322	89.62
273.553	90.62
273.785	85.62
274.017	82.62
274.249	76.62
274.481	91.62
274.713	99.62
274.945	86.62
275.176	86.62
275.408	73.62
275.64	93.62
275.872	95.62
276.104	91.62
276.335	91.62
276.567	112.62
276.799	110.62
277.031	96.62
277.262	98.62
277.494	83.62
277.726	77.62
277.957	79.62
278.189	76.62
278.421	80.62
278.652	80.62
278.884	82.62
279.115	75.62
279.347	87.62
279.579	68.62
279.81	90.62
280.042	92.62
280.273	82.62
280.505	86.62
280.736	78.62
280.968	81.62
281.199	96.62
281.431	92.62
281.662	99.62
281.894	89.62
282.125	102.62
282.356	131.62
282.588	144.62
282.819	127.62
283.051	101.62
283.282	87.62
283.513	96.62
283.745	81.62
283.976	95.62
284.207	93.62
284.439	86.62
284.67	96.62
284.901	77.62
285.132	82.62
285.364	73.62
285.595	82.62
285.826	91.62
286.057	82.62
286.288	72.62
286.52	91.62
286.751	91.62
286.982	86.62
287.213	68.62
287.444	97.62
287.675	87.62
287.906	83.62
288.138	92.62
288.369	88.62
288.6	88.62
288.831	91.62
289.062	88.62
289.293	96.62
289.524	96.62
289.755	87.62
289.986	83.62
290.217	85.62
290.448	97.62
290.679	86.62
290.91	96.62
291.141	97.62
291.371	106.62
291.602	90.62
291.833	76.62
292.064	77.62
292.295	82.62
292.526	83.62
292.757	82.62
292.987	85.62
293.218	83.62
293.449	89.62
293.68	101.62
293.91	84.62
294.141	91.62
294.372	82.62
294.603	81.62
294.833	92.62
295.064	87.62
295.295	89.62
295.525	92.62
295.756	94.62
295.987	99.62
296.217	147.62
296.448	125.62
296.679	107.62
296.909	93.62
297.14	99.62
297.37	86.62
297.601	81.62
297.831	87.62
298.062	97.62
298.292	76.62
298.523	96.62
298.753	90.62
298.984	80.62
299.214	77.62
299.445	98.62
299.675	94.62
299.905	91.62
300.136	93.62
300.366	95.62
300.597	84.62
300.827	86.62
301.057	103.62
301.288	114.62
301.518	92.62
301.748	91.62
301.979	100.62
302.209	93.62
302.439	84.62
302.669	90.62
302.9	92.62
303.13	88.62
303.36	97.62
303.59	106.62
303.82	109.62
304.051	103.62
304.281	101.62
304.511	99.62
304.741	84.62
304.971	101.62
305.201	83.62
305.431	74.62
305.661	86.62
305.891	85.62
306.121	96.62
306.352	101.62
306.582	107.62
306.812	111.62
307.042	87.62
307.272	95.62
307.502	101.62
307.731	103.62
307.961	95.62
308.191	88.62
308.421	86.62
308.651	95.62
308.881	94.62
309.111	96.62
309.341	85.62
309.571	93.62
309.8	77.62
310.03	88.62
310.26	93.62
310.49	107.62
310.72	101.62
310.949	103.62
311.179	103.62
311.409	91.62
311.639	96.62
311.868	108.62
312.098	102.62
312.328	101.62
312.557	105.62
312.787	114.62
313.017	99.62
313.246	84.62
313.476	107.62
313.706	86.62
313.935	107.62
314.165	96.62
314.394	113.62
314.624	108.62
314.853	97.62
315.083	108.62
315.312	93.62
315.542	78.62
315.771	99.62
316.001	92.62
316.23	89.62
316.46	110.62
316.689	87.62
316.919	83.62
317.148	92.62
317.377	91.62
317.607	87.62
317.836	88.62
318.065	91.62
318.295	78.62
318.524	96.62
318.753	102.62
318.983	90.62
319.212	91.62
319.441	105.62
319.67	106.62
319.9	81.62
320.129	86.62
320.358	87.62
320.587	103.62
320.816	106.62
321.046	107.62
321.275	109.62
321.504	100.62
321.733	98.62
321.962	108.62
322.191	113.62
322.42	100.62
322.649	124.62
322.878	109.62
323.108	92.62
323.337	132.62
323.566	131.62
323.795	168.62
324.024	233.62
324.253	440.62
324.482	916.62
324.71	1906.62
324.939	2475.62
325.168	954.62
325.397	282.62
325.626	166.62
325.855	140.62
326.084	141.62
326.313	145.62
326.542	171.62
326.77	250.62
326.999	514.62
327.228	1069.62
327.457	1899.62
327.686	1491.62
327.914	424.62
328.143	212.62
328.372	155.62
328.6	122.62
328.829	114.62
329.058	144.62
329.287	121.62
329.515	103.62
329.744	130.62
329.972	97.62
330.201	91.62
330.43	116.62
330.658	122.62
330.887	150.62
331.115	134.62
331.344	100.62
331.572	101.62
331.801	106.62
332.03	110.62
332.258	106.62
332.486	89.62
332.715	89.62
332.943	89.62
333.172	91.62
333.4	100.62
333.629	102.62
333.857	124.62
334.085	98.62
334.314	93.62
334.542	78.62
334.771	97.62
334.999	83.62
335.227	104.62
335.455	98.62
335.684	95.62
335.912	105.62
336.14	90.62
336.369	104.62
336.597	115.62
336.825	85.62
337.053	72.62
337.281	86.62
337.51	83.62
337.738	81.62
337.966	105.62
338.194	106.62
338.422	86.62
338.65	93.62
338.878	92.62
339.106	97.62
339.334	104.62
339.562	90.62
339.79	81.62
340.018	88.62
340.246	83.62
340.474	104.62
340.702	88.62
340.93	84.62
341.158	88.62
341.386	88.62
341.614	93.62
341.842	103.62
342.07	89.62
342.298	99.62
342.526	79.62
342.754	81.62
342.981	75.62
343.209	77.62
343.437	105.62
343.665	97.62
343.893	85.62
344.12	81.62
344.348	79.62
344.576	100.62
344.804	88.62
345.031	91.62
345.259	84.62
345.487	105.62
345.714	95.62
345.942	100.62
346.17	100.62
346.397	76.62
346.625	99.62
346.853	97.62
347.08	78.62
347.308	89.62
347.535	97.62
347.763	104.62
347.99	105.62
348.218	98.62
348.445	99.62
348.673	95.62
348.9	83.62
349.128	98.62
349.355	89.62
349.583	105.62
349.81	85.62
350.037	100.62
350.265	93.62
350.492	103.62
350.72	98.62
350.947	113.62
351.174	98.62
351.402	110.62
351.629	99.62
351.856	104.62
352.083	94.62
352.311	101.62
352.538	93.62
352.765	103.62
352.992	104.62
353.22	129.62
353.447	111.62
353.674	100.62
353.901	85.62
354.128	98.62
354.355	102.62
354.583	84.62
354.81	114.62
355.037	106.62
355.264	93.62
355.491	93.62
355.718	91.62
355.945	84.62
356.172	101.62
356.399	89.62
356.626	87.62
356.853	93.62
357.08	84.62
357.307	103.62
357.534	102.62
357.761	92.62
357.988	83.62
358.215	94.62
358.441	82.62
358.668	87.62
358.895	92.62
359.122	92.62
359.349	101.62
359.576	98.62
359.802	97.62
360.029	118.62
360.256	107.62
360.483	102.62
360.709	96.62
360.936	90.62
361.163	86.62
361.39	102.62
361.616	99.62
361.843	92.62
362.07	85.62
362.296	100.62
362.523	100.62
362.749	97.62
362.976	98.62
363.203	79.62
363.429	86.62
363.656	93.62
363.882	103.62
364.109	81.62
364.335	81.62
364.562	83.62
364.788	83.62
365.015	85.62
365.241	88.62
365.468	102.62
365.694	93.62
365.92	106.62
366.147	103.62
366.373	85.62
366.599	93.62
366.826	102.62
367.052	93.62
367.278	87.62
367.505	77.62
367.731	86.62
367.957	89.62
368.184	90.62
368.41	91.62
368.636	115.62
368.862	112.62
369.089	118.62
369.315	96.62
369.541	99.62
369.767	84.62
369.993	86.62
370.219	105.62
370.445	82.62
370.672	71.62
370.898	90.62
371.124	99.62
371.35	97.62
371.576	77.62
371.802	85.62
372.028	84.62
372.254	91.62
372.48	78.62
372.706	86.62
372.932	91.62
373.158	89.62
373.384	84.62
373.61	96.62
373.835	84.62
374.061	84.62
374.287	90.62
374.513	81.62
374.739	82.62
374.965	98.62
375.191	84.62
375.416	91.62
375.642	102.62
375.868	96.62
376.094	89.62
376.319	91.62
376.545	89.62
376.771	87.62
376.997	102.62
377.222	91.62
377.448	98.62
377.674	94.62
377.899	99.62
378.125	82.62
378.35	87.62
378.576	96.62
378.802	91.62
379.027	89.62
379.253	89.62
379.478	93.62
379.704	96.62
379.929	114.62
380.155	93.62
380.38	89.62
380.606	89.62
380.831	92.62
381.057	107.62
381.282	99.62
381.507	115.62
381.733	96.62
381.958	107.62
382.184	101.62
382.409	116.62
382.634	106.62
382.86	108.62
383.085	99.62
383.31	115.62
383.535	117.62
383.761	112.62
383.986	104.62
384.211	113.62
384.436	104.62
384.662	101.62
384.887	112.62
385.112	132.62
385.337	129.62
385.562	117.62
385.787	100.62
386.013	126.62
386.238	148.62
386.463	127.62
386.688	126.62
386.913	115.62
387.138	121.62
387.363	120.62
387.588	105.62
387.813	115.62
388.038	126.62
388.263	138.62
388.488	138.62
388.713	81.62
388.938	95.62
389.163	85.62
389.387	88.62
389.612	94.62
389.837	94.62
390.062	91.62
390.287	80.62
390.512	89.62
390.736	94.62
390.961	85.62
391.186	99.62
391.411	87.62
391.636	91.62
391.86	88.62
392.085	78.62
392.31	82.62
392.534	91.62
392.759	85.62
392.984	67.62
393.208	95.62
393.433	91.62
393.658	90.62
393.882	89.62
394.107	88.62
394.331	73.62
394.556	88.62
394.78	93.62
395.005	88.62
395.229	89.62
395.454	95.62
395.678	102.62
395.903	90.62
396.127	84.62
396.352	85.62
396.576	81.62
396.801	96.62
397.025	87.62
397.249	89.62
397.474	98.62
397.698	80.62
397.922	96.62
398.147	97.62
398.371	78.62
398.595	83.62
398.82	96.62
399.044	87.62
399.268	86.62
399.492	95.62
399.717	78.62
399.941	84.62
400.165	97.62
400.389	107.62
400.613	95.62
400.837	92.62
401.062	79.62
401.286	76.62
401.51	89.62
401.734	93.62
401.958	109.62
402.182	133.62
402.406	165.62
402.63	113.62
402.854	96.62
403.078	80.62
403.302	82.62
403.526	89.62
403.75	86.62
403.974	86.62
404.198	89.62
404.422	85.62
404.645	93.62
404.869	81.62
405.093	96.62
405.317	96.62
405.541	95.62
405.765	96.62
405.988	129.62
406.212	184.62
406.436	231.62
406.66	154.62
406.883	99.62
407.107	96.62
407.331	88.62
407.555	102.62
407.778	98.62
408.002	82.62
408.226	91.62
408.449	99.62
408.673	99.62
408.896	88.62
409.12	91.62
409.344	78.62
409.567	89.62
409.791	93.62
410.014	79.62
410.238	97.62
410.461	104.62
410.685	105.62
410.908	112.62
411.132	84.62
411.355	88.62
411.578	80.62
411.802	67.62
412.025	89.62
412.249	91.62
412.472	89.62
412.695	101.62
412.919	83.62
413.142	73.62
413.365	92.62
413.589	93.62
413.812	77.62
414.035	102.62
414.258	84.62
414.482	89.62
414.705	98.62
414.928	88.62
415.151	84.62
415.374	96.62
415.597	88.62
415.821	91.62
416.044	93.62
416.267	89.62
416.49	91.62
416.713	83.62
416.936	89.62
417.159	90.62
417.382	102.62
417.605	92.62
417.828	97.62
418.051	88.62
418.274	77.62
418.497	90.62
418.72	96.62
418.943	101.62
419.166	77.62
419.389	91.62
419.611	91.62
419.834	99.62
420.057	80.62
420.28	96.62
420.503	91.62
420.726	87.62
420.948	96.62
421.171	107.62
421.394	98.62
421.617	77.62
421.839	71.62
422.062	87.62
422.285	92.62
422.507	108.62
422.73	102.62
422.953	95.62
423.175	113.62
423.398	81.62
423.621	90.62
423.843	67.62
424.066	93.62
424.288	90.62
424.511	79.62
424.733	97.62
424.956	123.62
425.178	101.62
425.401	84.62
425.623	104.62
425.846	78.62
426.068	89.62
426.291	98.62
426.513	90.62
426.735	99.62
426.958	96.62
427.18	92.62
427.402	141.62
427.625	174.62
427.847	118.62
428.069	98.62
428.292	96.62
428.514	93.62
428.736	83.62
428.958	80.62
429.181	93.62
429.403	79.62
429.625	87.62
429.847	82.62
430.069	92.62
430.292	104.62
430.514	101.62
430.736	100.62
430.958	95.62
431.18	83.62
431.402	95.62
431.624	90.62
431.846	86.62
432.068	77.62
432.29	85.62
432.512	81.62
432.734	75.62
432.956	92.62
433.178	110.62
433.4	100.62
433.622	99.62
433.844	92.62
434.066	88.62
434.287	93.62
434.509	82.62
434.731	68.62
434.953	86.62
435.175	84.62
435.397	93.62
435.618	88.62
435.84	109.62
436.062	124.62
436.284	124.62
436.505	111.62
436.727	108.62
436.949	99.62
437.17	84.62
437.392	81.62
437.614	87.62
437.835	115.62
438.057	128.62
438.278	108.62
438.5	109.62
438.721	120.62
438.943	111.62
439.165	93.62
439.386	78.62
439.608	86.62
439.829	107.62
440.05	133.62
440.272	163.62
440.493	101.62
440.715	87.62
440.936	99.62
441.158	85.62
441.379	77.62
441.6	105.62
441.822	93.62
442.043	97.62
442.264	94.62
442.486	108.62
442.707	93.62
442.928	93.62
443.149	158.62
443.371	140.62
443.592	119.62
443.813	117.62
444.034	112.62
444.255	93.62
444.476	93.62
444.698	86.62
444.919	99.62
445.14	124.62
445.361	144.62
445.582	121.62
445.803	145.62
446.024	138.62
446.245	144.62
446.466	116.62
446.687	88.62
446.908	89.62
447.129	89.62
447.35	93.62
447.571	93.62
447.792	72.62
448.013	103.62
448.234	106.62
448.455	106.62
448.675	128.62
448.896	132.62
449.117	90.62
449.338	101.62
449.559	128.62
449.779	140.62
450	98.62
450.221	96.62
450.442	75.62
450.662	95.62
450.883	99.62
451.104	133.62
451.324	96.62
451.545	94.62
451.766	89.62
451.986	86.62
452.207	100.62
452.428	94.62
452.648	103.62
452.869	109.62
453.089	124.62
453.31	130.62
453.53	97.62
453.751	118.62
453.971	111.62
454.192	101.62
454.412	98.62
454.633	75.62
454.853	76.62
455.073	84.62
455.294	73.62
455.514	101.62
455.734	85.62
455.955	80.62
456.175	98.62
456.395	87.62
456.616	76.62
456.836	95.62
457.056	90.62
457.276	77.62
457.497	84.62
457.717	90.62
457.937	88.62
458.157	92.62
458.377	92.62
458.598	105.62
458.818	169.62
459.038	178.62
459.258	133.62
459.478	88.62
459.698	86.62
459.918	78.62
460.138	80.62
460.358	84.62
460.578	80.62
460.798	96.62
461.018	88.62
461.238	82.62
461.458	85.62
461.678	91.62
461.898	92.62
462.118	79.62
462.338	77.62
462.558	88.62
462.777	89.62
462.997	98.62
463.217	92.62
463.437	84.62
463.657	85.62
463.876	92.62
464.096	86.62
464.316	88.62
464.536	98.62
464.755	90.62
464.975	108.62
465.195	189.62
465.414	169.62
465.634	89.62
465.854	96.62
466.073	73.62
466.293	85.62
466.512	80.62
466.732	91.62
466.951	91.62
467.171	91.62
467.391	92.62
467.61	102.62
467.829	101.62
468.049	83.62
468.268	96.62
468.488	82.62
468.707	94.62
468.927	86.62
469.146	78.62
469.365	72.62
469.585	78.62
469.804	98.62
470.023	97.62
470.243	99.62
470.462	105.62
470.681	128.62
470.901	102.62
471.12	89.62
471.339	88.62
471.558	87.62
471.777	79.62
471.997	77.62
472.216	81.62
472.435	87.62
472.654	83.62
472.873	74.62
473.092	86.62
473.311	87.62
473.53	93.62
473.749	79.62
473.968	96.62
474.187	90.62
474.406	92.62
474.625	82.62
474.844	85.62
475.063	97.62
475.282	68.62
475.501	77.62
475.72	93.62
475.939	88.62
476.158	91.62
476.377	99.62
476.596	86.62
476.814	82.62
477.033	84.62
477.252	98.62
477.471	77.62
477.69	86.62
477.908	73.62
478.127	88.62
478.346	86.62
478.564	88.62
478.783	98.62
479.002	92.62
479.22	95.62
479.439	109.62
479.658	112.62
479.876	97.62
480.095	80.62
480.313	92.62
480.532	84.62
480.751	94.62
480.969	92.62
481.188	89.62
481.406	97.62
481.624	78.62
481.843	84.62
482.061	90.62
482.28	97.62
482.498	80.62
482.717	83.62
482.935	92.62
483.153	90.62
483.372	81.62
483.59	94.62
483.808	104.62
484.027	77.62
484.245	92.62
484.463	86.62
484.681	91.62
484.9	104.62
485.118	100.62
485.336	97.62
485.554	93.62
485.772	105.62
485.99	92.62
486.209	97.62
486.427	104.62
486.645	114.62
486.863	134.62
487.081	97.62
487.299	91.62
487.517	98.62
487.735	93.62
487.953	81.62
488.171	100.62
488.389	107.62
488.607	101.62
488.825	96.62
489.043	90.62
489.261	97.62
489.479	101.62
489.696	95.62
489.914	84.62
490.132	96.62
490.35	97.62
490.568	91.62
490.786	73.62
491.003	86.62
491.221	85.62
491.439	103.62
491.657	89.62
491.874	96.62
492.092	87.62
492.31	89.62
492.527	87.62
492.745	95.62
492.963	79.62
493.18	89.62
493.398	91.62
493.615	90.62
493.833	101.62
494.05	85.62
494.268	92.62
494.485	100.62
494.703	100.62
494.92	90.62
495.138	91.62
495.355	96.62
495.573	94.62
495.79	79.62
496.008	93.62
496.225	82.62
496.442	106.62
496.66	93.62
496.877	100.62
497.094	96.62
497.312	79.62
497.529	82.62
497.746	88.62
497.963	77.62
498.181	96.62
498.398	89.62
498.615	125.62
498.832	107.62
499.049	81.62
499.267	96.62
499.484	93.62
499.701	90.62
499.918	90.62
500.135	74.62
500.352	84.62
500.569	88.62
500.786	96.62
501.003	94.62
501.22	82.62
501.437	87.62
501.654	102.62
501.871	114.62
502.088	92.62
502.305	108.62
502.522	92.62
502.739	94.62
502.956	96.62
503.172	91.62
503.389	111.62
503.606	109.62
503.823	101.62
504.04	87.62
504.256	83.62
504.473	86.62
504.69	88.62
504.907	103.62
505.123	95.62
505.34	93.62
505.557	82.62
505.773	90.62
505.99	94.62
506.207	97.62
506.423	95.62
506.64	86.62
506.856	89.62
507.073	82.62
507.289	100.62
507.506	105.62
507.722	113.62
507.939	115.62
508.155	106.62
508.372	80.62
508.588	90.62
508.805	93.62
509.021	91.62
509.238	93.62
509.454	105.62
509.67	89.62
509.887	111.62
510.103	132.62
510.319	221.62
510.536	808.62
510.752	2754.62
510.968	757.62
511.184	169.62
511.401	112.62
511.617	100.62
511.833	98.62
512.049	88.62
512.265	79.62
512.481	94.62
512.698	93.62
512.914	90.62
513.13	73.62
513.346	82.62
513.562	89.62
513.778	99.62
513.994	93.62
514.21	103.62
514.426	130.62
514.642	135.62
514.858	136.62
515.074	186.62
515.29	520.62
515.506	1855.62
