Data from Circ_2014_H10_HRD10591_00066.txt Node
Date: Wed Jan 03 10:02:22 EST 2024
User: Yrep
Spectrometer: HR+D1059
Trigger mode: 1
Integration Time (sec): 1.000000E-1
Scans to average: 1
Electric dark correction enabled: true
Nonlinearity correction enabled: false
Boxcar width: 0
XAxis mode: Wavelengths
Number of Pixels in Spectrum: 2048
>>>>>Begin Spectral Data<<<<<
223.165	-12.06
223.4	-12.06
223.635	-12.06
223.869	-28.06
224.104	-10.06
224.338	-15.06
224.573	-27.06
224.808	-12.06
225.042	-10.06
225.277	-13.06
225.511	2.94
225.746	9.94
225.98	0.94
226.215	14.94
226.449	23.94
226.683	15.94
226.918	17.94
227.152	40.94
227.387	37.94
227.621	36.94
227.856	40.94
228.09	51.94
228.324	65.94
228.559	57.94
228.793	159.94
229.027	463.94
229.262	500.94
229.496	585.94
229.73	767.94
229.964	771.94
230.199	552.94
230.433	483.94
230.667	489.94
230.901	458.94
231.136	450.94
231.37	418.94
231.604	453.94
231.838	440.94
232.072	454.94
232.306	455.94
232.541	460.94
232.775	482.94
233.009	458.94
233.243	457.94
233.477	485.94
233.711	489.94
233.945	511.94
234.179	486.94
234.413	494.94
234.647	518.94
234.881	516.94
235.115	518.94
235.349	527.94
235.583	543.94
235.817	585.94
236.051	621.94
236.285	600.94
236.519	618.94
236.753	700.94
236.987	906.94
237.221	1369.94
237.455	1485.94
237.689	864.94
237.922	738.94
238.156	685.94
238.39	663.94
238.624	658.94
238.858	629.94
239.091	649.94
239.325	657.94
239.559	662.94
239.793	691.94
240.027	752.94
240.26	905.94
240.494	967.94
240.728	954.94
240.961	896.94
241.195	815.94
241.429	768.94
241.662	752.94
241.896	782.94
242.13	760.94
242.363	761.94
242.597	781.94
242.83	854.94
243.064	833.94
243.298	830.94
243.531	807.94
243.765	821.94
243.998	839.94
244.232	853.94
244.465	895.94
244.699	884.94
244.932	918.94
245.166	899.94
245.399	931.94
245.633	893.94
245.866	911.94
246.099	947.94
246.333	958.94
246.566	943.94
246.8	972.94
247.033	1014.94
247.266	1054.94
247.5	1092.94
247.733	1145.94
247.966	1134.94
248.2	1149.94
248.433	1127.94
248.666	1241.94
248.899	1343.94
249.133	1453.94
249.366	1459.94
249.599	1309.94
249.832	1268.94
250.066	1307.94
250.299	1425.94
250.532	1622.94
250.765	1771.94
250.998	1842.94
251.231	1641.94
251.465	1488.94
251.698	1429.94
251.931	1409.94
252.164	1405.94
252.397	1407.94
252.63	1442.94
252.863	1538.94
253.096	1657.94
253.329	1731.94
253.562	1610.94
253.795	1538.94
254.028	1586.94
254.261	1621.94
254.494	1840.94
254.727	2136.94
254.96	2198.94
255.193	1961.94
255.426	1810.94
255.659	1816.94
255.892	2055.94
256.124	2340.94
256.357	2141.94
256.59	1863.94
256.823	1693.94
257.056	1603.94
257.289	1591.94
257.521	1602.94
257.754	1543.94
257.987	1587.94
258.22	1576.94
258.452	1562.94
258.685	1528.94
258.918	1587.94
259.151	1650.94
259.383	1683.94
259.616	1700.94
259.849	1731.94
260.081	1943.94
260.314	2054.94
260.547	1981.94
260.779	1803.94
261.012	1702.94
261.244	1695.94
261.477	1711.94
261.71	1702.94
261.942	1770.94
262.175	1822.94
262.407	1727.94
262.64	1679.94
262.872	1705.94
263.105	1686.94
263.337	1665.94
263.57	1675.94
263.802	1694.94
264.035	1682.94
264.267	1665.94
264.499	1681.94
264.732	1640.94
264.964	1730.94
265.197	1704.94
265.429	1699.94
265.661	1697.94
265.894	1745.94
266.126	1765.94
266.358	1756.94
266.591	1780.94
266.823	1843.94
267.055	1882.94
267.287	1888.94
267.52	1837.94
267.752	1864.94
267.984	1893.94
268.216	1897.94
268.448	1980.94
268.681	1941.94
268.913	2110.94
269.145	2328.94
269.377	2359.94
269.609	2276.94
269.841	2213.94
270.073	2351.94
270.306	2661.94
270.538	2762.94
270.77	2610.94
271.002	2447.94
271.234	2434.94
271.466	2626.94
271.698	2745.94
271.93	2706.94
272.162	2693.94
272.394	2639.94
272.626	2510.94
272.858	2361.94
273.09	2304.94
273.322	2245.94
273.553	2250.94
273.785	2182.94
274.017	2205.94
274.249	2266.94
274.481	2273.94
274.713	2258.94
274.945	2331.94
275.176	2273.94
275.408	2273.94
275.64	2297.94
275.872	2265.94
276.104	2287.94
276.335	2377.94
276.567	2452.94
276.799	2611.94
277.031	2858.94
277.262	2949.94
277.494	2784.94
277.726	2583.94
277.957	2518.94
278.189	2459.94
278.421	2402.94
278.652	2417.94
278.884	2387.94
279.115	2351.94
279.347	2402.94
279.579	2391.94
279.81	2404.94
280.042	2413.94
280.273	2469.94
280.505	2490.94
280.736	2470.94
280.968	2433.94
281.199	2479.94
281.431	2489.94
281.662	2479.94
281.894	2535.94
282.125	2527.94
282.356	2723.94
282.588	2900.94
282.819	2708.94
283.051	2597.94
283.282	2547.94
283.513	2523.94
283.745	2617.94
283.976	2611.94
284.207	2675.94
284.439	2606.94
284.67	2637.94
284.901	2649.94
285.132	2654.94
285.364	2605.94
285.595	2647.94
285.826	2627.94
286.057	2678.94
286.288	2650.94
286.52	2690.94
286.751	2671.94
286.982	2709.94
287.213	2722.94
287.444	2762.94
287.675	2797.94
287.906	2883.94
288.138	2974.94
288.369	2880.94
288.6	2919.94
288.831	2880.94
289.062	2833.94
289.293	2815.94
289.524	2823.94
289.755	2806.94
289.986	2811.94
290.217	2816.94
290.448	2797.94
290.679	2832.94
290.91	2770.94
291.141	2790.94
291.371	2830.94
291.602	2783.94
291.833	2779.94
292.064	2819.94
292.295	2854.94
292.526	2871.94
292.757	2848.94
292.987	2802.94
293.218	2808.94
293.449	2890.94
293.68	2793.94
293.91	2859.94
294.141	2818.94
294.372	2823.94
294.603	2850.94
294.833	2880.94
295.064	2880.94
295.295	2929.94
295.525	2861.94
295.756	2964.94
295.987	3017.94
296.217	3214.94
296.448	3161.94
296.679	2930.94
296.909	2902.94
297.14	2969.94
297.37	3022.94
297.601	3014.94
297.831	3029.94
298.062	3059.94
298.292	3023.94
298.523	3120.94
298.753	3162.94
298.984	3066.94
299.214	3113.94
299.445	3065.94
299.675	3092.94
299.905	3152.94
300.136	3134.94
300.366	3143.94
300.597	3135.94
300.827	3269.94
301.057	3306.94
301.288	3382.94
301.518	3312.94
301.748	3306.94
301.979	3432.94
302.209	3428.94
302.439	3382.94
302.669	3394.94
302.9	3305.94
303.13	3272.94
303.36	3358.94
303.59	3378.94
303.82	3396.94
304.051	3412.94
304.281	3351.94
304.511	3286.94
304.741	3272.94
304.971	3273.94
305.201	3293.94
305.431	3266.94
305.661	3306.94
305.891	3291.94
306.121	3271.94
306.352	3307.94
306.582	3335.94
306.812	3252.94
307.042	3291.94
307.272	3318.94
307.502	3294.94
307.731	3311.94
307.961	3286.94
308.191	3303.94
308.421	3258.94
308.651	3347.94
308.881	3294.94
309.111	3378.94
309.341	3378.94
309.571	3454.94
309.8	3507.94
310.03	3583.94
310.26	3643.94
310.49	3569.94
310.72	3748.94
310.949	3858.94
311.179	3777.94
311.409	3698.94
311.639	3667.94
311.868	3705.94
312.098	3667.94
312.328	3789.94
312.557	3949.94
312.787	4017.94
313.017	3922.94
313.246	3802.94
313.476	3761.94
313.706	3834.94
313.935	3913.94
314.165	4016.94
314.394	4031.94
314.624	3898.94
314.853	3837.94
315.083	3777.94
315.312	3726.94
315.542	3743.94
315.771	3677.94
316.001	3659.94
316.23	3684.94
316.46	3646.94
316.689	3761.94
316.919	3769.94
317.148	3848.94
317.377	3790.94
317.607	3697.94
317.836	3678.94
318.065	3643.94
318.295	3615.94
318.524	3700.94
318.753	3727.94
318.983	3712.94
319.212	3654.94
319.441	3764.94
319.67	3839.94
319.9	3734.94
320.129	3669.94
320.358	3715.94
320.587	3752.94
320.816	3822.94
321.046	3911.94
321.275	3828.94
321.504	3889.94
321.733	3954.94
321.962	3968.94
322.191	4090.94
322.42	4167.94
322.649	4241.94
322.878	4314.94
323.108	4415.94
323.337	4625.94
323.566	4807.94
323.795	5028.94
324.024	5698.94
324.253	7580.94
324.482	11377.94
324.71	15425.94
324.939	15595.94
325.168	13305.94
325.397	6709.94
325.626	5437.94
325.855	5015.94
326.084	4906.94
326.313	4897.94
326.542	5042.94
326.77	5749.94
326.999	7333.94
327.228	10628.94
327.457	14593.94
327.686	13829.94
327.914	7748.94
328.143	6430.94
328.372	6167.94
328.6	5688.94
328.829	5521.94
329.058	5777.94
329.287	5668.94
329.515	5432.94
329.744	5421.94
329.972	5681.94
330.201	6215.94
330.43	6721.94
330.658	6405.94
330.887	6326.94
331.115	5697.94
331.344	5214.94
331.572	5165.94
331.801	5258.94
332.03	5228.94
332.258	5133.94
332.486	5150.94
332.715	5202.94
332.943	5389.94
333.172	5561.94
333.4	5757.94
333.629	5981.94
333.857	6322.94
334.085	6570.94
334.314	7195.94
334.542	7890.94
334.771	7553.94
334.999	6224.94
335.227	5642.94
335.455	5479.94
335.684	5219.94
335.912	5207.94
336.14	5081.94
336.369	5071.94
336.597	5130.94
336.825	4968.94
337.053	4944.94
337.281	4810.94
337.51	4801.94
337.738	4729.94
337.966	4773.94
338.194	4777.94
338.422	4643.94
338.65	4558.94
338.878	4546.94
339.106	4532.94
339.334	4516.94
339.562	4496.94
339.79	4462.94
340.018	4397.94
340.246	4409.94
340.474	4470.94
340.702	4419.94
340.93	4452.94
341.158	4393.94
341.386	4455.94
341.614	4435.94
341.842	4368.94
342.07	4344.94
342.298	4341.94
342.526	4290.94
342.754	4303.94
342.981	4346.94
343.209	4420.94
343.437	4614.94
343.665	4873.94
343.893	5175.94
344.12	5177.94
344.348	4955.94
344.576	4841.94
344.804	4688.94
345.031	4678.94
345.259	4671.94
345.487	4514.94
345.714	4345.94
345.942	4278.94
346.17	4248.94
346.397	4181.94
346.625	4244.94
346.853	4259.94
347.08	4210.94
347.308	4231.94
347.535	4317.94
347.763	4368.94
347.99	4293.94
348.218	4321.94
348.445	4353.94
348.673	4246.94
348.9	4159.94
349.128	4151.94
349.355	4067.94
349.583	4079.94
349.81	4073.94
350.037	4156.94
350.265	4055.94
350.492	4083.94
350.72	4120.94
350.947	4180.94
351.174	4212.94
351.402	4287.94
351.629	4239.94
351.856	4217.94
352.083	4331.94
352.311	4323.94
352.538	4231.94
352.765	4277.94
352.992	4150.94
353.22	4130.94
353.447	4096.94
353.674	3990.94
353.901	3967.94
354.128	3946.94
354.355	3968.94
354.583	3938.94
354.81	3923.94
355.037	3990.94
355.264	3930.94
355.491	3910.94
355.718	3950.94
355.945	3950.94
356.172	4001.94
356.399	3961.94
356.626	3953.94
356.853	3961.94
357.08	3938.94
357.307	3962.94
357.534	3954.94
357.761	4006.94
357.988	4029.94
358.215	3981.94
358.441	3969.94
358.668	3946.94
358.895	4070.94
359.122	4112.94
359.349	4196.94
359.576	4311.94
359.802	4502.94
360.029	4751.94
360.256	4701.94
360.483	4464.94
360.709	4216.94
360.936	4216.94
361.163	4262.94
361.39	4262.94
361.616	4275.94
361.843	4180.94
362.07	4246.94
362.296	4287.94
362.523	4215.94
362.749	4242.94
362.976	4151.94
363.203	4049.94
363.429	4036.94
363.656	4073.94
363.882	4045.94
364.109	4013.94
364.335	4058.94
364.562	4031.94
364.788	4045.94
365.015	4140.94
365.241	4113.94
365.468	4090.94
365.694	4157.94
365.92	4111.94
366.147	4047.94
366.373	4064.94
366.599	4080.94
366.826	4028.94
367.052	4015.94
367.278	4117.94
367.505	4084.94
367.731	4136.94
367.957	4063.94
368.184	4163.94
368.41	4304.94
368.636	4240.94
368.862	4297.94
369.089	4155.94
369.315	4129.94
369.541	4094.94
369.767	4148.94
369.993	4182.94
370.219	4218.94
370.445	4219.94
370.672	4225.94
370.898	4288.94
371.124	4281.94
371.35	4292.94
371.576	4303.94
371.802	4314.94
372.028	4237.94
372.254	4252.94
372.48	4383.94
372.706	4394.94
372.932	4459.94
373.158	4376.94
373.384	4339.94
373.61	4298.94
373.835	4358.94
374.061	4305.94
374.287	4435.94
374.513	4437.94
374.739	4614.94
374.965	4683.94
375.191	4771.94
375.416	4602.94
375.642	4573.94
375.868	4543.94
376.094	4442.94
376.319	4358.94
376.545	4397.94
376.771	4381.94
376.997	4269.94
377.222	4305.94
377.448	4323.94
377.674	4339.94
377.899	4230.94
378.125	4209.94
378.35	4289.94
378.576	4233.94
378.802	4225.94
379.027	4301.94
379.253	4215.94
379.478	4307.94
379.704	4258.94
379.929	4365.94
380.155	4303.94
380.38	4278.94
380.606	4317.94
380.831	4317.94
381.057	4297.94
381.282	4252.94
381.507	4356.94
381.733	4352.94
381.958	4366.94
382.184	4442.94
382.409	4473.94
382.634	4527.94
382.86	4541.94
383.085	4627.94
383.31	4617.94
383.535	4691.94
383.761	4849.94
383.986	4887.94
384.211	5003.94
384.436	5022.94
384.662	5045.94
384.887	5187.94
385.112	5183.94
385.337	5150.94
385.562	5175.94
385.787	5230.94
386.013	5261.94
386.238	5306.94
386.463	5318.94
386.688	5222.94
386.913	5125.94
387.138	5114.94
387.363	5122.94
387.588	5061.94
387.813	5101.94
388.038	5099.94
388.263	5137.94
388.488	5150.94
388.713	5148.94
388.938	5138.94
389.163	5059.94
389.387	5082.94
389.612	5079.94
389.837	5080.94
390.062	5045.94
390.287	5050.94
390.512	5064.94
390.736	5153.94
390.961	5270.94
391.186	5259.94
391.411	5400.94
391.636	5627.94
391.86	5710.94
392.085	5724.94
392.31	5663.94
392.534	5565.94
392.759	5478.94
392.984	5309.94
393.208	5323.94
393.433	5391.94
393.658	5382.94
393.882	5271.94
394.107	5386.94
394.331	5505.94
394.556	5318.94
394.78	5425.94
395.005	5522.94
395.229	5492.94
395.454	5686.94
395.678	5811.94
395.903	5829.94
396.127	5806.94
396.352	5707.94
396.576	5473.94
396.801	5521.94
397.025	5576.94
397.249	5658.94
397.474	5797.94
397.698	5810.94
397.922	5861.94
398.147	6031.94
398.371	6113.94
398.595	6221.94
398.82	6545.94
399.044	7115.94
399.268	7866.94
399.492	8964.94
399.717	9570.94
399.941	9209.94
400.165	8685.94
400.389	7973.94
400.613	7238.94
400.837	6831.94
401.062	6601.94
401.286	6478.94
401.51	6474.94
401.734	6503.94
401.958	6601.94
402.182	6733.94
402.406	6962.94
402.63	6983.94
402.854	6991.94
403.078	7062.94
403.302	7221.94
403.526	7320.94
403.75	7366.94
403.974	7434.94
404.198	7445.94
404.422	7572.94
404.645	7533.94
404.869	7585.94
405.093	7912.94
405.317	8147.94
405.541	8121.94
405.765	7463.94
405.988	7326.94
406.212	7506.94
406.436	7671.94
406.66	7770.94
406.883	7739.94
407.107	8254.94
407.331	8842.94
407.555	9301.94
407.778	9057.94
408.002	8262.94
408.226	7934.94
408.449	7763.94
408.673	7720.94
408.896	7789.94
409.12	7935.94
409.344	7576.94
409.567	7179.94
409.791	7043.94
410.014	6990.94
410.238	7032.94
410.461	6947.94
410.685	6952.94
410.908	7093.94
411.132	7294.94
411.355	7245.94
411.578	6924.94
411.802	6793.94
412.025	6847.94
412.249	7139.94
412.472	7416.94
412.695	7741.94
412.919	7249.94
413.142	6882.94
413.365	6692.94
413.589	6681.94
413.812	6424.94
414.035	6375.94
414.258	6392.94
414.482	6395.94
414.705	6555.94
414.928	6461.94
415.151	6462.94
415.374	6418.94
415.597	6360.94
415.821	6255.94
416.044	6283.94
416.267	6209.94
416.49	6215.94
416.713	6168.94
416.936	6280.94
417.159	6309.94
417.382	6354.94
417.605	6395.94
417.828	6543.94
418.051	6693.94
418.274	6506.94
418.497	6419.94
418.72	6545.94
418.943	6438.94
419.166	6932.94
419.389	7228.94
419.611	7283.94
419.834	7051.94
420.057	7007.94
420.28	6973.94
420.503	6813.94
420.726	6678.94
420.948	6758.94
421.171	7095.94
421.394	7128.94
421.617	6545.94
421.839	6648.94
422.062	6632.94
422.285	6785.94
422.507	7442.94
422.73	7802.94
422.953	7313.94
423.175	6974.94
423.398	6979.94
423.621	6973.94
423.843	7259.94
424.066	7146.94
424.288	7130.94
424.511	7295.94
424.733	7782.94
424.956	8156.94
425.178	7699.94
425.401	7838.94
425.623	7653.94
425.846	6798.94
426.068	6697.94
426.291	6647.94
426.513	6504.94
426.735	6626.94
426.958	7072.94
427.18	7798.94
427.402	8954.94
427.625	9155.94
427.847	8025.94
428.069	7433.94
428.292	6589.94
428.514	6178.94
428.736	6027.94
428.958	5956.94
429.181	5821.94
429.403	5823.94
429.625	6006.94
429.847	6234.94
430.069	6793.94
430.292	6377.94
430.514	5831.94
430.736	5864.94
430.958	5781.94
431.18	5624.94
431.402	5681.94
431.624	5667.94
431.846	5680.94
432.068	5781.94
432.29	5818.94
432.512	5726.94
432.734	5845.94
432.956	5767.94
433.178	5781.94
433.4	5820.94
433.622	5731.94
433.844	5777.94
434.066	5783.94
434.287	5849.94
434.509	6124.94
434.731	6361.94
434.953	6447.94
435.175	6583.94
435.397	6644.94
435.618	6585.94
435.84	6965.94
436.062	7716.94
436.284	7715.94
436.505	6553.94
436.727	6249.94
436.949	6008.94
437.17	5872.94
437.392	5816.94
437.614	5930.94
437.835	6378.94
438.057	7307.94
438.278	7938.94
438.5	7813.94
438.721	8511.94
438.943	7545.94
439.165	6364.94
439.386	6287.94
439.608	6264.94
439.829	6375.94
440.05	6754.94
440.272	7122.94
440.493	6521.94
440.715	6208.94
440.936	6130.94
441.158	6132.94
441.379	6349.94
441.6	6674.94
441.822	6810.94
442.043	7225.94
442.264	8024.94
442.486	7632.94
442.707	6900.94
442.928	6669.94
443.149	6972.94
443.371	7143.94
443.592	7631.94
443.813	8509.94
444.034	8589.94
444.255	7539.94
444.476	7424.94
444.698	7509.94
444.919	7652.94
445.14	7418.94
445.361	7260.94
445.582	7375.94
445.803	8043.94
446.024	8557.94
446.245	8205.94
446.466	7416.94
446.687	6446.94
446.908	6088.94
447.129	5783.94
447.35	5680.94
447.571	5697.94
447.792	5557.94
448.013	5638.94
448.234	5864.94
448.455	6507.94
448.675	7566.94
448.896	8021.94
449.117	6708.94
449.338	6967.94
449.559	8055.94
449.779	8199.94
450	6422.94
450.221	5728.94
450.442	5522.94
450.662	5512.94
450.883	5588.94
451.104	5727.94
451.324	5565.94
451.545	5354.94
451.766	5215.94
451.986	5067.94
452.207	5034.94
452.428	5119.94
452.648	5064.94
452.869	5138.94
453.089	5176.94
453.31	5261.94
453.53	5114.94
453.751	5050.94
453.971	5143.94
454.192	5233.94
454.412	5067.94
454.633	4888.94
454.853	4925.94
455.073	4926.94
455.294	5320.94
455.514	5872.94
455.734	5418.94
455.955	4784.94
456.175	4750.94
456.395	4709.94
456.616	4579.94
456.836	4609.94
457.056	4609.94
457.276	4611.94
457.497	4727.94
457.717	4754.94
457.937	4811.94
458.157	4913.94
458.377	5028.94
458.598	5352.94
458.818	6013.94
459.038	6857.94
459.258	6707.94
459.478	5969.94
459.698	5818.94
459.918	5906.94
460.138	6124.94
460.358	6221.94
460.578	6343.94
460.798	6383.94
461.018	6337.94
461.238	6319.94
461.458	6247.94
461.678	6192.94
461.898	6277.94
462.118	6417.94
462.338	6734.94
462.558	6799.94
462.777	7165.94
462.997	7740.94
463.217	8109.94
463.437	7918.94
463.657	7324.94
463.876	7166.94
464.096	7238.94
464.316	7151.94
464.536	7254.94
464.755	7039.94
464.975	6952.94
465.195	7111.94
465.414	7260.94
465.634	6265.94
465.854	5998.94
466.073	5720.94
466.293	5484.94
466.512	5283.94
466.732	5279.94
466.951	5322.94
467.171	5323.94
467.391	5369.94
467.61	5348.94
467.829	5363.94
468.049	5459.94
468.268	5442.94
468.488	5266.94
468.707	5098.94
468.927	5070.94
469.146	5142.94
469.365	5187.94
469.585	5096.94
469.804	5343.94
470.023	5479.94
470.243	5497.94
470.462	5609.94
470.681	5633.94
470.901	5608.94
471.12	5476.94
471.339	5410.94
471.558	5344.94
471.777	5272.94
471.997	5161.94
472.216	5590.94
472.435	6373.94
472.654	5693.94
472.873	5343.94
473.092	5189.94
473.311	5135.94
473.53	5126.94
473.749	5311.94
473.968	5791.94
474.187	6747.94
474.406	6293.94
474.625	5380.94
474.844	5074.94
475.063	5073.94
475.282	5074.94
475.501	5125.94
475.72	5256.94
475.939	5143.94
476.158	5221.94
476.377	5237.94
476.596	5248.94
476.814	5361.94
477.033	5443.94
477.252	5494.94
477.471	5635.94
477.69	5672.94
477.908	5818.94
478.127	5934.94
478.346	6051.94
478.564	6139.94
478.783	6245.94
479.002	6434.94
479.22	6361.94
479.439	6444.94
479.658	6585.94
479.876	6733.94
480.095	6864.94
480.313	7299.94
480.532	7111.94
480.751	7149.94
480.969	7376.94
481.188	8892.94
481.406	8791.94
481.624	7316.94
481.843	6779.94
482.061	6474.94
482.28	6246.94
482.498	6125.94
482.717	6135.94
482.935	6082.94
483.153	5951.94
483.372	5916.94
483.59	5943.94
483.808	5991.94
484.027	6002.94
484.245	6023.94
484.463	6016.94
484.681	6121.94
484.9	6160.94
485.118	6205.94
485.336	6243.94
485.554	6338.94
485.772	6364.94
485.99	6397.94
486.209	6512.94
486.427	6466.94
486.645	6442.94
486.863	6556.94
487.081	6505.94
487.299	6508.94
487.517	6419.94
487.735	6345.94
487.953	6345.94
