Data from Circ_2014_H10_HRD10591_00099.txt Node
Date: Wed Jan 03 10:02:29 EST 2024
User: Yrep
Spectrometer: HR+D1059
Trigger mode: 1
Integration Time (sec): 1.000000E-1
Scans to average: 1
Electric dark correction enabled: true
Nonlinearity correction enabled: false
Boxcar width: 0
XAxis mode: Wavelengths
Number of Pixels in Spectrum: 2048
>>>>>Begin Spectral Data<<<<<
223.165	-10.06
223.4	-10.06
223.635	-10.06
223.869	-33.06
224.104	-30.06
224.338	-17.06
224.573	-14.06
224.808	-8.06
225.042	-4.06
225.277	-2.06
225.511	-2.06
225.746	7.94
225.98	21.94
226.215	12.94
226.449	20.94
226.683	21.94
226.918	22.94
227.152	11.94
227.387	40.94
227.621	46.94
227.856	44.94
228.09	62.94
228.324	50.94
228.559	58.94
228.793	66.94
229.027	56.94
229.262	68.94
229.496	74.94
229.73	86.94
229.964	88.94
230.199	76.94
230.433	71.94
230.667	89.94
230.901	69.94
231.136	79.94
231.37	77.94
231.604	84.94
231.838	79.94
232.072	74.94
232.306	76.94
232.541	67.94
232.775	74.94
233.009	87.94
233.243	77.94
233.477	70.94
233.711	81.94
233.945	86.94
234.179	70.94
234.413	90.94
234.647	76.94
234.881	74.94
235.115	68.94
235.349	79.94
235.583	76.94
235.817	82.94
236.051	77.94
236.285	72.94
236.519	76.94
236.753	75.94
236.987	79.94
237.221	87.94
237.455	78.94
237.689	85.94
237.922	74.94
238.156	87.94
238.39	93.94
238.624	71.94
238.858	78.94
239.091	84.94
239.325	83.94
239.559	79.94
239.793	82.94
240.027	68.94
240.26	84.94
240.494	75.94
240.728	56.94
240.961	74.94
241.195	75.94
241.429	71.94
241.662	62.94
241.896	81.94
242.13	77.94
242.363	73.94
242.597	69.94
242.83	84.94
243.064	90.94
243.298	91.94
243.531	82.94
243.765	72.94
243.998	85.94
244.232	85.94
244.465	108.94
244.699	70.94
244.932	85.94
245.166	73.94
245.399	77.94
245.633	79.94
245.866	75.94
246.099	87.94
246.333	73.94
246.566	85.94
246.8	83.94
247.033	79.94
247.266	87.94
247.5	80.94
247.733	82.94
247.966	76.94
248.2	81.94
248.433	88.94
248.666	88.94
248.899	85.94
249.133	93.94
249.366	81.94
249.599	95.94
249.832	84.94
250.066	84.94
250.299	79.94
250.532	78.94
250.765	80.94
250.998	85.94
251.231	86.94
251.465	76.94
251.698	73.94
251.931	88.94
252.164	86.94
252.397	83.94
252.63	85.94
252.863	87.94
253.096	71.94
253.329	80.94
253.562	70.94
253.795	94.94
254.028	83.94
254.261	75.94
254.494	91.94
254.727	86.94
254.96	64.94
255.193	76.94
255.426	71.94
255.659	68.94
255.892	80.94
256.124	85.94
256.357	74.94
256.59	86.94
256.823	94.94
257.056	84.94
257.289	92.94
257.521	80.94
257.754	75.94
257.987	73.94
258.22	85.94
258.452	90.94
258.685	93.94
258.918	85.94
259.151	78.94
259.383	80.94
259.616	83.94
259.849	82.94
260.081	82.94
260.314	96.94
260.547	103.94
260.779	79.94
261.012	88.94
261.244	86.94
261.477	88.94
261.71	101.94
261.942	124.94
262.175	124.94
262.407	81.94
262.64	94.94
262.872	83.94
263.105	77.94
263.337	81.94
263.57	77.94
263.802	85.94
264.035	85.94
264.267	86.94
264.499	87.94
264.732	98.94
264.964	80.94
265.197	74.94
265.429	79.94
265.661	88.94
265.894	89.94
266.126	94.94
266.358	86.94
266.591	91.94
266.823	67.94
267.055	92.94
267.287	85.94
267.52	81.94
267.752	83.94
267.984	73.94
268.216	91.94
268.448	86.94
268.681	78.94
268.913	75.94
269.145	72.94
269.377	89.94
269.609	84.94
269.841	90.94
270.073	87.94
270.306	86.94
270.538	73.94
270.77	86.94
271.002	89.94
271.234	67.94
271.466	95.94
271.698	87.94
271.93	81.94
272.162	80.94
272.394	84.94
272.626	88.94
272.858	88.94
273.09	85.94
273.322	82.94
273.553	87.94
273.785	88.94
274.017	99.94
274.249	100.94
274.481	87.94
274.713	96.94
274.945	93.94
275.176	89.94
275.408	85.94
275.64	78.94
275.872	95.94
276.104	95.94
276.335	102.94
276.567	110.94
276.799	115.94
277.031	106.94
277.262	104.94
277.494	81.94
277.726	101.94
277.957	88.94
278.189	78.94
278.421	81.94
278.652	95.94
278.884	87.94
279.115	106.94
279.347	81.94
279.579	87.94
279.81	95.94
280.042	107.94
280.273	123.94
280.505	87.94
280.736	89.94
280.968	86.94
281.199	84.94
281.431	97.94
281.662	102.94
281.894	99.94
282.125	107.94
282.356	125.94
282.588	146.94
282.819	120.94
283.051	87.94
283.282	76.94
283.513	100.94
283.745	91.94
283.976	93.94
284.207	94.94
284.439	94.94
284.67	71.94
284.901	79.94
285.132	96.94
285.364	84.94
285.595	94.94
285.826	91.94
286.057	95.94
286.288	75.94
286.52	84.94
286.751	89.94
286.982	104.94
287.213	79.94
287.444	82.94
287.675	92.94
287.906	90.94
288.138	91.94
288.369	86.94
288.6	96.94
288.831	82.94
289.062	86.94
289.293	87.94
289.524	88.94
289.755	88.94
289.986	80.94
290.217	89.94
290.448	99.94
290.679	86.94
290.91	94.94
291.141	86.94
291.371	90.94
291.602	91.94
291.833	93.94
292.064	92.94
292.295	86.94
292.526	95.94
292.757	83.94
292.987	89.94
293.218	91.94
293.449	86.94
293.68	101.94
293.91	82.94
294.141	95.94
294.372	87.94
294.603	99.94
294.833	81.94
295.064	90.94
295.295	106.94
295.525	85.94
295.756	102.94
295.987	131.94
296.217	129.94
296.448	135.94
296.679	99.94
296.909	103.94
297.14	84.94
297.37	83.94
297.601	94.94
297.831	91.94
298.062	91.94
298.292	101.94
298.523	71.94
298.753	94.94
298.984	77.94
299.214	88.94
299.445	89.94
299.675	100.94
299.905	102.94
300.136	119.94
300.366	85.94
300.597	93.94
300.827	99.94
301.057	91.94
301.288	101.94
301.518	97.94
301.748	88.94
301.979	105.94
302.209	96.94
302.439	99.94
302.669	94.94
302.9	83.94
303.13	90.94
303.36	90.94
303.59	102.94
303.82	108.94
304.051	100.94
304.281	103.94
304.511	96.94
304.741	76.94
304.971	87.94
305.201	80.94
305.431	84.94
305.661	96.94
305.891	99.94
306.121	94.94
306.352	107.94
306.582	111.94
306.812	103.94
307.042	96.94
307.272	121.94
307.502	95.94
307.731	106.94
307.961	108.94
308.191	76.94
308.421	88.94
308.651	102.94
308.881	88.94
309.111	104.94
309.341	97.94
309.571	107.94
309.8	106.94
310.03	106.94
310.26	104.94
310.49	90.94
310.72	104.94
310.949	105.94
311.179	109.94
311.409	94.94
311.639	88.94
311.868	91.94
312.098	99.94
312.328	90.94
312.557	120.94
312.787	106.94
313.017	103.94
313.246	103.94
313.476	97.94
313.706	96.94
313.935	94.94
314.165	99.94
314.394	98.94
314.624	97.94
314.853	91.94
315.083	107.94
315.312	96.94
315.542	96.94
315.771	95.94
316.001	95.94
316.23	93.94
316.46	95.94
316.689	88.94
316.919	93.94
317.148	87.94
317.377	94.94
317.607	94.94
317.836	86.94
318.065	95.94
318.295	97.94
318.524	105.94
318.753	92.94
318.983	99.94
319.212	89.94
319.441	109.94
319.67	107.94
319.9	96.94
320.129	89.94
320.358	95.94
320.587	111.94
320.816	98.94
321.046	94.94
321.275	93.94
321.504	88.94
321.733	101.94
321.962	102.94
322.191	110.94
322.42	108.94
322.649	111.94
322.878	110.94
323.108	120.94
323.337	134.94
323.566	134.94
323.795	168.94
324.024	213.94
324.253	434.94
324.482	891.94
324.71	1822.94
324.939	2390.94
325.168	896.94
325.397	266.94
325.626	161.94
325.855	140.94
326.084	125.94
326.313	128.94
326.542	150.94
326.77	256.94
326.999	491.94
327.228	1000.94
327.457	1789.94
327.686	1432.94
327.914	404.94
328.143	246.94
328.372	219.94
328.6	178.94
328.829	130.94
329.058	137.94
329.287	150.94
329.515	132.94
329.744	132.94
329.972	169.94
330.201	223.94
330.43	296.94
330.658	208.94
330.887	175.94
331.115	142.94
331.344	97.94
331.572	115.94
331.801	104.94
332.03	103.94
332.258	91.94
332.486	98.94
332.715	91.94
332.943	96.94
333.172	101.94
333.4	102.94
333.629	109.94
333.857	129.94
334.085	167.94
334.314	219.94
334.542	369.94
334.771	349.94
334.999	154.94
335.227	114.94
335.455	100.94
335.684	87.94
335.912	100.94
336.14	92.94
336.369	103.94
336.597	106.94
336.825	106.94
337.053	93.94
337.281	110.94
337.51	84.94
337.738	96.94
337.966	94.94
338.194	99.94
338.422	100.94
338.65	105.94
338.878	96.94
339.106	83.94
339.334	86.94
339.562	91.94
339.79	92.94
340.018	91.94
340.246	98.94
340.474	74.94
340.702	115.94
340.93	94.94
341.158	100.94
341.386	78.94
341.614	100.94
341.842	94.94
342.07	95.94
342.298	99.94
342.526	79.94
342.754	82.94
342.981	83.94
343.209	101.94
343.437	93.94
343.665	93.94
343.893	98.94
344.12	91.94
344.348	74.94
344.576	102.94
344.804	88.94
345.031	105.94
345.259	109.94
345.487	82.94
345.714	102.94
345.942	101.94
346.17	102.94
346.397	85.94
346.625	90.94
346.853	85.94
347.08	95.94
347.308	86.94
347.535	104.94
347.763	88.94
347.99	111.94
348.218	103.94
348.445	108.94
348.673	114.94
348.9	107.94
349.128	85.94
349.355	98.94
349.583	93.94
349.81	100.94
350.037	94.94
350.265	107.94
350.492	92.94
350.72	105.94
350.947	96.94
351.174	118.94
351.402	121.94
351.629	115.94
351.856	102.94
352.083	105.94
352.311	94.94
352.538	108.94
352.765	128.94
352.992	121.94
353.22	129.94
353.447	91.94
353.674	109.94
353.901	110.94
354.128	100.94
354.355	102.94
354.583	95.94
354.81	103.94
355.037	92.94
355.264	84.94
355.491	98.94
355.718	82.94
355.945	85.94
356.172	100.94
356.399	103.94
356.626	95.94
356.853	108.94
357.08	89.94
357.307	95.94
357.534	94.94
357.761	100.94
357.988	104.94
358.215	94.94
358.441	110.94
358.668	101.94
358.895	80.94
359.122	93.94
359.349	96.94
359.576	76.94
359.802	108.94
360.029	109.94
360.256	127.94
360.483	99.94
360.709	85.94
360.936	92.94
361.163	98.94
361.39	102.94
361.616	93.94
361.843	91.94
362.07	103.94
362.296	110.94
362.523	86.94
362.749	101.94
362.976	101.94
363.203	96.94
363.429	98.94
363.656	92.94
363.882	99.94
364.109	85.94
364.335	92.94
364.562	100.94
364.788	96.94
365.015	98.94
365.241	99.94
365.468	111.94
365.694	122.94
365.92	93.94
366.147	89.94
366.373	83.94
366.599	90.94
366.826	102.94
367.052	95.94
367.278	87.94
367.505	95.94
367.731	88.94
367.957	99.94
368.184	99.94
368.41	120.94
368.636	124.94
368.862	124.94
369.089	110.94
369.315	107.94
369.541	97.94
369.767	92.94
369.993	86.94
370.219	92.94
370.445	90.94
370.672	82.94
370.898	102.94
371.124	90.94
371.35	86.94
371.576	94.94
371.802	77.94
372.028	87.94
372.254	82.94
372.48	98.94
372.706	94.94
372.932	93.94
373.158	107.94
373.384	77.94
373.61	98.94
373.835	91.94
374.061	93.94
374.287	99.94
374.513	102.94
374.739	87.94
374.965	98.94
375.191	96.94
375.416	80.94
375.642	98.94
375.868	86.94
376.094	100.94
376.319	91.94
376.545	91.94
376.771	99.94
376.997	90.94
377.222	92.94
377.448	97.94
377.674	92.94
377.899	91.94
378.125	86.94
378.35	79.94
378.576	86.94
378.802	91.94
379.027	80.94
379.253	89.94
379.478	79.94
379.704	83.94
379.929	104.94
380.155	88.94
380.38	84.94
380.606	80.94
380.831	90.94
381.057	87.94
381.282	101.94
381.507	101.94
381.733	102.94
381.958	105.94
382.184	92.94
382.409	83.94
382.634	98.94
382.86	105.94
383.085	107.94
383.31	102.94
383.535	89.94
383.761	92.94
383.986	95.94
384.211	92.94
384.436	93.94
384.662	99.94
384.887	97.94
385.112	93.94
385.337	104.94
385.562	121.94
385.787	108.94
386.013	101.94
386.238	111.94
386.463	98.94
386.688	100.94
386.913	110.94
387.138	119.94
387.363	109.94
387.588	91.94
387.813	103.94
388.038	89.94
388.263	113.94
388.488	105.94
388.713	106.94
388.938	91.94
389.163	82.94
389.387	97.94
389.612	102.94
389.837	100.94
390.062	95.94
390.287	102.94
390.512	98.94
390.736	73.94
390.961	87.94
391.186	90.94
391.411	78.94
391.636	84.94
391.86	78.94
392.085	83.94
392.31	81.94
392.534	90.94
392.759	85.94
392.984	96.94
393.208	96.94
393.433	88.94
393.658	104.94
393.882	88.94
394.107	83.94
394.331	86.94
394.556	91.94
394.78	93.94
395.005	94.94
395.229	83.94
395.454	86.94
395.678	87.94
395.903	89.94
396.127	111.94
396.352	68.94
396.576	99.94
396.801	97.94
397.025	102.94
397.249	90.94
397.474	90.94
397.698	103.94
397.922	98.94
398.147	90.94
398.371	97.94
398.595	91.94
398.82	76.94
399.044	105.94
399.268	87.94
399.492	84.94
399.717	94.94
399.941	85.94
400.165	86.94
400.389	96.94
400.613	97.94
400.837	86.94
401.062	79.94
401.286	88.94
401.51	103.94
401.734	100.94
401.958	100.94
402.182	130.94
402.406	169.94
402.63	142.94
402.854	118.94
403.078	110.94
403.302	79.94
403.526	85.94
403.75	93.94
403.974	91.94
404.198	82.94
404.422	88.94
404.645	90.94
404.869	95.94
405.093	95.94
405.317	110.94
405.541	102.94
405.765	92.94
405.988	124.94
406.212	199.94
406.436	252.94
406.66	166.94
406.883	118.94
407.107	106.94
407.331	105.94
407.555	99.94
407.778	89.94
408.002	93.94
408.226	95.94
408.449	103.94
408.673	92.94
408.896	116.94
409.12	99.94
409.344	85.94
409.567	102.94
409.791	82.94
410.014	92.94
410.238	108.94
410.461	94.94
410.685	97.94
410.908	84.94
411.132	109.94
411.355	102.94
411.578	109.94
411.802	93.94
412.025	89.94
412.249	90.94
412.472	106.94
412.695	110.94
412.919	95.94
413.142	99.94
413.365	80.94
413.589	74.94
413.812	93.94
414.035	86.94
414.258	86.94
414.482	102.94
414.705	95.94
414.928	80.94
415.151	96.94
415.374	86.94
415.597	86.94
415.821	103.94
416.044	86.94
416.267	94.94
416.49	88.94
416.713	103.94
416.936	94.94
417.159	83.94
417.382	98.94
417.605	80.94
417.828	95.94
418.051	85.94
418.274	90.94
418.497	77.94
418.72	83.94
418.943	74.94
419.166	96.94
419.389	96.94
419.611	96.94
419.834	95.94
420.057	96.94
420.28	94.94
420.503	86.94
420.726	101.94
420.948	101.94
421.171	101.94
421.394	96.94
421.617	88.94
421.839	99.94
422.062	87.94
422.285	94.94
422.507	111.94
422.73	98.94
422.953	86.94
423.175	80.94
423.398	89.94
423.621	93.94
423.843	87.94
424.066	100.94
424.288	90.94
424.511	91.94
424.733	99.94
424.956	104.94
425.178	100.94
425.401	96.94
425.623	100.94
425.846	99.94
426.068	96.94
426.291	102.94
426.513	85.94
426.735	96.94
426.958	101.94
427.18	124.94
427.402	151.94
427.625	185.94
427.847	150.94
428.069	136.94
428.292	109.94
428.514	90.94
428.736	74.94
428.958	82.94
429.181	97.94
429.403	75.94
429.625	93.94
429.847	83.94
430.069	102.94
430.292	104.94
430.514	100.94
430.736	74.94
430.958	102.94
431.18	78.94
431.402	97.94
431.624	95.94
431.846	85.94
432.068	103.94
432.29	75.94
432.512	96.94
432.734	80.94
432.956	94.94
433.178	97.94
433.4	107.94
433.622	95.94
433.844	99.94
434.066	95.94
434.287	84.94
434.509	83.94
434.731	90.94
434.953	93.94
435.175	90.94
435.397	88.94
435.618	90.94
435.84	109.94
436.062	105.94
436.284	115.94
436.505	111.94
436.727	105.94
436.949	93.94
437.17	95.94
437.392	87.94
437.614	101.94
437.835	108.94
438.057	125.94
438.278	119.94
438.5	106.94
438.721	108.94
438.943	99.94
439.165	92.94
439.386	94.94
439.608	97.94
439.829	114.94
440.05	121.94
440.272	146.94
440.493	105.94
440.715	103.94
440.936	91.94
441.158	76.94
441.379	87.94
441.6	99.94
441.822	87.94
442.043	102.94
442.264	93.94
442.486	115.94
442.707	102.94
442.928	122.94
443.149	154.94
443.371	134.94
443.592	119.94
443.813	114.94
444.034	108.94
444.255	104.94
444.476	87.94
444.698	86.94
444.919	95.94
445.14	139.94
445.361	139.94
445.582	124.94
445.803	131.94
446.024	140.94
446.245	138.94
446.466	104.94
446.687	87.94
446.908	92.94
447.129	75.94
447.35	84.94
447.571	98.94
447.792	87.94
448.013	112.94
448.234	111.94
448.455	111.94
448.675	104.94
448.896	112.94
449.117	107.94
449.338	102.94
449.559	126.94
449.779	122.94
450	91.94
450.221	83.94
450.442	88.94
450.662	106.94
450.883	115.94
451.104	117.94
451.324	117.94
451.545	84.94
451.766	86.94
451.986	89.94
452.207	86.94
452.428	93.94
452.648	112.94
452.869	118.94
453.089	116.94
453.31	144.94
453.53	109.94
453.751	97.94
453.971	99.94
454.192	112.94
454.412	87.94
454.633	85.94
454.853	94.94
455.073	84.94
455.294	87.94
455.514	104.94
455.734	94.94
455.955	78.94
456.175	81.94
456.395	97.94
456.616	90.94
456.836	105.94
457.056	82.94
457.276	90.94
457.497	78.94
457.717	91.94
457.937	93.94
458.157	86.94
458.377	103.94
458.598	109.94
458.818	175.94
459.038	173.94
459.258	129.94
459.478	101.94
459.698	84.94
459.918	77.94
460.138	84.94
460.358	104.94
460.578	92.94
460.798	92.94
461.018	100.94
461.238	92.94
461.458	84.94
461.678	86.94
461.898	98.94
462.118	84.94
462.338	86.94
462.558	73.94
462.777	77.94
462.997	84.94
463.217	83.94
463.437	99.94
463.657	85.94
463.876	90.94
464.096	92.94
464.316	93.94
464.536	91.94
464.755	88.94
464.975	109.94
465.195	169.94
465.414	187.94
465.634	115.94
465.854	95.94
466.073	84.94
466.293	81.94
466.512	83.94
466.732	78.94
466.951	92.94
467.171	95.94
467.391	99.94
467.61	122.94
467.829	116.94
468.049	157.94
468.268	207.94
468.488	116.94
468.707	86.94
468.927	82.94
469.146	91.94
469.365	78.94
469.585	89.94
469.804	102.94
470.023	110.94
470.243	104.94
470.462	103.94
470.681	120.94
470.901	88.94
471.12	92.94
471.339	91.94
471.558	94.94
471.777	114.94
471.997	125.94
472.216	244.94
472.435	475.94
472.654	163.94
472.873	106.94
473.092	84.94
473.311	85.94
473.53	86.94
473.749	80.94
473.968	94.94
474.187	115.94
474.406	98.94
474.625	92.94
474.844	80.94
475.063	79.94
475.282	90.94
475.501	99.94
475.72	107.94
475.939	90.94
476.158	80.94
476.377	85.94
476.596	88.94
476.814	93.94
477.033	93.94
477.252	106.94
477.471	93.94
477.69	103.94
477.908	103.94
478.127	80.94
478.346	78.94
478.564	96.94
478.783	90.94
479.002	104.94
479.22	99.94
479.439	111.94
479.658	109.94
479.876	100.94
480.095	99.94
480.313	99.94
480.532	104.94
480.751	130.94
480.969	264.94
481.188	754.94
481.406	524.94
481.624	129.94
481.843	91.94
482.061	90.94
482.28	89.94
482.498	88.94
482.717	100.94
482.935	79.94
483.153	84.94
483.372	91.94
483.59	87.94
483.808	90.94
484.027	87.94
484.245	74.94
484.463	90.94
484.681	83.94
484.9	104.94
485.118	80.94
485.336	99.94
485.554	77.94
485.772	115.94
485.99	96.94
486.209	98.94
486.427	112.94
486.645	102.94
486.863	123.94
487.081	104.94
487.299	101.94
487.517	87.94
487.735	88.94
487.953	90.94
488.171	101.94
488.389	89.94
488.607	90.94
488.825	93.94
489.043	79.94
489.261	87.94
489.479	94.94
489.696	84.94
489.914	91.94
490.132	68.94
490.35	90.94
490.568	100.94
490.786	92.94
491.003	78.94
491.221	83.94
491.439	88.94
491.657	99.94
491.874	91.94
492.092	101.94
492.31	95.94
492.527	94.94
492.745	100.94
492.963	100.94
493.18	92.94
493.398	90.94
493.615	94.94
493.833	111.94
494.05	95.94
494.268	90.94
494.485	92.94
494.703	94.94
494.92	101.94
495.138	93.94
495.355	86.94
495.573	84.94
495.79	96.94
496.008	90.94
496.225	104.94
496.442	103.94
496.66	102.94
496.877	88.94
497.094	98.94
497.312	81.94
497.529	72.94
497.746	76.94
497.963	79.94
498.181	86.94
498.398	83.94
498.615	109.94
498.832	103.94
499.049	87.94
499.267	95.94
499.484	96.94
499.701	110.94
499.918	105.94
500.135	95.94
500.352	87.94
500.569	87.94
500.786	86.94
501.003	87.94
501.22	87.94
501.437	92.94
501.654	117.94
501.871	103.94
502.088	91.94
502.305	84.94
502.522	98.94
502.739	94.94
502.956	86.94
503.172	93.94
503.389	102.94
503.606	103.94
503.823	103.94
504.04	102.94
504.256	94.94
504.473	98.94
504.69	95.94
504.907	101.94
505.123	82.94
505.34	88.94
505.557	86.94
505.773	89.94
505.99	75.94
506.207	99.94
506.423	77.94
506.64	89.94
506.856	82.94
507.073	82.94
507.289	90.94
507.506	86.94
507.722	109.94
507.939	112.94
508.155	106.94
508.372	88.94
508.588	106.94
508.805	104.94
509.021	90.94
509.238	102.94
509.454	99.94
509.67	103.94
509.887	111.94
510.103	143.94
510.319	238.94
510.536	828.94
510.752	2770.94
510.968	804.94
511.184	178.94
511.401	131.94
511.617	103.94
511.833	104.94
512.049	98.94
512.265	102.94
512.481	80.94
512.698	95.94
512.914	104.94
513.13	101.94
513.346	99.94
513.562	91.94
513.778	88.94
513.994	91.94
514.21	104.94
