Data from Circ_2014_H10_HRD10591_00045.txt Node
Date: Wed Jan 03 10:02:18 EST 2024
User: Yrep
Spectrometer: HR+D1059
Trigger mode: 1
Integration Time (sec): 1.000000E-1
Scans to average: 1
Electric dark correction enabled: true
Nonlinearity correction enabled: false
Boxcar width: 0
XAxis mode: Wavelengths
Number of Pixels in Spectrum: 2048
>>>>>Begin Spectral Data<<<<<
223.165	-31.06
223.4	-31.06
223.635	-31.06
223.869	-15.06
224.104	-20.06
224.338	-14.06
224.573	-7.06
224.808	-12.06
225.042	1.94
225.277	2.94
225.511	3.94
225.746	4.94
225.98	-2.06
226.215	5.94
226.449	16.94
226.683	14.94
226.918	20.94
227.152	28.94
227.387	37.94
227.621	43.94
227.856	32.94
228.09	52.94
228.324	56.94
228.559	60.94
228.793	56.94
229.027	62.94
229.262	66.94
229.496	56.94
229.73	72.94
229.964	83.94
230.199	66.94
230.433	65.94
230.667	76.94
230.901	74.94
231.136	71.94
231.37	83.94
231.604	85.94
231.838	69.94
232.072	63.94
232.306	71.94
232.541	74.94
232.775	72.94
233.009	72.94
233.243	73.94
233.477	78.94
233.711	89.94
233.945	83.94
234.179	88.94
234.413	75.94
234.647	73.94
234.881	72.94
235.115	83.94
235.349	64.94
235.583	83.94
235.817	80.94
236.051	92.94
236.285	77.94
236.519	64.94
236.753	71.94
236.987	78.94
237.221	83.94
237.455	70.94
237.689	79.94
237.922	76.94
238.156	81.94
238.39	61.94
238.624	82.94
238.858	79.94
239.091	75.94
239.325	82.94
239.559	58.94
239.793	80.94
240.027	75.94
240.26	77.94
240.494	63.94
240.728	76.94
240.961	72.94
241.195	73.94
241.429	72.94
241.662	63.94
241.896	69.94
242.13	83.94
242.363	83.94
242.597	95.94
242.83	84.94
243.064	77.94
243.298	76.94
243.531	92.94
243.765	69.94
243.998	82.94
244.232	81.94
244.465	80.94
244.699	72.94
244.932	63.94
245.166	77.94
245.399	83.94
245.633	88.94
245.866	77.94
246.099	59.94
246.333	75.94
246.566	75.94
246.8	68.94
247.033	73.94
247.266	83.94
247.5	72.94
247.733	73.94
247.966	90.94
248.2	97.94
248.433	61.94
248.666	83.94
248.899	76.94
249.133	91.94
249.366	87.94
249.599	77.94
249.832	74.94
250.066	79.94
250.299	79.94
250.532	79.94
250.765	86.94
250.998	72.94
251.231	76.94
251.465	62.94
251.698	84.94
251.931	82.94
252.164	77.94
252.397	70.94
252.63	91.94
252.863	95.94
253.096	65.94
253.329	77.94
253.562	76.94
253.795	76.94
254.028	74.94
254.261	79.94
254.494	76.94
254.727	79.94
254.96	86.94
255.193	82.94
255.426	83.94
255.659	78.94
255.892	85.94
256.124	93.94
256.357	101.94
256.59	105.94
256.823	89.94
257.056	90.94
257.289	83.94
257.521	67.94
257.754	81.94
257.987	80.94
258.22	72.94
258.452	105.94
258.685	84.94
258.918	75.94
259.151	88.94
259.383	85.94
259.616	85.94
259.849	82.94
260.081	91.94
260.314	77.94
260.547	77.94
260.779	86.94
261.012	84.94
261.244	80.94
261.477	81.94
261.71	82.94
261.942	108.94
262.175	98.94
262.407	91.94
262.64	79.94
262.872	80.94
263.105	91.94
263.337	91.94
263.57	86.94
263.802	80.94
264.035	88.94
264.267	80.94
264.499	75.94
264.732	84.94
264.964	91.94
265.197	82.94
265.429	84.94
265.661	65.94
265.894	81.94
266.126	99.94
266.358	102.94
266.591	104.94
266.823	78.94
267.055	97.94
267.287	87.94
267.52	75.94
267.752	89.94
267.984	78.94
268.216	86.94
268.448	80.94
268.681	89.94
268.913	75.94
269.145	88.94
269.377	86.94
269.609	76.94
269.841	87.94
270.073	75.94
270.306	71.94
270.538	73.94
270.77	74.94
271.002	83.94
271.234	80.94
271.466	83.94
271.698	78.94
271.93	84.94
272.162	87.94
272.394	80.94
272.626	87.94
272.858	97.94
273.09	76.94
273.322	75.94
273.553	92.94
273.785	80.94
274.017	84.94
274.249	90.94
274.481	85.94
274.713	80.94
274.945	87.94
275.176	75.94
275.408	90.94
275.64	101.94
275.872	86.94
276.104	83.94
276.335	101.94
276.567	97.94
276.799	113.94
277.031	120.94
277.262	85.94
277.494	83.94
277.726	76.94
277.957	89.94
278.189	92.94
278.421	87.94
278.652	90.94
278.884	83.94
279.115	83.94
279.347	79.94
279.579	86.94
279.81	88.94
280.042	83.94
280.273	90.94
280.505	88.94
280.736	88.94
280.968	87.94
281.199	84.94
281.431	87.94
281.662	73.94
281.894	84.94
282.125	93.94
282.356	105.94
282.588	141.94
282.819	115.94
283.051	88.94
283.282	86.94
283.513	74.94
283.745	87.94
283.976	97.94
284.207	95.94
284.439	89.94
284.67	88.94
284.901	93.94
285.132	95.94
285.364	84.94
285.595	95.94
285.826	82.94
286.057	82.94
286.288	90.94
286.52	76.94
286.751	90.94
286.982	89.94
287.213	89.94
287.444	91.94
287.675	88.94
287.906	91.94
288.138	96.94
288.369	98.94
288.6	89.94
288.831	84.94
289.062	87.94
289.293	81.94
289.524	81.94
289.755	88.94
289.986	93.94
290.217	86.94
290.448	92.94
290.679	84.94
290.91	86.94
291.141	70.94
291.371	92.94
291.602	107.94
291.833	72.94
292.064	86.94
292.295	91.94
292.526	87.94
292.757	98.94
292.987	85.94
293.218	79.94
293.449	96.94
293.68	87.94
293.91	94.94
294.141	82.94
294.372	71.94
294.603	74.94
294.833	82.94
295.064	97.94
295.295	90.94
295.525	100.94
295.756	101.94
295.987	89.94
296.217	113.94
296.448	118.94
296.679	89.94
296.909	95.94
297.14	91.94
297.37	76.94
297.601	89.94
297.831	81.94
298.062	92.94
298.292	76.94
298.523	88.94
298.753	87.94
298.984	88.94
299.214	82.94
299.445	94.94
299.675	87.94
299.905	104.94
300.136	86.94
300.366	90.94
300.597	88.94
300.827	75.94
301.057	82.94
301.288	89.94
301.518	98.94
301.748	91.94
301.979	94.94
302.209	87.94
302.439	87.94
302.669	87.94
302.9	83.94
303.13	82.94
303.36	95.94
303.59	94.94
303.82	106.94
304.051	85.94
304.281	109.94
304.511	96.94
304.741	99.94
304.971	84.94
305.201	100.94
305.431	82.94
305.661	103.94
305.891	81.94
306.121	80.94
306.352	101.94
306.582	102.94
306.812	93.94
307.042	81.94
307.272	89.94
307.502	84.94
307.731	92.94
307.961	87.94
308.191	89.94
308.421	82.94
308.651	91.94
308.881	87.94
309.111	77.94
309.341	88.94
309.571	85.94
309.8	92.94
310.03	91.94
310.26	103.94
310.49	88.94
310.72	104.94
310.949	93.94
311.179	88.94
311.409	85.94
311.639	76.94
311.868	91.94
312.098	111.94
312.328	86.94
312.557	104.94
312.787	109.94
313.017	82.94
313.246	100.94
313.476	89.94
313.706	87.94
313.935	92.94
314.165	91.94
314.394	96.94
314.624	92.94
314.853	112.94
315.083	90.94
315.312	97.94
315.542	89.94
315.771	73.94
316.001	88.94
316.23	82.94
316.46	92.94
316.689	83.94
316.919	91.94
317.148	89.94
317.377	77.94
317.607	82.94
317.836	91.94
318.065	87.94
318.295	94.94
318.524	82.94
318.753	81.94
318.983	92.94
319.212	105.94
319.441	98.94
319.67	104.94
319.9	90.94
320.129	91.94
320.358	100.94
320.587	84.94
320.816	98.94
321.046	93.94
321.275	100.94
321.504	102.94
321.733	94.94
321.962	97.94
322.191	89.94
322.42	118.94
322.649	98.94
322.878	105.94
323.108	116.94
323.337	119.94
323.566	123.94
323.795	137.94
324.024	192.94
324.253	365.94
324.482	700.94
324.71	1446.94
324.939	1873.94
325.168	719.94
325.397	223.94
325.626	134.94
325.855	137.94
326.084	131.94
326.313	131.94
326.542	135.94
326.77	196.94
326.999	395.94
327.228	805.94
327.457	1426.94
327.686	1129.94
327.914	342.94
328.143	197.94
328.372	132.94
328.6	104.94
328.829	115.94
329.058	110.94
329.287	105.94
329.515	103.94
329.744	83.94
329.972	95.94
330.201	118.94
330.43	108.94
330.658	113.94
330.887	133.94
331.115	113.94
331.344	110.94
331.572	109.94
331.801	99.94
332.03	86.94
332.258	90.94
332.486	89.94
332.715	72.94
332.943	100.94
333.172	91.94
333.4	92.94
333.629	106.94
333.857	106.94
334.085	107.94
334.314	121.94
334.542	123.94
334.771	135.94
334.999	111.94
335.227	99.94
335.455	91.94
335.684	92.94
335.912	103.94
336.14	90.94
336.369	78.94
336.597	86.94
336.825	92.94
337.053	84.94
337.281	99.94
337.51	94.94
337.738	110.94
337.966	99.94
338.194	86.94
338.422	91.94
338.65	104.94
338.878	101.94
339.106	84.94
339.334	101.94
339.562	89.94
339.79	84.94
340.018	96.94
340.246	91.94
340.474	90.94
340.702	84.94
340.93	97.94
341.158	92.94
341.386	100.94
341.614	79.94
341.842	79.94
342.07	87.94
342.298	92.94
342.526	75.94
342.754	99.94
342.981	100.94
343.209	98.94
343.437	93.94
343.665	81.94
343.893	82.94
344.12	88.94
344.348	77.94
344.576	75.94
344.804	97.94
345.031	101.94
345.259	91.94
345.487	73.94
345.714	90.94
345.942	93.94
346.17	91.94
346.397	86.94
346.625	87.94
346.853	101.94
347.08	96.94
347.308	95.94
347.535	94.94
347.763	85.94
347.99	105.94
348.218	86.94
348.445	102.94
348.673	94.94
348.9	81.94
349.128	92.94
349.355	96.94
349.583	74.94
349.81	86.94
350.037	90.94
350.265	81.94
350.492	91.94
350.72	92.94
350.947	84.94
351.174	90.94
351.402	112.94
351.629	94.94
351.856	95.94
352.083	115.94
352.311	95.94
352.538	93.94
352.765	86.94
352.992	114.94
353.22	107.94
353.447	96.94
353.674	100.94
353.901	99.94
354.128	93.94
354.355	98.94
354.583	93.94
354.81	107.94
355.037	100.94
355.264	92.94
355.491	103.94
355.718	108.94
355.945	104.94
356.172	93.94
356.399	76.94
356.626	84.94
356.853	84.94
357.08	89.94
357.307	92.94
357.534	90.94
357.761	100.94
357.988	85.94
358.215	87.94
358.441	94.94
358.668	85.94
358.895	71.94
359.122	100.94
359.349	84.94
359.576	95.94
359.802	92.94
360.029	101.94
360.256	98.94
360.483	102.94
360.709	91.94
360.936	88.94
361.163	107.94
361.39	93.94
361.616	96.94
361.843	87.94
362.07	90.94
362.296	99.94
362.523	89.94
362.749	88.94
362.976	83.94
363.203	84.94
363.429	82.94
363.656	80.94
363.882	81.94
364.109	88.94
364.335	84.94
364.562	95.94
364.788	97.94
365.015	89.94
365.241	111.94
365.468	110.94
365.694	96.94
365.92	112.94
366.147	95.94
366.373	77.94
366.599	89.94
366.826	90.94
367.052	84.94
367.278	90.94
367.505	87.94
367.731	93.94
367.957	83.94
368.184	87.94
368.41	87.94
368.636	114.94
368.862	112.94
369.089	99.94
369.315	81.94
369.541	92.94
369.767	88.94
369.993	90.94
370.219	103.94
370.445	96.94
370.672	79.94
370.898	76.94
371.124	90.94
371.35	85.94
371.576	83.94
371.802	80.94
372.028	72.94
372.254	78.94
372.48	80.94
372.706	70.94
372.932	84.94
373.158	78.94
373.384	84.94
373.61	79.94
373.835	76.94
374.061	88.94
374.287	94.94
374.513	79.94
374.739	92.94
374.965	90.94
375.191	92.94
375.416	80.94
375.642	82.94
375.868	84.94
376.094	88.94
376.319	73.94
376.545	93.94
376.771	98.94
376.997	85.94
377.222	81.94
377.448	87.94
377.674	81.94
377.899	84.94
378.125	83.94
378.35	83.94
378.576	74.94
378.802	80.94
379.027	91.94
379.253	74.94
379.478	90.94
379.704	94.94
379.929	97.94
380.155	101.94
380.38	92.94
380.606	88.94
380.831	94.94
381.057	88.94
381.282	90.94
381.507	93.94
381.733	93.94
381.958	98.94
382.184	92.94
382.409	107.94
382.634	92.94
382.86	91.94
383.085	88.94
383.31	89.94
383.535	100.94
383.761	109.94
383.986	93.94
384.211	89.94
384.436	96.94
384.662	113.94
384.887	104.94
385.112	95.94
385.337	104.94
385.562	105.94
385.787	123.94
386.013	107.94
386.238	119.94
386.463	110.94
386.688	114.94
386.913	86.94
387.138	104.94
387.363	106.94
387.588	99.94
387.813	87.94
388.038	95.94
388.263	107.94
388.488	91.94
388.713	108.94
388.938	96.94
389.163	100.94
389.387	101.94
389.612	95.94
389.837	80.94
390.062	94.94
390.287	79.94
390.512	89.94
390.736	99.94
390.961	92.94
391.186	77.94
391.411	90.94
391.636	77.94
391.86	79.94
392.085	89.94
392.31	95.94
392.534	82.94
392.759	82.94
392.984	85.94
393.208	91.94
393.433	91.94
393.658	87.94
393.882	81.94
394.107	76.94
394.331	75.94
394.556	87.94
394.78	101.94
395.005	76.94
395.229	72.94
395.454	81.94
395.678	69.94
395.903	92.94
396.127	71.94
396.352	93.94
396.576	85.94
396.801	86.94
397.025	91.94
397.249	72.94
397.474	88.94
397.698	87.94
397.922	93.94
398.147	89.94
398.371	76.94
398.595	77.94
398.82	92.94
399.044	74.94
399.268	68.94
399.492	80.94
399.717	79.94
399.941	82.94
400.165	86.94
400.389	94.94
400.613	72.94
400.837	64.94
401.062	73.94
401.286	82.94
401.51	87.94
401.734	90.94
401.958	103.94
402.182	130.94
402.406	137.94
402.63	112.94
402.854	82.94
403.078	95.94
403.302	76.94
403.526	82.94
403.75	85.94
403.974	91.94
404.198	90.94
404.422	77.94
404.645	88.94
404.869	76.94
405.093	88.94
405.317	108.94
405.541	88.94
405.765	83.94
405.988	111.94
406.212	170.94
406.436	234.94
406.66	136.94
406.883	100.94
407.107	101.94
407.331	93.94
407.555	97.94
407.778	89.94
408.002	75.94
408.226	106.94
408.449	81.94
408.673	72.94
408.896	97.94
409.12	93.94
409.344	93.94
409.567	103.94
409.791	108.94
410.014	81.94
410.238	92.94
410.461	79.94
410.685	88.94
410.908	96.94
411.132	98.94
411.355	94.94
411.578	106.94
411.802	66.94
412.025	83.94
412.249	92.94
412.472	87.94
412.695	87.94
412.919	94.94
413.142	76.94
413.365	76.94
413.589	88.94
413.812	77.94
414.035	83.94
414.258	96.94
414.482	88.94
414.705	85.94
414.928	96.94
415.151	99.94
415.374	88.94
415.597	84.94
415.821	75.94
416.044	83.94
416.267	95.94
416.49	85.94
416.713	97.94
416.936	91.94
417.159	95.94
417.382	88.94
417.605	84.94
417.828	85.94
418.051	86.94
418.274	84.94
418.497	92.94
418.72	84.94
418.943	83.94
419.166	76.94
419.389	80.94
419.611	91.94
419.834	80.94
420.057	82.94
420.28	76.94
420.503	82.94
420.726	89.94
420.948	83.94
421.171	85.94
421.394	76.94
421.617	79.94
421.839	73.94
422.062	76.94
422.285	86.94
422.507	99.94
422.73	91.94
422.953	87.94
423.175	84.94
423.398	82.94
423.621	85.94
423.843	77.94
424.066	88.94
424.288	93.94
424.511	91.94
424.733	92.94
424.956	92.94
425.178	90.94
425.401	84.94
425.623	91.94
425.846	80.94
426.068	93.94
426.291	91.94
426.513	109.94
426.735	91.94
426.958	97.94
427.18	88.94
427.402	117.94
427.625	139.94
427.847	140.94
428.069	104.94
428.292	83.94
428.514	92.94
428.736	79.94
428.958	81.94
429.181	66.94
429.403	77.94
429.625	85.94
429.847	89.94
430.069	82.94
430.292	98.94
430.514	82.94
430.736	87.94
430.958	81.94
431.18	87.94
431.402	66.94
431.624	88.94
431.846	73.94
432.068	91.94
432.29	90.94
432.512	95.94
432.734	91.94
432.956	94.94
433.178	86.94
433.4	90.94
433.622	96.94
433.844	80.94
434.066	92.94
434.287	96.94
434.509	96.94
434.731	100.94
434.953	104.94
435.175	70.94
435.397	81.94
435.618	86.94
435.84	97.94
436.062	106.94
436.284	107.94
436.505	97.94
436.727	94.94
436.949	94.94
437.17	84.94
437.392	91.94
437.614	92.94
437.835	98.94
438.057	101.94
438.278	91.94
438.5	97.94
438.721	101.94
438.943	101.94
439.165	86.94
439.386	78.94
439.608	81.94
439.829	83.94
440.05	109.94
440.272	129.94
440.493	93.94
440.715	71.94
440.936	83.94
441.158	80.94
441.379	90.94
441.6	98.94
441.822	75.94
442.043	90.94
442.264	87.94
442.486	99.94
442.707	105.94
442.928	88.94
443.149	111.94
443.371	117.94
443.592	90.94
443.813	106.94
444.034	100.94
444.255	104.94
444.476	87.94
444.698	71.94
444.919	84.94
445.14	140.94
445.361	120.94
445.582	98.94
445.803	132.94
446.024	113.94
446.245	118.94
446.466	102.94
446.687	92.94
446.908	82.94
447.129	85.94
447.35	77.94
447.571	87.94
447.792	104.94
448.013	103.94
448.234	104.94
448.455	95.94
448.675	100.94
448.896	112.94
449.117	86.94
449.338	104.94
449.559	99.94
449.779	113.94
450	81.94
450.221	87.94
450.442	78.94
450.662	82.94
450.883	89.94
451.104	96.94
451.324	104.94
451.545	83.94
451.766	80.94
451.986	78.94
452.207	77.94
452.428	85.94
452.648	99.94
452.869	112.94
453.089	111.94
453.31	112.94
453.53	90.94
453.751	85.94
453.971	98.94
454.192	108.94
454.412	92.94
454.633	101.94
454.853	96.94
455.073	95.94
455.294	106.94
455.514	84.94
455.734	93.94
455.955	94.94
456.175	81.94
456.395	88.94
456.616	82.94
456.836	83.94
457.056	88.94
457.276	87.94
457.497	83.94
457.717	80.94
457.937	89.94
458.157	78.94
458.377	90.94
458.598	112.94
458.818	147.94
459.038	156.94
459.258	103.94
459.478	75.94
459.698	74.94
459.918	94.94
460.138	75.94
460.358	81.94
460.578	82.94
460.798	81.94
461.018	77.94
461.238	84.94
461.458	87.94
461.678	75.94
461.898	79.94
462.118	93.94
462.338	92.94
462.558	89.94
462.777	81.94
462.997	96.94
463.217	83.94
463.437	77.94
463.657	83.94
463.876	86.94
464.096	90.94
464.316	89.94
464.536	83.94
464.755	97.94
464.975	94.94
465.195	162.94
465.414	150.94
465.634	87.94
465.854	83.94
466.073	81.94
466.293	79.94
466.512	91.94
466.732	96.94
466.951	83.94
467.171	82.94
467.391	96.94
467.61	94.94
467.829	88.94
468.049	93.94
468.268	91.94
468.488	99.94
468.707	91.94
468.927	87.94
469.146	83.94
469.365	87.94
469.585	97.94
469.804	84.94
470.023	100.94
470.243	77.94
470.462	91.94
470.681	108.94
470.901	90.94
471.12	83.94
471.339	92.94
471.558	86.94
471.777	92.94
471.997	94.94
472.216	107.94
472.435	147.94
472.654	100.94
472.873	82.94
473.092	92.94
473.311	74.94
473.53	89.94
473.749	77.94
473.968	87.94
474.187	88.94
474.406	80.94
474.625	83.94
474.844	77.94
475.063	89.94
475.282	72.94
475.501	95.94
475.72	90.94
475.939	82.94
476.158	88.94
476.377	91.94
476.596	99.94
476.814	80.94
477.033	87.94
477.252	79.94
477.471	87.94
477.69	99.94
477.908	77.94
478.127	89.94
478.346	94.94
478.564	69.94
478.783	81.94
479.002	90.94
479.22	96.94
479.439	91.94
479.658	101.94
479.876	95.94
480.095	89.94
480.313	93.94
480.532	94.94
480.751	80.94
480.969	127.94
481.188	196.94
481.406	148.94
481.624	101.94
481.843	83.94
482.061	90.94
482.28	106.94
482.498	100.94
482.717	64.94
482.935	75.94
483.153	96.94
483.372	95.94
483.59	85.94
483.808	71.94
484.027	84.94
484.245	98.94
484.463	91.94
484.681	99.94
484.9	101.94
485.118	88.94
485.336	102.94
485.554	107.94
485.772	84.94
485.99	95.94
486.209	96.94
486.427	91.94
486.645	102.94
486.863	104.94
487.081	99.94
487.299	106.94
487.517	86.94
487.735	92.94
487.953	100.94
488.171	84.94
488.389	98.94
488.607	84.94
488.825	91.94
489.043	95.94
489.261	82.94
489.479	89.94
489.696	77.94
489.914	84.94
490.132	91.94
490.35	91.94
490.568	96.94
490.786	100.94
491.003	89.94
491.221	82.94
491.439	82.94
491.657	92.94
491.874	96.94
492.092	74.94
492.31	83.94
492.527	101.94
492.745	89.94
492.963	92.94
493.18	87.94
493.398	77.94
493.615	77.94
493.833	96.94
494.05	83.94
494.268	89.94
494.485	84.94
494.703	87.94
494.92	77.94
495.138	79.94
495.355	93.94
495.573	89.94
495.79	76.94
496.008	90.94
496.225	87.94
496.442	82.94
496.66	96.94
496.877	74.94
497.094	81.94
497.312	79.94
497.529	84.94
497.746	89.94
497.963	93.94
498.181	85.94
498.398	89.94
498.615	103.94
498.832	100.94
499.049	85.94
499.267	90.94
499.484	95.94
499.701	83.94
499.918	85.94
500.135	96.94
500.352	85.94
500.569	95.94
500.786	77.94
501.003	88.94
501.22	84.94
501.437	80.94
501.654	81.94
501.871	89.94
502.088	98.94
502.305	104.94
502.522	83.94
502.739	84.94
502.956	92.94
503.172	78.94
503.389	88.94
503.606	97.94
503.823	93.94
504.04	95.94
504.256	87.94
504.473	76.94
504.69	81.94
504.907	79.94
505.123	84.94
505.34	71.94
505.557	85.94
505.773	92.94
505.99	95.94
506.207	90.94
506.423	90.94
506.64	84.94
506.856	78.94
507.073	82.94
507.289	83.94
507.506	94.94
507.722	105.94
507.939	105.94
508.155	95.94
508.372	95.94
508.588	80.94
508.805	94.94
509.021	100.94
509.238	113.94
509.454	100.94
509.67	102.94
509.887	104.94
510.103	131.94
510.319	205.94
510.536	758.94
510.752	2463.94
510.968	711.94
511.184	167.94
511.401	117.94
511.617	113.94
511.833	89.94
512.049	86.94
512.265	91.94
512.481	87.94
512.698	87.94
512.914	92.94
513.13	85.94
513.346	86.94
513.562	102.94
513.778	88.94
513.994	106.94
514.21	100.94
514.426	134.94
514.642	129.94
514.858	116.94
515.074	163.94
515.29	434.94
515.506	1459.94
515.721	563.94
515.937	164.94
516.153	90.94
516.369	111.94
516.585	91.94
