Data from Circ_2014_H10_HRD10591_00036.txt Node
Date: Wed Jan 03 10:02:16 EST 2024
User: Yrep
Spectrometer: HR+D1059
Trigger mode: 1
Integration Time (sec): 1.000000E-1
Scans to average: 1
Electric dark correction enabled: true
Nonlinearity correction enabled: false
Boxcar width: 0
XAxis mode: Wavelengths
Number of Pixels in Spectrum: 2048
>>>>>Begin Spectral Data<<<<<
223.165	-16.06
223.4	-16.06
223.635	-16.06
223.869	-12.06
224.104	-10.06
224.338	-5.06
224.573	-18.06
224.808	-10.06
225.042	-21.06
225.277	-12.06
225.511	-7.06
225.746	-4.06
225.98	2.94
226.215	9.94
226.449	23.94
226.683	13.94
226.918	33.94
227.152	30.94
227.387	37.94
227.621	27.94
227.856	37.94
228.09	50.94
228.324	48.94
228.559	57.94
228.793	60.94
229.027	55.94
229.262	61.94
229.496	74.94
229.73	86.94
229.964	96.94
230.199	78.94
230.433	74.94
230.667	70.94
230.901	78.94
231.136	72.94
231.37	88.94
231.604	78.94
231.838	73.94
232.072	70.94
232.306	75.94
232.541	65.94
232.775	82.94
233.009	80.94
233.243	65.94
233.477	75.94
233.711	84.94
233.945	94.94
234.179	80.94
234.413	68.94
234.647	86.94
234.881	76.94
235.115	78.94
235.349	70.94
235.583	82.94
235.817	75.94
236.051	72.94
236.285	78.94
236.519	77.94
236.753	86.94
236.987	73.94
237.221	88.94
237.455	86.94
237.689	85.94
237.922	82.94
238.156	77.94
238.39	81.94
238.624	74.94
238.858	85.94
239.091	69.94
239.325	60.94
239.559	71.94
239.793	69.94
240.027	75.94
240.26	71.94
240.494	69.94
240.728	64.94
240.961	75.94
241.195	79.94
241.429	80.94
241.662	64.94
241.896	83.94
242.13	89.94
242.363	66.94
242.597	79.94
242.83	73.94
243.064	67.94
243.298	81.94
243.531	78.94
243.765	67.94
243.998	62.94
244.232	71.94
244.465	66.94
244.699	99.94
244.932	82.94
245.166	79.94
245.399	75.94
245.633	73.94
245.866	77.94
246.099	64.94
246.333	82.94
246.566	71.94
246.8	79.94
247.033	73.94
247.266	77.94
247.5	70.94
247.733	73.94
247.966	77.94
248.2	89.94
248.433	62.94
248.666	80.94
248.899	89.94
249.133	86.94
249.366	75.94
249.599	104.94
249.832	83.94
250.066	79.94
250.299	83.94
250.532	80.94
250.765	67.94
250.998	77.94
251.231	73.94
251.465	77.94
251.698	80.94
251.931	76.94
252.164	73.94
252.397	76.94
252.63	67.94
252.863	83.94
253.096	76.94
253.329	83.94
253.562	60.94
253.795	76.94
254.028	68.94
254.261	69.94
254.494	87.94
254.727	85.94
254.96	81.94
255.193	67.94
255.426	72.94
255.659	74.94
255.892	84.94
256.124	84.94
256.357	86.94
256.59	69.94
256.823	68.94
257.056	67.94
257.289	72.94
257.521	87.94
257.754	78.94
257.987	72.94
258.22	82.94
258.452	75.94
258.685	75.94
258.918	74.94
259.151	75.94
259.383	70.94
259.616	81.94
259.849	70.94
260.081	76.94
260.314	79.94
260.547	70.94
260.779	75.94
261.012	74.94
261.244	84.94
261.477	73.94
261.71	114.94
261.942	112.94
262.175	117.94
262.407	82.94
262.64	71.94
262.872	78.94
263.105	89.94
263.337	79.94
263.57	82.94
263.802	88.94
264.035	90.94
264.267	79.94
264.499	82.94
264.732	95.94
264.964	77.94
265.197	79.94
265.429	72.94
265.661	98.94
265.894	81.94
266.126	70.94
266.358	74.94
266.591	77.94
266.823	79.94
267.055	86.94
267.287	79.94
267.52	85.94
267.752	73.94
267.984	89.94
268.216	70.94
268.448	82.94
268.681	87.94
268.913	82.94
269.145	77.94
269.377	77.94
269.609	67.94
269.841	72.94
270.073	76.94
270.306	72.94
270.538	71.94
270.77	77.94
271.002	71.94
271.234	83.94
271.466	88.94
271.698	96.94
271.93	88.94
272.162	78.94
272.394	91.94
272.626	86.94
272.858	77.94
273.09	85.94
273.322	84.94
273.553	78.94
273.785	81.94
274.017	86.94
274.249	84.94
274.481	73.94
274.713	80.94
274.945	83.94
275.176	78.94
275.408	73.94
275.64	84.94
275.872	83.94
276.104	78.94
276.335	81.94
276.567	110.94
276.799	97.94
277.031	84.94
277.262	97.94
277.494	94.94
277.726	68.94
277.957	68.94
278.189	79.94
278.421	79.94
278.652	82.94
278.884	75.94
279.115	78.94
279.347	78.94
279.579	85.94
279.81	74.94
280.042	84.94
280.273	95.94
280.505	89.94
280.736	81.94
280.968	84.94
281.199	84.94
281.431	81.94
281.662	89.94
281.894	93.94
282.125	93.94
282.356	103.94
282.588	151.94
282.819	109.94
283.051	82.94
283.282	77.94
283.513	79.94
283.745	86.94
283.976	87.94
284.207	88.94
284.439	84.94
284.67	89.94
284.901	84.94
285.132	69.94
285.364	82.94
285.595	79.94
285.826	83.94
286.057	83.94
286.288	70.94
286.52	89.94
286.751	78.94
286.982	92.94
287.213	98.94
287.444	97.94
287.675	89.94
287.906	79.94
288.138	74.94
288.369	98.94
288.6	88.94
288.831	84.94
289.062	72.94
289.293	103.94
289.524	86.94
289.755	79.94
289.986	76.94
290.217	89.94
290.448	88.94
290.679	91.94
290.91	92.94
291.141	84.94
291.371	75.94
291.602	89.94
291.833	84.94
292.064	83.94
292.295	87.94
292.526	76.94
292.757	77.94
292.987	100.94
293.218	78.94
293.449	93.94
293.68	83.94
293.91	85.94
294.141	92.94
294.372	84.94
294.603	80.94
294.833	89.94
295.064	84.94
295.295	88.94
295.525	98.94
295.756	101.94
295.987	114.94
296.217	156.94
296.448	134.94
296.679	97.94
296.909	82.94
297.14	88.94
297.37	84.94
297.601	79.94
297.831	74.94
298.062	87.94
298.292	89.94
298.523	84.94
298.753	82.94
298.984	72.94
299.214	68.94
299.445	91.94
299.675	103.94
299.905	87.94
300.136	95.94
300.366	83.94
300.597	91.94
300.827	92.94
301.057	91.94
301.288	89.94
301.518	86.94
301.748	89.94
301.979	96.94
302.209	86.94
302.439	89.94
302.669	82.94
302.9	77.94
303.13	85.94
303.36	88.94
303.59	96.94
303.82	89.94
304.051	92.94
304.281	84.94
304.511	93.94
304.741	93.94
304.971	82.94
305.201	89.94
305.431	66.94
305.661	77.94
305.891	90.94
306.121	89.94
306.352	89.94
306.582	93.94
306.812	105.94
307.042	87.94
307.272	101.94
307.502	93.94
307.731	90.94
307.961	90.94
308.191	83.94
308.421	84.94
308.651	85.94
308.881	91.94
309.111	83.94
309.341	96.94
309.571	113.94
309.8	89.94
310.03	82.94
310.26	90.94
310.49	89.94
310.72	99.94
310.949	104.94
311.179	93.94
311.409	91.94
311.639	90.94
311.868	90.94
312.098	99.94
312.328	101.94
312.557	95.94
312.787	111.94
313.017	96.94
313.246	106.94
313.476	88.94
313.706	98.94
313.935	97.94
314.165	93.94
314.394	90.94
314.624	76.94
314.853	89.94
315.083	89.94
315.312	77.94
315.542	96.94
315.771	90.94
316.001	85.94
316.23	88.94
316.46	82.94
316.689	80.94
316.919	91.94
317.148	92.94
317.377	99.94
317.607	103.94
317.836	89.94
318.065	95.94
318.295	90.94
318.524	77.94
318.753	91.94
318.983	91.94
319.212	93.94
319.441	122.94
319.67	107.94
319.9	96.94
320.129	86.94
320.358	104.94
320.587	93.94
320.816	95.94
321.046	104.94
321.275	103.94
321.504	91.94
321.733	78.94
321.962	88.94
322.191	102.94
322.42	111.94
322.649	101.94
322.878	114.94
323.108	114.94
323.337	123.94
323.566	138.94
323.795	145.94
324.024	200.94
324.253	426.94
324.482	905.94
324.71	1840.94
324.939	2393.94
325.168	897.94
325.397	260.94
325.626	161.94
325.855	161.94
326.084	116.94
326.313	136.94
326.542	161.94
326.77	230.94
326.999	480.94
327.228	1001.94
327.457	1821.94
327.686	1451.94
327.914	401.94
328.143	206.94
328.372	164.94
328.6	118.94
328.829	112.94
329.058	122.94
329.287	130.94
329.515	110.94
329.744	106.94
329.972	106.94
330.201	112.94
330.43	139.94
330.658	143.94
330.887	178.94
331.115	126.94
331.344	100.94
331.572	84.94
331.801	89.94
332.03	101.94
332.258	83.94
332.486	99.94
332.715	85.94
332.943	98.94
333.172	97.94
333.4	80.94
333.629	126.94
333.857	112.94
334.085	113.94
334.314	100.94
334.542	112.94
334.771	116.94
334.999	95.94
335.227	76.94
335.455	93.94
335.684	103.94
335.912	105.94
336.14	94.94
336.369	77.94
336.597	98.94
336.825	100.94
337.053	97.94
337.281	93.94
337.51	83.94
337.738	90.94
337.966	90.94
338.194	92.94
338.422	85.94
338.65	88.94
338.878	88.94
339.106	95.94
339.334	87.94
339.562	87.94
339.79	96.94
340.018	86.94
340.246	91.94
340.474	88.94
340.702	75.94
340.93	96.94
341.158	89.94
341.386	88.94
341.614	99.94
341.842	81.94
342.07	88.94
342.298	83.94
342.526	83.94
342.754	99.94
342.981	83.94
343.209	84.94
343.437	90.94
343.665	84.94
343.893	83.94
344.12	86.94
344.348	66.94
344.576	88.94
344.804	90.94
345.031	95.94
345.259	93.94
345.487	93.94
345.714	83.94
345.942	87.94
346.17	81.94
346.397	83.94
346.625	94.94
346.853	102.94
347.08	94.94
347.308	102.94
347.535	99.94
347.763	99.94
347.99	98.94
348.218	102.94
348.445	94.94
348.673	96.94
348.9	102.94
349.128	88.94
349.355	74.94
349.583	94.94
349.81	103.94
350.037	82.94
350.265	73.94
350.492	98.94
350.72	93.94
350.947	108.94
351.174	88.94
351.402	101.94
351.629	83.94
351.856	100.94
352.083	101.94
352.311	101.94
352.538	110.94
352.765	120.94
352.992	116.94
353.22	96.94
353.447	107.94
353.674	98.94
353.901	102.94
354.128	91.94
354.355	82.94
354.583	95.94
354.81	100.94
355.037	99.94
355.264	87.94
355.491	91.94
355.718	89.94
355.945	95.94
356.172	84.94
356.399	98.94
356.626	98.94
356.853	88.94
357.08	80.94
357.307	92.94
357.534	102.94
357.761	92.94
357.988	83.94
358.215	79.94
358.441	91.94
358.668	97.94
358.895	82.94
359.122	81.94
359.349	79.94
359.576	82.94
359.802	91.94
360.029	109.94
360.256	112.94
360.483	82.94
360.709	96.94
360.936	87.94
361.163	92.94
361.39	97.94
361.616	88.94
361.843	83.94
362.07	90.94
362.296	90.94
362.523	95.94
362.749	92.94
362.976	82.94
363.203	97.94
363.429	85.94
363.656	95.94
363.882	95.94
364.109	93.94
364.335	80.94
364.562	83.94
364.788	90.94
365.015	102.94
365.241	78.94
365.468	89.94
365.694	103.94
365.92	88.94
366.147	102.94
366.373	91.94
366.599	105.94
366.826	95.94
367.052	98.94
367.278	83.94
367.505	86.94
367.731	93.94
367.957	93.94
368.184	90.94
368.41	101.94
368.636	115.94
368.862	110.94
369.089	116.94
369.315	94.94
369.541	95.94
369.767	91.94
369.993	96.94
370.219	84.94
370.445	83.94
370.672	84.94
370.898	70.94
371.124	92.94
371.35	84.94
371.576	81.94
371.802	95.94
372.028	77.94
372.254	75.94
372.48	75.94
372.706	88.94
372.932	80.94
373.158	75.94
373.384	80.94
373.61	94.94
373.835	83.94
374.061	84.94
374.287	85.94
374.513	79.94
374.739	88.94
374.965	87.94
375.191	77.94
375.416	82.94
375.642	79.94
375.868	82.94
376.094	84.94
376.319	89.94
376.545	75.94
376.771	85.94
376.997	78.94
377.222	98.94
377.448	90.94
377.674	89.94
377.899	93.94
378.125	90.94
378.35	78.94
378.576	78.94
378.802	75.94
379.027	80.94
379.253	68.94
379.478	87.94
379.704	95.94
379.929	99.94
380.155	97.94
380.38	95.94
380.606	89.94
380.831	87.94
381.057	95.94
381.282	90.94
381.507	90.94
381.733	89.94
381.958	99.94
382.184	91.94
382.409	105.94
382.634	99.94
382.86	99.94
383.085	97.94
383.31	105.94
383.535	84.94
383.761	96.94
383.986	111.94
384.211	95.94
384.436	98.94
384.662	96.94
384.887	107.94
385.112	105.94
385.337	104.94
385.562	90.94
385.787	102.94
386.013	109.94
386.238	96.94
386.463	113.94
386.688	114.94
386.913	122.94
387.138	110.94
387.363	90.94
387.588	101.94
387.813	105.94
388.038	103.94
388.263	120.94
388.488	89.94
388.713	96.94
388.938	81.94
389.163	98.94
389.387	75.94
389.612	94.94
389.837	82.94
390.062	90.94
390.287	91.94
390.512	88.94
390.736	88.94
390.961	97.94
391.186	103.94
391.411	96.94
391.636	82.94
391.86	81.94
392.085	84.94
392.31	84.94
392.534	78.94
392.759	76.94
392.984	79.94
393.208	87.94
393.433	80.94
393.658	89.94
393.882	67.94
394.107	80.94
394.331	89.94
394.556	76.94
394.78	74.94
395.005	83.94
395.229	81.94
395.454	89.94
395.678	77.94
395.903	75.94
396.127	83.94
396.352	88.94
396.576	85.94
396.801	104.94
397.025	100.94
397.249	80.94
397.474	89.94
397.698	78.94
397.922	83.94
398.147	87.94
398.371	79.94
398.595	86.94
398.82	73.94
399.044	73.94
399.268	87.94
399.492	84.94
399.717	81.94
399.941	89.94
400.165	91.94
400.389	91.94
400.613	69.94
400.837	69.94
401.062	97.94
401.286	80.94
401.51	81.94
401.734	93.94
401.958	97.94
402.182	130.94
402.406	165.94
402.63	101.94
402.854	84.94
403.078	82.94
403.302	90.94
403.526	91.94
403.75	100.94
403.974	90.94
404.198	74.94
404.422	90.94
404.645	79.94
404.869	79.94
405.093	105.94
405.317	109.94
405.541	93.94
405.765	101.94
405.988	129.94
406.212	173.94
406.436	257.94
406.66	156.94
406.883	106.94
407.107	104.94
407.331	96.94
407.555	108.94
407.778	94.94
408.002	79.94
408.226	82.94
408.449	82.94
408.673	70.94
408.896	84.94
409.12	90.94
409.344	82.94
409.567	107.94
409.791	91.94
410.014	100.94
410.238	84.94
410.461	86.94
410.685	92.94
410.908	85.94
411.132	92.94
411.355	90.94
411.578	97.94
411.802	86.94
412.025	86.94
412.249	94.94
412.472	86.94
412.695	87.94
412.919	95.94
413.142	89.94
413.365	87.94
413.589	99.94
413.812	73.94
414.035	82.94
414.258	88.94
414.482	96.94
414.705	79.94
414.928	102.94
415.151	88.94
415.374	83.94
415.597	98.94
415.821	99.94
416.044	89.94
416.267	67.94
416.49	85.94
416.713	79.94
416.936	77.94
417.159	90.94
417.382	82.94
417.605	71.94
417.828	79.94
418.051	76.94
418.274	78.94
418.497	75.94
418.72	96.94
418.943	106.94
419.166	79.94
419.389	90.94
419.611	87.94
419.834	78.94
420.057	79.94
420.28	83.94
420.503	90.94
420.726	79.94
420.948	92.94
421.171	82.94
421.394	85.94
421.617	87.94
421.839	81.94
422.062	90.94
422.285	97.94
422.507	97.94
422.73	105.94
422.953	86.94
423.175	70.94
423.398	94.94
423.621	83.94
423.843	85.94
424.066	84.94
424.288	90.94
424.511	88.94
424.733	84.94
424.956	111.94
425.178	91.94
425.401	112.94
425.623	96.94
425.846	79.94
426.068	89.94
426.291	85.94
426.513	102.94
426.735	84.94
426.958	93.94
427.18	109.94
427.402	136.94
427.625	166.94
427.847	145.94
428.069	119.94
428.292	87.94
428.514	86.94
428.736	93.94
428.958	77.94
429.181	80.94
429.403	87.94
429.625	77.94
429.847	101.94
430.069	103.94
430.292	103.94
430.514	80.94
430.736	90.94
430.958	75.94
431.18	67.94
431.402	86.94
431.624	80.94
431.846	79.94
432.068	83.94
432.29	84.94
432.512	84.94
432.734	93.94
432.956	82.94
433.178	113.94
433.4	107.94
433.622	107.94
433.844	94.94
434.066	97.94
434.287	84.94
434.509	81.94
434.731	93.94
434.953	78.94
435.175	74.94
435.397	96.94
435.618	95.94
435.84	107.94
436.062	119.94
436.284	113.94
436.505	99.94
436.727	87.94
436.949	77.94
437.17	81.94
437.392	86.94
437.614	91.94
437.835	121.94
438.057	116.94
438.278	105.94
438.5	96.94
438.721	117.94
438.943	106.94
439.165	75.94
439.386	98.94
439.608	93.94
439.829	93.94
440.05	115.94
440.272	158.94
440.493	101.94
440.715	86.94
440.936	78.94
441.158	87.94
441.379	81.94
441.6	80.94
441.822	110.94
442.043	89.94
442.264	88.94
442.486	95.94
442.707	94.94
442.928	97.94
443.149	140.94
443.371	129.94
443.592	107.94
443.813	104.94
444.034	106.94
444.255	94.94
444.476	94.94
444.698	86.94
444.919	77.94
445.14	134.94
445.361	122.94
445.582	116.94
445.803	146.94
446.024	123.94
446.245	135.94
446.466	123.94
446.687	84.94
446.908	103.94
447.129	89.94
447.35	74.94
447.571	95.94
447.792	91.94
448.013	106.94
448.234	105.94
448.455	94.94
448.675	101.94
448.896	108.94
449.117	94.94
449.338	106.94
449.559	131.94
449.779	118.94
450	98.94
450.221	92.94
450.442	87.94
450.662	98.94
450.883	102.94
451.104	117.94
451.324	105.94
451.545	98.94
451.766	73.94
451.986	64.94
452.207	96.94
452.428	84.94
452.648	117.94
452.869	113.94
453.089	114.94
453.31	111.94
453.53	79.94
453.751	85.94
453.971	100.94
454.192	123.94
454.412	79.94
454.633	86.94
454.853	84.94
455.073	80.94
455.294	84.94
455.514	90.94
455.734	77.94
455.955	75.94
456.175	66.94
456.395	90.94
456.616	88.94
456.836	95.94
457.056	84.94
457.276	90.94
457.497	74.94
457.717	87.94
457.937	80.94
458.157	83.94
458.377	88.94
458.598	102.94
458.818	154.94
459.038	183.94
459.258	125.94
459.478	89.94
459.698	94.94
459.918	93.94
460.138	90.94
460.358	88.94
460.578	85.94
460.798	83.94
461.018	79.94
461.238	88.94
461.458	83.94
461.678	65.94
461.898	78.94
462.118	83.94
462.338	88.94
462.558	83.94
462.777	74.94
462.997	84.94
463.217	75.94
463.437	87.94
463.657	84.94
463.876	83.94
464.096	81.94
464.316	94.94
464.536	87.94
464.755	87.94
464.975	111.94
465.195	162.94
465.414	183.94
465.634	88.94
465.854	81.94
466.073	91.94
466.293	79.94
466.512	95.94
466.732	87.94
466.951	71.94
467.171	86.94
467.391	102.94
467.61	110.94
467.829	87.94
468.049	96.94
468.268	104.94
468.488	84.94
468.707	77.94
468.927	74.94
469.146	88.94
469.365	85.94
469.585	81.94
469.804	96.94
470.023	94.94
470.243	88.94
470.462	106.94
470.681	118.94
470.901	79.94
471.12	76.94
471.339	90.94
471.558	78.94
471.777	88.94
471.997	81.94
472.216	112.94
472.435	125.94
472.654	95.94
472.873	83.94
473.092	69.94
473.311	97.94
473.53	82.94
473.749	85.94
473.968	89.94
474.187	85.94
474.406	95.94
474.625	91.94
474.844	78.94
475.063	76.94
475.282	84.94
475.501	96.94
475.72	83.94
475.939	75.94
476.158	80.94
476.377	66.94
476.596	90.94
476.814	94.94
477.033	94.94
477.252	86.94
477.471	72.94
477.69	96.94
477.908	90.94
478.127	93.94
478.346	90.94
478.564	83.94
478.783	89.94
479.002	99.94
479.22	106.94
479.439	96.94
479.658	99.94
479.876	102.94
480.095	86.94
480.313	91.94
480.532	89.94
480.751	97.94
480.969	116.94
481.188	184.94
481.406	161.94
481.624	93.94
481.843	84.94
482.061	80.94
482.28	73.94
482.498	75.94
482.717	87.94
482.935	90.94
483.153	83.94
483.372	89.94
483.59	73.94
483.808	85.94
484.027	88.94
484.245	83.94
484.463	90.94
484.681	69.94
484.9	90.94
485.118	75.94
485.336	75.94
485.554	89.94
485.772	91.94
485.99	98.94
486.209	91.94
486.427	80.94
486.645	110.94
486.863	112.94
487.081	98.94
487.299	89.94
487.517	88.94
487.735	83.94
487.953	87.94
488.171	111.94
488.389	101.94
488.607	92.94
488.825	97.94
489.043	87.94
489.261	75.94
489.479	87.94
489.696	102.94
489.914	85.94
490.132	90.94
490.35	89.94
490.568	93.94
490.786	77.94
491.003	75.94
491.221	92.94
491.439	92.94
491.657	80.94
491.874	79.94
492.092	86.94
492.31	87.94
492.527	92.94
492.745	98.94
492.963	86.94
493.18	92.94
493.398	83.94
493.615	97.94
493.833	109.94
494.05	73.94
494.268	106.94
494.485	83.94
494.703	74.94
494.92	86.94
495.138	84.94
495.355	78.94
495.573	88.94
495.79	98.94
496.008	89.94
496.225	86.94
496.442	77.94
496.66	81.94
496.877	81.94
497.094	83.94
497.312	82.94
497.529	85.94
497.746	77.94
497.963	80.94
498.181	91.94
498.398	92.94
498.615	94.94
498.832	91.94
499.049	90.94
499.267	90.94
499.484	94.94
499.701	94.94
499.918	80.94
500.135	82.94
500.352	77.94
500.569	79.94
500.786	73.94
501.003	75.94
501.22	74.94
501.437	81.94
501.654	89.94
501.871	104.94
502.088	92.94
502.305	73.94
502.522	86.94
502.739	100.94
502.956	89.94
503.172	77.94
503.389	95.94
503.606	107.94
503.823	96.94
504.04	76.94
504.256	84.94
504.473	82.94
504.69	83.94
504.907	77.94
505.123	80.94
505.34	92.94
505.557	88.94
505.773	78.94
505.99	94.94
506.207	76.94
506.423	84.94
506.64	104.94
506.856	88.94
507.073	90.94
507.289	101.94
507.506	83.94
507.722	119.94
507.939	110.94
508.155	112.94
508.372	101.94
508.588	96.94
508.805	100.94
509.021	99.94
509.238	84.94
509.454	79.94
509.67	90.94
509.887	111.94
510.103	139.94
510.319	198.94
510.536	807.94
510.752	2833.94
510.968	801.94
511.184	159.94
511.401	105.94
511.617	97.94
511.833	87.94
512.049	91.94
512.265	63.94
512.481	97.94
512.698	81.94
512.914	79.94
513.13	96.94
513.346	102.94
513.562	96.94
513.778	97.94
513.994	107.94
514.21	94.94
514.426	110.94
514.642	141.94
514.858	135.94
515.074	164.94
515.29	507.94
515.506	1809.94
515.721	696.94
515.937	155.94
516.153	106.94
516.369	106.94
