Data from Circ_2014_H10_HRD10591_00039.txt Node
Date: Wed Jan 03 10:02:17 EST 2024
User: Yrep
Spectrometer: HR+D1059
Trigger mode: 1
Integration Time (sec): 1.000000E-1
Scans to average: 1
Electric dark correction enabled: true
Nonlinearity correction enabled: false
Boxcar width: 0
XAxis mode: Wavelengths
Number of Pixels in Spectrum: 2048
>>>>>Begin Spectral Data<<<<<
223.165	-22.88
223.4	-22.88
223.635	-22.88
223.869	-15.88
224.104	-28.88
224.338	-17.88
224.573	-8.88
224.808	-10.88
225.042	-15.88
225.277	-13.88
225.511	7.12
225.746	16.12
225.98	11.12
226.215	7.12
226.449	13.12
226.683	17.12
226.918	21.12
227.152	42.12
227.387	36.12
227.621	37.12
227.856	37.12
228.09	62.12
228.324	53.12
228.559	64.12
228.793	58.12
229.027	56.12
229.262	64.12
229.496	68.12
229.73	74.12
229.964	78.12
230.199	73.12
230.433	76.12
230.667	74.12
230.901	79.12
231.136	85.12
231.37	72.12
231.604	72.12
231.838	84.12
232.072	88.12
232.306	89.12
232.541	77.12
232.775	82.12
233.009	90.12
233.243	56.12
233.477	76.12
233.711	77.12
233.945	76.12
234.179	75.12
234.413	66.12
234.647	73.12
234.881	83.12
235.115	77.12
235.349	88.12
235.583	84.12
235.817	74.12
236.051	89.12
236.285	78.12
236.519	70.12
236.753	70.12
236.987	70.12
237.221	75.12
237.455	89.12
237.689	78.12
237.922	75.12
238.156	88.12
238.39	76.12
238.624	79.12
238.858	69.12
239.091	69.12
239.325	74.12
239.559	88.12
239.793	76.12
240.027	72.12
240.26	76.12
240.494	69.12
240.728	63.12
240.961	74.12
241.195	78.12
241.429	91.12
241.662	82.12
241.896	86.12
242.13	69.12
242.363	68.12
242.597	69.12
242.83	78.12
243.064	84.12
243.298	72.12
243.531	76.12
243.765	76.12
243.998	76.12
244.232	70.12
244.465	77.12
244.699	70.12
244.932	76.12
245.166	76.12
245.399	75.12
245.633	74.12
245.866	80.12
246.099	79.12
246.333	66.12
246.566	70.12
246.8	77.12
247.033	85.12
247.266	75.12
247.5	62.12
247.733	76.12
247.966	77.12
248.2	94.12
248.433	76.12
248.666	85.12
248.899	73.12
249.133	76.12
249.366	93.12
249.599	93.12
249.832	76.12
250.066	84.12
250.299	80.12
250.532	88.12
250.765	68.12
250.998	73.12
251.231	61.12
251.465	85.12
251.698	72.12
251.931	71.12
252.164	78.12
252.397	89.12
252.63	90.12
252.863	76.12
253.096	71.12
253.329	81.12
253.562	71.12
253.795	77.12
254.028	92.12
254.261	82.12
254.494	81.12
254.727	93.12
254.96	87.12
255.193	83.12
255.426	82.12
255.659	75.12
255.892	82.12
256.124	86.12
256.357	83.12
256.59	74.12
256.823	69.12
257.056	84.12
257.289	80.12
257.521	75.12
257.754	75.12
257.987	83.12
258.22	75.12
258.452	82.12
258.685	72.12
258.918	67.12
259.151	64.12
259.383	92.12
259.616	91.12
259.849	77.12
260.081	78.12
260.314	85.12
260.547	80.12
260.779	88.12
261.012	82.12
261.244	88.12
261.477	82.12
261.71	83.12
261.942	101.12
262.175	110.12
262.407	94.12
262.64	83.12
262.872	75.12
263.105	81.12
263.337	77.12
263.57	76.12
263.802	67.12
264.035	84.12
264.267	88.12
264.499	90.12
264.732	80.12
264.964	86.12
265.197	87.12
265.429	90.12
265.661	89.12
265.894	91.12
266.126	84.12
266.358	75.12
266.591	94.12
266.823	96.12
267.055	76.12
267.287	78.12
267.52	84.12
267.752	84.12
267.984	89.12
268.216	87.12
268.448	84.12
268.681	94.12
268.913	70.12
269.145	80.12
269.377	68.12
269.609	87.12
269.841	82.12
270.073	81.12
270.306	77.12
270.538	87.12
270.77	66.12
271.002	82.12
271.234	86.12
271.466	79.12
271.698	84.12
271.93	87.12
272.162	91.12
272.394	88.12
272.626	86.12
272.858	75.12
273.09	80.12
273.322	79.12
273.553	75.12
273.785	77.12
274.017	84.12
274.249	66.12
274.481	88.12
274.713	96.12
274.945	91.12
275.176	84.12
275.408	85.12
275.64	91.12
275.872	93.12
276.104	86.12
276.335	94.12
276.567	102.12
276.799	119.12
277.031	98.12
277.262	94.12
277.494	81.12
277.726	83.12
277.957	88.12
278.189	86.12
278.421	81.12
278.652	88.12
278.884	88.12
279.115	82.12
279.347	78.12
279.579	82.12
279.81	87.12
280.042	85.12
280.273	86.12
280.505	91.12
280.736	79.12
280.968	77.12
281.199	74.12
281.431	87.12
281.662	85.12
281.894	91.12
282.125	84.12
282.356	100.12
282.588	137.12
282.819	116.12
283.051	102.12
283.282	96.12
283.513	97.12
283.745	97.12
283.976	104.12
284.207	88.12
284.439	89.12
284.67	96.12
284.901	98.12
285.132	92.12
285.364	81.12
285.595	84.12
285.826	89.12
286.057	76.12
286.288	77.12
286.52	90.12
286.751	84.12
286.982	89.12
287.213	90.12
287.444	71.12
287.675	79.12
287.906	85.12
288.138	89.12
288.369	100.12
288.6	92.12
288.831	90.12
289.062	95.12
289.293	89.12
289.524	83.12
289.755	89.12
289.986	82.12
290.217	93.12
290.448	89.12
290.679	78.12
290.91	75.12
291.141	93.12
291.371	84.12
291.602	88.12
291.833	84.12
292.064	84.12
292.295	83.12
292.526	96.12
292.757	71.12
292.987	78.12
293.218	84.12
293.449	79.12
293.68	108.12
293.91	98.12
294.141	83.12
294.372	84.12
294.603	86.12
294.833	86.12
295.064	89.12
295.295	72.12
295.525	92.12
295.756	105.12
295.987	114.12
296.217	135.12
296.448	124.12
296.679	89.12
296.909	90.12
297.14	81.12
297.37	91.12
297.601	72.12
297.831	91.12
298.062	89.12
298.292	95.12
298.523	81.12
298.753	88.12
298.984	80.12
299.214	88.12
299.445	94.12
299.675	106.12
299.905	95.12
300.136	84.12
300.366	80.12
300.597	92.12
300.827	90.12
301.057	91.12
301.288	94.12
301.518	97.12
301.748	92.12
301.979	90.12
302.209	93.12
302.439	90.12
302.669	88.12
302.9	87.12
303.13	82.12
303.36	88.12
303.59	87.12
303.82	91.12
304.051	81.12
304.281	87.12
304.511	91.12
304.741	78.12
304.971	82.12
305.201	89.12
305.431	91.12
305.661	97.12
305.891	81.12
306.121	88.12
306.352	101.12
306.582	103.12
306.812	111.12
307.042	98.12
307.272	105.12
307.502	93.12
307.731	87.12
307.961	90.12
308.191	101.12
308.421	77.12
308.651	97.12
308.881	79.12
309.111	97.12
309.341	90.12
309.571	91.12
309.8	112.12
310.03	96.12
310.26	89.12
310.49	96.12
310.72	89.12
310.949	116.12
311.179	90.12
311.409	91.12
311.639	94.12
311.868	87.12
312.098	82.12
312.328	82.12
312.557	90.12
312.787	93.12
313.017	102.12
313.246	89.12
313.476	112.12
313.706	91.12
313.935	91.12
314.165	96.12
314.394	103.12
314.624	76.12
314.853	97.12
315.083	83.12
315.312	84.12
315.542	91.12
315.771	91.12
316.001	84.12
316.23	89.12
316.46	107.12
316.689	84.12
316.919	82.12
317.148	90.12
317.377	92.12
317.607	83.12
317.836	89.12
318.065	101.12
318.295	85.12
318.524	78.12
318.753	84.12
318.983	90.12
319.212	90.12
319.441	113.12
319.67	99.12
319.9	85.12
320.129	106.12
320.358	93.12
320.587	88.12
320.816	102.12
321.046	88.12
321.275	93.12
321.504	105.12
321.733	103.12
321.962	88.12
322.191	96.12
322.42	115.12
322.649	88.12
322.878	112.12
323.108	106.12
323.337	133.12
323.566	140.12
323.795	134.12
324.024	177.12
324.253	354.12
324.482	727.12
324.71	1494.12
324.939	1962.12
325.168	750.12
325.397	235.12
325.626	152.12
325.855	116.12
326.084	122.12
326.313	130.12
326.542	137.12
326.77	209.12
326.999	402.12
327.228	847.12
327.457	1503.12
327.686	1183.12
327.914	346.12
328.143	182.12
328.372	156.12
328.6	112.12
328.829	128.12
329.058	126.12
329.287	117.12
329.515	114.12
329.744	114.12
329.972	98.12
330.201	123.12
330.43	120.12
330.658	126.12
330.887	141.12
331.115	122.12
331.344	94.12
331.572	96.12
331.801	103.12
332.03	92.12
332.258	95.12
332.486	88.12
332.715	89.12
332.943	94.12
333.172	99.12
333.4	102.12
333.629	103.12
333.857	100.12
334.085	101.12
334.314	102.12
334.542	120.12
334.771	119.12
334.999	100.12
335.227	96.12
335.455	105.12
335.684	105.12
335.912	84.12
336.14	86.12
336.369	89.12
336.597	94.12
336.825	85.12
337.053	94.12
337.281	89.12
337.51	95.12
337.738	94.12
337.966	90.12
338.194	87.12
338.422	89.12
338.65	94.12
338.878	105.12
339.106	95.12
339.334	95.12
339.562	86.12
339.79	90.12
340.018	84.12
340.246	91.12
340.474	99.12
340.702	91.12
340.93	85.12
341.158	84.12
341.386	86.12
341.614	103.12
341.842	85.12
342.07	89.12
342.298	89.12
342.526	75.12
342.754	95.12
342.981	85.12
343.209	96.12
343.437	98.12
343.665	80.12
343.893	91.12
344.12	70.12
344.348	74.12
344.576	81.12
344.804	94.12
345.031	85.12
345.259	93.12
345.487	80.12
345.714	81.12
345.942	82.12
346.17	95.12
346.397	91.12
346.625	93.12
346.853	91.12
347.08	101.12
347.308	91.12
347.535	99.12
347.763	89.12
347.99	96.12
348.218	82.12
348.445	94.12
348.673	100.12
348.9	99.12
349.128	108.12
349.355	93.12
349.583	96.12
349.81	100.12
350.037	104.12
350.265	89.12
350.492	83.12
350.72	84.12
350.947	84.12
351.174	109.12
351.402	104.12
351.629	100.12
351.856	91.12
352.083	102.12
352.311	109.12
352.538	104.12
352.765	114.12
352.992	113.12
353.22	133.12
353.447	109.12
353.674	87.12
353.901	83.12
354.128	93.12
354.355	90.12
354.583	100.12
354.81	92.12
355.037	95.12
355.264	93.12
355.491	97.12
355.718	91.12
355.945	101.12
356.172	104.12
356.399	98.12
356.626	99.12
356.853	79.12
357.08	101.12
357.307	97.12
357.534	91.12
357.761	77.12
357.988	93.12
358.215	85.12
358.441	101.12
358.668	90.12
358.895	78.12
359.122	93.12
359.349	93.12
359.576	88.12
359.802	84.12
360.029	104.12
360.256	117.12
360.483	94.12
360.709	98.12
360.936	82.12
361.163	98.12
361.39	99.12
361.616	101.12
361.843	97.12
362.07	103.12
362.296	100.12
362.523	98.12
362.749	92.12
362.976	99.12
363.203	77.12
363.429	95.12
363.656	80.12
363.882	78.12
364.109	87.12
364.335	84.12
364.562	97.12
364.788	101.12
365.015	96.12
365.241	99.12
365.468	101.12
365.694	101.12
365.92	105.12
366.147	89.12
366.373	87.12
366.599	91.12
366.826	82.12
367.052	78.12
367.278	75.12
367.505	88.12
367.731	83.12
367.957	80.12
368.184	92.12
368.41	103.12
368.636	117.12
368.862	108.12
369.089	92.12
369.315	82.12
369.541	84.12
369.767	94.12
369.993	87.12
370.219	89.12
370.445	90.12
370.672	86.12
370.898	79.12
371.124	85.12
371.35	77.12
371.576	84.12
371.802	81.12
372.028	77.12
372.254	84.12
372.48	95.12
372.706	74.12
372.932	96.12
373.158	99.12
373.384	98.12
373.61	87.12
373.835	89.12
374.061	88.12
374.287	89.12
374.513	80.12
374.739	72.12
374.965	78.12
375.191	93.12
375.416	88.12
375.642	86.12
375.868	101.12
376.094	86.12
376.319	97.12
376.545	89.12
376.771	89.12
376.997	93.12
377.222	71.12
377.448	84.12
377.674	79.12
377.899	95.12
378.125	86.12
378.35	76.12
378.576	99.12
378.802	97.12
379.027	82.12
379.253	100.12
379.478	78.12
379.704	90.12
379.929	83.12
380.155	92.12
380.38	91.12
380.606	86.12
380.831	92.12
381.057	97.12
381.282	97.12
381.507	100.12
381.733	100.12
381.958	108.12
382.184	96.12
382.409	90.12
382.634	96.12
382.86	97.12
383.085	113.12
383.31	110.12
383.535	114.12
383.761	109.12
383.986	99.12
384.211	91.12
384.436	86.12
384.662	104.12
384.887	106.12
385.112	101.12
385.337	111.12
385.562	109.12
385.787	100.12
386.013	107.12
386.238	113.12
386.463	115.12
386.688	96.12
386.913	104.12
387.138	112.12
387.363	109.12
387.588	121.12
387.813	106.12
388.038	97.12
388.263	106.12
388.488	113.12
388.713	100.12
388.938	85.12
389.163	71.12
389.387	97.12
389.612	87.12
389.837	93.12
390.062	87.12
390.287	92.12
390.512	97.12
390.736	77.12
390.961	81.12
391.186	96.12
391.411	87.12
391.636	87.12
391.86	89.12
392.085	80.12
392.31	94.12
392.534	85.12
392.759	78.12
392.984	82.12
393.208	92.12
393.433	81.12
393.658	95.12
393.882	81.12
394.107	95.12
394.331	76.12
394.556	77.12
394.78	92.12
395.005	89.12
395.229	85.12
395.454	86.12
395.678	74.12
395.903	90.12
396.127	88.12
396.352	76.12
396.576	80.12
396.801	97.12
397.025	76.12
397.249	84.12
397.474	92.12
397.698	85.12
397.922	105.12
398.147	94.12
398.371	75.12
398.595	93.12
398.82	82.12
399.044	101.12
399.268	90.12
399.492	94.12
399.717	89.12
399.941	89.12
400.165	96.12
400.389	85.12
400.613	76.12
400.837	74.12
401.062	80.12
401.286	86.12
401.51	89.12
401.734	77.12
401.958	102.12
402.182	132.12
402.406	138.12
402.63	122.12
402.854	99.12
403.078	90.12
403.302	81.12
403.526	93.12
403.75	85.12
403.974	72.12
404.198	89.12
404.422	75.12
404.645	83.12
404.869	90.12
405.093	82.12
405.317	91.12
405.541	101.12
405.765	102.12
405.988	114.12
406.212	160.12
406.436	220.12
406.66	147.12
406.883	106.12
407.107	80.12
407.331	87.12
407.555	91.12
407.778	92.12
408.002	99.12
408.226	89.12
408.449	95.12
408.673	98.12
408.896	79.12
409.12	96.12
409.344	86.12
409.567	95.12
409.791	89.12
410.014	97.12
410.238	86.12
410.461	86.12
410.685	89.12
410.908	102.12
411.132	90.12
411.355	91.12
411.578	84.12
411.802	88.12
412.025	93.12
412.249	80.12
412.472	95.12
412.695	105.12
412.919	77.12
413.142	90.12
413.365	80.12
413.589	77.12
413.812	84.12
414.035	96.12
414.258	95.12
414.482	83.12
414.705	86.12
414.928	91.12
415.151	92.12
415.374	92.12
415.597	86.12
415.821	93.12
416.044	78.12
416.267	86.12
416.49	86.12
416.713	80.12
416.936	89.12
417.159	81.12
417.382	82.12
417.605	80.12
417.828	87.12
418.051	84.12
418.274	92.12
418.497	95.12
418.72	73.12
418.943	104.12
419.166	87.12
419.389	68.12
419.611	78.12
419.834	100.12
420.057	99.12
420.28	81.12
420.503	83.12
420.726	101.12
420.948	77.12
421.171	77.12
421.394	94.12
421.617	83.12
421.839	98.12
422.062	76.12
422.285	91.12
422.507	95.12
422.73	92.12
422.953	92.12
423.175	83.12
423.398	93.12
423.621	89.12
423.843	78.12
424.066	77.12
424.288	94.12
424.511	96.12
424.733	85.12
424.956	94.12
425.178	99.12
425.401	90.12
425.623	98.12
425.846	101.12
426.068	89.12
426.291	82.12
426.513	91.12
426.735	77.12
426.958	99.12
427.18	95.12
427.402	115.12
427.625	159.12
427.847	133.12
428.069	99.12
428.292	87.12
428.514	72.12
428.736	73.12
428.958	78.12
429.181	84.12
429.403	92.12
429.625	104.12
429.847	91.12
430.069	94.12
430.292	93.12
430.514	98.12
430.736	88.12
430.958	94.12
431.18	77.12
431.402	80.12
431.624	88.12
431.846	87.12
432.068	88.12
432.29	90.12
432.512	80.12
432.734	75.12
432.956	78.12
433.178	93.12
433.4	85.12
433.622	89.12
433.844	89.12
434.066	83.12
434.287	87.12
434.509	94.12
434.731	86.12
434.953	87.12
435.175	74.12
435.397	83.12
435.618	84.12
435.84	113.12
436.062	107.12
436.284	97.12
436.505	104.12
436.727	95.12
436.949	64.12
437.17	87.12
437.392	62.12
437.614	95.12
437.835	117.12
438.057	111.12
438.278	101.12
438.5	103.12
438.721	107.12
438.943	113.12
439.165	91.12
439.386	90.12
439.608	112.12
439.829	104.12
440.05	112.12
440.272	140.12
440.493	101.12
440.715	92.12
440.936	66.12
441.158	89.12
441.379	86.12
441.6	91.12
441.822	99.12
442.043	106.12
442.264	96.12
442.486	96.12
442.707	91.12
442.928	100.12
443.149	119.12
443.371	117.12
443.592	84.12
443.813	99.12
444.034	103.12
444.255	93.12
444.476	90.12
444.698	82.12
444.919	73.12
445.14	118.12
445.361	128.12
445.582	103.12
445.803	121.12
446.024	126.12
446.245	129.12
446.466	112.12
446.687	94.12
446.908	82.12
447.129	89.12
447.35	102.12
447.571	81.12
447.792	79.12
448.013	105.12
448.234	98.12
448.455	95.12
448.675	101.12
448.896	127.12
449.117	109.12
449.338	97.12
449.559	100.12
449.779	110.12
450	97.12
450.221	88.12
450.442	88.12
450.662	96.12
450.883	115.12
451.104	105.12
451.324	97.12
451.545	71.12
451.766	69.12
451.986	97.12
452.207	89.12
452.428	96.12
452.648	83.12
452.869	109.12
453.089	115.12
453.31	110.12
453.53	100.12
453.751	90.12
453.971	96.12
454.192	109.12
454.412	89.12
454.633	76.12
454.853	94.12
455.073	75.12
455.294	91.12
455.514	85.12
455.734	85.12
455.955	91.12
456.175	83.12
456.395	88.12
456.616	85.12
456.836	84.12
457.056	82.12
457.276	86.12
457.497	86.12
457.717	84.12
457.937	88.12
458.157	87.12
458.377	95.12
458.598	99.12
458.818	153.12
459.038	139.12
459.258	94.12
459.478	85.12
459.698	68.12
459.918	87.12
460.138	84.12
460.358	91.12
460.578	87.12
460.798	80.12
461.018	77.12
461.238	76.12
461.458	65.12
461.678	77.12
461.898	84.12
462.118	76.12
462.338	90.12
462.558	72.12
462.777	88.12
462.997	82.12
463.217	94.12
463.437	93.12
463.657	91.12
463.876	89.12
464.096	94.12
464.316	114.12
464.536	93.12
464.755	99.12
464.975	90.12
465.195	161.12
465.414	154.12
465.634	105.12
465.854	89.12
466.073	89.12
466.293	81.12
466.512	93.12
466.732	84.12
466.951	88.12
467.171	79.12
467.391	78.12
467.61	88.12
467.829	93.12
468.049	88.12
468.268	89.12
468.488	89.12
468.707	91.12
468.927	96.12
469.146	88.12
469.365	91.12
469.585	81.12
469.804	93.12
470.023	87.12
470.243	89.12
470.462	95.12
470.681	101.12
470.901	105.12
471.12	84.12
471.339	92.12
471.558	100.12
471.777	91.12
471.997	82.12
472.216	124.12
472.435	135.12
472.654	81.12
472.873	96.12
473.092	93.12
473.311	77.12
473.53	72.12
473.749	103.12
473.968	94.12
474.187	101.12
474.406	109.12
474.625	76.12
474.844	77.12
475.063	84.12
475.282	89.12
475.501	85.12
475.72	93.12
475.939	78.12
476.158	93.12
476.377	83.12
476.596	87.12
476.814	90.12
477.033	92.12
477.252	88.12
477.471	82.12
477.69	84.12
477.908	92.12
478.127	90.12
478.346	82.12
478.564	91.12
478.783	82.12
479.002	84.12
479.22	83.12
479.439	94.12
479.658	87.12
479.876	100.12
480.095	74.12
480.313	90.12
480.532	102.12
480.751	91.12
480.969	101.12
481.188	161.12
481.406	150.12
481.624	108.12
481.843	97.12
482.061	84.12
482.28	73.12
482.498	80.12
482.717	89.12
482.935	81.12
483.153	84.12
483.372	89.12
483.59	86.12
483.808	103.12
484.027	95.12
484.245	88.12
484.463	102.12
484.681	88.12
484.9	88.12
485.118	76.12
485.336	90.12
485.554	94.12
485.772	98.12
485.99	93.12
486.209	101.12
486.427	97.12
486.645	100.12
486.863	96.12
487.081	107.12
487.299	100.12
487.517	88.12
487.735	77.12
487.953	90.12
488.171	83.12
488.389	109.12
488.607	101.12
488.825	76.12
489.043	88.12
489.261	95.12
489.479	97.12
489.696	83.12
489.914	86.12
490.132	95.12
490.35	98.12
490.568	92.12
490.786	88.12
491.003	92.12
491.221	83.12
491.439	96.12
491.657	101.12
491.874	81.12
492.092	78.12
492.31	86.12
492.527	100.12
492.745	85.12
492.963	93.12
493.18	86.12
493.398	96.12
493.615	77.12
493.833	105.12
494.05	85.12
494.268	98.12
494.485	92.12
494.703	92.12
494.92	95.12
495.138	95.12
495.355	98.12
495.573	83.12
495.79	100.12
496.008	92.12
496.225	85.12
496.442	91.12
496.66	95.12
496.877	98.12
497.094	95.12
497.312	100.12
497.529	98.12
497.746	81.12
497.963	85.12
498.181	99.12
498.398	89.12
498.615	110.12
498.832	117.12
499.049	102.12
499.267	90.12
499.484	88.12
499.701	83.12
499.918	87.12
500.135	96.12
500.352	98.12
500.569	79.12
500.786	72.12
501.003	81.12
501.22	80.12
501.437	102.12
501.654	98.12
501.871	113.12
502.088	100.12
502.305	96.12
502.522	98.12
502.739	85.12
502.956	96.12
503.172	94.12
503.389	83.12
503.606	82.12
503.823	98.12
504.04	100.12
504.256	78.12
504.473	80.12
504.69	86.12
504.907	84.12
505.123	82.12
505.34	98.12
505.557	87.12
505.773	71.12
505.99	85.12
506.207	89.12
506.423	85.12
506.64	83.12
506.856	82.12
507.073	78.12
507.289	79.12
507.506	98.12
507.722	102.12
507.939	104.12
508.155	98.12
508.372	104.12
508.588	81.12
508.805	84.12
509.021	91.12
509.238	97.12
509.454	97.12
509.67	94.12
509.887	98.12
510.103	133.12
510.319	210.12
510.536	752.12
510.752	2456.12
510.968	679.12
511.184	152.12
511.401	109.12
511.617	100.12
511.833	101.12
512.049	84.12
512.265	82.12
512.481	89.12
512.698	86.12
512.914	96.12
513.13	99.12
513.346	93.12
513.562	87.12
513.778	84.12
513.994	88.12
514.21	105.12
514.426	109.12
514.642	140.12
514.858	115.12
515.074	163.12
515.29	450.12
515.506	1487.12
515.721	584.12
515.937	152.12
516.153	97.12
516.369	86.12
