Data from Circ_2014_H10_HRD10591_00048.txt Node
Date: Wed Jan 03 10:02:18 EST 2024
User: Yrep
Spectrometer: HR+D1059
Trigger mode: 1
Integration Time (sec): 1.000000E-1
Scans to average: 1
Electric dark correction enabled: true
Nonlinearity correction enabled: false
Boxcar width: 0
XAxis mode: Wavelengths
Number of Pixels in Spectrum: 2048
>>>>>Begin Spectral Data<<<<<
223.165	-7.69
223.4	-7.69
223.635	-7.69
223.869	-16.69
224.104	-21.69
224.338	-31.69
224.573	-15.69
224.808	-11.69
225.042	-1.69
225.277	-11.69
225.511	-5.69
225.746	9.31
225.98	-0.69
226.215	17.31
226.449	11.31
226.683	20.31
226.918	30.31
227.152	36.31
227.387	48.31
227.621	40.31
227.856	43.31
228.09	41.31
228.324	41.31
228.559	66.31
228.793	69.31
229.027	76.31
229.262	78.31
229.496	69.31
229.73	89.31
229.964	75.31
230.199	80.31
230.433	64.31
230.667	73.31
230.901	71.31
231.136	70.31
231.37	68.31
231.604	73.31
231.838	78.31
232.072	85.31
232.306	86.31
232.541	77.31
232.775	70.31
233.009	77.31
233.243	80.31
233.477	84.31
233.711	87.31
233.945	77.31
234.179	68.31
234.413	51.31
234.647	83.31
234.881	76.31
235.115	83.31
235.349	82.31
235.583	87.31
235.817	67.31
236.051	73.31
236.285	82.31
236.519	75.31
236.753	73.31
236.987	81.31
237.221	80.31
237.455	73.31
237.689	88.31
237.922	68.31
238.156	83.31
238.39	82.31
238.624	76.31
238.858	75.31
239.091	65.31
239.325	83.31
239.559	90.31
239.793	81.31
240.027	67.31
240.26	78.31
240.494	78.31
240.728	89.31
240.961	62.31
241.195	81.31
241.429	75.31
241.662	88.31
241.896	90.31
242.13	90.31
242.363	84.31
242.597	84.31
242.83	75.31
243.064	74.31
243.298	68.31
243.531	68.31
243.765	85.31
243.998	76.31
244.232	79.31
244.465	82.31
244.699	71.31
244.932	79.31
245.166	76.31
245.399	83.31
245.633	74.31
245.866	68.31
246.099	80.31
246.333	71.31
246.566	75.31
246.8	77.31
247.033	76.31
247.266	78.31
247.5	91.31
247.733	79.31
247.966	81.31
248.2	71.31
248.433	75.31
248.666	72.31
248.899	68.31
249.133	77.31
249.366	107.31
249.599	97.31
249.832	82.31
250.066	77.31
250.299	71.31
250.532	75.31
250.765	83.31
250.998	80.31
251.231	78.31
251.465	91.31
251.698	69.31
251.931	88.31
252.164	89.31
252.397	81.31
252.63	76.31
252.863	74.31
253.096	97.31
253.329	88.31
253.562	97.31
253.795	90.31
254.028	82.31
254.261	91.31
254.494	86.31
254.727	78.31
254.96	86.31
255.193	89.31
255.426	79.31
255.659	85.31
255.892	77.31
256.124	58.31
256.357	80.31
256.59	71.31
256.823	90.31
257.056	82.31
257.289	88.31
257.521	82.31
257.754	70.31
257.987	79.31
258.22	75.31
258.452	80.31
258.685	78.31
258.918	81.31
259.151	85.31
259.383	88.31
259.616	93.31
259.849	85.31
260.081	80.31
260.314	89.31
260.547	80.31
260.779	81.31
261.012	86.31
261.244	83.31
261.477	90.31
261.71	101.31
261.942	120.31
262.175	122.31
262.407	88.31
262.64	89.31
262.872	75.31
263.105	75.31
263.337	80.31
263.57	83.31
263.802	82.31
264.035	85.31
264.267	79.31
264.499	75.31
264.732	59.31
264.964	78.31
265.197	88.31
265.429	90.31
265.661	85.31
265.894	76.31
266.126	73.31
266.358	77.31
266.591	78.31
266.823	98.31
267.055	94.31
267.287	85.31
267.52	90.31
267.752	83.31
267.984	72.31
268.216	90.31
268.448	99.31
268.681	75.31
268.913	66.31
269.145	94.31
269.377	91.31
269.609	72.31
269.841	80.31
270.073	76.31
270.306	74.31
270.538	78.31
270.77	89.31
271.002	78.31
271.234	78.31
271.466	82.31
271.698	80.31
271.93	109.31
272.162	78.31
272.394	94.31
272.626	73.31
272.858	69.31
273.09	89.31
273.322	78.31
273.553	87.31
273.785	76.31
274.017	79.31
274.249	89.31
274.481	87.31
274.713	87.31
274.945	92.31
275.176	92.31
275.408	89.31
275.64	90.31
275.872	93.31
276.104	81.31
276.335	90.31
276.567	105.31
276.799	113.31
277.031	102.31
277.262	98.31
277.494	87.31
277.726	83.31
277.957	80.31
278.189	81.31
278.421	86.31
278.652	99.31
278.884	74.31
279.115	84.31
279.347	84.31
279.579	82.31
279.81	80.31
280.042	87.31
280.273	69.31
280.505	89.31
280.736	87.31
280.968	91.31
281.199	87.31
281.431	87.31
281.662	93.31
281.894	86.31
282.125	105.31
282.356	122.31
282.588	145.31
282.819	119.31
283.051	102.31
283.282	99.31
283.513	92.31
283.745	94.31
283.976	83.31
284.207	76.31
284.439	69.31
284.67	77.31
284.901	77.31
285.132	86.31
285.364	99.31
285.595	84.31
285.826	73.31
286.057	86.31
286.288	87.31
286.52	84.31
286.751	88.31
286.982	89.31
287.213	92.31
287.444	94.31
287.675	77.31
287.906	85.31
288.138	92.31
288.369	85.31
288.6	104.31
288.831	99.31
289.062	97.31
289.293	86.31
289.524	90.31
289.755	78.31
289.986	94.31
290.217	77.31
290.448	80.31
290.679	72.31
290.91	72.31
291.141	83.31
291.371	84.31
291.602	88.31
291.833	83.31
292.064	91.31
292.295	95.31
292.526	82.31
292.757	82.31
292.987	92.31
293.218	85.31
293.449	85.31
293.68	90.31
293.91	82.31
294.141	95.31
294.372	92.31
294.603	84.31
294.833	78.31
295.064	89.31
295.295	85.31
295.525	108.31
295.756	100.31
295.987	122.31
296.217	159.31
296.448	124.31
296.679	94.31
296.909	83.31
297.14	88.31
297.37	90.31
297.601	104.31
297.831	88.31
298.062	94.31
298.292	92.31
298.523	80.31
298.753	83.31
298.984	85.31
299.214	79.31
299.445	87.31
299.675	99.31
299.905	86.31
300.136	75.31
300.366	81.31
300.597	86.31
300.827	96.31
301.057	98.31
301.288	105.31
301.518	99.31
301.748	72.31
301.979	97.31
302.209	97.31
302.439	85.31
302.669	97.31
302.9	91.31
303.13	93.31
303.36	87.31
303.59	94.31
303.82	109.31
304.051	99.31
304.281	87.31
304.511	78.31
304.741	98.31
304.971	93.31
305.201	97.31
305.431	65.31
305.661	87.31
305.891	74.31
306.121	91.31
306.352	100.31
306.582	108.31
306.812	105.31
307.042	89.31
307.272	96.31
307.502	98.31
307.731	96.31
307.961	62.31
308.191	90.31
308.421	85.31
308.651	85.31
308.881	80.31
309.111	104.31
309.341	94.31
309.571	93.31
309.8	101.31
310.03	105.31
310.26	94.31
310.49	109.31
310.72	90.31
310.949	101.31
311.179	101.31
311.409	85.31
311.639	84.31
311.868	90.31
312.098	105.31
312.328	97.31
312.557	97.31
312.787	96.31
313.017	89.31
313.246	96.31
313.476	96.31
313.706	93.31
313.935	92.31
314.165	97.31
314.394	102.31
314.624	109.31
314.853	97.31
315.083	81.31
315.312	89.31
315.542	85.31
315.771	85.31
316.001	97.31
316.23	90.31
316.46	101.31
316.689	83.31
316.919	74.31
317.148	92.31
317.377	87.31
317.607	98.31
317.836	98.31
318.065	94.31
318.295	82.31
318.524	92.31
318.753	90.31
318.983	94.31
319.212	108.31
319.441	100.31
319.67	108.31
319.9	91.31
320.129	97.31
320.358	107.31
320.587	98.31
320.816	101.31
321.046	118.31
321.275	115.31
321.504	88.31
321.733	90.31
321.962	86.31
322.191	105.31
322.42	109.31
322.649	114.31
322.878	105.31
323.108	110.31
323.337	136.31
323.566	142.31
323.795	166.31
324.024	208.31
324.253	402.31
324.482	856.31
324.71	1673.31
324.939	2234.31
325.168	830.31
325.397	243.31
325.626	143.31
325.855	121.31
326.084	122.31
326.313	133.31
326.542	158.31
326.77	232.31
326.999	453.31
327.228	928.31
327.457	1696.31
327.686	1351.31
327.914	384.31
328.143	216.31
328.372	175.31
328.6	136.31
328.829	134.31
329.058	135.31
329.287	142.31
329.515	107.31
329.744	114.31
329.972	115.31
330.201	146.31
330.43	168.31
330.658	148.31
330.887	141.31
331.115	123.31
331.344	104.31
331.572	96.31
331.801	98.31
332.03	105.31
332.258	115.31
332.486	82.31
332.715	82.31
332.943	99.31
333.172	102.31
333.4	104.31
333.629	92.31
333.857	120.31
334.085	108.31
334.314	126.31
334.542	164.31
334.771	189.31
334.999	121.31
335.227	94.31
335.455	78.31
335.684	95.31
335.912	106.31
336.14	90.31
336.369	98.31
336.597	115.31
336.825	89.31
337.053	90.31
337.281	101.31
337.51	88.31
337.738	88.31
337.966	97.31
338.194	89.31
338.422	87.31
338.65	114.31
338.878	96.31
339.106	89.31
339.334	87.31
339.562	93.31
339.79	91.31
340.018	82.31
340.246	94.31
340.474	99.31
340.702	87.31
340.93	85.31
341.158	95.31
341.386	86.31
341.614	92.31
341.842	87.31
342.07	98.31
342.298	86.31
342.526	90.31
342.754	79.31
342.981	90.31
343.209	90.31
343.437	97.31
343.665	97.31
343.893	92.31
344.12	90.31
344.348	83.31
344.576	96.31
344.804	95.31
345.031	106.31
345.259	93.31
345.487	94.31
345.714	97.31
345.942	91.31
346.17	92.31
346.397	102.31
346.625	102.31
346.853	98.31
347.08	84.31
347.308	82.31
347.535	91.31
347.763	103.31
347.99	95.31
348.218	97.31
348.445	101.31
348.673	79.31
348.9	84.31
349.128	88.31
349.355	97.31
349.583	90.31
349.81	88.31
350.037	88.31
350.265	96.31
350.492	104.31
350.72	97.31
350.947	85.31
351.174	102.31
351.402	110.31
351.629	91.31
351.856	98.31
352.083	107.31
352.311	100.31
352.538	106.31
352.765	116.31
352.992	124.31
353.22	116.31
353.447	91.31
353.674	87.31
353.901	95.31
354.128	94.31
354.355	96.31
354.583	97.31
354.81	92.31
355.037	77.31
355.264	92.31
355.491	93.31
355.718	90.31
355.945	98.31
356.172	93.31
356.399	96.31
356.626	91.31
356.853	98.31
357.08	80.31
357.307	93.31
357.534	80.31
357.761	90.31
357.988	89.31
358.215	93.31
358.441	103.31
358.668	97.31
358.895	78.31
359.122	80.31
359.349	85.31
359.576	90.31
359.802	91.31
360.029	125.31
360.256	109.31
360.483	107.31
360.709	99.31
360.936	92.31
361.163	76.31
361.39	94.31
361.616	98.31
361.843	97.31
362.07	87.31
362.296	102.31
362.523	91.31
362.749	88.31
362.976	111.31
363.203	97.31
363.429	83.31
363.656	88.31
363.882	91.31
364.109	81.31
364.335	91.31
364.562	100.31
364.788	89.31
365.015	99.31
365.241	94.31
365.468	109.31
365.694	106.31
365.92	92.31
366.147	86.31
366.373	95.31
366.599	76.31
366.826	98.31
367.052	88.31
367.278	101.31
367.505	96.31
367.731	92.31
367.957	85.31
368.184	88.31
368.41	88.31
368.636	113.31
368.862	108.31
369.089	112.31
369.315	96.31
369.541	91.31
369.767	98.31
369.993	92.31
370.219	84.31
370.445	88.31
370.672	81.31
370.898	82.31
371.124	90.31
371.35	91.31
371.576	82.31
371.802	88.31
372.028	73.31
372.254	95.31
372.48	88.31
372.706	82.31
372.932	74.31
373.158	83.31
373.384	104.31
373.61	90.31
373.835	114.31
374.061	84.31
374.287	74.31
374.513	80.31
374.739	92.31
374.965	77.31
375.191	86.31
375.416	92.31
375.642	80.31
375.868	77.31
376.094	88.31
376.319	100.31
376.545	84.31
376.771	99.31
376.997	96.31
377.222	87.31
377.448	91.31
377.674	86.31
377.899	95.31
378.125	84.31
378.35	94.31
378.576	82.31
378.802	89.31
379.027	85.31
379.253	104.31
379.478	96.31
379.704	100.31
379.929	97.31
380.155	86.31
380.38	99.31
380.606	86.31
380.831	85.31
381.057	109.31
381.282	89.31
381.507	96.31
381.733	105.31
381.958	100.31
382.184	94.31
382.409	102.31
382.634	116.31
382.86	106.31
383.085	116.31
383.31	109.31
383.535	106.31
383.761	92.31
383.986	98.31
384.211	97.31
384.436	97.31
384.662	95.31
384.887	97.31
385.112	104.31
385.337	115.31
385.562	102.31
385.787	95.31
386.013	104.31
386.238	108.31
386.463	124.31
386.688	116.31
386.913	114.31
387.138	109.31
387.363	118.31
387.588	94.31
387.813	103.31
388.038	99.31
388.263	107.31
388.488	112.31
388.713	96.31
388.938	89.31
389.163	89.31
389.387	96.31
389.612	88.31
389.837	84.31
390.062	80.31
390.287	87.31
390.512	96.31
390.736	77.31
390.961	93.31
391.186	86.31
391.411	101.31
391.636	89.31
391.86	78.31
392.085	89.31
392.31	92.31
392.534	74.31
392.759	73.31
392.984	86.31
393.208	75.31
393.433	78.31
393.658	88.31
393.882	85.31
394.107	80.31
394.331	78.31
394.556	83.31
394.78	76.31
395.005	80.31
395.229	78.31
395.454	77.31
395.678	89.31
395.903	95.31
396.127	77.31
396.352	89.31
396.576	88.31
396.801	92.31
397.025	89.31
397.249	71.31
397.474	88.31
397.698	89.31
397.922	79.31
398.147	94.31
398.371	85.31
398.595	82.31
398.82	88.31
399.044	70.31
399.268	77.31
399.492	86.31
399.717	93.31
399.941	86.31
400.165	78.31
400.389	93.31
400.613	97.31
400.837	77.31
401.062	84.31
401.286	81.31
401.51	73.31
401.734	74.31
401.958	95.31
402.182	122.31
402.406	162.31
402.63	112.31
402.854	86.31
403.078	79.31
403.302	95.31
403.526	91.31
403.75	98.31
403.974	69.31
404.198	91.31
404.422	89.31
404.645	91.31
404.869	86.31
405.093	97.31
405.317	106.31
405.541	104.31
405.765	104.31
405.988	116.31
406.212	176.31
406.436	260.31
406.66	170.31
406.883	111.31
407.107	96.31
407.331	93.31
407.555	107.31
407.778	101.31
408.002	105.31
408.226	95.31
408.449	86.31
408.673	84.31
408.896	88.31
409.12	83.31
409.344	88.31
409.567	79.31
409.791	73.31
410.014	84.31
410.238	99.31
410.461	82.31
410.685	97.31
410.908	75.31
411.132	92.31
411.355	83.31
411.578	97.31
411.802	90.31
412.025	93.31
412.249	81.31
412.472	94.31
412.695	93.31
412.919	85.31
413.142	81.31
413.365	81.31
413.589	99.31
413.812	88.31
414.035	95.31
414.258	89.31
414.482	81.31
414.705	90.31
414.928	84.31
415.151	91.31
415.374	86.31
415.597	92.31
415.821	88.31
416.044	92.31
416.267	86.31
416.49	97.31
416.713	89.31
416.936	90.31
417.159	89.31
417.382	83.31
417.605	97.31
417.828	95.31
418.051	84.31
418.274	91.31
418.497	88.31
418.72	64.31
418.943	79.31
419.166	86.31
419.389	91.31
419.611	97.31
419.834	80.31
420.057	85.31
420.28	92.31
420.503	81.31
420.726	91.31
420.948	88.31
421.171	99.31
421.394	101.31
421.617	94.31
421.839	79.31
422.062	87.31
422.285	94.31
422.507	101.31
422.73	105.31
422.953	102.31
423.175	93.31
423.398	94.31
423.621	102.31
423.843	77.31
424.066	72.31
424.288	91.31
424.511	90.31
424.733	92.31
424.956	104.31
425.178	94.31
425.401	89.31
425.623	109.31
425.846	92.31
426.068	101.31
426.291	95.31
426.513	85.31
426.735	84.31
426.958	99.31
427.18	105.31
427.402	140.31
427.625	178.31
427.847	150.31
428.069	104.31
428.292	80.31
428.514	83.31
428.736	75.31
428.958	85.31
429.181	78.31
429.403	98.31
429.625	93.31
429.847	86.31
430.069	91.31
430.292	96.31
430.514	86.31
430.736	81.31
430.958	87.31
431.18	77.31
431.402	84.31
431.624	82.31
431.846	85.31
432.068	90.31
432.29	91.31
432.512	93.31
432.734	96.31
432.956	100.31
433.178	91.31
433.4	98.31
433.622	78.31
433.844	95.31
434.066	98.31
434.287	93.31
434.509	89.31
434.731	84.31
434.953	91.31
435.175	91.31
435.397	89.31
435.618	82.31
435.84	100.31
436.062	113.31
436.284	111.31
436.505	104.31
436.727	86.31
436.949	90.31
437.17	84.31
437.392	78.31
437.614	85.31
437.835	96.31
438.057	115.31
438.278	108.31
438.5	104.31
438.721	108.31
438.943	93.31
439.165	73.31
439.386	86.31
439.608	91.31
439.829	114.31
440.05	124.31
440.272	141.31
440.493	89.31
440.715	80.31
440.936	79.31
441.158	85.31
441.379	85.31
441.6	95.31
441.822	88.31
442.043	96.31
442.264	91.31
442.486	107.31
442.707	94.31
442.928	113.31
443.149	143.31
443.371	141.31
443.592	130.31
443.813	108.31
444.034	100.31
444.255	106.31
444.476	82.31
444.698	76.31
444.919	90.31
445.14	115.31
445.361	108.31
445.582	110.31
445.803	128.31
446.024	117.31
446.245	125.31
446.466	96.31
446.687	75.31
446.908	90.31
447.129	88.31
447.35	82.31
447.571	75.31
447.792	88.31
448.013	96.31
448.234	102.31
448.455	116.31
448.675	119.31
448.896	117.31
449.117	100.31
449.338	89.31
449.559	123.31
449.779	134.31
450	90.31
450.221	81.31
450.442	85.31
450.662	94.31
450.883	118.31
451.104	102.31
451.324	90.31
451.545	89.31
451.766	99.31
451.986	94.31
452.207	84.31
452.428	109.31
452.648	96.31
452.869	106.31
453.089	125.31
453.31	121.31
453.53	98.31
453.751	91.31
453.971	100.31
454.192	124.31
454.412	107.31
454.633	90.31
454.853	90.31
455.073	86.31
455.294	77.31
455.514	93.31
455.734	84.31
455.955	89.31
456.175	95.31
456.395	76.31
456.616	96.31
456.836	80.31
457.056	84.31
457.276	72.31
457.497	70.31
457.717	79.31
457.937	88.31
458.157	77.31
458.377	93.31
458.598	114.31
458.818	184.31
459.038	164.31
459.258	119.31
459.478	81.31
459.698	89.31
459.918	85.31
460.138	80.31
460.358	76.31
460.578	96.31
460.798	93.31
461.018	92.31
461.238	97.31
461.458	85.31
461.678	93.31
461.898	92.31
462.118	75.31
462.338	70.31
462.558	79.31
462.777	91.31
462.997	80.31
463.217	81.31
463.437	92.31
463.657	83.31
463.876	85.31
464.096	89.31
464.316	101.31
464.536	85.31
464.755	104.31
464.975	102.31
465.195	178.31
465.414	184.31
465.634	97.31
465.854	78.31
466.073	87.31
466.293	87.31
466.512	90.31
466.732	77.31
466.951	89.31
467.171	105.31
467.391	100.31
467.61	114.31
467.829	100.31
468.049	115.31
468.268	113.31
468.488	84.31
468.707	84.31
468.927	84.31
469.146	94.31
469.365	87.31
469.585	80.31
469.804	86.31
470.023	96.31
470.243	102.31
470.462	96.31
470.681	107.31
470.901	96.31
471.12	83.31
471.339	85.31
471.558	95.31
471.777	94.31
471.997	110.31
472.216	142.31
472.435	197.31
472.654	107.31
472.873	90.31
473.092	94.31
473.311	66.31
473.53	81.31
473.749	85.31
473.968	105.31
474.187	108.31
474.406	87.31
474.625	84.31
474.844	102.31
475.063	86.31
475.282	86.31
475.501	93.31
475.72	89.31
475.939	84.31
476.158	80.31
476.377	66.31
476.596	82.31
476.814	91.31
477.033	81.31
477.252	89.31
477.471	84.31
477.69	78.31
477.908	78.31
478.127	90.31
478.346	89.31
478.564	90.31
478.783	90.31
479.002	95.31
479.22	87.31
479.439	107.31
479.658	98.31
479.876	95.31
480.095	93.31
480.313	104.31
480.532	98.31
480.751	107.31
480.969	133.31
481.188	276.31
481.406	247.31
481.624	105.31
481.843	96.31
482.061	91.31
482.28	81.31
482.498	84.31
482.717	94.31
482.935	74.31
483.153	89.31
483.372	93.31
483.59	94.31
483.808	115.31
484.027	89.31
484.245	85.31
484.463	99.31
484.681	86.31
484.9	98.31
485.118	89.31
485.336	72.31
485.554	89.31
485.772	102.31
485.99	98.31
486.209	97.31
486.427	101.31
486.645	107.31
486.863	94.31
487.081	84.31
487.299	96.31
487.517	107.31
487.735	91.31
487.953	87.31
488.171	100.31
488.389	93.31
488.607	97.31
488.825	93.31
489.043	79.31
489.261	97.31
489.479	78.31
489.696	77.31
489.914	77.31
490.132	88.31
490.35	77.31
490.568	85.31
490.786	100.31
491.003	84.31
491.221	98.31
491.439	97.31
491.657	91.31
491.874	81.31
492.092	91.31
492.31	88.31
492.527	113.31
492.745	87.31
492.963	83.31
493.18	86.31
493.398	92.31
493.615	89.31
493.833	102.31
494.05	86.31
494.268	82.31
494.485	89.31
494.703	74.31
494.92	94.31
495.138	85.31
495.355	86.31
495.573	82.31
495.79	86.31
496.008	73.31
496.225	87.31
496.442	92.31
496.66	90.31
496.877	83.31
497.094	83.31
497.312	90.31
497.529	105.31
497.746	96.31
497.963	72.31
498.181	85.31
498.398	107.31
498.615	109.31
498.832	117.31
499.049	82.31
499.267	94.31
499.484	100.31
499.701	94.31
499.918	88.31
500.135	79.31
500.352	94.31
500.569	96.31
500.786	101.31
501.003	84.31
501.22	85.31
501.437	70.31
501.654	100.31
501.871	104.31
502.088	76.31
502.305	95.31
502.522	99.31
502.739	85.31
502.956	84.31
503.172	92.31
503.389	101.31
503.606	102.31
503.823	99.31
504.04	85.31
504.256	97.31
504.473	93.31
504.69	96.31
504.907	98.31
505.123	93.31
505.34	73.31
505.557	90.31
505.773	84.31
505.99	87.31
506.207	72.31
506.423	107.31
506.64	89.31
506.856	89.31
507.073	103.31
507.289	100.31
507.506	102.31
507.722	105.31
507.939	120.31
508.155	99.31
508.372	101.31
508.588	88.31
508.805	86.31
509.021	96.31
509.238	92.31
509.454	96.31
509.67	94.31
509.887	112.31
510.103	133.31
510.319	210.31
510.536	824.31
510.752	2824.31
510.968	832.31
511.184	163.31
511.401	105.31
511.617	105.31
511.833	88.31
512.049	72.31
512.265	92.31
512.481	93.31
512.698	99.31
512.914	84.31
513.13	99.31
513.346	87.31
513.562	84.31
513.778	103.31
513.994	98.31
514.21	96.31
514.426	101.31
514.642	141.31
514.858	132.31
515.074	199.31
515.29	507.31
515.506	1856.31
515.721	680.31
515.937	167.31
