Data from Circ_2014_H10_HRD10591_00090.txt Node
Date: Wed Jan 03 10:02:27 EST 2024
User: Yrep
Spectrometer: HR+D1059
Trigger mode: 1
Integration Time (sec): 1.000000E-1
Scans to average: 1
Electric dark correction enabled: true
Nonlinearity correction enabled: false
Boxcar width: 0
XAxis mode: Wavelengths
Number of Pixels in Spectrum: 2048
>>>>>Begin Spectral Data<<<<<
223.165	-11.88
223.4	-11.88
223.635	-11.88
223.869	-6.88
224.104	-24.88
224.338	-11.88
224.573	-16.88
224.808	-8.88
225.042	-4.88
225.277	-7.88
225.511	-3.88
225.746	0.12
225.98	5.12
226.215	7.12
226.449	24.12
226.683	19.12
226.918	2.12
227.152	40.12
227.387	31.12
227.621	36.12
227.856	42.12
228.09	56.12
228.324	51.12
228.559	65.12
228.793	51.12
229.027	48.12
229.262	64.12
229.496	77.12
229.73	68.12
229.964	78.12
230.199	66.12
230.433	75.12
230.667	82.12
230.901	72.12
231.136	74.12
231.37	60.12
231.604	69.12
231.838	80.12
232.072	70.12
232.306	86.12
232.541	83.12
232.775	83.12
233.009	86.12
233.243	76.12
233.477	87.12
233.711	80.12
233.945	79.12
234.179	81.12
234.413	68.12
234.647	79.12
234.881	79.12
235.115	73.12
235.349	72.12
235.583	75.12
235.817	73.12
236.051	58.12
236.285	76.12
236.519	78.12
236.753	82.12
236.987	83.12
237.221	90.12
237.455	87.12
237.689	75.12
237.922	63.12
238.156	84.12
238.39	69.12
238.624	57.12
238.858	72.12
239.091	88.12
239.325	69.12
239.559	75.12
239.793	66.12
240.027	68.12
240.26	85.12
240.494	83.12
240.728	72.12
240.961	87.12
241.195	86.12
241.429	71.12
241.662	69.12
241.896	74.12
242.13	78.12
242.363	59.12
242.597	89.12
242.83	78.12
243.064	72.12
243.298	78.12
243.531	86.12
243.765	67.12
243.998	79.12
244.232	70.12
244.465	82.12
244.699	84.12
244.932	85.12
245.166	75.12
245.399	62.12
245.633	62.12
245.866	83.12
246.099	78.12
246.333	83.12
246.566	77.12
246.8	71.12
247.033	64.12
247.266	76.12
247.5	81.12
247.733	76.12
247.966	72.12
248.2	84.12
248.433	91.12
248.666	76.12
248.899	74.12
249.133	79.12
249.366	95.12
249.599	96.12
249.832	81.12
250.066	90.12
250.299	101.12
250.532	84.12
250.765	91.12
250.998	88.12
251.231	68.12
251.465	77.12
251.698	89.12
251.931	71.12
252.164	84.12
252.397	77.12
252.63	89.12
252.863	85.12
253.096	67.12
253.329	79.12
253.562	72.12
253.795	83.12
254.028	93.12
254.261	83.12
254.494	69.12
254.727	74.12
254.96	83.12
255.193	87.12
255.426	74.12
255.659	52.12
255.892	88.12
256.124	70.12
256.357	78.12
256.59	88.12
256.823	83.12
257.056	86.12
257.289	74.12
257.521	76.12
257.754	72.12
257.987	76.12
258.22	74.12
258.452	83.12
258.685	71.12
258.918	78.12
259.151	81.12
259.383	87.12
259.616	90.12
259.849	84.12
260.081	75.12
260.314	73.12
260.547	89.12
260.779	66.12
261.012	89.12
261.244	77.12
261.477	87.12
261.71	101.12
261.942	112.12
262.175	99.12
262.407	87.12
262.64	86.12
262.872	89.12
263.105	86.12
263.337	78.12
263.57	87.12
263.802	83.12
264.035	84.12
264.267	77.12
264.499	88.12
264.732	77.12
264.964	87.12
265.197	88.12
265.429	88.12
265.661	77.12
265.894	75.12
266.126	85.12
266.358	87.12
266.591	77.12
266.823	86.12
267.055	83.12
267.287	81.12
267.52	74.12
267.752	83.12
267.984	75.12
268.216	73.12
268.448	84.12
268.681	90.12
268.913	64.12
269.145	81.12
269.377	91.12
269.609	81.12
269.841	92.12
270.073	76.12
270.306	87.12
270.538	67.12
270.77	77.12
271.002	73.12
271.234	85.12
271.466	91.12
271.698	84.12
271.93	87.12
272.162	91.12
272.394	81.12
272.626	91.12
272.858	85.12
273.09	84.12
273.322	91.12
273.553	83.12
273.785	85.12
274.017	89.12
274.249	87.12
274.481	70.12
274.713	77.12
274.945	73.12
275.176	81.12
275.408	82.12
275.64	76.12
275.872	93.12
276.104	94.12
276.335	87.12
276.567	84.12
276.799	100.12
277.031	92.12
277.262	87.12
277.494	108.12
277.726	97.12
277.957	85.12
278.189	79.12
278.421	79.12
278.652	81.12
278.884	88.12
279.115	90.12
279.347	74.12
279.579	88.12
279.81	81.12
280.042	87.12
280.273	100.12
280.505	101.12
280.736	93.12
280.968	91.12
281.199	92.12
281.431	73.12
281.662	90.12
281.894	74.12
282.125	95.12
282.356	123.12
282.588	135.12
282.819	103.12
283.051	94.12
283.282	94.12
283.513	89.12
283.745	80.12
283.976	83.12
284.207	88.12
284.439	84.12
284.67	103.12
284.901	84.12
285.132	90.12
285.364	81.12
285.595	89.12
285.826	81.12
286.057	61.12
286.288	84.12
286.52	84.12
286.751	69.12
286.982	88.12
287.213	85.12
287.444	86.12
287.675	98.12
287.906	89.12
288.138	81.12
288.369	72.12
288.6	98.12
288.831	80.12
289.062	85.12
289.293	92.12
289.524	83.12
289.755	92.12
289.986	82.12
290.217	82.12
290.448	97.12
290.679	86.12
290.91	81.12
291.141	81.12
291.371	75.12
291.602	91.12
291.833	92.12
292.064	77.12
292.295	92.12
292.526	80.12
292.757	86.12
292.987	82.12
293.218	80.12
293.449	84.12
293.68	88.12
293.91	82.12
294.141	88.12
294.372	87.12
294.603	93.12
294.833	86.12
295.064	91.12
295.295	86.12
295.525	78.12
295.756	95.12
295.987	102.12
296.217	117.12
296.448	124.12
296.679	99.12
296.909	84.12
297.14	95.12
297.37	83.12
297.601	83.12
297.831	83.12
298.062	90.12
298.292	88.12
298.523	86.12
298.753	86.12
298.984	84.12
299.214	84.12
299.445	108.12
299.675	106.12
299.905	102.12
300.136	82.12
300.366	75.12
300.597	96.12
300.827	96.12
301.057	105.12
301.288	102.12
301.518	98.12
301.748	78.12
301.979	97.12
302.209	80.12
302.439	96.12
302.669	90.12
302.9	92.12
303.13	95.12
303.36	86.12
303.59	99.12
303.82	102.12
304.051	80.12
304.281	86.12
304.511	102.12
304.741	90.12
304.971	78.12
305.201	77.12
305.431	90.12
305.661	92.12
305.891	106.12
306.121	114.12
306.352	100.12
306.582	100.12
306.812	92.12
307.042	81.12
307.272	85.12
307.502	95.12
307.731	92.12
307.961	103.12
308.191	92.12
308.421	88.12
308.651	85.12
308.881	99.12
309.111	79.12
309.341	92.12
309.571	95.12
309.8	96.12
310.03	92.12
310.26	91.12
310.49	101.12
310.72	100.12
310.949	99.12
311.179	101.12
311.409	91.12
311.639	106.12
311.868	97.12
312.098	77.12
312.328	87.12
312.557	120.12
312.787	110.12
313.017	96.12
313.246	94.12
313.476	88.12
313.706	93.12
313.935	97.12
314.165	98.12
314.394	105.12
314.624	93.12
314.853	92.12
315.083	76.12
315.312	87.12
315.542	88.12
315.771	92.12
316.001	96.12
316.23	88.12
316.46	93.12
316.689	78.12
316.919	87.12
317.148	99.12
317.377	89.12
317.607	86.12
317.836	111.12
318.065	90.12
318.295	84.12
318.524	85.12
318.753	87.12
318.983	86.12
319.212	101.12
319.441	116.12
319.67	111.12
319.9	92.12
320.129	95.12
320.358	82.12
320.587	103.12
320.816	76.12
321.046	100.12
321.275	92.12
321.504	98.12
321.733	93.12
321.962	98.12
322.191	94.12
322.42	111.12
322.649	112.12
322.878	110.12
323.108	126.12
323.337	127.12
323.566	127.12
323.795	150.12
324.024	210.12
324.253	387.12
324.482	812.12
324.71	1617.12
324.939	2127.12
325.168	801.12
325.397	240.12
325.626	156.12
325.855	111.12
326.084	108.12
326.313	113.12
326.542	154.12
326.77	217.12
326.999	456.12
327.228	919.12
327.457	1644.12
327.686	1331.12
327.914	391.12
328.143	207.12
328.372	181.12
328.6	143.12
328.829	123.12
329.058	135.12
329.287	147.12
329.515	125.12
329.744	112.12
329.972	146.12
330.201	179.12
330.43	236.12
330.658	177.12
330.887	157.12
331.115	134.12
331.344	118.12
331.572	106.12
331.801	99.12
332.03	111.12
332.258	83.12
332.486	84.12
332.715	99.12
332.943	78.12
333.172	105.12
333.4	97.12
333.629	120.12
333.857	114.12
334.085	149.12
334.314	186.12
334.542	265.12
334.771	274.12
334.999	151.12
335.227	95.12
335.455	104.12
335.684	107.12
335.912	94.12
336.14	100.12
336.369	102.12
336.597	98.12
336.825	84.12
337.053	86.12
337.281	89.12
337.51	106.12
337.738	82.12
337.966	96.12
338.194	105.12
338.422	104.12
338.65	82.12
338.878	104.12
339.106	87.12
339.334	82.12
339.562	83.12
339.79	87.12
340.018	87.12
340.246	98.12
340.474	83.12
340.702	87.12
340.93	88.12
341.158	84.12
341.386	91.12
341.614	108.12
341.842	97.12
342.07	91.12
342.298	98.12
342.526	80.12
342.754	86.12
342.981	90.12
343.209	78.12
343.437	84.12
343.665	72.12
343.893	90.12
344.12	100.12
344.348	77.12
344.576	77.12
344.804	84.12
345.031	101.12
345.259	102.12
345.487	92.12
345.714	84.12
345.942	84.12
346.17	86.12
346.397	85.12
346.625	102.12
346.853	81.12
347.08	101.12
347.308	94.12
347.535	95.12
347.763	88.12
347.99	98.12
348.218	95.12
348.445	97.12
348.673	95.12
348.9	102.12
349.128	92.12
349.355	83.12
349.583	84.12
349.81	121.12
350.037	82.12
350.265	91.12
350.492	72.12
350.72	88.12
350.947	90.12
351.174	105.12
351.402	104.12
351.629	106.12
351.856	99.12
352.083	104.12
352.311	112.12
352.538	108.12
352.765	93.12
352.992	108.12
353.22	107.12
353.447	83.12
353.674	91.12
353.901	95.12
354.128	99.12
354.355	102.12
354.583	100.12
354.81	93.12
355.037	94.12
355.264	79.12
355.491	72.12
355.718	93.12
355.945	85.12
356.172	88.12
356.399	97.12
356.626	91.12
356.853	96.12
357.08	95.12
357.307	99.12
357.534	92.12
357.761	92.12
357.988	86.12
358.215	91.12
358.441	92.12
358.668	99.12
358.895	84.12
359.122	99.12
359.349	97.12
359.576	96.12
359.802	88.12
360.029	114.12
360.256	111.12
360.483	91.12
360.709	87.12
360.936	99.12
361.163	86.12
361.39	77.12
361.616	98.12
361.843	95.12
362.07	88.12
362.296	91.12
362.523	96.12
362.749	87.12
362.976	86.12
363.203	81.12
363.429	80.12
363.656	87.12
363.882	91.12
364.109	82.12
364.335	80.12
364.562	97.12
364.788	102.12
365.015	88.12
365.241	103.12
365.468	108.12
365.694	109.12
365.92	98.12
366.147	98.12
366.373	91.12
366.599	89.12
366.826	88.12
367.052	102.12
367.278	91.12
367.505	90.12
367.731	94.12
367.957	97.12
368.184	98.12
368.41	99.12
368.636	114.12
368.862	113.12
369.089	113.12
369.315	92.12
369.541	89.12
369.767	89.12
369.993	87.12
370.219	84.12
370.445	75.12
370.672	84.12
370.898	90.12
371.124	88.12
371.35	75.12
371.576	72.12
371.802	78.12
372.028	61.12
372.254	82.12
372.48	89.12
372.706	95.12
372.932	89.12
373.158	88.12
373.384	87.12
373.61	83.12
373.835	87.12
374.061	87.12
374.287	87.12
374.513	87.12
374.739	81.12
374.965	90.12
375.191	81.12
375.416	87.12
375.642	84.12
375.868	79.12
376.094	74.12
376.319	77.12
376.545	92.12
376.771	85.12
376.997	90.12
377.222	75.12
377.448	86.12
377.674	88.12
377.899	90.12
378.125	87.12
378.35	92.12
378.576	84.12
378.802	104.12
379.027	88.12
379.253	87.12
379.478	95.12
379.704	94.12
379.929	89.12
380.155	103.12
380.38	91.12
380.606	81.12
380.831	95.12
381.057	89.12
381.282	104.12
381.507	88.12
381.733	86.12
381.958	84.12
382.184	80.12
382.409	91.12
382.634	96.12
382.86	108.12
383.085	88.12
383.31	90.12
383.535	96.12
383.761	97.12
383.986	93.12
384.211	95.12
384.436	100.12
384.662	98.12
384.887	93.12
385.112	91.12
385.337	106.12
385.562	99.12
385.787	113.12
386.013	113.12
386.238	116.12
386.463	104.12
386.688	104.12
386.913	103.12
387.138	118.12
387.363	95.12
387.588	98.12
387.813	99.12
388.038	108.12
388.263	119.12
388.488	121.12
388.713	92.12
388.938	105.12
389.163	89.12
389.387	90.12
389.612	96.12
389.837	98.12
390.062	100.12
390.287	94.12
390.512	91.12
390.736	97.12
390.961	91.12
391.186	89.12
391.411	92.12
391.636	79.12
391.86	81.12
392.085	85.12
392.31	85.12
392.534	84.12
392.759	87.12
392.984	93.12
393.208	104.12
393.433	92.12
393.658	80.12
393.882	82.12
394.107	91.12
394.331	79.12
394.556	80.12
394.78	81.12
395.005	79.12
395.229	84.12
395.454	90.12
395.678	87.12
395.903	81.12
396.127	80.12
396.352	100.12
396.576	90.12
396.801	81.12
397.025	86.12
397.249	74.12
397.474	67.12
397.698	87.12
397.922	77.12
398.147	93.12
398.371	84.12
398.595	79.12
398.82	86.12
399.044	82.12
399.268	81.12
399.492	95.12
399.717	97.12
399.941	94.12
400.165	87.12
400.389	89.12
400.613	69.12
400.837	86.12
401.062	83.12
401.286	74.12
401.51	98.12
401.734	92.12
401.958	102.12
402.182	124.12
402.406	148.12
402.63	128.12
402.854	97.12
403.078	99.12
403.302	94.12
403.526	86.12
403.75	92.12
403.974	91.12
404.198	103.12
404.422	78.12
404.645	83.12
404.869	84.12
405.093	94.12
405.317	104.12
405.541	102.12
405.765	104.12
405.988	114.12
406.212	164.12
406.436	216.12
406.66	148.12
406.883	107.12
407.107	89.12
407.331	99.12
407.555	96.12
407.778	90.12
408.002	90.12
408.226	89.12
408.449	81.12
408.673	79.12
408.896	94.12
409.12	88.12
409.344	87.12
409.567	92.12
409.791	82.12
410.014	83.12
410.238	64.12
410.461	79.12
410.685	83.12
410.908	97.12
411.132	95.12
411.355	82.12
411.578	97.12
411.802	84.12
412.025	99.12
412.249	90.12
412.472	97.12
412.695	82.12
412.919	92.12
413.142	80.12
413.365	71.12
413.589	83.12
413.812	72.12
414.035	79.12
414.258	92.12
414.482	87.12
414.705	91.12
414.928	95.12
415.151	87.12
415.374	107.12
415.597	85.12
415.821	88.12
416.044	76.12
416.267	84.12
416.49	90.12
416.713	78.12
416.936	91.12
417.159	84.12
417.382	92.12
417.605	103.12
417.828	91.12
418.051	91.12
418.274	97.12
418.497	86.12
418.72	83.12
418.943	91.12
419.166	79.12
419.389	91.12
419.611	81.12
419.834	81.12
420.057	83.12
420.28	89.12
420.503	91.12
420.726	86.12
420.948	83.12
421.171	89.12
421.394	87.12
421.617	75.12
421.839	77.12
422.062	96.12
422.285	88.12
422.507	97.12
422.73	102.12
422.953	100.12
423.175	75.12
423.398	88.12
423.621	96.12
423.843	79.12
424.066	67.12
424.288	96.12
424.511	96.12
424.733	95.12
424.956	113.12
425.178	116.12
425.401	102.12
425.623	91.12
425.846	86.12
426.068	91.12
426.291	84.12
426.513	89.12
426.735	83.12
426.958	92.12
427.18	111.12
427.402	141.12
427.625	171.12
427.847	159.12
428.069	131.12
428.292	95.12
428.514	88.12
428.736	90.12
428.958	78.12
429.181	90.12
429.403	89.12
429.625	90.12
429.847	103.12
430.069	104.12
430.292	88.12
430.514	88.12
430.736	82.12
430.958	82.12
431.18	94.12
431.402	92.12
431.624	83.12
431.846	90.12
432.068	91.12
432.29	89.12
432.512	79.12
432.734	85.12
432.956	86.12
433.178	94.12
433.4	88.12
433.622	87.12
433.844	92.12
434.066	77.12
434.287	100.12
434.509	89.12
434.731	84.12
434.953	77.12
435.175	81.12
435.397	95.12
435.618	83.12
435.84	96.12
436.062	114.12
436.284	121.12
436.505	114.12
436.727	89.12
436.949	97.12
437.17	83.12
437.392	85.12
437.614	99.12
437.835	108.12
438.057	124.12
438.278	113.12
438.5	100.12
438.721	125.12
438.943	78.12
439.165	78.12
439.386	75.12
439.608	92.12
439.829	106.12
440.05	115.12
440.272	133.12
440.493	101.12
440.715	97.12
440.936	88.12
441.158	93.12
441.379	76.12
441.6	96.12
441.822	104.12
442.043	89.12
442.264	113.12
442.486	90.12
442.707	89.12
442.928	101.12
443.149	133.12
443.371	122.12
443.592	106.12
443.813	99.12
444.034	110.12
444.255	91.12
444.476	80.12
444.698	83.12
444.919	76.12
445.14	145.12
445.361	113.12
445.582	124.12
445.803	147.12
446.024	136.12
446.245	131.12
446.466	126.12
446.687	77.12
446.908	95.12
447.129	79.12
447.35	103.12
447.571	108.12
447.792	85.12
448.013	100.12
448.234	106.12
448.455	88.12
448.675	113.12
448.896	111.12
449.117	113.12
449.338	107.12
449.559	115.12
449.779	124.12
450	84.12
450.221	90.12
450.442	89.12
450.662	97.12
450.883	97.12
451.104	103.12
451.324	87.12
451.545	98.12
451.766	80.12
451.986	90.12
452.207	76.12
452.428	91.12
452.648	99.12
452.869	98.12
453.089	118.12
453.31	120.12
453.53	90.12
453.751	95.12
453.971	84.12
454.192	119.12
454.412	99.12
454.633	96.12
454.853	71.12
455.073	94.12
455.294	79.12
455.514	98.12
455.734	89.12
455.955	72.12
456.175	89.12
456.395	91.12
456.616	75.12
456.836	70.12
457.056	91.12
457.276	81.12
457.497	99.12
457.717	87.12
457.937	84.12
458.157	77.12
458.377	89.12
458.598	106.12
458.818	153.12
459.038	149.12
459.258	113.12
459.478	85.12
459.698	101.12
459.918	84.12
460.138	83.12
460.358	82.12
460.578	87.12
460.798	95.12
461.018	107.12
461.238	84.12
461.458	72.12
461.678	95.12
461.898	85.12
462.118	84.12
462.338	84.12
462.558	90.12
462.777	75.12
462.997	77.12
463.217	95.12
463.437	71.12
463.657	82.12
463.876	80.12
464.096	85.12
464.316	99.12
464.536	101.12
464.755	86.12
464.975	107.12
465.195	156.12
465.414	159.12
465.634	102.12
465.854	77.12
466.073	90.12
466.293	88.12
466.512	106.12
466.732	91.12
466.951	95.12
467.171	94.12
467.391	101.12
467.61	95.12
467.829	95.12
468.049	133.12
468.268	150.12
468.488	97.12
468.707	85.12
468.927	83.12
469.146	91.12
469.365	100.12
469.585	96.12
469.804	109.12
470.023	93.12
470.243	97.12
470.462	95.12
470.681	107.12
470.901	89.12
471.12	87.12
471.339	100.12
471.558	84.12
471.777	87.12
471.997	112.12
472.216	208.12
472.435	346.12
472.654	128.12
472.873	83.12
473.092	78.12
473.311	91.12
473.53	83.12
473.749	84.12
473.968	93.12
474.187	111.12
474.406	86.12
474.625	85.12
474.844	86.12
475.063	74.12
475.282	83.12
475.501	91.12
475.72	84.12
475.939	87.12
476.158	90.12
476.377	98.12
476.596	77.12
476.814	90.12
477.033	100.12
477.252	88.12
477.471	89.12
477.69	77.12
477.908	96.12
478.127	103.12
478.346	83.12
478.564	101.12
478.783	104.12
479.002	98.12
479.22	84.12
479.439	104.12
479.658	113.12
479.876	77.12
480.095	100.12
480.313	83.12
480.532	97.12
480.751	124.12
480.969	199.12
481.188	542.12
481.406	383.12
481.624	111.12
481.843	91.12
482.061	93.12
482.28	84.12
482.498	103.12
482.717	77.12
482.935	85.12
483.153	89.12
483.372	83.12
483.59	95.12
483.808	83.12
484.027	83.12
484.245	76.12
484.463	88.12
484.681	88.12
484.9	84.12
485.118	93.12
485.336	98.12
485.554	111.12
485.772	86.12
485.99	96.12
486.209	104.12
486.427	98.12
486.645	103.12
486.863	118.12
487.081	96.12
487.299	95.12
487.517	98.12
487.735	94.12
487.953	88.12
488.171	85.12
488.389	97.12
488.607	101.12
488.825	93.12
489.043	86.12
489.261	100.12
489.479	79.12
489.696	87.12
489.914	94.12
490.132	106.12
490.35	93.12
490.568	76.12
490.786	84.12
491.003	89.12
491.221	93.12
491.439	88.12
491.657	69.12
491.874	102.12
492.092	100.12
492.31	95.12
492.527	78.12
492.745	95.12
492.963	87.12
493.18	96.12
493.398	90.12
493.615	98.12
493.833	80.12
494.05	88.12
494.268	83.12
494.485	92.12
494.703	72.12
494.92	93.12
495.138	82.12
495.355	92.12
495.573	92.12
495.79	92.12
496.008	99.12
496.225	79.12
496.442	81.12
496.66	86.12
496.877	90.12
497.094	99.12
497.312	100.12
497.529	88.12
497.746	83.12
497.963	93.12
498.181	101.12
498.398	88.12
498.615	101.12
498.832	103.12
499.049	91.12
499.267	88.12
499.484	93.12
499.701	85.12
499.918	93.12
500.135	88.12
500.352	97.12
500.569	81.12
500.786	83.12
501.003	82.12
501.22	91.12
501.437	87.12
501.654	87.12
501.871	106.12
502.088	93.12
502.305	90.12
502.522	73.12
502.739	75.12
502.956	92.12
503.172	93.12
503.389	96.12
503.606	108.12
503.823	88.12
504.04	93.12
504.256	93.12
504.473	80.12
504.69	90.12
504.907	91.12
505.123	91.12
505.34	112.12
505.557	97.12
505.773	75.12
505.99	91.12
506.207	85.12
506.423	81.12
506.64	87.12
506.856	89.12
507.073	87.12
507.289	101.12
507.506	94.12
507.722	106.12
507.939	101.12
508.155	100.12
508.372	105.12
508.588	89.12
508.805	80.12
509.021	89.12
509.238	87.12
509.454	94.12
509.67	95.12
509.887	112.12
510.103	130.12
510.319	198.12
510.536	714.12
510.752	2404.12
510.968	670.12
511.184	156.12
511.401	120.12
511.617	105.12
511.833	91.12
512.049	83.12
512.265	92.12
512.481	89.12
512.698	96.12
512.914	82.12
513.13	90.12
513.346	83.12
513.562	92.12
513.778	86.12
513.994	89.12
514.21	98.12
514.426	127.12
514.642	157.12
514.858	124.12
515.074	169.12
515.29	466.12
515.506	1557.12
515.721	573.12
515.937	141.12
