Data from Circ_2014_H10_HRD10591_00040.txt Node
Date: Wed Jan 03 10:02:17 EST 2024
User: Yrep
Spectrometer: HR+D1059
Trigger mode: 1
Integration Time (sec): 1.000000E-1
Scans to average: 1
Electric dark correction enabled: true
Nonlinearity correction enabled: false
Boxcar width: 0
XAxis mode: Wavelengths
Number of Pixels in Spectrum: 2048
>>>>>Begin Spectral Data<<<<<
223.165	-9.81
223.4	-9.81
223.635	-9.81
223.869	-21.81
224.104	-30.81
224.338	-1.81
224.573	-5.81
224.808	-19.81
225.042	-9.81
225.277	0.19
225.511	-5.81
225.746	0.19
225.98	7.19
226.215	13.19
226.449	13.19
226.683	15.19
226.918	33.19
227.152	23.19
227.387	27.19
227.621	38.19
227.856	44.19
228.09	53.19
228.324	58.19
228.559	62.19
228.793	67.19
229.027	57.19
229.262	55.19
229.496	64.19
229.73	71.19
229.964	86.19
230.199	82.19
230.433	78.19
230.667	70.19
230.901	72.19
231.136	53.19
231.37	85.19
231.604	72.19
231.838	65.19
232.072	78.19
232.306	72.19
232.541	76.19
232.775	73.19
233.009	71.19
233.243	73.19
233.477	77.19
233.711	76.19
233.945	82.19
234.179	90.19
234.413	82.19
234.647	75.19
234.881	72.19
235.115	84.19
235.349	72.19
235.583	73.19
235.817	80.19
236.051	83.19
236.285	78.19
236.519	64.19
236.753	83.19
236.987	70.19
237.221	87.19
237.455	85.19
237.689	71.19
237.922	68.19
238.156	71.19
238.39	72.19
238.624	72.19
238.858	89.19
239.091	77.19
239.325	72.19
239.559	81.19
239.793	82.19
240.027	82.19
240.26	73.19
240.494	83.19
240.728	88.19
240.961	79.19
241.195	84.19
241.429	59.19
241.662	76.19
241.896	84.19
242.13	76.19
242.363	73.19
242.597	82.19
242.83	76.19
243.064	64.19
243.298	74.19
243.531	64.19
243.765	78.19
243.998	74.19
244.232	81.19
244.465	79.19
244.699	66.19
244.932	73.19
245.166	66.19
245.399	69.19
245.633	74.19
245.866	84.19
246.099	66.19
246.333	81.19
246.566	74.19
246.8	79.19
247.033	72.19
247.266	82.19
247.5	88.19
247.733	76.19
247.966	65.19
248.2	81.19
248.433	73.19
248.666	81.19
248.899	85.19
249.133	84.19
249.366	74.19
249.599	90.19
249.832	72.19
250.066	71.19
250.299	75.19
250.532	71.19
250.765	78.19
250.998	81.19
251.231	65.19
251.465	61.19
251.698	79.19
251.931	69.19
252.164	71.19
252.397	51.19
252.63	100.19
252.863	87.19
253.096	64.19
253.329	84.19
253.562	66.19
253.795	69.19
254.028	72.19
254.261	76.19
254.494	76.19
254.727	71.19
254.96	91.19
255.193	81.19
255.426	66.19
255.659	68.19
255.892	62.19
256.124	80.19
256.357	82.19
256.59	77.19
256.823	79.19
257.056	72.19
257.289	88.19
257.521	79.19
257.754	73.19
257.987	72.19
258.22	74.19
258.452	82.19
258.685	70.19
258.918	78.19
259.151	77.19
259.383	74.19
259.616	73.19
259.849	71.19
260.081	81.19
260.314	88.19
260.547	85.19
260.779	70.19
261.012	65.19
261.244	65.19
261.477	85.19
261.71	74.19
261.942	105.19
262.175	129.19
262.407	86.19
262.64	71.19
262.872	82.19
263.105	69.19
263.337	90.19
263.57	69.19
263.802	74.19
264.035	77.19
264.267	65.19
264.499	82.19
264.732	81.19
264.964	72.19
265.197	80.19
265.429	77.19
265.661	73.19
265.894	68.19
266.126	71.19
266.358	85.19
266.591	88.19
266.823	81.19
267.055	83.19
267.287	61.19
267.52	84.19
267.752	75.19
267.984	86.19
268.216	68.19
268.448	86.19
268.681	82.19
268.913	83.19
269.145	69.19
269.377	80.19
269.609	61.19
269.841	84.19
270.073	74.19
270.306	79.19
270.538	86.19
270.77	80.19
271.002	70.19
271.234	89.19
271.466	75.19
271.698	84.19
271.93	80.19
272.162	71.19
272.394	64.19
272.626	95.19
272.858	83.19
273.09	74.19
273.322	80.19
273.553	77.19
273.785	71.19
274.017	77.19
274.249	82.19
274.481	63.19
274.713	84.19
274.945	78.19
275.176	81.19
275.408	73.19
275.64	89.19
275.872	82.19
276.104	80.19
276.335	90.19
276.567	108.19
276.799	103.19
277.031	80.19
277.262	80.19
277.494	79.19
277.726	71.19
277.957	82.19
278.189	69.19
278.421	78.19
278.652	72.19
278.884	75.19
279.115	80.19
279.347	73.19
279.579	83.19
279.81	70.19
280.042	70.19
280.273	77.19
280.505	74.19
280.736	73.19
280.968	83.19
281.199	71.19
281.431	80.19
281.662	71.19
281.894	84.19
282.125	82.19
282.356	112.19
282.588	139.19
282.819	136.19
283.051	87.19
283.282	88.19
283.513	72.19
283.745	70.19
283.976	84.19
284.207	72.19
284.439	80.19
284.67	83.19
284.901	78.19
285.132	70.19
285.364	95.19
285.595	89.19
285.826	89.19
286.057	84.19
286.288	92.19
286.52	74.19
286.751	84.19
286.982	79.19
287.213	79.19
287.444	75.19
287.675	79.19
287.906	69.19
288.138	80.19
288.369	95.19
288.6	100.19
288.831	96.19
289.062	85.19
289.293	73.19
289.524	77.19
289.755	73.19
289.986	88.19
290.217	76.19
290.448	83.19
290.679	82.19
290.91	92.19
291.141	85.19
291.371	98.19
291.602	85.19
291.833	76.19
292.064	87.19
292.295	77.19
292.526	87.19
292.757	78.19
292.987	79.19
293.218	81.19
293.449	85.19
293.68	88.19
293.91	79.19
294.141	86.19
294.372	89.19
294.603	84.19
294.833	93.19
295.064	84.19
295.295	86.19
295.525	71.19
295.756	93.19
295.987	116.19
296.217	140.19
296.448	106.19
296.679	91.19
296.909	89.19
297.14	84.19
297.37	76.19
297.601	83.19
297.831	78.19
298.062	92.19
298.292	92.19
298.523	82.19
298.753	88.19
298.984	85.19
299.214	73.19
299.445	100.19
299.675	77.19
299.905	84.19
300.136	91.19
300.366	83.19
300.597	95.19
300.827	81.19
301.057	82.19
301.288	67.19
301.518	99.19
301.748	87.19
301.979	94.19
302.209	93.19
302.439	78.19
302.669	85.19
302.9	89.19
303.13	81.19
303.36	87.19
303.59	92.19
303.82	97.19
304.051	96.19
304.281	87.19
304.511	94.19
304.741	75.19
304.971	72.19
305.201	80.19
305.431	84.19
305.661	84.19
305.891	95.19
306.121	86.19
306.352	88.19
306.582	98.19
306.812	90.19
307.042	111.19
307.272	86.19
307.502	92.19
307.731	85.19
307.961	80.19
308.191	95.19
308.421	91.19
308.651	73.19
308.881	100.19
309.111	86.19
309.341	99.19
309.571	83.19
309.8	93.19
310.03	93.19
310.26	80.19
310.49	88.19
310.72	110.19
310.949	104.19
311.179	89.19
311.409	102.19
311.639	82.19
311.868	91.19
312.098	81.19
312.328	87.19
312.557	110.19
312.787	112.19
313.017	86.19
313.246	97.19
313.476	80.19
313.706	92.19
313.935	92.19
314.165	104.19
314.394	85.19
314.624	98.19
314.853	87.19
315.083	90.19
315.312	88.19
315.542	83.19
315.771	85.19
316.001	72.19
316.23	76.19
316.46	95.19
316.689	85.19
316.919	86.19
317.148	77.19
317.377	90.19
317.607	88.19
317.836	80.19
318.065	81.19
318.295	87.19
318.524	72.19
318.753	91.19
318.983	90.19
319.212	97.19
319.441	105.19
319.67	108.19
319.9	96.19
320.129	84.19
320.358	81.19
320.587	86.19
320.816	93.19
321.046	93.19
321.275	87.19
321.504	89.19
321.733	90.19
321.962	93.19
322.191	103.19
322.42	102.19
322.649	106.19
322.878	127.19
323.108	109.19
323.337	114.19
323.566	135.19
323.795	145.19
324.024	201.19
324.253	407.19
324.482	807.19
324.71	1650.19
324.939	2180.19
325.168	807.19
325.397	245.19
325.626	140.19
325.855	126.19
326.084	112.19
326.313	108.19
326.542	143.19
326.77	223.19
326.999	430.19
327.228	917.19
327.457	1604.19
327.686	1324.19
327.914	356.19
328.143	194.19
328.372	156.19
328.6	119.19
328.829	117.19
329.058	101.19
329.287	133.19
329.515	94.19
329.744	106.19
329.972	92.19
330.201	117.19
330.43	134.19
330.658	125.19
330.887	136.19
331.115	112.19
331.344	86.19
331.572	84.19
331.801	87.19
332.03	95.19
332.258	89.19
332.486	89.19
332.715	82.19
332.943	73.19
333.172	88.19
333.4	92.19
333.629	103.19
333.857	121.19
334.085	108.19
334.314	105.19
334.542	124.19
334.771	120.19
334.999	95.19
335.227	88.19
335.455	97.19
335.684	92.19
335.912	95.19
336.14	98.19
336.369	108.19
336.597	100.19
336.825	92.19
337.053	74.19
337.281	81.19
337.51	76.19
337.738	86.19
337.966	71.19
338.194	90.19
338.422	87.19
338.65	90.19
338.878	81.19
339.106	81.19
339.334	71.19
339.562	75.19
339.79	95.19
340.018	77.19
340.246	83.19
340.474	95.19
340.702	80.19
340.93	95.19
341.158	88.19
341.386	94.19
341.614	85.19
341.842	78.19
342.07	80.19
342.298	78.19
342.526	86.19
342.754	80.19
342.981	76.19
343.209	73.19
343.437	83.19
343.665	88.19
343.893	72.19
344.12	94.19
344.348	69.19
344.576	82.19
344.804	71.19
345.031	103.19
345.259	88.19
345.487	93.19
345.714	79.19
345.942	75.19
346.17	91.19
346.397	90.19
346.625	96.19
346.853	102.19
347.08	90.19
347.308	100.19
347.535	83.19
347.763	100.19
347.99	94.19
348.218	81.19
348.445	99.19
348.673	85.19
348.9	100.19
349.128	88.19
349.355	81.19
349.583	84.19
349.81	80.19
350.037	74.19
350.265	85.19
350.492	96.19
350.72	82.19
350.947	102.19
351.174	104.19
351.402	111.19
351.629	100.19
351.856	105.19
352.083	95.19
352.311	86.19
352.538	88.19
352.765	105.19
352.992	98.19
353.22	97.19
353.447	106.19
353.674	95.19
353.901	95.19
354.128	78.19
354.355	77.19
354.583	93.19
354.81	102.19
355.037	108.19
355.264	80.19
355.491	88.19
355.718	81.19
355.945	95.19
356.172	93.19
356.399	76.19
356.626	80.19
356.853	95.19
357.08	81.19
357.307	102.19
357.534	107.19
357.761	90.19
357.988	104.19
358.215	87.19
358.441	99.19
358.668	102.19
358.895	83.19
359.122	79.19
359.349	85.19
359.576	88.19
359.802	92.19
360.029	110.19
360.256	112.19
360.483	83.19
360.709	87.19
360.936	93.19
361.163	81.19
361.39	97.19
361.616	94.19
361.843	79.19
362.07	73.19
362.296	87.19
362.523	83.19
362.749	77.19
362.976	92.19
363.203	87.19
363.429	86.19
363.656	87.19
363.882	84.19
364.109	82.19
364.335	91.19
364.562	84.19
364.788	86.19
365.015	100.19
365.241	92.19
365.468	96.19
365.694	99.19
365.92	81.19
366.147	72.19
366.373	89.19
366.599	88.19
366.826	79.19
367.052	90.19
367.278	90.19
367.505	104.19
367.731	89.19
367.957	74.19
368.184	90.19
368.41	91.19
368.636	114.19
368.862	108.19
369.089	120.19
369.315	89.19
369.541	92.19
369.767	84.19
369.993	85.19
370.219	94.19
370.445	82.19
370.672	95.19
370.898	92.19
371.124	85.19
371.35	92.19
371.576	78.19
371.802	101.19
372.028	89.19
372.254	93.19
372.48	82.19
372.706	77.19
372.932	94.19
373.158	89.19
373.384	83.19
373.61	78.19
373.835	79.19
374.061	82.19
374.287	88.19
374.513	79.19
374.739	101.19
374.965	78.19
375.191	70.19
375.416	68.19
375.642	92.19
375.868	95.19
376.094	82.19
376.319	86.19
376.545	89.19
376.771	77.19
376.997	93.19
377.222	86.19
377.448	86.19
377.674	82.19
377.899	88.19
378.125	78.19
378.35	93.19
378.576	74.19
378.802	76.19
379.027	89.19
379.253	63.19
379.478	78.19
379.704	80.19
379.929	86.19
380.155	94.19
380.38	74.19
380.606	81.19
380.831	80.19
381.057	89.19
381.282	96.19
381.507	85.19
381.733	100.19
381.958	96.19
382.184	88.19
382.409	96.19
382.634	91.19
382.86	84.19
383.085	91.19
383.31	99.19
383.535	87.19
383.761	98.19
383.986	99.19
384.211	95.19
384.436	104.19
384.662	100.19
384.887	86.19
385.112	100.19
385.337	98.19
385.562	98.19
385.787	102.19
386.013	110.19
386.238	116.19
386.463	97.19
386.688	109.19
386.913	99.19
387.138	122.19
387.363	92.19
387.588	88.19
387.813	88.19
388.038	98.19
388.263	106.19
388.488	121.19
388.713	82.19
388.938	76.19
389.163	86.19
389.387	99.19
389.612	83.19
389.837	92.19
390.062	100.19
390.287	74.19
390.512	97.19
390.736	80.19
390.961	100.19
391.186	92.19
391.411	91.19
391.636	87.19
391.86	87.19
392.085	81.19
392.31	81.19
392.534	80.19
392.759	91.19
392.984	81.19
393.208	89.19
393.433	89.19
393.658	87.19
393.882	70.19
394.107	93.19
394.331	88.19
394.556	80.19
394.78	82.19
395.005	87.19
395.229	89.19
395.454	83.19
395.678	83.19
395.903	81.19
396.127	83.19
396.352	84.19
396.576	84.19
396.801	72.19
397.025	84.19
397.249	72.19
397.474	93.19
397.698	100.19
397.922	63.19
398.147	70.19
398.371	79.19
398.595	98.19
398.82	92.19
399.044	81.19
399.268	81.19
399.492	78.19
399.717	78.19
399.941	89.19
400.165	78.19
400.389	87.19
400.613	73.19
400.837	73.19
401.062	96.19
401.286	88.19
401.51	85.19
401.734	93.19
401.958	101.19
402.182	121.19
402.406	152.19
402.63	116.19
402.854	80.19
403.078	86.19
403.302	86.19
403.526	82.19
403.75	93.19
403.974	69.19
404.198	80.19
404.422	88.19
404.645	84.19
404.869	97.19
405.093	93.19
405.317	90.19
405.541	97.19
405.765	85.19
405.988	95.19
406.212	186.19
406.436	252.19
406.66	151.19
406.883	99.19
407.107	81.19
407.331	96.19
407.555	87.19
407.778	94.19
408.002	96.19
408.226	83.19
408.449	88.19
408.673	83.19
408.896	84.19
409.12	87.19
409.344	99.19
409.567	85.19
409.791	97.19
410.014	91.19
410.238	76.19
410.461	85.19
410.685	98.19
410.908	85.19
411.132	85.19
411.355	81.19
411.578	92.19
411.802	94.19
412.025	88.19
412.249	72.19
412.472	88.19
412.695	84.19
412.919	62.19
413.142	76.19
413.365	89.19
413.589	77.19
413.812	75.19
414.035	87.19
414.258	84.19
414.482	72.19
414.705	81.19
414.928	104.19
415.151	73.19
415.374	85.19
415.597	70.19
415.821	74.19
416.044	74.19
416.267	74.19
416.49	82.19
416.713	83.19
416.936	89.19
417.159	96.19
417.382	74.19
417.605	87.19
417.828	71.19
418.051	99.19
418.274	80.19
418.497	72.19
418.72	89.19
418.943	80.19
419.166	95.19
419.389	93.19
419.611	65.19
419.834	84.19
420.057	69.19
420.28	81.19
420.503	72.19
420.726	84.19
420.948	74.19
421.171	90.19
421.394	85.19
421.617	75.19
421.839	71.19
422.062	82.19
422.285	89.19
422.507	87.19
422.73	112.19
422.953	80.19
423.175	95.19
423.398	70.19
423.621	90.19
423.843	86.19
424.066	74.19
424.288	82.19
424.511	85.19
424.733	105.19
424.956	98.19
425.178	87.19
425.401	92.19
425.623	87.19
425.846	83.19
426.068	99.19
426.291	80.19
426.513	84.19
426.735	79.19
426.958	83.19
427.18	84.19
427.402	131.19
427.625	161.19
427.847	129.19
428.069	112.19
428.292	97.19
428.514	86.19
428.736	97.19
428.958	64.19
429.181	81.19
429.403	70.19
429.625	80.19
429.847	87.19
430.069	96.19
430.292	80.19
430.514	89.19
430.736	66.19
430.958	83.19
431.18	71.19
431.402	80.19
431.624	82.19
431.846	82.19
432.068	73.19
432.29	71.19
432.512	79.19
432.734	80.19
432.956	79.19
433.178	98.19
433.4	87.19
433.622	79.19
433.844	88.19
434.066	87.19
434.287	88.19
434.509	81.19
434.731	83.19
434.953	74.19
435.175	86.19
435.397	89.19
435.618	76.19
435.84	100.19
436.062	111.19
436.284	101.19
436.505	103.19
436.727	103.19
436.949	81.19
437.17	95.19
437.392	84.19
437.614	98.19
437.835	94.19
438.057	112.19
438.278	104.19
438.5	92.19
438.721	118.19
438.943	90.19
439.165	81.19
439.386	82.19
439.608	89.19
439.829	92.19
440.05	111.19
440.272	126.19
440.493	91.19
440.715	69.19
440.936	85.19
441.158	81.19
441.379	88.19
441.6	79.19
441.822	81.19
442.043	80.19
442.264	102.19
442.486	105.19
442.707	83.19
442.928	97.19
443.149	136.19
443.371	134.19
443.592	105.19
443.813	101.19
444.034	89.19
444.255	86.19
444.476	90.19
444.698	73.19
444.919	101.19
445.14	120.19
445.361	117.19
445.582	106.19
445.803	142.19
446.024	129.19
446.245	133.19
446.466	104.19
446.687	92.19
446.908	85.19
447.129	101.19
447.35	92.19
447.571	96.19
447.792	93.19
448.013	82.19
448.234	86.19
448.455	101.19
448.675	103.19
448.896	108.19
449.117	110.19
449.338	101.19
449.559	130.19
449.779	115.19
450	89.19
450.221	85.19
450.442	93.19
450.662	94.19
450.883	96.19
451.104	125.19
451.324	93.19
451.545	87.19
451.766	84.19
451.986	84.19
452.207	70.19
452.428	81.19
452.648	97.19
452.869	108.19
453.089	129.19
453.31	115.19
453.53	99.19
453.751	98.19
453.971	93.19
454.192	109.19
454.412	95.19
454.633	82.19
454.853	82.19
455.073	82.19
455.294	99.19
455.514	90.19
455.734	78.19
455.955	79.19
456.175	77.19
456.395	90.19
456.616	84.19
456.836	92.19
457.056	88.19
457.276	86.19
457.497	80.19
457.717	86.19
457.937	86.19
458.157	86.19
458.377	91.19
458.598	112.19
458.818	148.19
459.038	168.19
459.258	114.19
459.478	81.19
459.698	73.19
459.918	86.19
460.138	69.19
460.358	93.19
460.578	91.19
460.798	85.19
461.018	90.19
461.238	85.19
461.458	92.19
461.678	90.19
461.898	81.19
462.118	91.19
462.338	68.19
462.558	87.19
462.777	84.19
462.997	80.19
463.217	80.19
463.437	82.19
463.657	74.19
463.876	86.19
464.096	77.19
464.316	99.19
464.536	84.19
464.755	95.19
464.975	102.19
465.195	167.19
465.414	173.19
465.634	103.19
465.854	85.19
466.073	96.19
466.293	80.19
466.512	86.19
466.732	90.19
466.951	66.19
467.171	79.19
467.391	95.19
467.61	84.19
467.829	94.19
468.049	100.19
468.268	92.19
468.488	90.19
468.707	76.19
468.927	78.19
469.146	87.19
469.365	99.19
469.585	86.19
469.804	99.19
470.023	90.19
470.243	101.19
470.462	103.19
470.681	114.19
470.901	81.19
471.12	83.19
471.339	84.19
471.558	82.19
471.777	86.19
471.997	90.19
472.216	105.19
472.435	130.19
472.654	88.19
472.873	81.19
473.092	88.19
473.311	82.19
473.53	91.19
473.749	81.19
473.968	92.19
474.187	95.19
474.406	92.19
474.625	100.19
474.844	91.19
475.063	88.19
475.282	77.19
475.501	74.19
475.72	82.19
475.939	89.19
476.158	86.19
476.377	65.19
476.596	68.19
476.814	86.19
477.033	96.19
477.252	73.19
477.471	87.19
477.69	79.19
477.908	82.19
478.127	86.19
478.346	69.19
478.564	93.19
478.783	85.19
479.002	82.19
479.22	89.19
479.439	98.19
479.658	97.19
479.876	90.19
480.095	81.19
480.313	72.19
480.532	88.19
480.751	87.19
480.969	101.19
481.188	192.19
481.406	158.19
481.624	93.19
481.843	89.19
482.061	96.19
482.28	69.19
482.498	76.19
482.717	84.19
482.935	72.19
483.153	89.19
483.372	91.19
483.59	95.19
483.808	77.19
484.027	85.19
484.245	86.19
484.463	85.19
484.681	97.19
484.9	99.19
485.118	104.19
485.336	88.19
485.554	95.19
485.772	78.19
485.99	98.19
486.209	98.19
486.427	100.19
486.645	116.19
486.863	114.19
487.081	103.19
487.299	86.19
487.517	96.19
487.735	89.19
487.953	80.19
488.171	87.19
488.389	86.19
488.607	91.19
488.825	92.19
489.043	77.19
489.261	83.19
489.479	80.19
489.696	90.19
489.914	93.19
490.132	73.19
490.35	96.19
490.568	82.19
490.786	85.19
491.003	80.19
491.221	80.19
491.439	84.19
491.657	88.19
491.874	83.19
492.092	74.19
492.31	94.19
492.527	80.19
492.745	84.19
492.963	81.19
493.18	77.19
493.398	88.19
493.615	84.19
493.833	89.19
494.05	91.19
494.268	86.19
494.485	88.19
494.703	87.19
494.92	91.19
495.138	67.19
495.355	92.19
495.573	85.19
495.79	87.19
496.008	91.19
496.225	81.19
496.442	83.19
496.66	85.19
496.877	100.19
497.094	92.19
497.312	80.19
497.529	83.19
497.746	78.19
497.963	95.19
498.181	104.19
498.398	89.19
498.615	104.19
498.832	104.19
499.049	71.19
499.267	91.19
499.484	89.19
499.701	73.19
499.918	80.19
500.135	87.19
500.352	84.19
500.569	85.19
500.786	90.19
501.003	81.19
501.22	79.19
501.437	73.19
501.654	89.19
501.871	78.19
502.088	78.19
502.305	89.19
502.522	85.19
502.739	79.19
502.956	84.19
503.172	81.19
503.389	97.19
503.606	104.19
503.823	96.19
504.04	84.19
504.256	105.19
504.473	88.19
504.69	95.19
504.907	76.19
505.123	91.19
505.34	98.19
505.557	80.19
505.773	74.19
505.99	93.19
506.207	76.19
506.423	70.19
506.64	82.19
506.856	78.19
507.073	74.19
507.289	93.19
507.506	104.19
507.722	120.19
507.939	101.19
508.155	92.19
508.372	92.19
508.588	97.19
508.805	95.19
509.021	88.19
509.238	77.19
509.454	98.19
509.67	93.19
509.887	99.19
510.103	144.19
510.319	223.19
510.536	817.19
510.752	2797.19
510.968	802.19
511.184	154.19
511.401	119.19
511.617	100.19
511.833	76.19
512.049	75.19
512.265	87.19
512.481	83.19
512.698	97.19
512.914	100.19
513.13	96.19
513.346	92.19
513.562	83.19
513.778	94.19
513.994	98.19
514.21	101.19
514.426	101.19
514.642	134.19
514.858	148.19
515.074	152.19
515.29	496.19
515.506	1760.19
515.721	648.19
515.937	176.19
516.153	103.19
516.369	85.19
516.585	88.19
516.801	95.19
517.016	82.19
517.232	102.19
