Data from Circ_2014_H10_HRD10591_00043.txt Node
Date: Wed Jan 03 10:02:17 EST 2024
User: Yrep
Spectrometer: HR+D1059
Trigger mode: 1
Integration Time (sec): 1.000000E-1
Scans to average: 1
Electric dark correction enabled: true
Nonlinearity correction enabled: false
Boxcar width: 0
XAxis mode: Wavelengths
Number of Pixels in Spectrum: 2048
>>>>>Begin Spectral Data<<<<<
223.165	-16.69
223.4	-16.69
223.635	-16.69
223.869	-27.69
224.104	-18.69
224.338	-8.69
224.573	-19.69
224.808	-5.69
225.042	0.31
225.277	-13.69
225.511	-7.69
225.746	0.31
225.98	14.31
226.215	14.31
226.449	20.31
226.683	15.31
226.918	29.31
227.152	24.31
227.387	33.31
227.621	41.31
227.856	44.31
228.09	50.31
228.324	43.31
228.559	56.31
228.793	58.31
229.027	54.31
229.262	77.31
229.496	67.31
229.73	84.31
229.964	99.31
230.199	77.31
230.433	66.31
230.667	71.31
230.901	75.31
231.136	67.31
231.37	81.31
231.604	92.31
231.838	78.31
232.072	82.31
232.306	63.31
232.541	76.31
232.775	69.31
233.009	67.31
233.243	83.31
233.477	84.31
233.711	79.31
233.945	83.31
234.179	88.31
234.413	92.31
234.647	72.31
234.881	79.31
235.115	86.31
235.349	92.31
235.583	76.31
235.817	67.31
236.051	94.31
236.285	73.31
236.519	68.31
236.753	92.31
236.987	79.31
237.221	73.31
237.455	93.31
237.689	76.31
237.922	89.31
238.156	83.31
238.39	70.31
238.624	75.31
238.858	88.31
239.091	83.31
239.325	67.31
239.559	69.31
239.793	91.31
240.027	62.31
240.26	69.31
240.494	84.31
240.728	90.31
240.961	74.31
241.195	72.31
241.429	86.31
241.662	74.31
241.896	73.31
242.13	72.31
242.363	73.31
242.597	68.31
242.83	90.31
243.064	73.31
243.298	94.31
243.531	89.31
243.765	85.31
243.998	69.31
244.232	80.31
244.465	82.31
244.699	75.31
244.932	77.31
245.166	79.31
245.399	76.31
245.633	79.31
245.866	65.31
246.099	85.31
246.333	73.31
246.566	81.31
246.8	73.31
247.033	74.31
247.266	83.31
247.5	80.31
247.733	84.31
247.966	86.31
248.2	76.31
248.433	90.31
248.666	82.31
248.899	72.31
249.133	84.31
249.366	84.31
249.599	83.31
249.832	77.31
250.066	74.31
250.299	73.31
250.532	84.31
250.765	75.31
250.998	81.31
251.231	74.31
251.465	73.31
251.698	77.31
251.931	73.31
252.164	87.31
252.397	80.31
252.63	68.31
252.863	84.31
253.096	67.31
253.329	91.31
253.562	97.31
253.795	96.31
254.028	69.31
254.261	82.31
254.494	75.31
254.727	83.31
254.96	91.31
255.193	72.31
255.426	61.31
255.659	88.31
255.892	87.31
256.124	68.31
256.357	76.31
256.59	62.31
256.823	58.31
257.056	75.31
257.289	77.31
257.521	78.31
257.754	78.31
257.987	76.31
258.22	88.31
258.452	71.31
258.685	78.31
258.918	85.31
259.151	73.31
259.383	78.31
259.616	73.31
259.849	84.31
260.081	75.31
260.314	77.31
260.547	97.31
260.779	74.31
261.012	69.31
261.244	80.31
261.477	72.31
261.71	88.31
261.942	117.31
262.175	106.31
262.407	77.31
262.64	73.31
262.872	81.31
263.105	79.31
263.337	98.31
263.57	84.31
263.802	70.31
264.035	78.31
264.267	77.31
264.499	74.31
264.732	64.31
264.964	86.31
265.197	102.31
265.429	85.31
265.661	95.31
265.894	78.31
266.126	78.31
266.358	83.31
266.591	88.31
266.823	80.31
267.055	83.31
267.287	80.31
267.52	72.31
267.752	81.31
267.984	77.31
268.216	68.31
268.448	76.31
268.681	69.31
268.913	74.31
269.145	85.31
269.377	87.31
269.609	72.31
269.841	74.31
270.073	85.31
270.306	85.31
270.538	71.31
270.77	74.31
271.002	94.31
271.234	85.31
271.466	83.31
271.698	72.31
271.93	83.31
272.162	83.31
272.394	85.31
272.626	73.31
272.858	76.31
273.09	77.31
273.322	80.31
273.553	86.31
273.785	88.31
274.017	81.31
274.249	78.31
274.481	85.31
274.713	97.31
274.945	75.31
275.176	68.31
275.408	70.31
275.64	86.31
275.872	97.31
276.104	85.31
276.335	72.31
276.567	95.31
276.799	108.31
277.031	93.31
277.262	78.31
277.494	98.31
277.726	85.31
277.957	91.31
278.189	98.31
278.421	90.31
278.652	77.31
278.884	92.31
279.115	78.31
279.347	80.31
279.579	93.31
279.81	88.31
280.042	71.31
280.273	82.31
280.505	92.31
280.736	87.31
280.968	90.31
281.199	86.31
281.431	87.31
281.662	84.31
281.894	84.31
282.125	85.31
282.356	112.31
282.588	131.31
282.819	110.31
283.051	90.31
283.282	76.31
283.513	83.31
283.745	88.31
283.976	71.31
284.207	104.31
284.439	91.31
284.67	79.31
284.901	77.31
285.132	89.31
285.364	91.31
285.595	85.31
285.826	79.31
286.057	91.31
286.288	80.31
286.52	85.31
286.751	64.31
286.982	95.31
287.213	72.31
287.444	84.31
287.675	80.31
287.906	80.31
288.138	82.31
288.369	87.31
288.6	88.31
288.831	82.31
289.062	84.31
289.293	90.31
289.524	84.31
289.755	97.31
289.986	78.31
290.217	88.31
290.448	75.31
290.679	81.31
290.91	95.31
291.141	83.31
291.371	76.31
291.602	94.31
291.833	92.31
292.064	93.31
292.295	81.31
292.526	77.31
292.757	74.31
292.987	83.31
293.218	77.31
293.449	84.31
293.68	91.31
293.91	72.31
294.141	75.31
294.372	80.31
294.603	83.31
294.833	88.31
295.064	84.31
295.295	93.31
295.525	87.31
295.756	91.31
295.987	123.31
296.217	151.31
296.448	123.31
296.679	91.31
296.909	75.31
297.14	89.31
297.37	99.31
297.601	86.31
297.831	101.31
298.062	90.31
298.292	89.31
298.523	83.31
298.753	89.31
298.984	80.31
299.214	91.31
299.445	90.31
299.675	89.31
299.905	93.31
300.136	94.31
300.366	89.31
300.597	88.31
300.827	85.31
301.057	89.31
301.288	109.31
301.518	96.31
301.748	82.31
301.979	85.31
302.209	79.31
302.439	97.31
302.669	94.31
302.9	90.31
303.13	93.31
303.36	89.31
303.59	92.31
303.82	86.31
304.051	107.31
304.281	86.31
304.511	76.31
304.741	87.31
304.971	84.31
305.201	93.31
305.431	85.31
305.661	92.31
305.891	94.31
306.121	84.31
306.352	93.31
306.582	91.31
306.812	77.31
307.042	91.31
307.272	89.31
307.502	105.31
307.731	109.31
307.961	86.31
308.191	80.31
308.421	91.31
308.651	99.31
308.881	79.31
309.111	92.31
309.341	87.31
309.571	94.31
309.8	102.31
310.03	102.31
310.26	102.31
310.49	93.31
310.72	106.31
310.949	99.31
311.179	112.31
311.409	90.31
311.639	94.31
311.868	102.31
312.098	88.31
312.328	88.31
312.557	97.31
312.787	101.31
313.017	103.31
313.246	89.31
313.476	98.31
313.706	81.31
313.935	99.31
314.165	108.31
314.394	83.31
314.624	94.31
314.853	101.31
315.083	97.31
315.312	104.31
315.542	86.31
315.771	88.31
316.001	84.31
316.23	94.31
316.46	85.31
316.689	98.31
316.919	98.31
317.148	107.31
317.377	95.31
317.607	103.31
317.836	93.31
318.065	86.31
318.295	98.31
318.524	84.31
318.753	103.31
318.983	86.31
319.212	95.31
319.441	102.31
319.67	102.31
319.9	91.31
320.129	103.31
320.358	86.31
320.587	105.31
320.816	100.31
321.046	104.31
321.275	107.31
321.504	91.31
321.733	96.31
321.962	108.31
322.191	87.31
322.42	98.31
322.649	98.31
322.878	103.31
323.108	117.31
323.337	100.31
323.566	112.31
323.795	146.31
324.024	202.31
324.253	359.31
324.482	690.31
324.71	1396.31
324.939	1814.31
325.168	681.31
325.397	235.31
325.626	145.31
325.855	120.31
326.084	127.31
326.313	118.31
326.542	142.31
326.77	196.31
326.999	371.31
327.228	798.31
327.457	1425.31
327.686	1120.31
327.914	316.31
328.143	185.31
328.372	145.31
328.6	99.31
328.829	113.31
329.058	128.31
329.287	130.31
329.515	121.31
329.744	109.31
329.972	106.31
330.201	116.31
330.43	128.31
330.658	128.31
330.887	128.31
331.115	119.31
331.344	100.31
331.572	91.31
331.801	89.31
332.03	93.31
332.258	87.31
332.486	99.31
332.715	94.31
332.943	116.31
333.172	87.31
333.4	101.31
333.629	105.31
333.857	108.31
334.085	105.31
334.314	98.31
334.542	135.31
334.771	116.31
334.999	91.31
335.227	84.31
335.455	102.31
335.684	97.31
335.912	81.31
336.14	90.31
336.369	101.31
336.597	94.31
336.825	73.31
337.053	91.31
337.281	83.31
337.51	87.31
337.738	85.31
337.966	93.31
338.194	102.31
338.422	100.31
338.65	91.31
338.878	82.31
339.106	101.31
339.334	94.31
339.562	73.31
339.79	72.31
340.018	85.31
340.246	98.31
340.474	86.31
340.702	85.31
340.93	108.31
341.158	110.31
341.386	93.31
341.614	108.31
341.842	90.31
342.07	86.31
342.298	100.31
342.526	93.31
342.754	94.31
342.981	97.31
343.209	89.31
343.437	93.31
343.665	84.31
343.893	75.31
344.12	94.31
344.348	83.31
344.576	90.31
344.804	88.31
345.031	94.31
345.259	99.31
345.487	87.31
345.714	101.31
345.942	78.31
346.17	88.31
346.397	99.31
346.625	84.31
346.853	88.31
347.08	97.31
347.308	96.31
347.535	96.31
347.763	94.31
347.99	86.31
348.218	106.31
348.445	105.31
348.673	106.31
348.9	88.31
349.128	90.31
349.355	100.31
349.583	95.31
349.81	88.31
350.037	101.31
350.265	102.31
350.492	95.31
350.72	97.31
350.947	103.31
351.174	102.31
351.402	103.31
351.629	80.31
351.856	104.31
352.083	100.31
352.311	92.31
352.538	116.31
352.765	100.31
352.992	92.31
353.22	116.31
353.447	105.31
353.674	107.31
353.901	82.31
354.128	90.31
354.355	81.31
354.583	89.31
354.81	106.31
355.037	98.31
355.264	119.31
355.491	99.31
355.718	99.31
355.945	85.31
356.172	92.31
356.399	82.31
356.626	94.31
356.853	100.31
357.08	101.31
357.307	92.31
357.534	97.31
357.761	101.31
357.988	96.31
358.215	84.31
358.441	102.31
358.668	96.31
358.895	87.31
359.122	94.31
359.349	88.31
359.576	96.31
359.802	92.31
360.029	93.31
360.256	85.31
360.483	91.31
360.709	91.31
360.936	96.31
361.163	98.31
361.39	99.31
361.616	96.31
361.843	97.31
362.07	96.31
362.296	96.31
362.523	87.31
362.749	91.31
362.976	86.31
363.203	96.31
363.429	77.31
363.656	83.31
363.882	73.31
364.109	81.31
364.335	101.31
364.562	82.31
364.788	78.31
365.015	88.31
365.241	109.31
365.468	102.31
365.694	95.31
365.92	88.31
366.147	101.31
366.373	93.31
366.599	99.31
366.826	72.31
367.052	91.31
367.278	88.31
367.505	85.31
367.731	98.31
367.957	95.31
368.184	94.31
368.41	89.31
368.636	98.31
368.862	114.31
369.089	103.31
369.315	95.31
369.541	96.31
369.767	91.31
369.993	88.31
370.219	91.31
370.445	98.31
370.672	88.31
370.898	88.31
371.124	80.31
371.35	91.31
371.576	104.31
371.802	89.31
372.028	91.31
372.254	78.31
372.48	70.31
372.706	83.31
372.932	98.31
373.158	93.31
373.384	97.31
373.61	82.31
373.835	90.31
374.061	69.31
374.287	83.31
374.513	95.31
374.739	84.31
374.965	81.31
375.191	91.31
375.416	93.31
375.642	87.31
375.868	93.31
376.094	88.31
376.319	84.31
376.545	78.31
376.771	82.31
376.997	99.31
377.222	92.31
377.448	89.31
377.674	82.31
377.899	107.31
378.125	92.31
378.35	97.31
378.576	94.31
378.802	75.31
379.027	81.31
379.253	84.31
379.478	81.31
379.704	88.31
379.929	101.31
380.155	91.31
380.38	83.31
380.606	101.31
380.831	100.31
381.057	98.31
381.282	102.31
381.507	96.31
381.733	112.31
381.958	100.31
382.184	94.31
382.409	86.31
382.634	115.31
382.86	76.31
383.085	90.31
383.31	97.31
383.535	102.31
383.761	89.31
383.986	90.31
384.211	94.31
384.436	100.31
384.662	102.31
384.887	100.31
385.112	102.31
385.337	103.31
385.562	88.31
385.787	110.31
386.013	124.31
386.238	115.31
386.463	113.31
386.688	115.31
386.913	113.31
387.138	117.31
387.363	113.31
387.588	106.31
387.813	95.31
388.038	110.31
388.263	106.31
388.488	103.31
388.713	109.31
388.938	109.31
389.163	106.31
389.387	95.31
389.612	109.31
389.837	84.31
390.062	81.31
390.287	93.31
390.512	92.31
390.736	93.31
390.961	66.31
391.186	89.31
391.411	101.31
391.636	96.31
391.86	94.31
392.085	107.31
392.31	87.31
392.534	79.31
392.759	84.31
392.984	98.31
393.208	83.31
393.433	94.31
393.658	99.31
393.882	99.31
394.107	90.31
394.331	89.31
394.556	85.31
394.78	97.31
395.005	95.31
395.229	85.31
395.454	80.31
395.678	78.31
395.903	83.31
396.127	78.31
396.352	64.31
396.576	81.31
396.801	72.31
397.025	90.31
397.249	81.31
397.474	79.31
397.698	78.31
397.922	81.31
398.147	84.31
398.371	92.31
398.595	84.31
398.82	81.31
399.044	81.31
399.268	84.31
399.492	87.31
399.717	78.31
399.941	90.31
400.165	91.31
400.389	104.31
400.613	84.31
400.837	88.31
401.062	88.31
401.286	98.31
401.51	90.31
401.734	99.31
401.958	95.31
402.182	115.31
402.406	151.31
402.63	103.31
402.854	93.31
403.078	94.31
403.302	89.31
403.526	97.31
403.75	99.31
403.974	86.31
404.198	90.31
404.422	90.31
404.645	80.31
404.869	92.31
405.093	94.31
405.317	106.31
405.541	107.31
405.765	99.31
405.988	116.31
406.212	155.31
406.436	234.31
406.66	142.31
406.883	101.31
407.107	87.31
407.331	96.31
407.555	97.31
407.778	89.31
408.002	95.31
408.226	104.31
408.449	93.31
408.673	88.31
408.896	93.31
409.12	87.31
409.344	88.31
409.567	84.31
409.791	90.31
410.014	106.31
410.238	87.31
410.461	94.31
410.685	107.31
410.908	97.31
411.132	90.31
411.355	90.31
411.578	95.31
411.802	89.31
412.025	99.31
412.249	77.31
412.472	96.31
412.695	89.31
412.919	101.31
413.142	101.31
413.365	84.31
413.589	91.31
413.812	108.31
414.035	85.31
414.258	111.31
414.482	95.31
414.705	90.31
414.928	89.31
415.151	90.31
415.374	98.31
415.597	90.31
415.821	90.31
416.044	98.31
416.267	97.31
416.49	96.31
416.713	88.31
416.936	77.31
417.159	80.31
417.382	86.31
417.605	83.31
417.828	92.31
418.051	89.31
418.274	89.31
418.497	93.31
418.72	79.31
418.943	79.31
419.166	86.31
419.389	86.31
419.611	88.31
419.834	88.31
420.057	89.31
420.28	89.31
420.503	98.31
420.726	88.31
420.948	88.31
421.171	84.31
421.394	94.31
421.617	74.31
421.839	82.31
422.062	92.31
422.285	89.31
422.507	95.31
422.73	96.31
422.953	96.31
423.175	88.31
423.398	97.31
423.621	85.31
423.843	86.31
424.066	103.31
424.288	80.31
424.511	81.31
424.733	78.31
424.956	89.31
425.178	104.31
425.401	104.31
425.623	93.31
425.846	95.31
426.068	99.31
426.291	85.31
426.513	79.31
426.735	102.31
426.958	90.31
427.18	106.31
427.402	108.31
427.625	157.31
427.847	129.31
428.069	120.31
428.292	92.31
428.514	86.31
428.736	73.31
428.958	93.31
429.181	76.31
429.403	79.31
429.625	68.31
429.847	80.31
430.069	93.31
430.292	97.31
430.514	84.31
430.736	68.31
430.958	71.31
431.18	89.31
431.402	87.31
431.624	90.31
431.846	83.31
432.068	95.31
432.29	77.31
432.512	98.31
432.734	96.31
432.956	76.31
433.178	85.31
433.4	84.31
433.622	87.31
433.844	78.31
434.066	92.31
434.287	92.31
434.509	96.31
434.731	87.31
434.953	72.31
435.175	91.31
435.397	91.31
435.618	95.31
435.84	86.31
436.062	129.31
436.284	118.31
436.505	104.31
436.727	82.31
436.949	70.31
437.17	85.31
437.392	80.31
437.614	82.31
437.835	109.31
438.057	115.31
438.278	120.31
438.5	89.31
438.721	105.31
438.943	93.31
439.165	100.31
439.386	81.31
439.608	98.31
439.829	97.31
440.05	98.31
440.272	117.31
440.493	87.31
440.715	76.31
440.936	94.31
441.158	99.31
441.379	85.31
441.6	107.31
441.822	94.31
442.043	78.31
442.264	103.31
442.486	99.31
442.707	87.31
442.928	108.31
443.149	112.31
443.371	130.31
443.592	99.31
443.813	93.31
444.034	89.31
444.255	76.31
444.476	103.31
444.698	85.31
444.919	82.31
445.14	132.31
445.361	109.31
445.582	126.31
445.803	115.31
446.024	133.31
446.245	129.31
446.466	114.31
446.687	86.31
446.908	87.31
447.129	81.31
447.35	106.31
447.571	90.31
447.792	90.31
448.013	102.31
448.234	110.31
448.455	92.31
448.675	112.31
448.896	103.31
449.117	88.31
449.338	96.31
449.559	116.31
449.779	110.31
450	104.31
450.221	97.31
450.442	96.31
450.662	102.31
450.883	107.31
451.104	102.31
451.324	91.31
451.545	96.31
451.766	86.31
451.986	83.31
452.207	82.31
452.428	92.31
452.648	98.31
452.869	106.31
453.089	119.31
453.31	112.31
453.53	90.31
453.751	82.31
453.971	105.31
454.192	100.31
454.412	81.31
454.633	91.31
454.853	90.31
455.073	84.31
455.294	93.31
455.514	107.31
455.734	107.31
455.955	92.31
456.175	89.31
456.395	84.31
456.616	80.31
456.836	87.31
457.056	83.31
457.276	88.31
457.497	95.31
457.717	76.31
457.937	71.31
458.157	78.31
458.377	87.31
458.598	93.31
458.818	132.31
459.038	119.31
459.258	120.31
459.478	98.31
459.698	82.31
459.918	94.31
460.138	84.31
460.358	82.31
460.578	88.31
460.798	78.31
461.018	70.31
461.238	78.31
461.458	83.31
461.678	93.31
461.898	85.31
462.118	89.31
462.338	82.31
462.558	86.31
462.777	100.31
462.997	86.31
463.217	92.31
463.437	86.31
463.657	94.31
463.876	77.31
464.096	84.31
464.316	85.31
464.536	88.31
464.755	91.31
464.975	90.31
465.195	155.31
465.414	141.31
465.634	110.31
465.854	78.31
466.073	86.31
466.293	104.31
466.512	76.31
466.732	70.31
466.951	90.31
467.171	80.31
467.391	102.31
467.61	102.31
467.829	106.31
468.049	107.31
468.268	109.31
468.488	78.31
468.707	74.31
468.927	75.31
469.146	78.31
469.365	87.31
469.585	94.31
469.804	102.31
470.023	96.31
470.243	77.31
470.462	112.31
470.681	101.31
470.901	97.31
471.12	87.31
471.339	82.31
471.558	77.31
471.777	86.31
471.997	97.31
472.216	114.31
472.435	154.31
472.654	96.31
472.873	105.31
473.092	94.31
473.311	101.31
473.53	86.31
473.749	84.31
473.968	87.31
474.187	101.31
474.406	88.31
474.625	80.31
474.844	96.31
475.063	86.31
475.282	73.31
475.501	93.31
475.72	87.31
475.939	85.31
476.158	98.31
476.377	92.31
476.596	84.31
476.814	94.31
477.033	91.31
477.252	91.31
477.471	85.31
477.69	82.31
477.908	92.31
478.127	106.31
478.346	91.31
478.564	98.31
478.783	92.31
479.002	85.31
479.22	76.31
479.439	91.31
479.658	108.31
479.876	92.31
480.095	92.31
480.313	92.31
480.532	91.31
480.751	99.31
480.969	124.31
481.188	200.31
481.406	155.31
481.624	93.31
481.843	80.31
482.061	70.31
482.28	85.31
482.498	89.31
482.717	81.31
482.935	99.31
483.153	82.31
483.372	69.31
483.59	99.31
483.808	88.31
484.027	85.31
484.245	93.31
484.463	77.31
484.681	70.31
484.9	83.31
485.118	77.31
485.336	89.31
485.554	104.31
485.772	106.31
485.99	98.31
486.209	100.31
486.427	98.31
486.645	99.31
486.863	102.31
487.081	118.31
487.299	97.31
487.517	91.31
487.735	80.31
487.953	88.31
488.171	86.31
488.389	88.31
488.607	98.31
488.825	96.31
489.043	82.31
489.261	103.31
489.479	91.31
489.696	82.31
489.914	94.31
490.132	81.31
490.35	96.31
490.568	89.31
490.786	88.31
491.003	94.31
491.221	83.31
491.439	81.31
491.657	79.31
491.874	82.31
492.092	88.31
492.31	93.31
492.527	79.31
492.745	70.31
492.963	93.31
493.18	86.31
493.398	98.31
493.615	101.31
493.833	92.31
494.05	89.31
494.268	83.31
494.485	92.31
494.703	83.31
494.92	90.31
495.138	91.31
495.355	85.31
495.573	102.31
495.79	96.31
496.008	86.31
496.225	88.31
496.442	89.31
496.66	96.31
496.877	99.31
497.094	96.31
497.312	78.31
497.529	88.31
497.746	97.31
497.963	82.31
498.181	99.31
498.398	81.31
498.615	105.31
498.832	90.31
499.049	76.31
499.267	92.31
499.484	84.31
499.701	97.31
499.918	92.31
500.135	90.31
500.352	84.31
500.569	91.31
500.786	89.31
501.003	84.31
501.22	89.31
501.437	88.31
501.654	90.31
501.871	99.31
502.088	90.31
502.305	84.31
502.522	88.31
502.739	103.31
502.956	90.31
503.172	92.31
503.389	91.31
503.606	101.31
503.823	93.31
504.04	96.31
504.256	91.31
504.473	92.31
504.69	94.31
504.907	81.31
505.123	96.31
505.34	97.31
505.557	92.31
505.773	80.31
505.99	83.31
506.207	72.31
506.423	78.31
506.64	96.31
506.856	85.31
507.073	97.31
507.289	96.31
507.506	82.31
507.722	113.31
507.939	116.31
508.155	84.31
508.372	89.31
508.588	100.31
508.805	96.31
509.021	93.31
509.238	91.31
509.454	96.31
509.67	96.31
509.887	121.31
510.103	119.31
510.319	200.31
510.536	694.31
510.752	2317.31
510.968	666.31
511.184	152.31
511.401	107.31
511.617	102.31
511.833	105.31
512.049	95.31
512.265	92.31
512.481	84.31
512.698	99.31
512.914	92.31
513.13	88.31
513.346	77.31
513.562	85.31
513.778	93.31
513.994	100.31
514.21	104.31
514.426	109.31
514.642	122.31
514.858	122.31
515.074	153.31
515.29	415.31
515.506	1394.31
515.721	534.31
515.937	154.31
516.153	116.31
