Data from Circ_2014_H10_HRD10591_00007.txt Node
Date: Wed Jan 03 10:02:10 EST 2024
User: Yrep
Spectrometer: HR+D1059
Trigger mode: 1
Integration Time (sec): 1.000000E-1
Scans to average: 1
Electric dark correction enabled: true
Nonlinearity correction enabled: false
Boxcar width: 0
XAxis mode: Wavelengths
Number of Pixels in Spectrum: 2048
>>>>>Begin Spectral Data<<<<<
223.165	-22.56
223.4	-22.56
223.635	-22.56
223.869	-16.56
224.104	-2.56
224.338	-34.56
224.573	-13.56
224.808	-6.56
225.042	-0.56
225.277	3.44
225.511	-5.56
225.746	-2.56
225.98	-1.56
226.215	16.44
226.449	25.44
226.683	9.44
226.918	5.44
227.152	46.44
227.387	35.44
227.621	49.44
227.856	41.44
228.09	55.44
228.324	46.44
228.559	47.44
228.793	54.44
229.027	71.44
229.262	58.44
229.496	82.44
229.73	91.44
229.964	99.44
230.199	84.44
230.433	80.44
230.667	84.44
230.901	74.44
231.136	90.44
231.37	74.44
231.604	87.44
231.838	67.44
232.072	67.44
232.306	71.44
232.541	80.44
232.775	65.44
233.009	85.44
233.243	81.44
233.477	80.44
233.711	87.44
233.945	82.44
234.179	63.44
234.413	81.44
234.647	74.44
234.881	75.44
235.115	71.44
235.349	79.44
235.583	77.44
235.817	85.44
236.051	78.44
236.285	75.44
236.519	88.44
236.753	87.44
236.987	71.44
237.221	90.44
237.455	103.44
237.689	76.44
237.922	83.44
238.156	79.44
238.39	76.44
238.624	68.44
238.858	79.44
239.091	74.44
239.325	82.44
239.559	84.44
239.793	74.44
240.027	95.44
240.26	81.44
240.494	69.44
240.728	81.44
240.961	78.44
241.195	77.44
241.429	86.44
241.662	82.44
241.896	72.44
242.13	73.44
242.363	86.44
242.597	93.44
242.83	73.44
243.064	86.44
243.298	71.44
243.531	59.44
243.765	71.44
243.998	74.44
244.232	78.44
244.465	85.44
244.699	84.44
244.932	75.44
245.166	74.44
245.399	86.44
245.633	84.44
245.866	92.44
246.099	75.44
246.333	86.44
246.566	75.44
246.8	89.44
247.033	70.44
247.266	72.44
247.5	82.44
247.733	86.44
247.966	69.44
248.2	77.44
248.433	67.44
248.666	86.44
248.899	78.44
249.133	77.44
249.366	90.44
249.599	104.44
249.832	85.44
250.066	77.44
250.299	65.44
250.532	78.44
250.765	94.44
250.998	80.44
251.231	77.44
251.465	89.44
251.698	83.44
251.931	82.44
252.164	81.44
252.397	74.44
252.63	83.44
252.863	76.44
253.096	86.44
253.329	72.44
253.562	76.44
253.795	87.44
254.028	102.44
254.261	64.44
254.494	87.44
254.727	72.44
254.96	101.44
255.193	69.44
255.426	82.44
255.659	83.44
255.892	83.44
256.124	74.44
256.357	76.44
256.59	93.44
256.823	93.44
257.056	70.44
257.289	83.44
257.521	92.44
257.754	87.44
257.987	74.44
258.22	77.44
258.452	80.44
258.685	73.44
258.918	73.44
259.151	88.44
259.383	77.44
259.616	74.44
259.849	58.44
260.081	83.44
260.314	79.44
260.547	72.44
260.779	89.44
261.012	81.44
261.244	91.44
261.477	76.44
261.71	94.44
261.942	121.44
262.175	120.44
262.407	92.44
262.64	99.44
262.872	79.44
263.105	89.44
263.337	89.44
263.57	73.44
263.802	100.44
264.035	86.44
264.267	85.44
264.499	77.44
264.732	84.44
264.964	84.44
265.197	92.44
265.429	88.44
265.661	83.44
265.894	90.44
266.126	81.44
266.358	74.44
266.591	93.44
266.823	100.44
267.055	96.44
267.287	87.44
267.52	82.44
267.752	86.44
267.984	81.44
268.216	83.44
268.448	74.44
268.681	85.44
268.913	81.44
269.145	92.44
269.377	107.44
269.609	81.44
269.841	81.44
270.073	75.44
270.306	76.44
270.538	82.44
270.77	91.44
271.002	85.44
271.234	81.44
271.466	86.44
271.698	86.44
271.93	89.44
272.162	76.44
272.394	94.44
272.626	87.44
272.858	93.44
273.09	88.44
273.322	74.44
273.553	82.44
273.785	78.44
274.017	88.44
274.249	96.44
274.481	83.44
274.713	99.44
274.945	88.44
275.176	78.44
275.408	86.44
275.64	87.44
275.872	84.44
276.104	89.44
276.335	95.44
276.567	102.44
276.799	116.44
277.031	100.44
277.262	89.44
277.494	93.44
277.726	82.44
277.957	86.44
278.189	82.44
278.421	90.44
278.652	87.44
278.884	84.44
279.115	98.44
279.347	90.44
279.579	82.44
279.81	97.44
280.042	78.44
280.273	91.44
280.505	90.44
280.736	89.44
280.968	90.44
281.199	85.44
281.431	85.44
281.662	97.44
281.894	92.44
282.125	96.44
282.356	120.44
282.588	161.44
282.819	127.44
283.051	113.44
283.282	72.44
283.513	97.44
283.745	83.44
283.976	85.44
284.207	103.44
284.439	89.44
284.67	86.44
284.901	100.44
285.132	92.44
285.364	79.44
285.595	88.44
285.826	91.44
286.057	88.44
286.288	74.44
286.52	89.44
286.751	78.44
286.982	84.44
287.213	94.44
287.444	90.44
287.675	80.44
287.906	84.44
288.138	98.44
288.369	93.44
288.6	101.44
288.831	77.44
289.062	86.44
289.293	93.44
289.524	82.44
289.755	84.44
289.986	79.44
290.217	89.44
290.448	80.44
290.679	97.44
290.91	94.44
291.141	97.44
291.371	95.44
291.602	83.44
291.833	81.44
292.064	85.44
292.295	75.44
292.526	99.44
292.757	84.44
292.987	97.44
293.218	85.44
293.449	84.44
293.68	100.44
293.91	92.44
294.141	77.44
294.372	93.44
294.603	98.44
294.833	86.44
295.064	90.44
295.295	82.44
295.525	94.44
295.756	124.44
295.987	137.44
296.217	166.44
296.448	120.44
296.679	97.44
296.909	95.44
297.14	94.44
297.37	93.44
297.601	92.44
297.831	99.44
298.062	91.44
298.292	83.44
298.523	82.44
298.753	100.44
298.984	93.44
299.214	97.44
299.445	98.44
299.675	83.44
299.905	99.44
300.136	92.44
300.366	82.44
300.597	86.44
300.827	101.44
301.057	107.44
301.288	104.44
301.518	101.44
301.748	85.44
301.979	91.44
302.209	98.44
302.439	92.44
302.669	80.44
302.9	94.44
303.13	83.44
303.36	102.44
303.59	106.44
303.82	110.44
304.051	94.44
304.281	96.44
304.511	100.44
304.741	88.44
304.971	90.44
305.201	86.44
305.431	82.44
305.661	89.44
305.891	94.44
306.121	103.44
306.352	104.44
306.582	113.44
306.812	98.44
307.042	87.44
307.272	96.44
307.502	90.44
307.731	90.44
307.961	97.44
308.191	96.44
308.421	96.44
308.651	104.44
308.881	103.44
309.111	98.44
309.341	101.44
309.571	100.44
309.8	99.44
310.03	95.44
310.26	106.44
310.49	87.44
310.72	101.44
310.949	103.44
311.179	101.44
311.409	108.44
311.639	119.44
311.868	102.44
312.098	93.44
312.328	115.44
312.557	121.44
312.787	102.44
313.017	99.44
313.246	107.44
313.476	103.44
313.706	89.44
313.935	86.44
314.165	98.44
314.394	104.44
314.624	107.44
314.853	102.44
315.083	101.44
315.312	94.44
315.542	101.44
315.771	94.44
316.001	83.44
316.23	85.44
316.46	83.44
316.689	92.44
316.919	87.44
317.148	103.44
317.377	114.44
317.607	90.44
317.836	88.44
318.065	91.44
318.295	101.44
318.524	86.44
318.753	101.44
318.983	105.44
319.212	106.44
319.441	117.44
319.67	116.44
319.9	90.44
320.129	99.44
320.358	86.44
320.587	95.44
320.816	105.44
321.046	117.44
321.275	107.44
321.504	102.44
321.733	97.44
321.962	95.44
322.191	105.44
322.42	109.44
322.649	116.44
322.878	133.44
323.108	137.44
323.337	138.44
323.566	147.44
323.795	174.44
324.024	234.44
324.253	497.44
324.482	1047.44
324.71	2139.44
324.939	2846.44
325.168	1001.44
325.397	278.44
325.626	170.44
325.855	134.44
326.084	130.44
326.313	162.44
326.542	190.44
326.77	256.44
326.999	557.44
327.228	1176.44
327.457	2104.44
327.686	1655.44
327.914	461.44
328.143	229.44
328.372	154.44
328.6	126.44
328.829	121.44
329.058	164.44
329.287	142.44
329.515	106.44
329.744	104.44
329.972	109.44
330.201	102.44
330.43	124.44
330.658	150.44
330.887	181.44
331.115	150.44
331.344	114.44
331.572	97.44
331.801	109.44
332.03	109.44
332.258	101.44
332.486	87.44
332.715	103.44
332.943	87.44
333.172	96.44
333.4	86.44
333.629	106.44
333.857	112.44
334.085	114.44
334.314	99.44
334.542	108.44
334.771	106.44
334.999	99.44
335.227	88.44
335.455	104.44
335.684	94.44
335.912	91.44
336.14	102.44
336.369	107.44
336.597	110.44
336.825	115.44
337.053	100.44
337.281	94.44
337.51	94.44
337.738	92.44
337.966	89.44
338.194	103.44
338.422	104.44
338.65	94.44
338.878	92.44
339.106	102.44
339.334	100.44
339.562	95.44
339.79	85.44
340.018	86.44
340.246	89.44
340.474	83.44
340.702	100.44
340.93	94.44
341.158	92.44
341.386	99.44
341.614	98.44
341.842	89.44
342.07	115.44
342.298	87.44
342.526	99.44
342.754	89.44
342.981	97.44
343.209	96.44
343.437	100.44
343.665	91.44
343.893	82.44
344.12	95.44
344.348	97.44
344.576	102.44
344.804	97.44
345.031	103.44
345.259	90.44
345.487	111.44
345.714	90.44
345.942	99.44
346.17	89.44
346.397	92.44
346.625	104.44
346.853	85.44
347.08	101.44
347.308	94.44
347.535	114.44
347.763	116.44
347.99	105.44
348.218	109.44
348.445	110.44
348.673	98.44
348.9	92.44
349.128	84.44
349.355	82.44
349.583	81.44
349.81	96.44
350.037	119.44
350.265	104.44
350.492	86.44
350.72	97.44
350.947	93.44
351.174	114.44
351.402	121.44
351.629	109.44
351.856	91.44
352.083	114.44
352.311	113.44
352.538	118.44
352.765	117.44
352.992	102.44
353.22	106.44
353.447	109.44
353.674	107.44
353.901	96.44
354.128	94.44
354.355	95.44
354.583	105.44
354.81	92.44
355.037	93.44
355.264	103.44
355.491	98.44
355.718	85.44
355.945	86.44
356.172	98.44
356.399	103.44
356.626	105.44
356.853	83.44
357.08	97.44
357.307	78.44
357.534	94.44
357.761	97.44
357.988	98.44
358.215	94.44
358.441	106.44
358.668	93.44
358.895	84.44
359.122	92.44
359.349	95.44
359.576	86.44
359.802	120.44
360.029	133.44
360.256	111.44
360.483	117.44
360.709	93.44
360.936	84.44
361.163	80.44
361.39	106.44
361.616	95.44
361.843	78.44
362.07	91.44
362.296	104.44
362.523	99.44
362.749	90.44
362.976	91.44
363.203	80.44
363.429	94.44
363.656	107.44
363.882	92.44
364.109	94.44
364.335	99.44
364.562	92.44
364.788	107.44
365.015	90.44
365.241	98.44
365.468	117.44
365.694	123.44
365.92	89.44
366.147	97.44
366.373	84.44
366.599	79.44
366.826	82.44
367.052	95.44
367.278	79.44
367.505	88.44
367.731	85.44
367.957	96.44
368.184	104.44
368.41	108.44
368.636	106.44
368.862	114.44
369.089	117.44
369.315	99.44
369.541	94.44
369.767	94.44
369.993	90.44
370.219	90.44
370.445	103.44
370.672	89.44
370.898	74.44
371.124	95.44
371.35	95.44
371.576	83.44
371.802	95.44
372.028	96.44
372.254	110.44
372.48	85.44
372.706	86.44
372.932	87.44
373.158	89.44
373.384	100.44
373.61	94.44
373.835	84.44
374.061	94.44
374.287	88.44
374.513	92.44
374.739	91.44
374.965	86.44
375.191	87.44
375.416	97.44
375.642	95.44
375.868	94.44
376.094	94.44
376.319	84.44
376.545	90.44
376.771	95.44
376.997	87.44
377.222	94.44
377.448	95.44
377.674	89.44
377.899	87.44
378.125	94.44
378.35	85.44
378.576	107.44
378.802	90.44
379.027	92.44
379.253	102.44
379.478	85.44
379.704	82.44
379.929	98.44
380.155	102.44
380.38	95.44
380.606	104.44
380.831	97.44
381.057	99.44
381.282	103.44
381.507	91.44
381.733	94.44
381.958	105.44
382.184	103.44
382.409	102.44
382.634	98.44
382.86	122.44
383.085	95.44
383.31	114.44
383.535	109.44
383.761	83.44
383.986	109.44
384.211	108.44
384.436	103.44
384.662	120.44
384.887	110.44
385.112	120.44
385.337	113.44
385.562	122.44
385.787	121.44
386.013	118.44
386.238	121.44
386.463	114.44
386.688	114.44
386.913	106.44
387.138	129.44
387.363	124.44
387.588	102.44
387.813	100.44
388.038	113.44
388.263	127.44
388.488	112.44
388.713	100.44
388.938	105.44
389.163	87.44
389.387	81.44
389.612	94.44
389.837	88.44
390.062	90.44
390.287	91.44
390.512	87.44
390.736	89.44
390.961	85.44
391.186	96.44
391.411	89.44
391.636	84.44
391.86	90.44
392.085	68.44
392.31	88.44
392.534	102.44
392.759	96.44
392.984	82.44
393.208	99.44
393.433	106.44
393.658	84.44
393.882	94.44
394.107	93.44
394.331	91.44
394.556	75.44
394.78	95.44
395.005	86.44
395.229	93.44
395.454	101.44
395.678	83.44
395.903	83.44
396.127	85.44
396.352	90.44
396.576	89.44
396.801	93.44
397.025	92.44
397.249	87.44
397.474	93.44
397.698	76.44
397.922	75.44
398.147	89.44
398.371	92.44
398.595	71.44
398.82	88.44
399.044	82.44
399.268	81.44
399.492	95.44
399.717	97.44
399.941	107.44
400.165	95.44
400.389	95.44
400.613	84.44
400.837	91.44
401.062	93.44
401.286	103.44
401.51	94.44
401.734	89.44
401.958	119.44
402.182	154.44
402.406	198.44
402.63	148.44
402.854	100.44
403.078	87.44
403.302	79.44
403.526	88.44
403.75	74.44
403.974	91.44
404.198	86.44
404.422	93.44
404.645	85.44
404.869	102.44
405.093	106.44
405.317	86.44
405.541	113.44
405.765	108.44
405.988	123.44
406.212	198.44
406.436	273.44
406.66	195.44
406.883	99.44
407.107	110.44
407.331	89.44
407.555	113.44
407.778	85.44
408.002	100.44
408.226	90.44
408.449	97.44
408.673	88.44
408.896	94.44
409.12	95.44
409.344	98.44
409.567	90.44
409.791	90.44
410.014	101.44
410.238	96.44
410.461	91.44
410.685	94.44
410.908	91.44
411.132	95.44
411.355	92.44
411.578	91.44
411.802	101.44
412.025	88.44
412.249	83.44
412.472	95.44
412.695	95.44
412.919	84.44
413.142	86.44
413.365	78.44
413.589	94.44
413.812	91.44
414.035	99.44
414.258	87.44
414.482	92.44
414.705	87.44
414.928	90.44
415.151	89.44
415.374	101.44
415.597	93.44
415.821	79.44
416.044	90.44
416.267	83.44
416.49	96.44
416.713	95.44
416.936	86.44
417.159	86.44
417.382	92.44
417.605	81.44
417.828	99.44
418.051	95.44
418.274	92.44
418.497	68.44
418.72	86.44
418.943	94.44
419.166	85.44
419.389	94.44
419.611	92.44
419.834	95.44
420.057	97.44
420.28	99.44
420.503	99.44
420.726	84.44
420.948	78.44
421.171	98.44
421.394	93.44
421.617	86.44
421.839	85.44
422.062	86.44
422.285	91.44
422.507	102.44
422.73	118.44
422.953	105.44
423.175	82.44
423.398	91.44
423.621	94.44
423.843	88.44
424.066	79.44
424.288	91.44
424.511	90.44
424.733	96.44
424.956	110.44
425.178	101.44
425.401	98.44
425.623	105.44
425.846	101.44
426.068	81.44
426.291	88.44
426.513	91.44
426.735	98.44
426.958	102.44
427.18	132.44
427.402	158.44
427.625	206.44
427.847	142.44
428.069	104.44
428.292	95.44
428.514	89.44
428.736	98.44
428.958	79.44
429.181	84.44
429.403	93.44
429.625	79.44
429.847	85.44
430.069	106.44
430.292	100.44
430.514	93.44
430.736	85.44
430.958	88.44
431.18	89.44
431.402	82.44
431.624	91.44
431.846	97.44
432.068	86.44
432.29	94.44
432.512	81.44
432.734	84.44
432.956	97.44
433.178	99.44
433.4	105.44
433.622	95.44
433.844	89.44
434.066	88.44
434.287	89.44
434.509	93.44
434.731	93.44
434.953	88.44
435.175	105.44
435.397	89.44
435.618	80.44
435.84	114.44
436.062	130.44
436.284	115.44
436.505	112.44
436.727	100.44
436.949	98.44
437.17	89.44
437.392	86.44
437.614	103.44
437.835	109.44
438.057	134.44
438.278	117.44
438.5	113.44
438.721	133.44
438.943	106.44
439.165	89.44
439.386	83.44
439.608	103.44
439.829	107.44
440.05	139.44
440.272	176.44
440.493	103.44
440.715	102.44
440.936	86.44
441.158	97.44
441.379	92.44
441.6	102.44
441.822	113.44
442.043	96.44
442.264	109.44
442.486	109.44
442.707	104.44
442.928	119.44
443.149	132.44
443.371	150.44
443.592	114.44
443.813	110.44
444.034	111.44
444.255	90.44
444.476	90.44
444.698	82.44
444.919	92.44
445.14	154.44
445.361	123.44
445.582	117.44
445.803	155.44
446.024	173.44
446.245	162.44
446.466	114.44
446.687	98.44
446.908	93.44
447.129	76.44
447.35	93.44
447.571	83.44
447.792	98.44
448.013	104.44
448.234	125.44
448.455	110.44
448.675	133.44
448.896	135.44
449.117	100.44
449.338	104.44
449.559	148.44
449.779	138.44
450	114.44
450.221	102.44
450.442	96.44
450.662	101.44
450.883	108.44
451.104	138.44
451.324	103.44
451.545	85.44
451.766	100.44
451.986	94.44
452.207	107.44
452.428	94.44
452.648	104.44
452.869	121.44
453.089	137.44
453.31	129.44
453.53	110.44
453.751	104.44
453.971	103.44
454.192	127.44
454.412	100.44
454.633	106.44
454.853	92.44
455.073	100.44
455.294	102.44
455.514	108.44
455.734	94.44
455.955	80.44
456.175	86.44
456.395	87.44
456.616	77.44
456.836	91.44
457.056	91.44
457.276	85.44
457.497	75.44
457.717	87.44
457.937	78.44
458.157	85.44
458.377	98.44
458.598	122.44
458.818	193.44
459.038	195.44
459.258	133.44
459.478	98.44
459.698	88.44
459.918	91.44
460.138	91.44
460.358	88.44
460.578	89.44
460.798	86.44
461.018	106.44
461.238	87.44
461.458	87.44
461.678	94.44
461.898	85.44
462.118	96.44
462.338	98.44
462.558	95.44
462.777	90.44
462.997	94.44
463.217	100.44
463.437	86.44
463.657	91.44
463.876	92.44
464.096	84.44
464.316	94.44
464.536	103.44
464.755	118.44
464.975	122.44
465.195	202.44
465.414	203.44
465.634	103.44
465.854	79.44
466.073	75.44
466.293	86.44
466.512	82.44
466.732	81.44
466.951	86.44
467.171	86.44
467.391	102.44
467.61	110.44
467.829	90.44
468.049	94.44
468.268	87.44
468.488	82.44
468.707	89.44
468.927	90.44
469.146	97.44
469.365	91.44
469.585	84.44
469.804	105.44
470.023	113.44
470.243	113.44
470.462	102.44
470.681	124.44
470.901	89.44
471.12	81.44
471.339	99.44
471.558	98.44
471.777	78.44
471.997	76.44
472.216	95.44
472.435	101.44
472.654	75.44
472.873	92.44
473.092	85.44
473.311	102.44
473.53	83.44
473.749	86.44
473.968	103.44
474.187	120.44
474.406	97.44
474.625	97.44
474.844	93.44
475.063	92.44
475.282	74.44
475.501	76.44
475.72	80.44
475.939	93.44
476.158	85.44
476.377	94.44
476.596	93.44
476.814	95.44
477.033	85.44
477.252	84.44
477.471	96.44
477.69	89.44
477.908	91.44
478.127	90.44
478.346	81.44
478.564	95.44
478.783	92.44
479.002	82.44
479.22	104.44
479.439	114.44
479.658	100.44
479.876	98.44
480.095	89.44
480.313	84.44
480.532	90.44
480.751	91.44
480.969	89.44
481.188	110.44
481.406	97.44
481.624	95.44
481.843	91.44
482.061	90.44
482.28	87.44
482.498	104.44
482.717	85.44
482.935	99.44
483.153	85.44
483.372	77.44
483.59	86.44
483.808	85.44
484.027	76.44
484.245	91.44
484.463	99.44
484.681	86.44
484.9	93.44
485.118	91.44
485.336	86.44
485.554	88.44
485.772	99.44
485.99	88.44
486.209	94.44
486.427	94.44
486.645	121.44
486.863	131.44
487.081	103.44
487.299	95.44
487.517	113.44
487.735	95.44
487.953	99.44
488.171	106.44
488.389	94.44
488.607	92.44
488.825	92.44
489.043	83.44
489.261	95.44
489.479	104.44
489.696	86.44
489.914	94.44
490.132	82.44
490.35	78.44
490.568	89.44
490.786	84.44
491.003	98.44
491.221	102.44
491.439	94.44
491.657	95.44
491.874	94.44
492.092	95.44
492.31	87.44
492.527	92.44
492.745	81.44
492.963	79.44
493.18	77.44
493.398	84.44
493.615	94.44
493.833	90.44
494.05	94.44
494.268	78.44
494.485	79.44
494.703	84.44
494.92	91.44
495.138	83.44
495.355	93.44
495.573	86.44
495.79	88.44
496.008	91.44
496.225	97.44
496.442	88.44
496.66	100.44
496.877	89.44
497.094	82.44
497.312	93.44
497.529	98.44
497.746	93.44
497.963	88.44
498.181	100.44
498.398	87.44
498.615	129.44
498.832	118.44
499.049	90.44
499.267	100.44
499.484	105.44
499.701	74.44
499.918	83.44
500.135	92.44
500.352	83.44
500.569	88.44
500.786	99.44
501.003	101.44
501.22	96.44
501.437	98.44
501.654	89.44
501.871	117.44
502.088	91.44
502.305	90.44
502.522	95.44
502.739	93.44
502.956	83.44
503.172	98.44
503.389	108.44
503.606	98.44
503.823	95.44
504.04	81.44
504.256	99.44
504.473	91.44
504.69	87.44
504.907	87.44
505.123	83.44
505.34	97.44
505.557	92.44
505.773	84.44
505.99	86.44
506.207	88.44
506.423	87.44
506.64	102.44
506.856	84.44
507.073	87.44
507.289	101.44
507.506	108.44
507.722	126.44
507.939	121.44
508.155	114.44
508.372	90.44
508.588	89.44
508.805	102.44
509.021	86.44
509.238	107.44
509.454	83.44
509.67	97.44
509.887	107.44
510.103	146.44
510.319	229.44
510.536	911.44
510.752	3083.44
510.968	864.44
511.184	186.44
511.401	133.44
511.617	107.44
511.833	98.44
512.049	107.44
512.265	99.44
512.481	98.44
512.698	97.44
512.914	95.44
513.13	108.44
513.346	99.44
513.562	103.44
513.778	104.44
513.994	113.44
514.21	117.44
514.426	126.44
514.642	170.44
