Data from Circ_2014_H10_HRD10591_00055.txt Node
Date: Wed Jan 03 10:02:20 EST 2024
User: Yrep
Spectrometer: HR+D1059
Trigger mode: 1
Integration Time (sec): 1.000000E-1
Scans to average: 1
Electric dark correction enabled: true
Nonlinearity correction enabled: false
Boxcar width: 0
XAxis mode: Wavelengths
Number of Pixels in Spectrum: 2048
>>>>>Begin Spectral Data<<<<<
223.165	-18.56
223.4	-18.56
223.635	-18.56
223.869	-23.56
224.104	-19.56
224.338	-19.56
224.573	-16.56
224.808	-0.56
225.042	-2.56
225.277	-7.56
225.511	-12.56
225.746	6.44
225.98	-0.56
226.215	13.44
226.449	11.44
226.683	21.44
226.918	32.44
227.152	36.44
227.387	35.44
227.621	24.44
227.856	47.44
228.09	51.44
228.324	71.44
228.559	49.44
228.793	62.44
229.027	53.44
229.262	72.44
229.496	86.44
229.73	87.44
229.964	87.44
230.199	79.44
230.433	80.44
230.667	69.44
230.901	71.44
231.136	74.44
231.37	70.44
231.604	78.44
231.838	74.44
232.072	90.44
232.306	89.44
232.541	78.44
232.775	75.44
233.009	99.44
233.243	75.44
233.477	87.44
233.711	92.44
233.945	82.44
234.179	79.44
234.413	73.44
234.647	86.44
234.881	83.44
235.115	79.44
235.349	81.44
235.583	75.44
235.817	73.44
236.051	84.44
236.285	82.44
236.519	86.44
236.753	82.44
236.987	73.44
237.221	72.44
237.455	86.44
237.689	70.44
237.922	80.44
238.156	86.44
238.39	74.44
238.624	80.44
238.858	73.44
239.091	91.44
239.325	74.44
239.559	87.44
239.793	73.44
240.027	78.44
240.26	82.44
240.494	77.44
240.728	89.44
240.961	79.44
241.195	69.44
241.429	67.44
241.662	82.44
241.896	70.44
242.13	80.44
242.363	79.44
242.597	83.44
242.83	83.44
243.064	82.44
243.298	75.44
243.531	78.44
243.765	60.44
243.998	78.44
244.232	82.44
244.465	76.44
244.699	97.44
244.932	85.44
245.166	78.44
245.399	74.44
245.633	65.44
245.866	85.44
246.099	81.44
246.333	80.44
246.566	88.44
246.8	78.44
247.033	74.44
247.266	77.44
247.5	83.44
247.733	85.44
247.966	72.44
248.2	83.44
248.433	79.44
248.666	79.44
248.899	92.44
249.133	79.44
249.366	88.44
249.599	84.44
249.832	72.44
250.066	85.44
250.299	76.44
250.532	88.44
250.765	76.44
250.998	77.44
251.231	78.44
251.465	88.44
251.698	81.44
251.931	84.44
252.164	77.44
252.397	77.44
252.63	76.44
252.863	77.44
253.096	73.44
253.329	84.44
253.562	78.44
253.795	97.44
254.028	93.44
254.261	78.44
254.494	90.44
254.727	82.44
254.96	75.44
255.193	88.44
255.426	80.44
255.659	87.44
255.892	77.44
256.124	76.44
256.357	74.44
256.59	93.44
256.823	79.44
257.056	71.44
257.289	84.44
257.521	97.44
257.754	76.44
257.987	78.44
258.22	79.44
258.452	81.44
258.685	90.44
258.918	80.44
259.151	70.44
259.383	76.44
259.616	82.44
259.849	80.44
260.081	89.44
260.314	79.44
260.547	86.44
260.779	83.44
261.012	93.44
261.244	87.44
261.477	93.44
261.71	88.44
261.942	97.44
262.175	114.44
262.407	78.44
262.64	92.44
262.872	73.44
263.105	78.44
263.337	81.44
263.57	92.44
263.802	86.44
264.035	81.44
264.267	74.44
264.499	81.44
264.732	91.44
264.964	89.44
265.197	75.44
265.429	81.44
265.661	85.44
265.894	87.44
266.126	78.44
266.358	83.44
266.591	89.44
266.823	96.44
267.055	73.44
267.287	79.44
267.52	78.44
267.752	73.44
267.984	89.44
268.216	92.44
268.448	92.44
268.681	74.44
268.913	87.44
269.145	98.44
269.377	99.44
269.609	83.44
269.841	83.44
270.073	78.44
270.306	92.44
270.538	78.44
270.77	83.44
271.002	81.44
271.234	76.44
271.466	84.44
271.698	93.44
271.93	91.44
272.162	90.44
272.394	74.44
272.626	96.44
272.858	71.44
273.09	88.44
273.322	70.44
273.553	83.44
273.785	92.44
274.017	70.44
274.249	85.44
274.481	88.44
274.713	94.44
274.945	84.44
275.176	86.44
275.408	81.44
275.64	81.44
275.872	83.44
276.104	89.44
276.335	101.44
276.567	98.44
276.799	97.44
277.031	94.44
277.262	101.44
277.494	86.44
277.726	87.44
277.957	91.44
278.189	75.44
278.421	98.44
278.652	82.44
278.884	90.44
279.115	90.44
279.347	100.44
279.579	86.44
279.81	85.44
280.042	93.44
280.273	89.44
280.505	102.44
280.736	84.44
280.968	85.44
281.199	85.44
281.431	75.44
281.662	97.44
281.894	88.44
282.125	97.44
282.356	101.44
282.588	138.44
282.819	111.44
283.051	103.44
283.282	81.44
283.513	95.44
283.745	89.44
283.976	84.44
284.207	84.44
284.439	84.44
284.67	74.44
284.901	87.44
285.132	101.44
285.364	83.44
285.595	71.44
285.826	95.44
286.057	76.44
286.288	83.44
286.52	94.44
286.751	83.44
286.982	97.44
287.213	87.44
287.444	94.44
287.675	87.44
287.906	97.44
288.138	86.44
288.369	91.44
288.6	91.44
288.831	97.44
289.062	83.44
289.293	74.44
289.524	81.44
289.755	89.44
289.986	91.44
290.217	91.44
290.448	89.44
290.679	94.44
290.91	92.44
291.141	87.44
291.371	101.44
291.602	75.44
291.833	100.44
292.064	86.44
292.295	78.44
292.526	101.44
292.757	102.44
292.987	78.44
293.218	93.44
293.449	95.44
293.68	88.44
293.91	76.44
294.141	87.44
294.372	82.44
294.603	85.44
294.833	80.44
295.064	91.44
295.295	83.44
295.525	76.44
295.756	98.44
295.987	121.44
296.217	133.44
296.448	128.44
296.679	97.44
296.909	86.44
297.14	98.44
297.37	97.44
297.601	99.44
297.831	87.44
298.062	75.44
298.292	98.44
298.523	90.44
298.753	65.44
298.984	74.44
299.214	90.44
299.445	90.44
299.675	94.44
299.905	98.44
300.136	98.44
300.366	88.44
300.597	100.44
300.827	98.44
301.057	97.44
301.288	106.44
301.518	85.44
301.748	85.44
301.979	88.44
302.209	90.44
302.439	86.44
302.669	85.44
302.9	101.44
303.13	82.44
303.36	113.44
303.59	100.44
303.82	116.44
304.051	100.44
304.281	84.44
304.511	93.44
304.741	91.44
304.971	98.44
305.201	103.44
305.431	74.44
305.661	85.44
305.891	87.44
306.121	83.44
306.352	90.44
306.582	94.44
306.812	90.44
307.042	110.44
307.272	86.44
307.502	96.44
307.731	94.44
307.961	79.44
308.191	97.44
308.421	95.44
308.651	82.44
308.881	79.44
309.111	95.44
309.341	87.44
309.571	95.44
309.8	90.44
310.03	101.44
310.26	105.44
310.49	95.44
310.72	102.44
310.949	103.44
311.179	107.44
311.409	90.44
311.639	89.44
311.868	93.44
312.098	95.44
312.328	91.44
312.557	105.44
312.787	94.44
313.017	83.44
313.246	95.44
313.476	94.44
313.706	102.44
313.935	94.44
314.165	89.44
314.394	88.44
314.624	96.44
314.853	101.44
315.083	89.44
315.312	105.44
315.542	95.44
315.771	99.44
316.001	87.44
316.23	84.44
316.46	86.44
316.689	79.44
316.919	90.44
317.148	85.44
317.377	79.44
317.607	88.44
317.836	93.44
318.065	87.44
318.295	89.44
318.524	84.44
318.753	89.44
318.983	87.44
319.212	83.44
319.441	100.44
319.67	99.44
319.9	96.44
320.129	98.44
320.358	97.44
320.587	90.44
320.816	96.44
321.046	94.44
321.275	97.44
321.504	88.44
321.733	86.44
321.962	88.44
322.191	88.44
322.42	111.44
322.649	98.44
322.878	108.44
323.108	106.44
323.337	135.44
323.566	130.44
323.795	133.44
324.024	171.44
324.253	331.44
324.482	643.44
324.71	1326.44
324.939	1701.44
325.168	675.44
325.397	224.44
325.626	136.44
325.855	113.44
326.084	108.44
326.313	137.44
326.542	143.44
326.77	207.44
326.999	381.44
327.228	744.44
327.457	1324.44
327.686	1066.44
327.914	312.44
328.143	180.44
328.372	137.44
328.6	110.44
328.829	107.44
329.058	122.44
329.287	110.44
329.515	125.44
329.744	119.44
329.972	106.44
330.201	129.44
330.43	147.44
330.658	134.44
330.887	129.44
331.115	133.44
331.344	101.44
331.572	107.44
331.801	117.44
332.03	94.44
332.258	92.44
332.486	89.44
332.715	98.44
332.943	86.44
333.172	106.44
333.4	113.44
333.629	119.44
333.857	109.44
334.085	117.44
334.314	135.44
334.542	143.44
334.771	158.44
334.999	104.44
335.227	93.44
335.455	100.44
335.684	92.44
335.912	102.44
336.14	99.44
336.369	86.44
336.597	87.44
336.825	95.44
337.053	85.44
337.281	99.44
337.51	95.44
337.738	92.44
337.966	97.44
338.194	94.44
338.422	90.44
338.65	94.44
338.878	89.44
339.106	94.44
339.334	87.44
339.562	105.44
339.79	98.44
340.018	90.44
340.246	85.44
340.474	99.44
340.702	95.44
340.93	106.44
341.158	92.44
341.386	91.44
341.614	100.44
341.842	96.44
342.07	95.44
342.298	91.44
342.526	91.44
342.754	95.44
342.981	93.44
343.209	77.44
343.437	81.44
343.665	89.44
343.893	103.44
344.12	92.44
344.348	100.44
344.576	92.44
344.804	84.44
345.031	82.44
345.259	88.44
345.487	86.44
345.714	85.44
345.942	97.44
346.17	87.44
346.397	90.44
346.625	97.44
346.853	99.44
347.08	99.44
347.308	95.44
347.535	94.44
347.763	107.44
347.99	103.44
348.218	91.44
348.445	104.44
348.673	103.44
348.9	92.44
349.128	102.44
349.355	100.44
349.583	74.44
349.81	95.44
350.037	97.44
350.265	102.44
350.492	106.44
350.72	97.44
350.947	103.44
351.174	93.44
351.402	99.44
351.629	108.44
351.856	89.44
352.083	99.44
352.311	100.44
352.538	111.44
352.765	108.44
352.992	116.44
353.22	108.44
353.447	95.44
353.674	97.44
353.901	110.44
354.128	93.44
354.355	98.44
354.583	90.44
354.81	88.44
355.037	102.44
355.264	93.44
355.491	104.44
355.718	102.44
355.945	102.44
356.172	91.44
356.399	94.44
356.626	83.44
356.853	90.44
357.08	84.44
357.307	95.44
357.534	73.44
357.761	84.44
357.988	92.44
358.215	106.44
358.441	88.44
358.668	88.44
358.895	94.44
359.122	110.44
359.349	86.44
359.576	95.44
359.802	103.44
360.029	104.44
360.256	90.44
360.483	98.44
360.709	95.44
360.936	97.44
361.163	101.44
361.39	90.44
361.616	102.44
361.843	93.44
362.07	94.44
362.296	89.44
362.523	89.44
362.749	94.44
362.976	87.44
363.203	87.44
363.429	88.44
363.656	100.44
363.882	98.44
364.109	79.44
364.335	93.44
364.562	82.44
364.788	98.44
365.015	94.44
365.241	100.44
365.468	105.44
365.694	108.44
365.92	90.44
366.147	106.44
366.373	82.44
366.599	84.44
366.826	95.44
367.052	85.44
367.278	92.44
367.505	94.44
367.731	92.44
367.957	100.44
368.184	79.44
368.41	90.44
368.636	89.44
368.862	125.44
369.089	114.44
369.315	88.44
369.541	92.44
369.767	94.44
369.993	96.44
370.219	94.44
370.445	96.44
370.672	82.44
370.898	88.44
371.124	93.44
371.35	98.44
371.576	87.44
371.802	91.44
372.028	89.44
372.254	77.44
372.48	79.44
372.706	93.44
372.932	98.44
373.158	93.44
373.384	93.44
373.61	92.44
373.835	89.44
374.061	87.44
374.287	94.44
374.513	96.44
374.739	107.44
374.965	84.44
375.191	89.44
375.416	90.44
375.642	86.44
375.868	84.44
376.094	98.44
376.319	77.44
376.545	86.44
376.771	77.44
376.997	83.44
377.222	90.44
377.448	101.44
377.674	94.44
377.899	91.44
378.125	93.44
378.35	109.44
378.576	84.44
378.802	99.44
379.027	87.44
379.253	97.44
379.478	99.44
379.704	93.44
379.929	93.44
380.155	85.44
380.38	77.44
380.606	109.44
380.831	109.44
381.057	94.44
381.282	96.44
381.507	88.44
381.733	86.44
381.958	100.44
382.184	93.44
382.409	110.44
382.634	102.44
382.86	94.44
383.085	98.44
383.31	104.44
383.535	105.44
383.761	104.44
383.986	98.44
384.211	103.44
384.436	112.44
384.662	100.44
384.887	91.44
385.112	97.44
385.337	103.44
385.562	100.44
385.787	98.44
386.013	109.44
386.238	111.44
386.463	114.44
386.688	101.44
386.913	105.44
387.138	96.44
387.363	102.44
387.588	101.44
387.813	110.44
388.038	99.44
388.263	114.44
388.488	107.44
388.713	109.44
388.938	99.44
389.163	101.44
389.387	94.44
389.612	90.44
389.837	96.44
390.062	87.44
390.287	91.44
390.512	90.44
390.736	86.44
390.961	107.44
391.186	86.44
391.411	89.44
391.636	92.44
391.86	94.44
392.085	91.44
392.31	80.44
392.534	103.44
392.759	84.44
392.984	78.44
393.208	85.44
393.433	89.44
393.658	84.44
393.882	61.44
394.107	81.44
394.331	87.44
394.556	91.44
394.78	87.44
395.005	91.44
395.229	81.44
395.454	76.44
395.678	83.44
395.903	95.44
396.127	86.44
396.352	79.44
396.576	96.44
396.801	84.44
397.025	83.44
397.249	86.44
397.474	93.44
397.698	72.44
397.922	92.44
398.147	110.44
398.371	90.44
398.595	93.44
398.82	76.44
399.044	86.44
399.268	89.44
399.492	100.44
399.717	102.44
399.941	104.44
400.165	86.44
400.389	77.44
400.613	82.44
400.837	83.44
401.062	92.44
401.286	98.44
401.51	102.44
401.734	85.44
401.958	104.44
402.182	124.44
402.406	131.44
402.63	107.44
402.854	103.44
403.078	87.44
403.302	94.44
403.526	92.44
403.75	89.44
403.974	87.44
404.198	98.44
404.422	102.44
404.645	84.44
404.869	78.44
405.093	96.44
405.317	94.44
405.541	95.44
405.765	117.44
405.988	110.44
406.212	157.44
406.436	210.44
406.66	135.44
406.883	108.44
407.107	90.44
407.331	97.44
407.555	101.44
407.778	105.44
408.002	102.44
408.226	101.44
408.449	93.44
408.673	96.44
408.896	85.44
409.12	86.44
409.344	86.44
409.567	90.44
409.791	91.44
410.014	90.44
410.238	88.44
410.461	87.44
410.685	101.44
410.908	97.44
411.132	107.44
411.355	89.44
411.578	96.44
411.802	96.44
412.025	85.44
412.249	91.44
412.472	87.44
412.695	84.44
412.919	88.44
413.142	82.44
413.365	98.44
413.589	89.44
413.812	79.44
414.035	107.44
414.258	98.44
414.482	93.44
414.705	94.44
414.928	85.44
415.151	90.44
415.374	95.44
415.597	90.44
415.821	72.44
416.044	84.44
416.267	92.44
416.49	83.44
416.713	83.44
416.936	81.44
417.159	80.44
417.382	90.44
417.605	86.44
417.828	108.44
418.051	87.44
418.274	91.44
418.497	85.44
418.72	83.44
418.943	90.44
419.166	92.44
419.389	90.44
419.611	90.44
419.834	87.44
420.057	89.44
420.28	81.44
420.503	92.44
420.726	70.44
420.948	87.44
421.171	81.44
421.394	93.44
421.617	93.44
421.839	76.44
422.062	88.44
422.285	97.44
422.507	107.44
422.73	102.44
422.953	84.44
423.175	100.44
423.398	79.44
423.621	80.44
423.843	67.44
424.066	91.44
424.288	82.44
424.511	83.44
424.733	92.44
424.956	95.44
425.178	94.44
425.401	95.44
425.623	100.44
425.846	84.44
426.068	101.44
426.291	101.44
426.513	96.44
426.735	84.44
426.958	84.44
427.18	97.44
427.402	120.44
427.625	143.44
427.847	122.44
428.069	107.44
428.292	92.44
428.514	83.44
428.736	83.44
428.958	85.44
429.181	97.44
429.403	98.44
429.625	86.44
429.847	89.44
430.069	90.44
430.292	93.44
430.514	87.44
430.736	102.44
430.958	94.44
431.18	89.44
431.402	83.44
431.624	82.44
431.846	80.44
432.068	90.44
432.29	88.44
432.512	91.44
432.734	80.44
432.956	90.44
433.178	83.44
433.4	90.44
433.622	82.44
433.844	80.44
434.066	90.44
434.287	88.44
434.509	84.44
434.731	92.44
434.953	93.44
435.175	86.44
435.397	79.44
435.618	74.44
435.84	97.44
436.062	109.44
436.284	94.44
436.505	88.44
436.727	101.44
436.949	80.44
437.17	96.44
437.392	84.44
437.614	94.44
437.835	97.44
438.057	124.44
438.278	109.44
438.5	92.44
438.721	104.44
438.943	100.44
439.165	82.44
439.386	78.44
439.608	84.44
439.829	115.44
440.05	97.44
440.272	128.44
440.493	96.44
440.715	92.44
440.936	93.44
441.158	89.44
441.379	93.44
441.6	90.44
441.822	87.44
442.043	95.44
442.264	100.44
442.486	87.44
442.707	93.44
442.928	93.44
443.149	121.44
443.371	121.44
443.592	114.44
443.813	116.44
444.034	90.44
444.255	94.44
444.476	105.44
444.698	82.44
444.919	74.44
445.14	132.44
445.361	127.44
445.582	103.44
445.803	125.44
446.024	113.44
446.245	134.44
446.466	105.44
446.687	99.44
446.908	97.44
447.129	89.44
447.35	87.44
447.571	94.44
447.792	93.44
448.013	81.44
448.234	99.44
448.455	93.44
448.675	96.44
448.896	101.44
449.117	99.44
449.338	97.44
449.559	107.44
449.779	116.44
450	88.44
450.221	99.44
450.442	89.44
450.662	95.44
450.883	88.44
451.104	117.44
451.324	101.44
451.545	88.44
451.766	85.44
451.986	81.44
452.207	88.44
452.428	97.44
452.648	83.44
452.869	100.44
453.089	113.44
453.31	118.44
453.53	106.44
453.751	95.44
453.971	91.44
454.192	98.44
454.412	93.44
454.633	82.44
454.853	79.44
455.073	76.44
455.294	84.44
455.514	89.44
455.734	83.44
455.955	90.44
456.175	95.44
456.395	90.44
456.616	76.44
456.836	74.44
457.056	89.44
457.276	89.44
457.497	88.44
457.717	81.44
457.937	87.44
458.157	87.44
458.377	91.44
458.598	102.44
458.818	144.44
459.038	152.44
459.258	112.44
459.478	81.44
459.698	98.44
459.918	83.44
460.138	73.44
460.358	93.44
460.578	83.44
460.798	96.44
461.018	75.44
461.238	84.44
461.458	84.44
461.678	88.44
461.898	81.44
462.118	94.44
462.338	80.44
462.558	87.44
462.777	91.44
462.997	96.44
463.217	84.44
463.437	91.44
463.657	82.44
463.876	88.44
464.096	82.44
464.316	100.44
464.536	104.44
464.755	78.44
464.975	115.44
465.195	147.44
465.414	140.44
465.634	93.44
465.854	78.44
466.073	65.44
466.293	86.44
466.512	84.44
466.732	87.44
466.951	89.44
467.171	92.44
467.391	94.44
467.61	100.44
467.829	107.44
468.049	100.44
468.268	105.44
468.488	80.44
468.707	97.44
468.927	86.44
469.146	92.44
469.365	85.44
469.585	85.44
469.804	98.44
470.023	92.44
470.243	98.44
470.462	99.44
470.681	107.44
470.901	87.44
471.12	84.44
471.339	75.44
471.558	85.44
471.777	80.44
471.997	95.44
472.216	126.44
472.435	159.44
472.654	102.44
472.873	73.44
473.092	101.44
473.311	84.44
473.53	81.44
473.749	78.44
473.968	106.44
474.187	97.44
474.406	89.44
474.625	86.44
474.844	100.44
475.063	80.44
475.282	95.44
475.501	83.44
475.72	90.44
475.939	90.44
476.158	94.44
476.377	88.44
476.596	82.44
476.814	88.44
477.033	86.44
477.252	76.44
477.471	84.44
477.69	94.44
477.908	85.44
478.127	99.44
478.346	85.44
478.564	94.44
478.783	92.44
479.002	85.44
479.22	84.44
479.439	102.44
479.658	109.44
479.876	97.44
480.095	97.44
480.313	102.44
480.532	90.44
480.751	81.44
480.969	114.44
481.188	238.44
481.406	196.44
481.624	98.44
481.843	108.44
482.061	97.44
482.28	97.44
482.498	94.44
482.717	98.44
482.935	78.44
483.153	89.44
483.372	95.44
483.59	81.44
483.808	86.44
484.027	93.44
484.245	77.44
484.463	90.44
484.681	81.44
484.9	84.44
485.118	91.44
485.336	83.44
485.554	111.44
485.772	110.44
485.99	96.44
486.209	85.44
486.427	95.44
486.645	99.44
486.863	101.44
487.081	108.44
487.299	101.44
487.517	89.44
487.735	91.44
487.953	84.44
488.171	92.44
488.389	100.44
488.607	104.44
488.825	90.44
489.043	82.44
489.261	92.44
489.479	95.44
489.696	77.44
489.914	85.44
490.132	78.44
490.35	97.44
490.568	99.44
490.786	83.44
491.003	81.44
491.221	74.44
491.439	77.44
491.657	92.44
491.874	87.44
492.092	78.44
492.31	82.44
492.527	89.44
492.745	77.44
492.963	92.44
493.18	78.44
493.398	93.44
493.615	103.44
493.833	94.44
494.05	83.44
494.268	94.44
494.485	97.44
494.703	81.44
494.92	76.44
495.138	98.44
495.355	85.44
495.573	85.44
495.79	87.44
496.008	106.44
496.225	96.44
496.442	77.44
496.66	83.44
496.877	94.44
497.094	87.44
497.312	94.44
497.529	87.44
497.746	89.44
497.963	91.44
498.181	73.44
498.398	96.44
498.615	115.44
498.832	121.44
499.049	91.44
499.267	86.44
499.484	82.44
499.701	96.44
499.918	93.44
500.135	98.44
500.352	84.44
500.569	94.44
500.786	86.44
501.003	105.44
501.22	113.44
501.437	82.44
501.654	100.44
501.871	89.44
502.088	89.44
502.305	88.44
502.522	89.44
502.739	90.44
502.956	91.44
503.172	86.44
503.389	93.44
503.606	86.44
503.823	90.44
504.04	94.44
504.256	104.44
504.473	93.44
504.69	85.44
504.907	106.44
505.123	80.44
505.34	86.44
505.557	101.44
505.773	93.44
505.99	93.44
506.207	79.44
506.423	86.44
506.64	99.44
506.856	87.44
507.073	88.44
507.289	88.44
507.506	101.44
507.722	108.44
507.939	108.44
508.155	79.44
508.372	95.44
508.588	87.44
508.805	91.44
509.021	97.44
509.238	98.44
509.454	93.44
509.67	108.44
509.887	119.44
510.103	129.44
510.319	206.44
510.536	680.44
510.752	2159.44
510.968	651.44
511.184	153.44
511.401	101.44
511.617	102.44
511.833	95.44
512.049	84.44
512.265	100.44
512.481	98.44
512.698	85.44
512.914	78.44
513.13	97.44
513.346	78.44
513.562	102.44
513.778	99.44
513.994	79.44
514.21	106.44
514.426	103.44
514.642	119.44
514.858	121.44
515.074	131.44
515.29	392.44
515.506	1277.44
515.721	516.44
515.937	136.44
