Data from Circ_2014_H10_HRD10591_00056.txt Node
Date: Wed Jan 03 10:02:20 EST 2024
User: Yrep
Spectrometer: HR+D1059
Trigger mode: 1
Integration Time (sec): 1.000000E-1
Scans to average: 1
Electric dark correction enabled: true
Nonlinearity correction enabled: false
Boxcar width: 0
XAxis mode: Wavelengths
Number of Pixels in Spectrum: 2048
>>>>>Begin Spectral Data<<<<<
223.165	-16.38
223.4	-16.38
223.635	-16.38
223.869	-18.38
224.104	-14.38
224.338	-20.38
224.573	-10.38
224.808	-22.38
225.042	1.62
225.277	-0.38
225.511	-7.38
225.746	5.62
225.98	5.62
226.215	12.62
226.449	8.62
226.683	19.62
226.918	23.62
227.152	32.62
227.387	35.62
227.621	38.62
227.856	42.62
228.09	49.62
228.324	62.62
228.559	54.62
228.793	59.62
229.027	61.62
229.262	68.62
229.496	65.62
229.73	82.62
229.964	91.62
230.199	85.62
230.433	75.62
230.667	66.62
230.901	75.62
231.136	74.62
231.37	55.62
231.604	74.62
231.838	76.62
232.072	65.62
232.306	70.62
232.541	75.62
232.775	88.62
233.009	75.62
233.243	84.62
233.477	76.62
233.711	80.62
233.945	87.62
234.179	81.62
234.413	72.62
234.647	70.62
234.881	75.62
235.115	70.62
235.349	97.62
235.583	67.62
235.817	84.62
236.051	83.62
236.285	84.62
236.519	76.62
236.753	87.62
236.987	82.62
237.221	89.62
237.455	61.62
237.689	80.62
237.922	86.62
238.156	76.62
238.39	76.62
238.624	76.62
238.858	75.62
239.091	73.62
239.325	75.62
239.559	74.62
239.793	69.62
240.027	76.62
240.26	84.62
240.494	82.62
240.728	74.62
240.961	85.62
241.195	79.62
241.429	64.62
241.662	89.62
241.896	75.62
242.13	86.62
242.363	55.62
242.597	71.62
242.83	93.62
243.064	78.62
243.298	82.62
243.531	81.62
243.765	75.62
243.998	71.62
244.232	79.62
244.465	95.62
244.699	96.62
244.932	71.62
245.166	76.62
245.399	93.62
245.633	70.62
245.866	72.62
246.099	66.62
246.333	81.62
246.566	83.62
246.8	60.62
247.033	82.62
247.266	89.62
247.5	71.62
247.733	86.62
247.966	69.62
248.2	82.62
248.433	70.62
248.666	81.62
248.899	74.62
249.133	100.62
249.366	89.62
249.599	84.62
249.832	81.62
250.066	79.62
250.299	67.62
250.532	82.62
250.765	73.62
250.998	81.62
251.231	83.62
251.465	82.62
251.698	71.62
251.931	77.62
252.164	71.62
252.397	81.62
252.63	71.62
252.863	60.62
253.096	71.62
253.329	76.62
253.562	72.62
253.795	89.62
254.028	72.62
254.261	84.62
254.494	75.62
254.727	77.62
254.96	78.62
255.193	74.62
255.426	88.62
255.659	82.62
255.892	90.62
256.124	85.62
256.357	90.62
256.59	78.62
256.823	80.62
257.056	84.62
257.289	68.62
257.521	88.62
257.754	72.62
257.987	78.62
258.22	87.62
258.452	74.62
258.685	90.62
258.918	83.62
259.151	77.62
259.383	72.62
259.616	91.62
259.849	76.62
260.081	79.62
260.314	89.62
260.547	84.62
260.779	75.62
261.012	87.62
261.244	76.62
261.477	79.62
261.71	88.62
261.942	81.62
262.175	106.62
262.407	80.62
262.64	91.62
262.872	87.62
263.105	74.62
263.337	77.62
263.57	81.62
263.802	71.62
264.035	77.62
264.267	67.62
264.499	83.62
264.732	100.62
264.964	74.62
265.197	75.62
265.429	82.62
265.661	77.62
265.894	74.62
266.126	95.62
266.358	77.62
266.591	75.62
266.823	91.62
267.055	88.62
267.287	79.62
267.52	89.62
267.752	90.62
267.984	82.62
268.216	83.62
268.448	87.62
268.681	88.62
268.913	81.62
269.145	98.62
269.377	74.62
269.609	88.62
269.841	83.62
270.073	88.62
270.306	85.62
270.538	80.62
270.77	85.62
271.002	85.62
271.234	88.62
271.466	78.62
271.698	75.62
271.93	75.62
272.162	90.62
272.394	81.62
272.626	81.62
272.858	88.62
273.09	77.62
273.322	91.62
273.553	75.62
273.785	68.62
274.017	81.62
274.249	77.62
274.481	103.62
274.713	75.62
274.945	80.62
275.176	79.62
275.408	83.62
275.64	74.62
275.872	82.62
276.104	96.62
276.335	94.62
276.567	95.62
276.799	110.62
277.031	89.62
277.262	81.62
277.494	84.62
277.726	89.62
277.957	71.62
278.189	76.62
278.421	80.62
278.652	88.62
278.884	71.62
279.115	84.62
279.347	67.62
279.579	68.62
279.81	95.62
280.042	84.62
280.273	92.62
280.505	92.62
280.736	78.62
280.968	82.62
281.199	87.62
281.431	72.62
281.662	74.62
281.894	72.62
282.125	100.62
282.356	114.62
282.588	130.62
282.819	107.62
283.051	75.62
283.282	90.62
283.513	83.62
283.745	80.62
283.976	87.62
284.207	78.62
284.439	82.62
284.67	92.62
284.901	85.62
285.132	84.62
285.364	83.62
285.595	86.62
285.826	78.62
286.057	92.62
286.288	100.62
286.52	96.62
286.751	87.62
286.982	83.62
287.213	83.62
287.444	68.62
287.675	91.62
287.906	89.62
288.138	82.62
288.369	99.62
288.6	86.62
288.831	67.62
289.062	87.62
289.293	94.62
289.524	104.62
289.755	78.62
289.986	80.62
290.217	89.62
290.448	79.62
290.679	77.62
290.91	84.62
291.141	81.62
291.371	84.62
291.602	88.62
291.833	73.62
292.064	86.62
292.295	88.62
292.526	95.62
292.757	77.62
292.987	93.62
293.218	92.62
293.449	99.62
293.68	83.62
293.91	85.62
294.141	74.62
294.372	91.62
294.603	93.62
294.833	93.62
295.064	78.62
295.295	90.62
295.525	91.62
295.756	101.62
295.987	106.62
296.217	144.62
296.448	116.62
296.679	90.62
296.909	75.62
297.14	83.62
297.37	95.62
297.601	78.62
297.831	80.62
298.062	99.62
298.292	98.62
298.523	84.62
298.753	68.62
298.984	88.62
299.214	75.62
299.445	83.62
299.675	100.62
299.905	106.62
300.136	85.62
300.366	87.62
300.597	84.62
300.827	81.62
301.057	92.62
301.288	99.62
301.518	90.62
301.748	75.62
301.979	89.62
302.209	88.62
302.439	89.62
302.669	81.62
302.9	86.62
303.13	99.62
303.36	85.62
303.59	81.62
303.82	116.62
304.051	95.62
304.281	92.62
304.511	90.62
304.741	91.62
304.971	72.62
305.201	99.62
305.431	89.62
305.661	95.62
305.891	91.62
306.121	105.62
306.352	91.62
306.582	102.62
306.812	79.62
307.042	80.62
307.272	102.62
307.502	99.62
307.731	103.62
307.961	103.62
308.191	88.62
308.421	103.62
308.651	84.62
308.881	95.62
309.111	87.62
309.341	104.62
309.571	92.62
309.8	98.62
310.03	92.62
310.26	92.62
310.49	95.62
310.72	99.62
310.949	102.62
311.179	92.62
311.409	90.62
311.639	113.62
311.868	97.62
312.098	77.62
312.328	104.62
312.557	105.62
312.787	104.62
313.017	88.62
313.246	87.62
313.476	90.62
313.706	95.62
313.935	94.62
314.165	101.62
314.394	100.62
314.624	90.62
314.853	102.62
315.083	90.62
315.312	95.62
315.542	88.62
315.771	90.62
316.001	98.62
316.23	79.62
316.46	84.62
316.689	103.62
316.919	84.62
317.148	95.62
317.377	93.62
317.607	98.62
317.836	96.62
318.065	89.62
318.295	98.62
318.524	99.62
318.753	92.62
318.983	79.62
319.212	92.62
319.441	100.62
319.67	89.62
319.9	101.62
320.129	82.62
320.358	70.62
320.587	89.62
320.816	92.62
321.046	90.62
321.275	92.62
321.504	91.62
321.733	96.62
321.962	91.62
322.191	107.62
322.42	96.62
322.649	105.62
322.878	106.62
323.108	111.62
323.337	119.62
323.566	131.62
323.795	163.62
324.024	206.62
324.253	353.62
324.482	673.62
324.71	1394.62
324.939	1823.62
325.168	703.62
325.397	223.62
325.626	140.62
325.855	119.62
326.084	136.62
326.313	131.62
326.542	137.62
326.77	197.62
326.999	396.62
327.228	775.62
327.457	1334.62
327.686	1102.62
327.914	340.62
328.143	175.62
328.372	143.62
328.6	106.62
328.829	106.62
329.058	120.62
329.287	112.62
329.515	103.62
329.744	98.62
329.972	115.62
330.201	124.62
330.43	129.62
330.658	108.62
330.887	132.62
331.115	111.62
331.344	100.62
331.572	111.62
331.801	98.62
332.03	103.62
332.258	94.62
332.486	83.62
332.715	85.62
332.943	90.62
333.172	95.62
333.4	108.62
333.629	100.62
333.857	121.62
334.085	108.62
334.314	125.62
334.542	130.62
334.771	144.62
334.999	108.62
335.227	105.62
335.455	90.62
335.684	99.62
335.912	97.62
336.14	96.62
336.369	102.62
336.597	94.62
336.825	89.62
337.053	89.62
337.281	88.62
337.51	96.62
337.738	98.62
337.966	98.62
338.194	89.62
338.422	102.62
338.65	95.62
338.878	90.62
339.106	79.62
339.334	94.62
339.562	79.62
339.79	89.62
340.018	74.62
340.246	82.62
340.474	92.62
340.702	79.62
340.93	88.62
341.158	81.62
341.386	104.62
341.614	69.62
341.842	92.62
342.07	83.62
342.298	99.62
342.526	84.62
342.754	95.62
342.981	100.62
343.209	69.62
343.437	94.62
343.665	74.62
343.893	103.62
344.12	99.62
344.348	67.62
344.576	96.62
344.804	80.62
345.031	101.62
345.259	100.62
345.487	98.62
345.714	98.62
345.942	82.62
346.17	105.62
346.397	81.62
346.625	70.62
346.853	94.62
347.08	95.62
347.308	93.62
347.535	113.62
347.763	86.62
347.99	91.62
348.218	98.62
348.445	104.62
348.673	80.62
348.9	84.62
349.128	109.62
349.355	107.62
349.583	97.62
349.81	99.62
350.037	103.62
350.265	92.62
350.492	95.62
350.72	90.62
350.947	88.62
351.174	99.62
351.402	95.62
351.629	89.62
351.856	96.62
352.083	89.62
352.311	118.62
352.538	103.62
352.765	105.62
352.992	117.62
353.22	113.62
353.447	101.62
353.674	87.62
353.901	93.62
354.128	99.62
354.355	87.62
354.583	85.62
354.81	98.62
355.037	100.62
355.264	99.62
355.491	79.62
355.718	79.62
355.945	97.62
356.172	82.62
356.399	93.62
356.626	83.62
356.853	86.62
357.08	87.62
357.307	89.62
357.534	85.62
357.761	87.62
357.988	85.62
358.215	97.62
358.441	83.62
358.668	85.62
358.895	97.62
359.122	100.62
359.349	88.62
359.576	98.62
359.802	98.62
360.029	108.62
360.256	91.62
360.483	88.62
360.709	82.62
360.936	84.62
361.163	101.62
361.39	88.62
361.616	86.62
361.843	87.62
362.07	103.62
362.296	89.62
362.523	95.62
362.749	98.62
362.976	97.62
363.203	112.62
363.429	80.62
363.656	81.62
363.882	85.62
364.109	87.62
364.335	83.62
364.562	91.62
364.788	88.62
365.015	86.62
365.241	100.62
365.468	103.62
365.694	121.62
365.92	105.62
366.147	91.62
366.373	91.62
366.599	97.62
366.826	83.62
367.052	91.62
367.278	78.62
367.505	102.62
367.731	89.62
367.957	87.62
368.184	83.62
368.41	94.62
368.636	111.62
368.862	117.62
369.089	100.62
369.315	93.62
369.541	88.62
369.767	92.62
369.993	78.62
370.219	80.62
370.445	85.62
370.672	93.62
370.898	90.62
371.124	86.62
371.35	82.62
371.576	73.62
371.802	87.62
372.028	70.62
372.254	91.62
372.48	82.62
372.706	82.62
372.932	89.62
373.158	96.62
373.384	95.62
373.61	95.62
373.835	88.62
374.061	93.62
374.287	97.62
374.513	87.62
374.739	86.62
374.965	70.62
375.191	76.62
375.416	65.62
375.642	101.62
375.868	83.62
376.094	85.62
376.319	82.62
376.545	90.62
376.771	86.62
376.997	100.62
377.222	85.62
377.448	83.62
377.674	90.62
377.899	87.62
378.125	89.62
378.35	87.62
378.576	76.62
378.802	92.62
379.027	100.62
379.253	71.62
379.478	87.62
379.704	116.62
379.929	88.62
380.155	99.62
380.38	90.62
380.606	84.62
380.831	99.62
381.057	114.62
381.282	100.62
381.507	95.62
381.733	84.62
381.958	85.62
382.184	95.62
382.409	95.62
382.634	92.62
382.86	105.62
383.085	106.62
383.31	89.62
383.535	81.62
383.761	96.62
383.986	92.62
384.211	106.62
384.436	96.62
384.662	88.62
384.887	99.62
385.112	102.62
385.337	111.62
385.562	99.62
385.787	108.62
386.013	104.62
386.238	97.62
386.463	110.62
386.688	98.62
386.913	88.62
387.138	99.62
387.363	107.62
387.588	100.62
387.813	101.62
388.038	93.62
388.263	99.62
388.488	108.62
388.713	95.62
388.938	79.62
389.163	98.62
389.387	91.62
389.612	95.62
389.837	104.62
390.062	85.62
390.287	94.62
390.512	78.62
390.736	86.62
390.961	85.62
391.186	98.62
391.411	86.62
391.636	85.62
391.86	69.62
392.085	88.62
392.31	91.62
392.534	97.62
392.759	83.62
392.984	83.62
393.208	86.62
393.433	90.62
393.658	83.62
393.882	81.62
394.107	102.62
394.331	88.62
394.556	82.62
394.78	94.62
395.005	90.62
395.229	100.62
395.454	71.62
395.678	73.62
395.903	99.62
396.127	77.62
396.352	88.62
396.576	68.62
396.801	92.62
397.025	82.62
397.249	74.62
397.474	84.62
397.698	81.62
397.922	103.62
398.147	79.62
398.371	82.62
398.595	83.62
398.82	86.62
399.044	75.62
399.268	86.62
399.492	85.62
399.717	88.62
399.941	86.62
400.165	93.62
400.389	98.62
400.613	87.62
400.837	81.62
401.062	83.62
401.286	89.62
401.51	90.62
401.734	86.62
401.958	89.62
402.182	123.62
402.406	155.62
402.63	99.62
402.854	92.62
403.078	87.62
403.302	88.62
403.526	87.62
403.75	85.62
403.974	72.62
404.198	82.62
404.422	78.62
404.645	76.62
404.869	77.62
405.093	91.62
405.317	102.62
405.541	105.62
405.765	104.62
405.988	100.62
406.212	156.62
406.436	219.62
406.66	144.62
406.883	84.62
407.107	87.62
407.331	80.62
407.555	100.62
407.778	98.62
408.002	90.62
408.226	85.62
408.449	87.62
408.673	97.62
408.896	89.62
409.12	98.62
409.344	76.62
409.567	81.62
409.791	87.62
410.014	88.62
410.238	100.62
410.461	97.62
410.685	94.62
410.908	92.62
411.132	98.62
411.355	87.62
411.578	92.62
411.802	92.62
412.025	101.62
412.249	93.62
412.472	99.62
412.695	95.62
412.919	82.62
413.142	87.62
413.365	77.62
413.589	89.62
413.812	80.62
414.035	92.62
414.258	95.62
414.482	82.62
414.705	75.62
414.928	93.62
415.151	86.62
415.374	77.62
415.597	96.62
415.821	88.62
416.044	90.62
416.267	86.62
416.49	82.62
416.713	82.62
416.936	85.62
417.159	77.62
417.382	81.62
417.605	85.62
417.828	90.62
418.051	94.62
418.274	74.62
418.497	86.62
418.72	101.62
418.943	101.62
419.166	74.62
419.389	82.62
419.611	72.62
419.834	97.62
420.057	92.62
420.28	85.62
420.503	86.62
420.726	87.62
420.948	79.62
421.171	92.62
421.394	94.62
421.617	80.62
421.839	105.62
422.062	92.62
422.285	101.62
422.507	97.62
422.73	98.62
422.953	97.62
423.175	77.62
423.398	65.62
423.621	86.62
423.843	88.62
424.066	70.62
424.288	95.62
424.511	83.62
424.733	93.62
424.956	92.62
425.178	92.62
425.401	95.62
425.623	105.62
425.846	94.62
426.068	77.62
426.291	92.62
426.513	102.62
426.735	89.62
426.958	101.62
427.18	93.62
427.402	125.62
427.625	155.62
427.847	124.62
428.069	106.62
428.292	81.62
428.514	95.62
428.736	72.62
428.958	83.62
429.181	65.62
429.403	85.62
429.625	81.62
429.847	83.62
430.069	92.62
430.292	90.62
430.514	87.62
430.736	88.62
430.958	77.62
431.18	81.62
431.402	85.62
431.624	87.62
431.846	82.62
432.068	85.62
432.29	88.62
432.512	104.62
432.734	85.62
432.956	62.62
433.178	91.62
433.4	101.62
433.622	88.62
433.844	82.62
434.066	97.62
434.287	92.62
434.509	102.62
434.731	93.62
434.953	102.62
435.175	89.62
435.397	87.62
435.618	103.62
435.84	92.62
436.062	121.62
436.284	113.62
436.505	93.62
436.727	93.62
436.949	86.62
437.17	112.62
437.392	72.62
437.614	92.62
437.835	85.62
438.057	106.62
438.278	99.62
438.5	102.62
438.721	97.62
438.943	89.62
439.165	93.62
439.386	81.62
439.608	84.62
439.829	91.62
440.05	113.62
440.272	132.62
440.493	90.62
440.715	93.62
440.936	83.62
441.158	99.62
441.379	81.62
441.6	94.62
441.822	99.62
442.043	83.62
442.264	108.62
442.486	77.62
442.707	90.62
442.928	96.62
443.149	133.62
443.371	134.62
443.592	109.62
443.813	89.62
444.034	90.62
444.255	75.62
444.476	78.62
444.698	76.62
444.919	96.62
445.14	119.62
445.361	115.62
445.582	101.62
445.803	124.62
446.024	133.62
446.245	121.62
446.466	102.62
446.687	89.62
446.908	79.62
447.129	87.62
447.35	80.62
447.571	76.62
447.792	92.62
448.013	94.62
448.234	108.62
448.455	93.62
448.675	99.62
448.896	106.62
449.117	96.62
449.338	112.62
449.559	106.62
449.779	122.62
450	93.62
450.221	85.62
450.442	91.62
450.662	87.62
450.883	97.62
451.104	114.62
451.324	90.62
451.545	92.62
451.766	76.62
451.986	77.62
452.207	79.62
452.428	74.62
452.648	88.62
452.869	97.62
453.089	109.62
453.31	114.62
453.53	89.62
453.751	81.62
453.971	94.62
454.192	106.62
454.412	94.62
454.633	90.62
454.853	87.62
455.073	79.62
455.294	90.62
455.514	79.62
455.734	86.62
455.955	89.62
456.175	82.62
456.395	86.62
456.616	96.62
456.836	77.62
457.056	89.62
457.276	83.62
457.497	91.62
457.717	93.62
457.937	85.62
458.157	85.62
458.377	90.62
458.598	97.62
458.818	136.62
459.038	151.62
459.258	113.62
459.478	88.62
459.698	81.62
459.918	77.62
460.138	87.62
460.358	87.62
460.578	91.62
460.798	70.62
461.018	85.62
461.238	66.62
461.458	86.62
461.678	75.62
461.898	74.62
462.118	80.62
462.338	96.62
462.558	86.62
462.777	73.62
462.997	85.62
463.217	95.62
463.437	86.62
463.657	75.62
463.876	91.62
464.096	95.62
464.316	89.62
464.536	99.62
464.755	87.62
464.975	91.62
465.195	154.62
465.414	140.62
465.634	74.62
465.854	92.62
466.073	75.62
466.293	81.62
466.512	84.62
466.732	93.62
466.951	76.62
467.171	77.62
467.391	77.62
467.61	101.62
467.829	77.62
468.049	97.62
468.268	104.62
468.488	80.62
468.707	73.62
468.927	68.62
469.146	89.62
469.365	103.62
469.585	91.62
469.804	94.62
470.023	99.62
470.243	99.62
470.462	96.62
470.681	96.62
470.901	72.62
471.12	82.62
471.339	89.62
471.558	82.62
471.777	87.62
471.997	82.62
472.216	102.62
472.435	139.62
472.654	95.62
472.873	89.62
473.092	92.62
473.311	90.62
473.53	84.62
473.749	95.62
473.968	91.62
474.187	102.62
474.406	105.62
474.625	99.62
474.844	89.62
475.063	80.62
475.282	92.62
475.501	84.62
475.72	96.62
475.939	82.62
476.158	77.62
476.377	71.62
476.596	83.62
476.814	92.62
477.033	100.62
477.252	95.62
477.471	81.62
477.69	85.62
477.908	92.62
478.127	93.62
478.346	88.62
478.564	84.62
478.783	94.62
479.002	81.62
479.22	96.62
479.439	105.62
479.658	96.62
479.876	88.62
480.095	88.62
480.313	90.62
480.532	95.62
480.751	90.62
480.969	121.62
481.188	231.62
481.406	179.62
481.624	91.62
481.843	99.62
482.061	80.62
482.28	88.62
482.498	88.62
482.717	77.62
482.935	93.62
483.153	95.62
483.372	91.62
483.59	95.62
483.808	80.62
484.027	99.62
484.245	91.62
484.463	90.62
484.681	98.62
484.9	106.62
485.118	108.62
485.336	99.62
485.554	100.62
485.772	77.62
485.99	105.62
486.209	102.62
486.427	111.62
486.645	99.62
486.863	114.62
487.081	95.62
487.299	90.62
487.517	83.62
487.735	87.62
487.953	84.62
488.171	95.62
488.389	85.62
488.607	93.62
488.825	100.62
489.043	92.62
489.261	87.62
489.479	84.62
489.696	102.62
489.914	103.62
490.132	94.62
490.35	77.62
490.568	98.62
490.786	94.62
491.003	90.62
491.221	77.62
491.439	96.62
491.657	102.62
491.874	75.62
492.092	91.62
492.31	88.62
492.527	83.62
492.745	103.62
492.963	90.62
493.18	93.62
493.398	91.62
493.615	96.62
493.833	96.62
494.05	90.62
494.268	90.62
494.485	85.62
494.703	87.62
494.92	98.62
495.138	71.62
495.355	86.62
495.573	92.62
495.79	90.62
496.008	88.62
496.225	98.62
496.442	88.62
496.66	82.62
496.877	108.62
497.094	88.62
497.312	95.62
497.529	84.62
497.746	84.62
497.963	75.62
498.181	89.62
498.398	83.62
498.615	104.62
498.832	101.62
499.049	90.62
499.267	99.62
499.484	90.62
499.701	89.62
499.918	91.62
500.135	94.62
500.352	99.62
500.569	82.62
500.786	84.62
501.003	90.62
501.22	84.62
501.437	94.62
501.654	95.62
501.871	106.62
502.088	108.62
502.305	96.62
502.522	81.62
502.739	72.62
502.956	87.62
503.172	91.62
503.389	98.62
503.606	105.62
503.823	84.62
504.04	92.62
504.256	96.62
504.473	95.62
504.69	93.62
504.907	91.62
505.123	89.62
505.34	87.62
505.557	100.62
505.773	97.62
505.99	89.62
506.207	84.62
506.423	82.62
506.64	93.62
506.856	89.62
507.073	93.62
507.289	84.62
507.506	97.62
507.722	113.62
507.939	110.62
508.155	90.62
508.372	92.62
508.588	87.62
508.805	109.62
509.021	100.62
509.238	104.62
509.454	103.62
509.67	98.62
509.887	100.62
510.103	116.62
510.319	196.62
510.536	713.62
510.752	2319.62
510.968	673.62
511.184	147.62
511.401	101.62
511.617	102.62
511.833	89.62
512.049	84.62
512.265	91.62
512.481	88.62
512.698	91.62
512.914	104.62
513.13	102.62
513.346	90.62
513.562	81.62
513.778	87.62
513.994	92.62
514.21	102.62
514.426	119.62
514.642	143.62
514.858	128.62
515.074	139.62
515.29	420.62
515.506	1413.62
515.721	519.62
515.937	141.62
516.153	108.62
516.369	106.62
