Data from Circ_2014_H10_HRD10591_00061.txt Node
Date: Wed Jan 03 10:02:21 EST 2024
User: Yrep
Spectrometer: HR+D1059
Trigger mode: 1
Integration Time (sec): 1.000000E-1
Scans to average: 1
Electric dark correction enabled: true
Nonlinearity correction enabled: false
Boxcar width: 0
XAxis mode: Wavelengths
Number of Pixels in Spectrum: 2048
>>>>>Begin Spectral Data<<<<<
223.165	-17.38
223.4	-17.38
223.635	-17.38
223.869	-26.38
224.104	-19.38
224.338	-10.38
224.573	-5.38
224.808	-8.38
225.042	-20.38
225.277	4.62
225.511	0.62
225.746	0.62
225.98	10.62
226.215	-1.38
226.449	19.62
226.683	10.62
226.918	19.62
227.152	42.62
227.387	40.62
227.621	40.62
227.856	56.62
228.09	46.62
228.324	39.62
228.559	59.62
228.793	63.62
229.027	59.62
229.262	68.62
229.496	76.62
229.73	83.62
229.964	76.62
230.199	75.62
230.433	63.62
230.667	62.62
230.901	79.62
231.136	81.62
231.37	72.62
231.604	87.62
231.838	82.62
232.072	95.62
232.306	88.62
232.541	97.62
232.775	85.62
233.009	73.62
233.243	90.62
233.477	88.62
233.711	93.62
233.945	85.62
234.179	82.62
234.413	68.62
234.647	87.62
234.881	68.62
235.115	72.62
235.349	71.62
235.583	77.62
235.817	69.62
236.051	85.62
236.285	77.62
236.519	78.62
236.753	87.62
236.987	79.62
237.221	94.62
237.455	97.62
237.689	79.62
237.922	79.62
238.156	80.62
238.39	74.62
238.624	85.62
238.858	75.62
239.091	84.62
239.325	80.62
239.559	73.62
239.793	80.62
240.027	73.62
240.26	76.62
240.494	94.62
240.728	79.62
240.961	96.62
241.195	85.62
241.429	82.62
241.662	58.62
241.896	76.62
242.13	78.62
242.363	83.62
242.597	74.62
242.83	84.62
243.064	70.62
243.298	84.62
243.531	84.62
243.765	73.62
243.998	91.62
244.232	81.62
244.465	86.62
244.699	80.62
244.932	70.62
245.166	84.62
245.399	73.62
245.633	91.62
245.866	84.62
246.099	77.62
246.333	88.62
246.566	82.62
246.8	86.62
247.033	89.62
247.266	80.62
247.5	73.62
247.733	89.62
247.966	90.62
248.2	85.62
248.433	73.62
248.666	76.62
248.899	77.62
249.133	75.62
249.366	91.62
249.599	109.62
249.832	83.62
250.066	91.62
250.299	86.62
250.532	80.62
250.765	85.62
250.998	72.62
251.231	99.62
251.465	79.62
251.698	80.62
251.931	81.62
252.164	96.62
252.397	77.62
252.63	84.62
252.863	78.62
253.096	73.62
253.329	91.62
253.562	84.62
253.795	69.62
254.028	84.62
254.261	80.62
254.494	70.62
254.727	77.62
254.96	74.62
255.193	94.62
255.426	82.62
255.659	86.62
255.892	69.62
256.124	98.62
256.357	78.62
256.59	87.62
256.823	84.62
257.056	86.62
257.289	80.62
257.521	84.62
257.754	72.62
257.987	74.62
258.22	81.62
258.452	92.62
258.685	76.62
258.918	77.62
259.151	85.62
259.383	80.62
259.616	69.62
259.849	93.62
260.081	77.62
260.314	74.62
260.547	75.62
260.779	77.62
261.012	88.62
261.244	80.62
261.477	91.62
261.71	85.62
261.942	115.62
262.175	100.62
262.407	76.62
262.64	92.62
262.872	87.62
263.105	71.62
263.337	95.62
263.57	87.62
263.802	84.62
264.035	81.62
264.267	96.62
264.499	85.62
264.732	73.62
264.964	71.62
265.197	79.62
265.429	87.62
265.661	82.62
265.894	84.62
266.126	79.62
266.358	93.62
266.591	83.62
266.823	81.62
267.055	98.62
267.287	74.62
267.52	80.62
267.752	92.62
267.984	91.62
268.216	88.62
268.448	86.62
268.681	84.62
268.913	81.62
269.145	93.62
269.377	83.62
269.609	95.62
269.841	66.62
270.073	79.62
270.306	86.62
270.538	87.62
270.77	89.62
271.002	99.62
271.234	80.62
271.466	78.62
271.698	94.62
271.93	87.62
272.162	93.62
272.394	82.62
272.626	80.62
272.858	83.62
273.09	72.62
273.322	82.62
273.553	78.62
273.785	71.62
274.017	87.62
274.249	86.62
274.481	79.62
274.713	74.62
274.945	96.62
275.176	90.62
275.408	82.62
275.64	83.62
275.872	79.62
276.104	86.62
276.335	92.62
276.567	91.62
276.799	91.62
277.031	109.62
277.262	98.62
277.494	101.62
277.726	86.62
277.957	88.62
278.189	87.62
278.421	92.62
278.652	91.62
278.884	90.62
279.115	97.62
279.347	98.62
279.579	98.62
279.81	88.62
280.042	87.62
280.273	96.62
280.505	95.62
280.736	77.62
280.968	94.62
281.199	95.62
281.431	83.62
281.662	97.62
281.894	94.62
282.125	97.62
282.356	119.62
282.588	143.62
282.819	117.62
283.051	87.62
283.282	94.62
283.513	80.62
283.745	87.62
283.976	86.62
284.207	83.62
284.439	94.62
284.67	80.62
284.901	88.62
285.132	80.62
285.364	82.62
285.595	92.62
285.826	70.62
286.057	77.62
286.288	78.62
286.52	79.62
286.751	83.62
286.982	94.62
287.213	84.62
287.444	91.62
287.675	80.62
287.906	93.62
288.138	97.62
288.369	88.62
288.6	81.62
288.831	83.62
289.062	92.62
289.293	95.62
289.524	89.62
289.755	80.62
289.986	87.62
290.217	86.62
290.448	91.62
290.679	87.62
290.91	89.62
291.141	81.62
291.371	88.62
291.602	89.62
291.833	98.62
292.064	92.62
292.295	77.62
292.526	99.62
292.757	101.62
292.987	83.62
293.218	78.62
293.449	85.62
293.68	87.62
293.91	85.62
294.141	90.62
294.372	68.62
294.603	91.62
294.833	91.62
295.064	87.62
295.295	91.62
295.525	82.62
295.756	85.62
295.987	114.62
296.217	141.62
296.448	115.62
296.679	90.62
296.909	84.62
297.14	91.62
297.37	78.62
297.601	72.62
297.831	80.62
298.062	92.62
298.292	94.62
298.523	92.62
298.753	90.62
298.984	74.62
299.214	87.62
299.445	90.62
299.675	87.62
299.905	88.62
300.136	79.62
300.366	106.62
300.597	81.62
300.827	91.62
301.057	84.62
301.288	118.62
301.518	95.62
301.748	86.62
301.979	111.62
302.209	100.62
302.439	105.62
302.669	80.62
302.9	98.62
303.13	92.62
303.36	91.62
303.59	109.62
303.82	87.62
304.051	95.62
304.281	77.62
304.511	107.62
304.741	86.62
304.971	84.62
305.201	99.62
305.431	98.62
305.661	114.62
305.891	83.62
306.121	95.62
306.352	102.62
306.582	101.62
306.812	97.62
307.042	94.62
307.272	91.62
307.502	106.62
307.731	95.62
307.961	89.62
308.191	92.62
308.421	99.62
308.651	90.62
308.881	87.62
309.111	99.62
309.341	109.62
309.571	96.62
309.8	90.62
310.03	101.62
310.26	99.62
310.49	103.62
310.72	104.62
310.949	119.62
311.179	101.62
311.409	96.62
311.639	98.62
311.868	95.62
312.098	101.62
312.328	90.62
312.557	117.62
312.787	107.62
313.017	95.62
313.246	97.62
313.476	107.62
313.706	101.62
313.935	89.62
314.165	83.62
314.394	99.62
314.624	104.62
314.853	104.62
315.083	101.62
315.312	91.62
315.542	87.62
315.771	74.62
316.001	92.62
316.23	105.62
316.46	102.62
316.689	91.62
316.919	92.62
317.148	91.62
317.377	106.62
317.607	106.62
317.836	89.62
318.065	88.62
318.295	85.62
318.524	93.62
318.753	93.62
318.983	97.62
319.212	100.62
319.441	117.62
319.67	110.62
319.9	91.62
320.129	109.62
320.358	101.62
320.587	88.62
320.816	81.62
321.046	98.62
321.275	102.62
321.504	105.62
321.733	104.62
321.962	97.62
322.191	93.62
322.42	119.62
322.649	110.62
322.878	113.62
323.108	109.62
323.337	131.62
323.566	138.62
323.795	151.62
324.024	176.62
324.253	356.62
324.482	718.62
324.71	1461.62
324.939	1902.62
325.168	744.62
325.397	239.62
325.626	150.62
325.855	113.62
326.084	127.62
326.313	118.62
326.542	144.62
326.77	222.62
326.999	398.62
327.228	797.62
327.457	1447.62
327.686	1172.62
327.914	331.62
328.143	183.62
328.372	166.62
328.6	123.62
328.829	104.62
329.058	132.62
329.287	145.62
329.515	112.62
329.744	105.62
329.972	99.62
330.201	146.62
330.43	160.62
330.658	136.62
330.887	133.62
331.115	114.62
331.344	91.62
331.572	100.62
331.801	103.62
332.03	106.62
332.258	95.62
332.486	85.62
332.715	89.62
332.943	101.62
333.172	103.62
333.4	85.62
333.629	94.62
333.857	115.62
334.085	130.62
334.314	132.62
334.542	155.62
334.771	158.62
334.999	109.62
335.227	106.62
335.455	91.62
335.684	103.62
335.912	99.62
336.14	102.62
336.369	101.62
336.597	108.62
336.825	96.62
337.053	107.62
337.281	102.62
337.51	79.62
337.738	106.62
337.966	92.62
338.194	102.62
338.422	99.62
338.65	88.62
338.878	98.62
339.106	85.62
339.334	87.62
339.562	87.62
339.79	71.62
340.018	87.62
340.246	90.62
340.474	102.62
340.702	95.62
340.93	89.62
341.158	96.62
341.386	114.62
341.614	95.62
341.842	106.62
342.07	90.62
342.298	102.62
342.526	101.62
342.754	88.62
342.981	90.62
343.209	111.62
343.437	106.62
343.665	82.62
343.893	73.62
344.12	95.62
344.348	100.62
344.576	100.62
344.804	96.62
345.031	95.62
345.259	89.62
345.487	105.62
345.714	89.62
345.942	87.62
346.17	103.62
346.397	104.62
346.625	81.62
346.853	86.62
347.08	88.62
347.308	92.62
347.535	100.62
347.763	104.62
347.99	102.62
348.218	107.62
348.445	97.62
348.673	104.62
348.9	101.62
349.128	111.62
349.355	106.62
349.583	87.62
349.81	97.62
350.037	102.62
350.265	94.62
350.492	109.62
350.72	105.62
350.947	99.62
351.174	99.62
351.402	99.62
351.629	106.62
351.856	97.62
352.083	103.62
352.311	107.62
352.538	103.62
352.765	84.62
352.992	120.62
353.22	122.62
353.447	117.62
353.674	102.62
353.901	97.62
354.128	101.62
354.355	104.62
354.583	108.62
354.81	108.62
355.037	87.62
355.264	103.62
355.491	93.62
355.718	95.62
355.945	83.62
356.172	92.62
356.399	90.62
356.626	93.62
356.853	79.62
357.08	90.62
357.307	90.62
357.534	82.62
357.761	95.62
357.988	99.62
358.215	92.62
358.441	101.62
358.668	90.62
358.895	87.62
359.122	80.62
359.349	101.62
359.576	83.62
359.802	99.62
360.029	107.62
360.256	107.62
360.483	92.62
360.709	87.62
360.936	90.62
361.163	91.62
361.39	102.62
361.616	103.62
361.843	99.62
362.07	102.62
362.296	101.62
362.523	98.62
362.749	97.62
362.976	88.62
363.203	85.62
363.429	96.62
363.656	97.62
363.882	103.62
364.109	99.62
364.335	102.62
364.562	95.62
364.788	98.62
365.015	92.62
365.241	91.62
365.468	92.62
365.694	106.62
365.92	91.62
366.147	79.62
366.373	79.62
366.599	89.62
366.826	86.62
367.052	96.62
367.278	83.62
367.505	94.62
367.731	95.62
367.957	103.62
368.184	112.62
368.41	103.62
368.636	126.62
368.862	126.62
369.089	94.62
369.315	94.62
369.541	80.62
369.767	91.62
369.993	109.62
370.219	93.62
370.445	87.62
370.672	100.62
370.898	81.62
371.124	84.62
371.35	95.62
371.576	70.62
371.802	80.62
372.028	73.62
372.254	82.62
372.48	89.62
372.706	104.62
372.932	84.62
373.158	93.62
373.384	101.62
373.61	100.62
373.835	93.62
374.061	98.62
374.287	89.62
374.513	82.62
374.739	93.62
374.965	94.62
375.191	104.62
375.416	92.62
375.642	103.62
375.868	86.62
376.094	91.62
376.319	84.62
376.545	109.62
376.771	90.62
376.997	90.62
377.222	96.62
377.448	97.62
377.674	104.62
377.899	103.62
378.125	89.62
378.35	84.62
378.576	88.62
378.802	92.62
379.027	94.62
379.253	88.62
379.478	99.62
379.704	115.62
379.929	90.62
380.155	86.62
380.38	99.62
380.606	89.62
380.831	99.62
381.057	99.62
381.282	96.62
381.507	93.62
381.733	101.62
381.958	106.62
382.184	100.62
382.409	100.62
382.634	89.62
382.86	96.62
383.085	107.62
383.31	107.62
383.535	112.62
383.761	85.62
383.986	83.62
384.211	75.62
384.436	100.62
384.662	110.62
384.887	105.62
385.112	108.62
385.337	102.62
385.562	100.62
385.787	106.62
386.013	104.62
386.238	107.62
386.463	101.62
386.688	92.62
386.913	103.62
387.138	109.62
387.363	115.62
387.588	102.62
387.813	88.62
388.038	102.62
388.263	105.62
388.488	101.62
388.713	94.62
388.938	94.62
389.163	104.62
389.387	99.62
389.612	85.62
389.837	82.62
390.062	99.62
390.287	88.62
390.512	81.62
390.736	97.62
390.961	100.62
391.186	97.62
391.411	96.62
391.636	102.62
391.86	92.62
392.085	95.62
392.31	102.62
392.534	87.62
392.759	100.62
392.984	80.62
393.208	86.62
393.433	89.62
393.658	93.62
393.882	88.62
394.107	80.62
394.331	76.62
394.556	83.62
394.78	88.62
395.005	96.62
395.229	84.62
395.454	95.62
395.678	85.62
395.903	90.62
396.127	100.62
396.352	98.62
396.576	108.62
396.801	85.62
397.025	98.62
397.249	103.62
397.474	99.62
397.698	89.62
397.922	79.62
398.147	87.62
398.371	95.62
398.595	92.62
398.82	67.62
399.044	93.62
399.268	95.62
399.492	93.62
399.717	95.62
399.941	88.62
400.165	90.62
400.389	71.62
400.613	89.62
400.837	91.62
401.062	100.62
401.286	88.62
401.51	86.62
401.734	81.62
401.958	90.62
402.182	111.62
402.406	166.62
402.63	122.62
402.854	92.62
403.078	105.62
403.302	91.62
403.526	86.62
403.75	92.62
403.974	78.62
404.198	94.62
404.422	91.62
404.645	82.62
404.869	107.62
405.093	96.62
405.317	84.62
405.541	86.62
405.765	110.62
405.988	108.62
406.212	166.62
406.436	228.62
406.66	143.62
406.883	101.62
407.107	86.62
407.331	92.62
407.555	92.62
407.778	89.62
408.002	89.62
408.226	78.62
408.449	80.62
408.673	84.62
408.896	84.62
409.12	83.62
409.344	107.62
409.567	81.62
409.791	88.62
410.014	94.62
410.238	94.62
410.461	83.62
410.685	90.62
410.908	95.62
411.132	124.62
411.355	99.62
411.578	96.62
411.802	85.62
412.025	101.62
412.249	92.62
412.472	89.62
412.695	108.62
412.919	103.62
413.142	76.62
413.365	90.62
413.589	90.62
413.812	93.62
414.035	88.62
414.258	82.62
414.482	94.62
414.705	79.62
414.928	86.62
415.151	84.62
415.374	96.62
415.597	84.62
415.821	88.62
416.044	85.62
416.267	95.62
416.49	89.62
416.713	88.62
416.936	88.62
417.159	87.62
417.382	83.62
417.605	84.62
417.828	95.62
418.051	87.62
418.274	121.62
418.497	94.62
418.72	77.62
418.943	75.62
419.166	93.62
419.389	88.62
419.611	76.62
419.834	82.62
420.057	84.62
420.28	91.62
420.503	87.62
420.726	83.62
420.948	87.62
421.171	94.62
421.394	103.62
421.617	106.62
421.839	100.62
422.062	82.62
422.285	83.62
422.507	113.62
422.73	91.62
422.953	100.62
423.175	93.62
423.398	104.62
423.621	95.62
423.843	101.62
424.066	91.62
424.288	94.62
424.511	72.62
424.733	84.62
424.956	93.62
425.178	111.62
425.401	96.62
425.623	108.62
425.846	96.62
426.068	103.62
426.291	82.62
426.513	84.62
426.735	102.62
426.958	101.62
427.18	95.62
427.402	132.62
427.625	149.62
427.847	126.62
428.069	120.62
428.292	94.62
428.514	86.62
428.736	85.62
428.958	99.62
429.181	95.62
429.403	89.62
429.625	82.62
429.847	99.62
430.069	111.62
430.292	96.62
430.514	82.62
430.736	84.62
430.958	83.62
431.18	78.62
431.402	74.62
431.624	100.62
431.846	95.62
432.068	94.62
432.29	82.62
432.512	88.62
432.734	95.62
432.956	93.62
433.178	99.62
433.4	111.62
433.622	108.62
433.844	76.62
434.066	91.62
434.287	103.62
434.509	91.62
434.731	80.62
434.953	75.62
435.175	85.62
435.397	89.62
435.618	87.62
435.84	95.62
436.062	130.62
436.284	104.62
436.505	90.62
436.727	91.62
436.949	83.62
437.17	81.62
437.392	99.62
437.614	88.62
437.835	87.62
438.057	120.62
438.278	98.62
438.5	98.62
438.721	120.62
438.943	104.62
439.165	91.62
439.386	92.62
439.608	92.62
439.829	91.62
440.05	109.62
440.272	128.62
440.493	106.62
440.715	89.62
440.936	88.62
441.158	91.62
441.379	95.62
441.6	102.62
441.822	84.62
442.043	99.62
442.264	101.62
442.486	99.62
442.707	90.62
442.928	117.62
443.149	124.62
443.371	119.62
443.592	98.62
443.813	100.62
444.034	100.62
444.255	87.62
444.476	96.62
444.698	91.62
444.919	85.62
445.14	137.62
445.361	135.62
445.582	112.62
445.803	136.62
446.024	126.62
446.245	133.62
446.466	105.62
446.687	103.62
446.908	84.62
447.129	88.62
447.35	96.62
447.571	91.62
447.792	93.62
448.013	90.62
448.234	104.62
448.455	90.62
448.675	95.62
448.896	99.62
449.117	104.62
449.338	106.62
449.559	133.62
449.779	117.62
450	100.62
450.221	96.62
450.442	84.62
450.662	92.62
450.883	91.62
451.104	111.62
451.324	87.62
451.545	89.62
451.766	86.62
451.986	98.62
452.207	95.62
452.428	102.62
452.648	84.62
452.869	106.62
453.089	109.62
453.31	134.62
453.53	92.62
453.751	99.62
453.971	101.62
454.192	123.62
454.412	95.62
454.633	86.62
454.853	91.62
455.073	91.62
455.294	91.62
455.514	85.62
455.734	98.62
455.955	74.62
456.175	86.62
456.395	94.62
456.616	93.62
456.836	87.62
457.056	79.62
457.276	77.62
457.497	72.62
457.717	69.62
457.937	86.62
458.157	80.62
458.377	90.62
458.598	105.62
458.818	151.62
459.038	156.62
459.258	102.62
459.478	90.62
459.698	86.62
459.918	92.62
460.138	100.62
460.358	79.62
460.578	103.62
460.798	86.62
461.018	79.62
461.238	82.62
461.458	82.62
461.678	85.62
461.898	90.62
462.118	96.62
462.338	93.62
462.558	79.62
462.777	83.62
462.997	94.62
463.217	79.62
463.437	83.62
463.657	86.62
463.876	86.62
464.096	85.62
464.316	86.62
464.536	107.62
464.755	91.62
464.975	101.62
465.195	151.62
465.414	152.62
465.634	103.62
465.854	90.62
466.073	78.62
466.293	72.62
466.512	87.62
466.732	86.62
466.951	84.62
467.171	102.62
467.391	87.62
467.61	98.62
467.829	99.62
468.049	118.62
468.268	104.62
468.488	105.62
468.707	85.62
468.927	88.62
469.146	85.62
469.365	71.62
469.585	80.62
469.804	89.62
470.023	98.62
470.243	92.62
470.462	95.62
470.681	100.62
470.901	86.62
471.12	82.62
471.339	81.62
471.558	88.62
471.777	79.62
471.997	101.62
472.216	137.62
472.435	173.62
472.654	106.62
472.873	103.62
473.092	103.62
473.311	105.62
473.53	80.62
473.749	97.62
473.968	102.62
474.187	96.62
474.406	99.62
474.625	88.62
474.844	95.62
475.063	81.62
475.282	78.62
475.501	87.62
475.72	80.62
475.939	83.62
476.158	92.62
476.377	83.62
476.596	93.62
476.814	93.62
477.033	89.62
477.252	78.62
477.471	89.62
477.69	91.62
477.908	108.62
478.127	100.62
478.346	92.62
478.564	91.62
478.783	104.62
479.002	87.62
479.22	99.62
479.439	94.62
479.658	91.62
479.876	82.62
480.095	110.62
480.313	93.62
480.532	83.62
480.751	88.62
480.969	133.62
481.188	256.62
481.406	198.62
481.624	92.62
481.843	96.62
482.061	91.62
482.28	86.62
482.498	100.62
482.717	85.62
482.935	84.62
483.153	89.62
483.372	88.62
483.59	104.62
483.808	99.62
484.027	96.62
484.245	104.62
484.463	83.62
484.681	87.62
484.9	109.62
485.118	93.62
485.336	93.62
485.554	93.62
485.772	85.62
485.99	108.62
486.209	91.62
486.427	105.62
486.645	100.62
486.863	118.62
487.081	87.62
487.299	111.62
487.517	102.62
487.735	102.62
487.953	89.62
488.171	87.62
488.389	98.62
488.607	85.62
488.825	80.62
489.043	87.62
489.261	79.62
489.479	98.62
489.696	79.62
489.914	86.62
490.132	111.62
490.35	103.62
490.568	88.62
490.786	97.62
491.003	78.62
491.221	87.62
491.439	85.62
491.657	95.62
491.874	83.62
492.092	98.62
492.31	90.62
492.527	87.62
492.745	77.62
492.963	81.62
493.18	83.62
493.398	85.62
493.615	100.62
493.833	102.62
494.05	85.62
494.268	93.62
494.485	80.62
494.703	93.62
494.92	83.62
495.138	88.62
495.355	101.62
495.573	95.62
495.79	86.62
496.008	90.62
496.225	86.62
496.442	83.62
496.66	88.62
496.877	79.62
497.094	91.62
497.312	89.62
497.529	100.62
497.746	94.62
497.963	93.62
498.181	99.62
498.398	109.62
498.615	106.62
498.832	96.62
499.049	90.62
499.267	93.62
499.484	91.62
499.701	93.62
499.918	74.62
500.135	90.62
500.352	84.62
500.569	79.62
500.786	101.62
501.003	91.62
501.22	84.62
501.437	99.62
501.654	88.62
501.871	114.62
502.088	94.62
502.305	86.62
502.522	76.62
502.739	93.62
502.956	90.62
503.172	103.62
503.389	92.62
503.606	86.62
503.823	101.62
504.04	104.62
504.256	92.62
504.473	75.62
504.69	104.62
504.907	103.62
505.123	91.62
505.34	92.62
505.557	92.62
505.773	92.62
505.99	86.62
506.207	78.62
506.423	85.62
506.64	91.62
506.856	90.62
507.073	87.62
507.289	87.62
507.506	105.62
507.722	102.62
507.939	106.62
508.155	88.62
508.372	91.62
508.588	81.62
508.805	103.62
509.021	84.62
509.238	86.62
509.454	100.62
509.67	86.62
509.887	110.62
510.103	128.62
510.319	210.62
510.536	733.62
510.752	2335.62
510.968	700.62
511.184	159.62
511.401	99.62
511.617	117.62
511.833	90.62
512.049	102.62
512.265	93.62
512.481	91.62
512.698	91.62
512.914	104.62
513.13	100.62
513.346	88.62
513.562	97.62
513.778	102.62
513.994	94.62
514.21	101.62
514.426	112.62
514.642	142.62
514.858	127.62
515.074	158.62
