Data from Circ_2014_H10_HRD10591_00011.txt Node
Date: Wed Jan 03 10:02:11 EST 2024
User: Yrep
Spectrometer: HR+D1059
Trigger mode: 1
Integration Time (sec): 1.000000E-1
Scans to average: 1
Electric dark correction enabled: true
Nonlinearity correction enabled: false
Boxcar width: 0
XAxis mode: Wavelengths
Number of Pixels in Spectrum: 2048
>>>>>Begin Spectral Data<<<<<
223.165	-12.94
223.4	-12.94
223.635	-12.94
223.869	-14.94
224.104	-11.94
224.338	-7.94
224.573	-20.94
224.808	-5.94
225.042	-0.94
225.277	-4.94
225.511	-6.94
225.746	-5.94
225.98	8.06
226.215	9.06
226.449	11.06
226.683	17.06
226.918	24.06
227.152	24.06
227.387	37.06
227.621	25.06
227.856	32.06
228.09	51.06
228.324	52.06
228.559	58.06
228.793	52.06
229.027	53.06
229.262	74.06
229.496	72.06
229.73	93.06
229.964	82.06
230.199	75.06
230.433	81.06
230.667	67.06
230.901	76.06
231.136	83.06
231.37	74.06
231.604	71.06
231.838	77.06
232.072	75.06
232.306	64.06
232.541	82.06
232.775	72.06
233.009	90.06
233.243	99.06
233.477	97.06
233.711	78.06
233.945	82.06
234.179	93.06
234.413	80.06
234.647	76.06
234.881	78.06
235.115	72.06
235.349	79.06
235.583	75.06
235.817	68.06
236.051	67.06
236.285	79.06
236.519	76.06
236.753	81.06
236.987	88.06
237.221	81.06
237.455	86.06
237.689	94.06
237.922	80.06
238.156	77.06
238.39	81.06
238.624	83.06
238.858	76.06
239.091	83.06
239.325	60.06
239.559	86.06
239.793	83.06
240.027	66.06
240.26	74.06
240.494	78.06
240.728	79.06
240.961	66.06
241.195	73.06
241.429	78.06
241.662	68.06
241.896	66.06
242.13	74.06
242.363	76.06
242.597	77.06
242.83	74.06
243.064	83.06
243.298	87.06
243.531	68.06
243.765	89.06
243.998	88.06
244.232	97.06
244.465	83.06
244.699	72.06
244.932	81.06
245.166	84.06
245.399	81.06
245.633	94.06
245.866	69.06
246.099	77.06
246.333	71.06
246.566	67.06
246.8	76.06
247.033	82.06
247.266	80.06
247.5	74.06
247.733	77.06
247.966	79.06
248.2	86.06
248.433	82.06
248.666	86.06
248.899	84.06
249.133	78.06
249.366	107.06
249.599	99.06
249.832	88.06
250.066	91.06
250.299	92.06
250.532	85.06
250.765	73.06
250.998	61.06
251.231	74.06
251.465	85.06
251.698	67.06
251.931	80.06
252.164	84.06
252.397	67.06
252.63	88.06
252.863	77.06
253.096	77.06
253.329	73.06
253.562	86.06
253.795	79.06
254.028	94.06
254.261	75.06
254.494	71.06
254.727	78.06
254.96	75.06
255.193	87.06
255.426	87.06
255.659	86.06
255.892	79.06
256.124	69.06
256.357	76.06
256.59	79.06
256.823	76.06
257.056	79.06
257.289	75.06
257.521	84.06
257.754	80.06
257.987	74.06
258.22	87.06
258.452	87.06
258.685	73.06
258.918	84.06
259.151	76.06
259.383	83.06
259.616	71.06
259.849	87.06
260.081	84.06
260.314	90.06
260.547	86.06
260.779	74.06
261.012	88.06
261.244	71.06
261.477	89.06
261.71	105.06
261.942	137.06
262.175	133.06
262.407	86.06
262.64	92.06
262.872	70.06
263.105	76.06
263.337	81.06
263.57	84.06
263.802	79.06
264.035	83.06
264.267	80.06
264.499	96.06
264.732	78.06
264.964	73.06
265.197	74.06
265.429	81.06
265.661	81.06
265.894	76.06
266.126	92.06
266.358	73.06
266.591	85.06
266.823	80.06
267.055	79.06
267.287	76.06
267.52	85.06
267.752	85.06
267.984	95.06
268.216	76.06
268.448	85.06
268.681	72.06
268.913	83.06
269.145	78.06
269.377	88.06
269.609	77.06
269.841	87.06
270.073	69.06
270.306	86.06
270.538	67.06
270.77	66.06
271.002	88.06
271.234	86.06
271.466	91.06
271.698	81.06
271.93	82.06
272.162	80.06
272.394	85.06
272.626	80.06
272.858	73.06
273.09	76.06
273.322	81.06
273.553	85.06
273.785	82.06
274.017	95.06
274.249	88.06
274.481	85.06
274.713	69.06
274.945	70.06
275.176	90.06
275.408	98.06
275.64	79.06
275.872	84.06
276.104	82.06
276.335	100.06
276.567	105.06
276.799	129.06
277.031	113.06
277.262	74.06
277.494	87.06
277.726	89.06
277.957	84.06
278.189	86.06
278.421	94.06
278.652	74.06
278.884	93.06
279.115	92.06
279.347	89.06
279.579	83.06
279.81	92.06
280.042	93.06
280.273	73.06
280.505	85.06
280.736	95.06
280.968	83.06
281.199	81.06
281.431	102.06
281.662	96.06
281.894	99.06
282.125	95.06
282.356	140.06
282.588	174.06
282.819	134.06
283.051	94.06
283.282	84.06
283.513	96.06
283.745	91.06
283.976	87.06
284.207	70.06
284.439	80.06
284.67	89.06
284.901	84.06
285.132	83.06
285.364	98.06
285.595	89.06
285.826	84.06
286.057	92.06
286.288	82.06
286.52	98.06
286.751	96.06
286.982	97.06
287.213	79.06
287.444	83.06
287.675	89.06
287.906	88.06
288.138	92.06
288.369	91.06
288.6	82.06
288.831	89.06
289.062	87.06
289.293	86.06
289.524	92.06
289.755	79.06
289.986	78.06
290.217	97.06
290.448	94.06
290.679	91.06
290.91	84.06
291.141	93.06
291.371	103.06
291.602	88.06
291.833	99.06
292.064	95.06
292.295	77.06
292.526	92.06
292.757	91.06
292.987	101.06
293.218	92.06
293.449	89.06
293.68	102.06
293.91	87.06
294.141	78.06
294.372	81.06
294.603	88.06
294.833	78.06
295.064	93.06
295.295	104.06
295.525	101.06
295.756	99.06
295.987	130.06
296.217	187.06
296.448	148.06
296.679	106.06
296.909	97.06
297.14	89.06
297.37	93.06
297.601	81.06
297.831	83.06
298.062	88.06
298.292	92.06
298.523	82.06
298.753	97.06
298.984	91.06
299.214	91.06
299.445	87.06
299.675	106.06
299.905	104.06
300.136	104.06
300.366	96.06
300.597	107.06
300.827	112.06
301.057	123.06
301.288	129.06
301.518	106.06
301.748	99.06
301.979	111.06
302.209	98.06
302.439	91.06
302.669	89.06
302.9	79.06
303.13	91.06
303.36	93.06
303.59	113.06
303.82	99.06
304.051	96.06
304.281	90.06
304.511	100.06
304.741	82.06
304.971	87.06
305.201	87.06
305.431	86.06
305.661	82.06
305.891	95.06
306.121	105.06
306.352	114.06
306.582	116.06
306.812	106.06
307.042	103.06
307.272	99.06
307.502	109.06
307.731	99.06
307.961	90.06
308.191	97.06
308.421	104.06
308.651	96.06
308.881	86.06
309.111	102.06
309.341	116.06
309.571	102.06
309.8	99.06
310.03	100.06
310.26	99.06
310.49	86.06
310.72	104.06
310.949	122.06
311.179	107.06
311.409	90.06
311.639	97.06
311.868	106.06
312.098	101.06
312.328	103.06
312.557	114.06
312.787	145.06
313.017	116.06
313.246	107.06
313.476	100.06
313.706	88.06
313.935	94.06
314.165	103.06
314.394	100.06
314.624	116.06
314.853	103.06
315.083	97.06
315.312	92.06
315.542	88.06
315.771	88.06
316.001	103.06
316.23	100.06
316.46	86.06
316.689	110.06
316.919	100.06
317.148	96.06
317.377	115.06
317.607	91.06
317.836	90.06
318.065	90.06
318.295	97.06
318.524	96.06
318.753	88.06
318.983	94.06
319.212	127.06
319.441	113.06
319.67	117.06
319.9	91.06
320.129	100.06
320.358	87.06
320.587	92.06
320.816	111.06
321.046	111.06
321.275	100.06
321.504	96.06
321.733	109.06
321.962	105.06
322.191	113.06
322.42	129.06
322.649	129.06
322.878	142.06
323.108	153.06
323.337	157.06
323.566	163.06
323.795	193.06
324.024	285.06
324.253	614.06
324.482	1335.06
324.71	2817.06
324.939	3764.06
325.168	1308.06
325.397	357.06
325.626	188.06
325.855	161.06
326.084	143.06
326.313	160.06
326.542	206.06
326.77	305.06
326.999	703.06
327.228	1482.06
327.457	2797.06
327.686	2154.06
327.914	545.06
328.143	277.06
328.372	205.06
328.6	155.06
328.829	156.06
329.058	172.06
329.287	157.06
329.515	129.06
329.744	114.06
329.972	113.06
330.201	114.06
330.43	131.06
330.658	176.06
330.887	222.06
331.115	170.06
331.344	121.06
331.572	114.06
331.801	112.06
332.03	121.06
332.258	97.06
332.486	87.06
332.715	98.06
332.943	97.06
333.172	104.06
333.4	105.06
333.629	116.06
333.857	130.06
334.085	134.06
334.314	111.06
334.542	98.06
334.771	103.06
334.999	125.06
335.227	105.06
335.455	108.06
335.684	96.06
335.912	104.06
336.14	84.06
336.369	90.06
336.597	108.06
336.825	113.06
337.053	103.06
337.281	92.06
337.51	97.06
337.738	103.06
337.966	112.06
338.194	113.06
338.422	106.06
338.65	98.06
338.878	99.06
339.106	105.06
339.334	84.06
339.562	92.06
339.79	99.06
340.018	98.06
340.246	111.06
340.474	99.06
340.702	117.06
340.93	87.06
341.158	90.06
341.386	92.06
341.614	87.06
341.842	117.06
342.07	120.06
342.298	92.06
342.526	104.06
342.754	82.06
342.981	90.06
343.209	69.06
343.437	96.06
343.665	79.06
343.893	87.06
344.12	83.06
344.348	83.06
344.576	99.06
344.804	107.06
345.031	117.06
345.259	113.06
345.487	107.06
345.714	94.06
345.942	102.06
346.17	104.06
346.397	90.06
346.625	98.06
346.853	99.06
347.08	101.06
347.308	100.06
347.535	114.06
347.763	113.06
347.99	113.06
348.218	118.06
348.445	120.06
348.673	111.06
348.9	100.06
349.128	95.06
349.355	96.06
349.583	91.06
349.81	96.06
350.037	95.06
350.265	98.06
350.492	95.06
350.72	91.06
350.947	130.06
351.174	133.06
351.402	130.06
351.629	109.06
351.856	121.06
352.083	125.06
352.311	119.06
352.538	136.06
352.765	139.06
352.992	127.06
353.22	122.06
353.447	118.06
353.674	111.06
353.901	102.06
354.128	95.06
354.355	93.06
354.583	103.06
354.81	98.06
355.037	95.06
355.264	89.06
355.491	93.06
355.718	92.06
355.945	101.06
356.172	101.06
356.399	101.06
356.626	92.06
356.853	95.06
357.08	108.06
357.307	99.06
357.534	106.06
357.761	98.06
357.988	101.06
358.215	97.06
358.441	92.06
358.668	103.06
358.895	94.06
359.122	95.06
359.349	87.06
359.576	105.06
359.802	124.06
360.029	155.06
360.256	152.06
360.483	113.06
360.709	90.06
360.936	88.06
361.163	97.06
361.39	104.06
361.616	92.06
361.843	105.06
362.07	98.06
362.296	115.06
362.523	100.06
362.749	117.06
362.976	95.06
363.203	93.06
363.429	98.06
363.656	98.06
363.882	89.06
364.109	87.06
364.335	95.06
364.562	100.06
364.788	102.06
365.015	108.06
365.241	106.06
365.468	122.06
365.694	125.06
365.92	106.06
366.147	85.06
366.373	93.06
366.599	100.06
366.826	98.06
367.052	89.06
367.278	88.06
367.505	103.06
367.731	91.06
367.957	86.06
368.184	92.06
368.41	94.06
368.636	133.06
368.862	139.06
369.089	126.06
369.315	102.06
369.541	102.06
369.767	97.06
369.993	94.06
370.219	91.06
370.445	86.06
370.672	103.06
370.898	83.06
371.124	95.06
371.35	88.06
371.576	89.06
371.802	83.06
372.028	96.06
372.254	99.06
372.48	94.06
372.706	87.06
372.932	94.06
373.158	90.06
373.384	96.06
373.61	87.06
373.835	96.06
374.061	94.06
374.287	72.06
374.513	97.06
374.739	96.06
374.965	83.06
375.191	79.06
375.416	98.06
375.642	93.06
375.868	84.06
376.094	94.06
376.319	82.06
376.545	100.06
376.771	92.06
376.997	87.06
377.222	95.06
377.448	106.06
377.674	100.06
377.899	98.06
378.125	97.06
378.35	88.06
378.576	87.06
378.802	84.06
379.027	119.06
379.253	93.06
379.478	90.06
379.704	106.06
379.929	105.06
380.155	108.06
380.38	97.06
380.606	99.06
380.831	98.06
381.057	101.06
381.282	88.06
381.507	94.06
381.733	99.06
381.958	100.06
382.184	111.06
382.409	112.06
382.634	105.06
382.86	99.06
383.085	100.06
383.31	99.06
383.535	93.06
383.761	106.06
383.986	107.06
384.211	91.06
384.436	122.06
384.662	108.06
384.887	110.06
385.112	118.06
385.337	134.06
385.562	126.06
385.787	121.06
386.013	132.06
386.238	136.06
386.463	134.06
386.688	133.06
386.913	115.06
387.138	97.06
387.363	122.06
387.588	103.06
387.813	111.06
388.038	123.06
388.263	111.06
388.488	129.06
388.713	98.06
388.938	104.06
389.163	88.06
389.387	93.06
389.612	90.06
389.837	90.06
390.062	112.06
390.287	94.06
390.512	89.06
390.736	100.06
390.961	90.06
391.186	104.06
391.411	91.06
391.636	104.06
391.86	91.06
392.085	82.06
392.31	90.06
392.534	86.06
392.759	75.06
392.984	88.06
393.208	104.06
393.433	98.06
393.658	87.06
393.882	70.06
394.107	73.06
394.331	90.06
394.556	87.06
394.78	103.06
395.005	87.06
395.229	85.06
395.454	78.06
395.678	99.06
395.903	83.06
396.127	95.06
396.352	104.06
396.576	91.06
396.801	90.06
397.025	91.06
397.249	104.06
397.474	85.06
397.698	98.06
397.922	74.06
398.147	86.06
398.371	65.06
398.595	91.06
398.82	86.06
399.044	74.06
399.268	94.06
399.492	100.06
399.717	100.06
399.941	93.06
400.165	89.06
400.389	89.06
400.613	95.06
400.837	91.06
401.062	94.06
401.286	77.06
401.51	82.06
401.734	104.06
401.958	104.06
402.182	172.06
402.406	252.06
402.63	166.06
402.854	88.06
403.078	96.06
403.302	87.06
403.526	92.06
403.75	96.06
403.974	88.06
404.198	77.06
404.422	96.06
404.645	89.06
404.869	97.06
405.093	102.06
405.317	122.06
405.541	104.06
405.765	129.06
405.988	148.06
406.212	244.06
406.436	369.06
406.66	215.06
406.883	124.06
407.107	109.06
407.331	101.06
407.555	103.06
407.778	115.06
408.002	92.06
408.226	95.06
408.449	99.06
408.673	91.06
408.896	86.06
409.12	95.06
409.344	96.06
409.567	74.06
409.791	83.06
410.014	91.06
410.238	91.06
410.461	93.06
410.685	84.06
410.908	92.06
411.132	116.06
411.355	98.06
411.578	102.06
411.802	87.06
412.025	80.06
412.249	92.06
412.472	96.06
412.695	96.06
412.919	82.06
413.142	69.06
413.365	84.06
413.589	90.06
413.812	83.06
414.035	93.06
414.258	92.06
414.482	91.06
414.705	82.06
414.928	96.06
415.151	92.06
415.374	88.06
415.597	88.06
415.821	89.06
416.044	82.06
416.267	96.06
416.49	80.06
416.713	84.06
416.936	87.06
417.159	94.06
417.382	87.06
417.605	87.06
417.828	87.06
418.051	87.06
418.274	89.06
418.497	96.06
418.72	81.06
418.943	77.06
419.166	83.06
419.389	91.06
419.611	91.06
419.834	92.06
420.057	88.06
420.28	87.06
420.503	90.06
420.726	79.06
420.948	78.06
421.171	91.06
421.394	91.06
421.617	97.06
421.839	99.06
422.062	93.06
422.285	87.06
422.507	102.06
422.73	113.06
422.953	89.06
423.175	91.06
423.398	85.06
423.621	98.06
423.843	93.06
424.066	76.06
424.288	100.06
424.511	98.06
424.733	105.06
424.956	116.06
425.178	98.06
425.401	102.06
425.623	114.06
425.846	90.06
426.068	112.06
426.291	103.06
426.513	103.06
426.735	103.06
426.958	89.06
427.18	100.06
427.402	177.06
427.625	264.06
427.847	185.06
428.069	114.06
428.292	96.06
428.514	83.06
428.736	90.06
428.958	98.06
429.181	91.06
429.403	84.06
429.625	95.06
429.847	98.06
430.069	113.06
430.292	94.06
430.514	88.06
430.736	82.06
430.958	77.06
431.18	90.06
431.402	84.06
431.624	81.06
431.846	77.06
432.068	80.06
432.29	92.06
432.512	93.06
432.734	96.06
432.956	93.06
433.178	93.06
433.4	101.06
433.622	90.06
433.844	90.06
434.066	91.06
434.287	101.06
434.509	88.06
434.731	105.06
434.953	89.06
435.175	89.06
435.397	103.06
435.618	112.06
435.84	127.06
436.062	140.06
436.284	129.06
436.505	105.06
436.727	114.06
436.949	91.06
437.17	84.06
437.392	99.06
437.614	98.06
437.835	146.06
438.057	152.06
438.278	146.06
438.5	115.06
438.721	145.06
438.943	120.06
439.165	89.06
439.386	91.06
439.608	101.06
439.829	89.06
440.05	153.06
440.272	200.06
440.493	108.06
440.715	87.06
440.936	89.06
441.158	77.06
441.379	81.06
441.6	94.06
441.822	84.06
442.043	88.06
442.264	123.06
442.486	106.06
442.707	106.06
442.928	113.06
443.149	172.06
443.371	172.06
443.592	159.06
443.813	107.06
444.034	129.06
444.255	95.06
444.476	96.06
444.698	74.06
444.919	100.06
445.14	153.06
445.361	136.06
445.582	141.06
445.803	204.06
446.024	169.06
446.245	180.06
446.466	143.06
446.687	104.06
446.908	75.06
447.129	85.06
447.35	95.06
447.571	112.06
447.792	90.06
448.013	105.06
448.234	143.06
448.455	112.06
448.675	127.06
448.896	130.06
449.117	103.06
449.338	109.06
449.559	162.06
449.779	152.06
450	105.06
450.221	79.06
450.442	81.06
450.662	100.06
450.883	138.06
451.104	160.06
451.324	105.06
451.545	95.06
451.766	88.06
451.986	101.06
452.207	88.06
452.428	95.06
452.648	117.06
452.869	127.06
453.089	137.06
453.31	151.06
453.53	115.06
453.751	100.06
453.971	124.06
454.192	147.06
454.412	113.06
454.633	92.06
454.853	83.06
455.073	80.06
455.294	92.06
455.514	100.06
455.734	101.06
455.955	95.06
456.175	76.06
456.395	83.06
456.616	75.06
456.836	78.06
457.056	91.06
457.276	87.06
457.497	79.06
457.717	80.06
457.937	97.06
458.157	92.06
458.377	95.06
458.598	145.06
458.818	220.06
459.038	236.06
459.258	141.06
459.478	110.06
459.698	77.06
459.918	92.06
460.138	95.06
460.358	87.06
460.578	87.06
460.798	81.06
461.018	90.06
461.238	88.06
461.458	93.06
461.678	88.06
461.898	93.06
462.118	85.06
462.338	83.06
462.558	93.06
462.777	79.06
462.997	83.06
463.217	88.06
463.437	85.06
463.657	83.06
463.876	94.06
464.096	91.06
464.316	100.06
464.536	102.06
464.755	100.06
464.975	127.06
465.195	269.06
465.414	255.06
465.634	114.06
465.854	101.06
466.073	83.06
466.293	84.06
466.512	92.06
466.732	95.06
466.951	83.06
467.171	94.06
467.391	96.06
467.61	108.06
467.829	102.06
468.049	99.06
468.268	91.06
468.488	100.06
468.707	80.06
468.927	71.06
469.146	81.06
469.365	78.06
469.585	95.06
469.804	117.06
470.023	104.06
470.243	97.06
470.462	108.06
470.681	143.06
470.901	106.06
471.12	93.06
471.339	83.06
471.558	100.06
471.777	80.06
471.997	83.06
472.216	104.06
472.435	108.06
472.654	74.06
472.873	81.06
473.092	95.06
473.311	83.06
473.53	87.06
473.749	97.06
473.968	93.06
474.187	104.06
474.406	111.06
474.625	93.06
474.844	97.06
475.063	95.06
475.282	81.06
475.501	74.06
475.72	76.06
475.939	80.06
476.158	74.06
476.377	83.06
476.596	92.06
476.814	98.06
477.033	100.06
477.252	97.06
477.471	96.06
477.69	78.06
477.908	99.06
478.127	90.06
478.346	81.06
478.564	88.06
478.783	107.06
479.002	92.06
479.22	89.06
479.439	116.06
479.658	131.06
479.876	101.06
480.095	97.06
480.313	108.06
480.532	106.06
480.751	83.06
480.969	88.06
481.188	110.06
481.406	90.06
481.624	99.06
481.843	97.06
482.061	80.06
482.28	82.06
482.498	85.06
482.717	87.06
482.935	91.06
483.153	86.06
483.372	100.06
483.59	94.06
483.808	87.06
484.027	93.06
484.245	89.06
484.463	86.06
484.681	88.06
484.9	75.06
485.118	78.06
485.336	87.06
485.554	104.06
485.772	97.06
485.99	83.06
486.209	108.06
486.427	114.06
486.645	119.06
486.863	135.06
487.081	109.06
487.299	115.06
487.517	90.06
487.735	101.06
487.953	86.06
488.171	95.06
488.389	86.06
488.607	105.06
488.825	91.06
489.043	83.06
489.261	87.06
489.479	76.06
489.696	90.06
489.914	88.06
490.132	85.06
490.35	85.06
490.568	95.06
490.786	85.06
491.003	97.06
491.221	87.06
491.439	84.06
491.657	99.06
491.874	99.06
492.092	87.06
492.31	91.06
492.527	85.06
492.745	85.06
492.963	84.06
493.18	82.06
493.398	96.06
493.615	102.06
493.833	76.06
494.05	86.06
494.268	87.06
494.485	80.06
494.703	89.06
494.92	84.06
495.138	93.06
495.355	99.06
495.573	86.06
495.79	91.06
496.008	95.06
496.225	84.06
496.442	97.06
496.66	101.06
496.877	85.06
497.094	82.06
497.312	88.06
497.529	80.06
497.746	82.06
497.963	93.06
498.181	97.06
498.398	92.06
498.615	129.06
498.832	117.06
499.049	103.06
499.267	94.06
499.484	95.06
499.701	95.06
499.918	98.06
500.135	103.06
500.352	93.06
500.569	82.06
500.786	89.06
501.003	82.06
501.22	94.06
501.437	95.06
501.654	89.06
501.871	134.06
502.088	99.06
502.305	83.06
502.522	89.06
502.739	92.06
502.956	98.06
503.172	96.06
503.389	104.06
503.606	118.06
503.823	88.06
504.04	75.06
504.256	85.06
504.473	84.06
504.69	102.06
504.907	92.06
505.123	80.06
505.34	94.06
505.557	76.06
505.773	79.06
505.99	96.06
506.207	94.06
506.423	77.06
506.64	90.06
506.856	85.06
507.073	92.06
507.289	103.06
507.506	120.06
507.722	137.06
507.939	148.06
508.155	103.06
508.372	98.06
508.588	82.06
508.805	102.06
509.021	105.06
509.238	99.06
509.454	124.06
509.67	111.06
509.887	124.06
510.103	160.06
510.319	283.06
510.536	1168.06
510.752	4202.06
510.968	1114.06
511.184	210.06
511.401	134.06
511.617	108.06
511.833	107.06
512.049	99.06
512.265	98.06
512.481	115.06
512.698	103.06
512.914	93.06
513.13	84.06
513.346	95.06
513.562	97.06
513.778	102.06
513.994	105.06
