Data from Circ_2014_H10_HRD10591_00080.txt Node
Date: Wed Jan 03 10:02:25 EST 2024
User: Yrep
Spectrometer: HR+D1059
Trigger mode: 1
Integration Time (sec): 1.000000E-1
Scans to average: 1
Electric dark correction enabled: true
Nonlinearity correction enabled: false
Boxcar width: 0
XAxis mode: Wavelengths
Number of Pixels in Spectrum: 2048
>>>>>Begin Spectral Data<<<<<
223.165	-18.62
223.4	-18.62
223.635	-18.62
223.869	-19.62
224.104	-26.62
224.338	-8.62
224.573	-19.62
224.808	-17.62
225.042	2.38
225.277	-4.62
225.511	-6.62
225.746	2.38
225.98	7.38
226.215	1.38
226.449	12.38
226.683	21.38
226.918	31.38
227.152	43.38
227.387	38.38
227.621	40.38
227.856	36.38
228.09	45.38
228.324	54.38
228.559	57.38
228.793	55.38
229.027	58.38
229.262	60.38
229.496	78.38
229.73	81.38
229.964	86.38
230.199	73.38
230.433	86.38
230.667	82.38
230.901	74.38
231.136	70.38
231.37	71.38
231.604	82.38
231.838	78.38
232.072	63.38
232.306	94.38
232.541	99.38
232.775	75.38
233.009	71.38
233.243	90.38
233.477	75.38
233.711	79.38
233.945	77.38
234.179	81.38
234.413	82.38
234.647	64.38
234.881	72.38
235.115	93.38
235.349	68.38
235.583	73.38
235.817	82.38
236.051	71.38
236.285	84.38
236.519	63.38
236.753	81.38
236.987	69.38
237.221	79.38
237.455	75.38
237.689	73.38
237.922	86.38
238.156	82.38
238.39	87.38
238.624	84.38
238.858	69.38
239.091	79.38
239.325	75.38
239.559	75.38
239.793	93.38
240.027	95.38
240.26	77.38
240.494	82.38
240.728	74.38
240.961	80.38
241.195	91.38
241.429	75.38
241.662	78.38
241.896	82.38
242.13	78.38
242.363	61.38
242.597	68.38
242.83	83.38
243.064	76.38
243.298	72.38
243.531	90.38
243.765	84.38
243.998	70.38
244.232	85.38
244.465	73.38
244.699	79.38
244.932	86.38
245.166	77.38
245.399	77.38
245.633	82.38
245.866	78.38
246.099	81.38
246.333	89.38
246.566	74.38
246.8	77.38
247.033	76.38
247.266	69.38
247.5	79.38
247.733	72.38
247.966	83.38
248.2	99.38
248.433	78.38
248.666	85.38
248.899	74.38
249.133	85.38
249.366	86.38
249.599	100.38
249.832	88.38
250.066	89.38
250.299	77.38
250.532	74.38
250.765	82.38
250.998	77.38
251.231	71.38
251.465	89.38
251.698	85.38
251.931	82.38
252.164	71.38
252.397	86.38
252.63	73.38
252.863	79.38
253.096	79.38
253.329	84.38
253.562	88.38
253.795	87.38
254.028	93.38
254.261	77.38
254.494	84.38
254.727	83.38
254.96	75.38
255.193	89.38
255.426	79.38
255.659	71.38
255.892	78.38
256.124	88.38
256.357	91.38
256.59	88.38
256.823	77.38
257.056	67.38
257.289	74.38
257.521	84.38
257.754	76.38
257.987	87.38
258.22	88.38
258.452	83.38
258.685	92.38
258.918	74.38
259.151	81.38
259.383	78.38
259.616	77.38
259.849	88.38
260.081	93.38
260.314	98.38
260.547	82.38
260.779	74.38
261.012	87.38
261.244	80.38
261.477	84.38
261.71	99.38
261.942	108.38
262.175	104.38
262.407	99.38
262.64	80.38
262.872	99.38
263.105	85.38
263.337	84.38
263.57	86.38
263.802	103.38
264.035	93.38
264.267	94.38
264.499	88.38
264.732	84.38
264.964	65.38
265.197	73.38
265.429	84.38
265.661	77.38
265.894	87.38
266.126	84.38
266.358	90.38
266.591	79.38
266.823	84.38
267.055	90.38
267.287	92.38
267.52	84.38
267.752	94.38
267.984	92.38
268.216	100.38
268.448	80.38
268.681	92.38
268.913	87.38
269.145	97.38
269.377	87.38
269.609	90.38
269.841	77.38
270.073	102.38
270.306	85.38
270.538	84.38
270.77	82.38
271.002	96.38
271.234	73.38
271.466	82.38
271.698	87.38
271.93	87.38
272.162	94.38
272.394	87.38
272.626	82.38
272.858	82.38
273.09	79.38
273.322	71.38
273.553	72.38
273.785	87.38
274.017	77.38
274.249	86.38
274.481	80.38
274.713	83.38
274.945	67.38
275.176	86.38
275.408	93.38
275.64	87.38
275.872	98.38
276.104	89.38
276.335	84.38
276.567	89.38
276.799	107.38
277.031	106.38
277.262	99.38
277.494	92.38
277.726	75.38
277.957	79.38
278.189	96.38
278.421	100.38
278.652	94.38
278.884	87.38
279.115	85.38
279.347	74.38
279.579	93.38
279.81	98.38
280.042	103.38
280.273	100.38
280.505	94.38
280.736	90.38
280.968	86.38
281.199	91.38
281.431	93.38
281.662	92.38
281.894	87.38
282.125	113.38
282.356	118.38
282.588	134.38
282.819	117.38
283.051	83.38
283.282	72.38
283.513	94.38
283.745	88.38
283.976	86.38
284.207	112.38
284.439	98.38
284.67	87.38
284.901	85.38
285.132	65.38
285.364	84.38
285.595	101.38
285.826	89.38
286.057	89.38
286.288	84.38
286.52	87.38
286.751	85.38
286.982	81.38
287.213	86.38
287.444	101.38
287.675	91.38
287.906	96.38
288.138	94.38
288.369	93.38
288.6	79.38
288.831	86.38
289.062	101.38
289.293	97.38
289.524	92.38
289.755	93.38
289.986	82.38
290.217	92.38
290.448	83.38
290.679	78.38
290.91	90.38
291.141	88.38
291.371	89.38
291.602	83.38
291.833	80.38
292.064	89.38
292.295	92.38
292.526	100.38
292.757	98.38
292.987	90.38
293.218	85.38
293.449	82.38
293.68	71.38
293.91	86.38
294.141	93.38
294.372	84.38
294.603	93.38
294.833	87.38
295.064	108.38
295.295	103.38
295.525	97.38
295.756	108.38
295.987	120.38
296.217	141.38
296.448	114.38
296.679	105.38
296.909	85.38
297.14	86.38
297.37	93.38
297.601	81.38
297.831	74.38
298.062	88.38
298.292	103.38
298.523	83.38
298.753	82.38
298.984	87.38
299.214	79.38
299.445	94.38
299.675	94.38
299.905	112.38
300.136	88.38
300.366	82.38
300.597	78.38
300.827	105.38
301.057	93.38
301.288	95.38
301.518	80.38
301.748	95.38
301.979	106.38
302.209	89.38
302.439	82.38
302.669	95.38
302.9	94.38
303.13	95.38
303.36	99.38
303.59	100.38
303.82	115.38
304.051	94.38
304.281	94.38
304.511	97.38
304.741	99.38
304.971	89.38
305.201	94.38
305.431	108.38
305.661	70.38
305.891	108.38
306.121	92.38
306.352	86.38
306.582	99.38
306.812	86.38
307.042	94.38
307.272	97.38
307.502	94.38
307.731	99.38
307.961	87.38
308.191	107.38
308.421	95.38
308.651	88.38
308.881	101.38
309.111	99.38
309.341	102.38
309.571	101.38
309.8	92.38
310.03	92.38
310.26	99.38
310.49	85.38
310.72	97.38
310.949	99.38
311.179	84.38
311.409	103.38
311.639	100.38
311.868	96.38
312.098	106.38
312.328	93.38
312.557	88.38
312.787	105.38
313.017	94.38
313.246	98.38
313.476	85.38
313.706	97.38
313.935	98.38
314.165	108.38
314.394	103.38
314.624	95.38
314.853	94.38
315.083	92.38
315.312	97.38
315.542	92.38
315.771	95.38
316.001	93.38
316.23	100.38
316.46	106.38
316.689	84.38
316.919	84.38
317.148	84.38
317.377	98.38
317.607	92.38
317.836	88.38
318.065	86.38
318.295	85.38
318.524	86.38
318.753	94.38
318.983	93.38
319.212	101.38
319.441	116.38
319.67	106.38
319.9	89.38
320.129	108.38
320.358	82.38
320.587	89.38
320.816	94.38
321.046	97.38
321.275	84.38
321.504	92.38
321.733	99.38
321.962	108.38
322.191	104.38
322.42	94.38
322.649	107.38
322.878	125.38
323.108	109.38
323.337	114.38
323.566	129.38
323.795	159.38
324.024	185.38
324.253	358.38
324.482	798.38
324.71	1557.38
324.939	2030.38
325.168	769.38
325.397	226.38
325.626	148.38
325.855	127.38
326.084	116.38
326.313	128.38
326.542	155.38
326.77	230.38
326.999	419.38
327.228	837.38
327.457	1537.38
327.686	1257.38
327.914	364.38
328.143	229.38
328.372	173.38
328.6	133.38
328.829	108.38
329.058	124.38
329.287	128.38
329.515	130.38
329.744	119.38
329.972	122.38
330.201	151.38
330.43	213.38
330.658	166.38
330.887	151.38
331.115	121.38
331.344	98.38
331.572	109.38
331.801	107.38
332.03	102.38
332.258	94.38
332.486	99.38
332.715	102.38
332.943	72.38
333.172	98.38
333.4	102.38
333.629	103.38
333.857	123.38
334.085	143.38
334.314	168.38
334.542	241.38
334.771	220.38
334.999	121.38
335.227	90.38
335.455	113.38
335.684	103.38
335.912	97.38
336.14	102.38
336.369	87.38
336.597	107.38
336.825	96.38
337.053	108.38
337.281	97.38
337.51	98.38
337.738	79.38
337.966	86.38
338.194	98.38
338.422	87.38
338.65	96.38
338.878	99.38
339.106	91.38
339.334	95.38
339.562	84.38
339.79	90.38
340.018	92.38
340.246	92.38
340.474	89.38
340.702	89.38
340.93	88.38
341.158	103.38
341.386	106.38
341.614	85.38
341.842	93.38
342.07	84.38
342.298	89.38
342.526	86.38
342.754	86.38
342.981	94.38
343.209	89.38
343.437	90.38
343.665	93.38
343.893	88.38
344.12	92.38
344.348	97.38
344.576	101.38
344.804	93.38
345.031	87.38
345.259	109.38
345.487	95.38
345.714	94.38
345.942	94.38
346.17	93.38
346.397	101.38
346.625	88.38
346.853	104.38
347.08	103.38
347.308	78.38
347.535	105.38
347.763	110.38
347.99	97.38
348.218	97.38
348.445	116.38
348.673	103.38
348.9	84.38
349.128	101.38
349.355	88.38
349.583	94.38
349.81	96.38
350.037	93.38
350.265	87.38
350.492	89.38
350.72	94.38
350.947	108.38
351.174	99.38
351.402	117.38
351.629	106.38
351.856	101.38
352.083	99.38
352.311	101.38
352.538	114.38
352.765	106.38
352.992	110.38
353.22	123.38
353.447	101.38
353.674	90.38
353.901	100.38
354.128	94.38
354.355	84.38
354.583	96.38
354.81	95.38
355.037	82.38
355.264	91.38
355.491	90.38
355.718	90.38
355.945	90.38
356.172	98.38
356.399	99.38
356.626	90.38
356.853	90.38
357.08	85.38
357.307	96.38
357.534	69.38
357.761	101.38
357.988	82.38
358.215	103.38
358.441	94.38
358.668	88.38
358.895	93.38
359.122	84.38
359.349	74.38
359.576	92.38
359.802	99.38
360.029	121.38
360.256	108.38
360.483	103.38
360.709	95.38
360.936	104.38
361.163	79.38
361.39	93.38
361.616	87.38
361.843	99.38
362.07	97.38
362.296	78.38
362.523	96.38
362.749	98.38
362.976	90.38
363.203	89.38
363.429	81.38
363.656	99.38
363.882	90.38
364.109	102.38
364.335	93.38
364.562	104.38
364.788	102.38
365.015	96.38
365.241	100.38
365.468	119.38
365.694	120.38
365.92	101.38
366.147	94.38
366.373	101.38
366.599	92.38
366.826	95.38
367.052	89.38
367.278	101.38
367.505	89.38
367.731	101.38
367.957	101.38
368.184	108.38
368.41	108.38
368.636	106.38
368.862	114.38
369.089	122.38
369.315	78.38
369.541	92.38
369.767	93.38
369.993	107.38
370.219	78.38
370.445	90.38
370.672	82.38
370.898	82.38
371.124	87.38
371.35	95.38
371.576	86.38
371.802	91.38
372.028	99.38
372.254	99.38
372.48	82.38
372.706	90.38
372.932	93.38
373.158	85.38
373.384	98.38
373.61	89.38
373.835	86.38
374.061	96.38
374.287	96.38
374.513	86.38
374.739	85.38
374.965	82.38
375.191	106.38
375.416	85.38
375.642	88.38
375.868	86.38
376.094	83.38
376.319	87.38
376.545	75.38
376.771	102.38
376.997	90.38
377.222	78.38
377.448	89.38
377.674	90.38
377.899	87.38
378.125	93.38
378.35	98.38
378.576	60.38
378.802	83.38
379.027	87.38
379.253	92.38
379.478	80.38
379.704	95.38
379.929	101.38
380.155	100.38
380.38	97.38
380.606	94.38
380.831	88.38
381.057	92.38
381.282	92.38
381.507	89.38
381.733	109.38
381.958	92.38
382.184	102.38
382.409	82.38
382.634	105.38
382.86	105.38
383.085	97.38
383.31	94.38
383.535	101.38
383.761	96.38
383.986	82.38
384.211	93.38
384.436	89.38
384.662	78.38
384.887	100.38
385.112	91.38
385.337	107.38
385.562	103.38
385.787	110.38
386.013	102.38
386.238	114.38
386.463	109.38
386.688	115.38
386.913	89.38
387.138	105.38
387.363	107.38
387.588	94.38
387.813	95.38
388.038	101.38
388.263	118.38
388.488	110.38
388.713	97.38
388.938	96.38
389.163	100.38
389.387	98.38
389.612	109.38
389.837	99.38
390.062	93.38
390.287	102.38
390.512	90.38
390.736	98.38
390.961	86.38
391.186	106.38
391.411	94.38
391.636	79.38
391.86	74.38
392.085	86.38
392.31	78.38
392.534	81.38
392.759	86.38
392.984	84.38
393.208	91.38
393.433	93.38
393.658	97.38
393.882	78.38
394.107	84.38
394.331	82.38
394.556	84.38
394.78	89.38
395.005	96.38
395.229	74.38
395.454	88.38
395.678	82.38
395.903	99.38
396.127	89.38
396.352	95.38
396.576	93.38
396.801	94.38
397.025	81.38
397.249	76.38
397.474	80.38
397.698	94.38
397.922	97.38
398.147	81.38
398.371	89.38
398.595	94.38
398.82	83.38
399.044	79.38
399.268	83.38
399.492	92.38
399.717	95.38
399.941	76.38
400.165	101.38
400.389	75.38
400.613	95.38
400.837	89.38
401.062	86.38
401.286	86.38
401.51	98.38
401.734	80.38
401.958	92.38
402.182	149.38
402.406	155.38
402.63	132.38
402.854	96.38
403.078	93.38
403.302	82.38
403.526	100.38
403.75	87.38
403.974	75.38
404.198	92.38
404.422	94.38
404.645	94.38
404.869	92.38
405.093	102.38
405.317	74.38
405.541	92.38
405.765	100.38
405.988	120.38
406.212	185.38
406.436	248.38
406.66	151.38
406.883	96.38
407.107	95.38
407.331	97.38
407.555	92.38
407.778	91.38
408.002	78.38
408.226	86.38
408.449	91.38
408.673	92.38
408.896	105.38
409.12	107.38
409.344	92.38
409.567	82.38
409.791	95.38
410.014	94.38
410.238	83.38
410.461	89.38
410.685	101.38
410.908	99.38
411.132	87.38
411.355	93.38
411.578	90.38
411.802	93.38
412.025	87.38
412.249	84.38
412.472	97.38
412.695	98.38
412.919	92.38
413.142	95.38
413.365	97.38
413.589	92.38
413.812	96.38
414.035	90.38
414.258	92.38
414.482	94.38
414.705	93.38
414.928	98.38
415.151	100.38
415.374	82.38
415.597	80.38
415.821	90.38
416.044	89.38
416.267	92.38
416.49	85.38
416.713	89.38
416.936	80.38
417.159	92.38
417.382	85.38
417.605	91.38
417.828	91.38
418.051	100.38
418.274	79.38
418.497	79.38
418.72	91.38
418.943	100.38
419.166	79.38
419.389	84.38
419.611	84.38
419.834	83.38
420.057	102.38
420.28	93.38
420.503	74.38
420.726	65.38
420.948	78.38
421.171	96.38
421.394	86.38
421.617	89.38
421.839	90.38
422.062	92.38
422.285	102.38
422.507	108.38
422.73	114.38
422.953	92.38
423.175	95.38
423.398	98.38
423.621	78.38
423.843	76.38
424.066	95.38
424.288	90.38
424.511	84.38
424.733	101.38
424.956	91.38
425.178	97.38
425.401	105.38
425.623	115.38
425.846	89.38
426.068	84.38
426.291	89.38
426.513	94.38
426.735	82.38
426.958	107.38
427.18	108.38
427.402	133.38
427.625	177.38
427.847	146.38
428.069	126.38
428.292	87.38
428.514	80.38
428.736	71.38
428.958	82.38
429.181	91.38
429.403	81.38
429.625	84.38
429.847	76.38
430.069	88.38
430.292	101.38
430.514	88.38
430.736	81.38
430.958	82.38
431.18	87.38
431.402	82.38
431.624	77.38
431.846	78.38
432.068	79.38
432.29	77.38
432.512	94.38
432.734	85.38
432.956	93.38
433.178	91.38
433.4	110.38
433.622	93.38
433.844	96.38
434.066	79.38
434.287	85.38
434.509	97.38
434.731	91.38
434.953	92.38
435.175	100.38
435.397	87.38
435.618	98.38
435.84	100.38
436.062	109.38
436.284	118.38
436.505	102.38
436.727	109.38
436.949	99.38
437.17	81.38
437.392	95.38
437.614	106.38
437.835	105.38
438.057	123.38
438.278	103.38
438.5	111.38
438.721	119.38
438.943	100.38
439.165	100.38
439.386	71.38
439.608	100.38
439.829	93.38
440.05	120.38
440.272	141.38
440.493	105.38
440.715	79.38
440.936	83.38
441.158	89.38
441.379	89.38
441.6	92.38
441.822	90.38
442.043	88.38
442.264	110.38
442.486	97.38
442.707	93.38
442.928	109.38
443.149	127.38
443.371	132.38
443.592	102.38
443.813	106.38
444.034	102.38
444.255	90.38
444.476	84.38
444.698	90.38
444.919	95.38
445.14	139.38
445.361	119.38
445.582	111.38
445.803	134.38
446.024	133.38
446.245	128.38
446.466	116.38
446.687	99.38
446.908	91.38
447.129	85.38
447.35	88.38
447.571	88.38
447.792	84.38
448.013	89.38
448.234	94.38
448.455	90.38
448.675	111.38
448.896	105.38
449.117	102.38
449.338	95.38
449.559	112.38
449.779	132.38
450	89.38
450.221	88.38
450.442	86.38
450.662	93.38
450.883	110.38
451.104	121.38
451.324	105.38
451.545	89.38
451.766	79.38
451.986	101.38
452.207	82.38
452.428	89.38
452.648	100.38
452.869	112.38
453.089	117.38
453.31	117.38
453.53	92.38
453.751	80.38
453.971	99.38
454.192	124.38
454.412	87.38
454.633	90.38
454.853	97.38
455.073	79.38
455.294	86.38
455.514	102.38
455.734	87.38
455.955	83.38
456.175	76.38
456.395	97.38
456.616	89.38
456.836	89.38
457.056	87.38
457.276	91.38
457.497	83.38
457.717	86.38
457.937	72.38
458.157	87.38
458.377	96.38
458.598	103.38
458.818	150.38
459.038	180.38
459.258	113.38
459.478	90.38
459.698	86.38
459.918	98.38
460.138	75.38
460.358	87.38
460.578	94.38
460.798	85.38
461.018	86.38
461.238	89.38
461.458	87.38
461.678	87.38
461.898	82.38
462.118	103.38
462.338	86.38
462.558	75.38
462.777	73.38
462.997	70.38
463.217	86.38
463.437	97.38
463.657	96.38
463.876	83.38
464.096	78.38
464.316	99.38
464.536	100.38
464.755	99.38
464.975	116.38
465.195	167.38
465.414	167.38
465.634	105.38
465.854	86.38
466.073	89.38
466.293	93.38
466.512	89.38
466.732	83.38
466.951	86.38
467.171	82.38
467.391	110.38
467.61	126.38
467.829	106.38
468.049	117.38
468.268	135.38
468.488	99.38
468.707	78.38
468.927	93.38
469.146	77.38
469.365	85.38
469.585	83.38
469.804	103.38
470.023	103.38
470.243	82.38
470.462	105.38
470.681	107.38
470.901	92.38
471.12	91.38
471.339	91.38
471.558	100.38
471.777	103.38
471.997	107.38
472.216	178.38
472.435	274.38
472.654	125.38
472.873	97.38
473.092	87.38
473.311	87.38
473.53	98.38
473.749	101.38
473.968	101.38
474.187	98.38
474.406	95.38
474.625	94.38
474.844	90.38
475.063	92.38
475.282	76.38
475.501	97.38
475.72	93.38
475.939	89.38
476.158	72.38
476.377	78.38
476.596	94.38
476.814	110.38
477.033	82.38
477.252	96.38
477.471	99.38
477.69	88.38
477.908	79.38
478.127	82.38
478.346	97.38
478.564	94.38
478.783	94.38
479.002	103.38
479.22	98.38
479.439	102.38
479.658	91.38
479.876	84.38
480.095	91.38
480.313	99.38
480.532	100.38
480.751	93.38
480.969	179.38
481.188	448.38
481.406	318.38
481.624	118.38
481.843	90.38
482.061	94.38
482.28	77.38
482.498	94.38
482.717	79.38
482.935	77.38
483.153	86.38
483.372	82.38
483.59	104.38
483.808	79.38
484.027	82.38
484.245	101.38
484.463	95.38
484.681	89.38
484.9	105.38
485.118	92.38
485.336	98.38
485.554	92.38
485.772	102.38
485.99	101.38
486.209	100.38
486.427	101.38
486.645	113.38
486.863	94.38
487.081	105.38
487.299	107.38
487.517	95.38
487.735	85.38
487.953	94.38
488.171	91.38
488.389	104.38
488.607	91.38
488.825	79.38
489.043	79.38
489.261	98.38
489.479	95.38
489.696	94.38
489.914	95.38
490.132	89.38
490.35	83.38
490.568	80.38
490.786	95.38
491.003	82.38
491.221	102.38
491.439	95.38
491.657	87.38
491.874	90.38
492.092	98.38
492.31	81.38
492.527	92.38
492.745	84.38
492.963	92.38
493.18	89.38
493.398	83.38
493.615	97.38
493.833	101.38
494.05	71.38
494.268	90.38
494.485	92.38
494.703	93.38
494.92	92.38
495.138	89.38
495.355	99.38
495.573	107.38
495.79	95.38
496.008	102.38
496.225	88.38
496.442	88.38
496.66	96.38
496.877	91.38
497.094	102.38
497.312	78.38
497.529	74.38
497.746	94.38
497.963	108.38
498.181	93.38
498.398	94.38
498.615	116.38
498.832	91.38
499.049	106.38
499.267	94.38
499.484	86.38
499.701	94.38
499.918	91.38
500.135	87.38
500.352	76.38
500.569	92.38
500.786	91.38
501.003	84.38
501.22	81.38
501.437	98.38
501.654	93.38
501.871	97.38
502.088	104.38
502.305	87.38
502.522	103.38
502.739	92.38
502.956	99.38
503.172	96.38
503.389	106.38
503.606	96.38
503.823	116.38
504.04	101.38
504.256	79.38
504.473	72.38
504.69	91.38
504.907	84.38
505.123	81.38
505.34	94.38
505.557	84.38
505.773	85.38
505.99	93.38
506.207	99.38
506.423	90.38
506.64	100.38
506.856	78.38
507.073	91.38
507.289	98.38
507.506	76.38
507.722	115.38
507.939	118.38
508.155	103.38
508.372	94.38
508.588	87.38
508.805	90.38
509.021	93.38
509.238	93.38
509.454	92.38
509.67	93.38
509.887	106.38
510.103	133.38
510.319	222.38
510.536	791.38
510.752	2685.38
510.968	785.38
511.184	171.38
511.401	123.38
511.617	113.38
511.833	99.38
512.049	99.38
512.265	76.38
512.481	105.38
512.698	95.38
512.914	93.38
513.13	95.38
513.346	93.38
513.562	113.38
513.778	99.38
513.994	84.38
514.21	90.38
514.426	125.38
514.642	149.38
514.858	129.38
515.074	167.38
515.29	511.38
