Data from Circ_2014_H10_HRD10591_00086.txt Node
Date: Wed Jan 03 10:02:26 EST 2024
User: Yrep
Spectrometer: HR+D1059
Trigger mode: 1
Integration Time (sec): 1.000000E-1
Scans to average: 1
Electric dark correction enabled: true
Nonlinearity correction enabled: false
Boxcar width: 0
XAxis mode: Wavelengths
Number of Pixels in Spectrum: 2048
>>>>>Begin Spectral Data<<<<<
223.165	-9.19
223.4	-9.19
223.635	-9.19
223.869	-17.19
224.104	-14.19
224.338	-23.19
224.573	-5.19
224.808	-13.19
225.042	-20.19
225.277	-7.19
225.511	-14.19
225.746	5.81
225.98	-7.19
226.215	16.81
226.449	10.81
226.683	26.81
226.918	33.81
227.152	36.81
227.387	45.81
227.621	36.81
227.856	37.81
228.09	58.81
228.324	58.81
228.559	57.81
228.793	59.81
229.027	61.81
229.262	43.81
229.496	78.81
229.73	78.81
229.964	85.81
230.199	74.81
230.433	72.81
230.667	78.81
230.901	67.81
231.136	65.81
231.37	79.81
231.604	79.81
231.838	82.81
232.072	87.81
232.306	86.81
232.541	86.81
232.775	82.81
233.009	85.81
233.243	91.81
233.477	77.81
233.711	78.81
233.945	89.81
234.179	91.81
234.413	77.81
234.647	85.81
234.881	81.81
235.115	77.81
235.349	84.81
235.583	74.81
235.817	79.81
236.051	94.81
236.285	90.81
236.519	76.81
236.753	81.81
236.987	81.81
237.221	87.81
237.455	89.81
237.689	82.81
237.922	77.81
238.156	93.81
238.39	80.81
238.624	84.81
238.858	78.81
239.091	79.81
239.325	75.81
239.559	91.81
239.793	82.81
240.027	85.81
240.26	88.81
240.494	68.81
240.728	72.81
240.961	73.81
241.195	75.81
241.429	78.81
241.662	62.81
241.896	67.81
242.13	77.81
242.363	66.81
242.597	83.81
242.83	97.81
243.064	82.81
243.298	91.81
243.531	83.81
243.765	89.81
243.998	70.81
244.232	71.81
244.465	90.81
244.699	67.81
244.932	77.81
245.166	76.81
245.399	83.81
245.633	66.81
245.866	75.81
246.099	74.81
246.333	82.81
246.566	88.81
246.8	90.81
247.033	87.81
247.266	91.81
247.5	67.81
247.733	77.81
247.966	88.81
248.2	83.81
248.433	88.81
248.666	87.81
248.899	84.81
249.133	85.81
249.366	74.81
249.599	96.81
249.832	84.81
250.066	81.81
250.299	75.81
250.532	77.81
250.765	70.81
250.998	64.81
251.231	74.81
251.465	80.81
251.698	74.81
251.931	93.81
252.164	86.81
252.397	72.81
252.63	76.81
252.863	76.81
253.096	83.81
253.329	73.81
253.562	87.81
253.795	60.81
254.028	74.81
254.261	93.81
254.494	83.81
254.727	86.81
254.96	87.81
255.193	85.81
255.426	84.81
255.659	78.81
255.892	77.81
256.124	81.81
256.357	83.81
256.59	85.81
256.823	86.81
257.056	67.81
257.289	73.81
257.521	85.81
257.754	81.81
257.987	84.81
258.22	80.81
258.452	76.81
258.685	89.81
258.918	81.81
259.151	76.81
259.383	75.81
259.616	92.81
259.849	80.81
260.081	98.81
260.314	84.81
260.547	83.81
260.779	83.81
261.012	65.81
261.244	87.81
261.477	81.81
261.71	84.81
261.942	116.81
262.175	126.81
262.407	88.81
262.64	93.81
262.872	82.81
263.105	74.81
263.337	88.81
263.57	84.81
263.802	87.81
264.035	73.81
264.267	92.81
264.499	83.81
264.732	79.81
264.964	73.81
265.197	95.81
265.429	86.81
265.661	93.81
265.894	76.81
266.126	93.81
266.358	83.81
266.591	66.81
266.823	91.81
267.055	87.81
267.287	84.81
267.52	73.81
267.752	90.81
267.984	78.81
268.216	89.81
268.448	91.81
268.681	88.81
268.913	100.81
269.145	88.81
269.377	71.81
269.609	84.81
269.841	77.81
270.073	86.81
270.306	78.81
270.538	78.81
270.77	88.81
271.002	90.81
271.234	83.81
271.466	84.81
271.698	88.81
271.93	83.81
272.162	80.81
272.394	82.81
272.626	82.81
272.858	88.81
273.09	88.81
273.322	85.81
273.553	83.81
273.785	73.81
274.017	79.81
274.249	83.81
274.481	88.81
274.713	78.81
274.945	89.81
275.176	83.81
275.408	85.81
275.64	83.81
275.872	88.81
276.104	99.81
276.335	79.81
276.567	97.81
276.799	101.81
277.031	106.81
277.262	96.81
277.494	97.81
277.726	89.81
277.957	81.81
278.189	75.81
278.421	92.81
278.652	93.81
278.884	90.81
279.115	91.81
279.347	93.81
279.579	86.81
279.81	98.81
280.042	100.81
280.273	119.81
280.505	87.81
280.736	80.81
280.968	91.81
281.199	89.81
281.431	93.81
281.662	85.81
281.894	83.81
282.125	100.81
282.356	121.81
282.588	147.81
282.819	114.81
283.051	110.81
283.282	91.81
283.513	98.81
283.745	83.81
283.976	91.81
284.207	78.81
284.439	74.81
284.67	85.81
284.901	81.81
285.132	71.81
285.364	82.81
285.595	81.81
285.826	89.81
286.057	88.81
286.288	89.81
286.52	90.81
286.751	81.81
286.982	104.81
287.213	89.81
287.444	79.81
287.675	93.81
287.906	92.81
288.138	95.81
288.369	84.81
288.6	94.81
288.831	99.81
289.062	86.81
289.293	96.81
289.524	92.81
289.755	89.81
289.986	80.81
290.217	87.81
290.448	98.81
290.679	89.81
290.91	85.81
291.141	86.81
291.371	95.81
291.602	87.81
291.833	99.81
292.064	70.81
292.295	100.81
292.526	92.81
292.757	99.81
292.987	96.81
293.218	87.81
293.449	79.81
293.68	81.81
293.91	95.81
294.141	105.81
294.372	97.81
294.603	94.81
294.833	89.81
295.064	79.81
295.295	88.81
295.525	83.81
295.756	88.81
295.987	114.81
296.217	135.81
296.448	140.81
296.679	108.81
296.909	86.81
297.14	93.81
297.37	84.81
297.601	92.81
297.831	86.81
298.062	96.81
298.292	94.81
298.523	88.81
298.753	79.81
298.984	88.81
299.214	84.81
299.445	88.81
299.675	104.81
299.905	99.81
300.136	108.81
300.366	91.81
300.597	85.81
300.827	90.81
301.057	105.81
301.288	109.81
301.518	90.81
301.748	81.81
301.979	99.81
302.209	96.81
302.439	105.81
302.669	103.81
302.9	89.81
303.13	97.81
303.36	100.81
303.59	99.81
303.82	120.81
304.051	91.81
304.281	93.81
304.511	97.81
304.741	95.81
304.971	77.81
305.201	92.81
305.431	97.81
305.661	81.81
305.891	71.81
306.121	83.81
306.352	101.81
306.582	106.81
306.812	86.81
307.042	88.81
307.272	100.81
307.502	109.81
307.731	100.81
307.961	100.81
308.191	95.81
308.421	98.81
308.651	88.81
308.881	94.81
309.111	84.81
309.341	88.81
309.571	91.81
309.8	99.81
310.03	106.81
310.26	98.81
310.49	90.81
310.72	89.81
310.949	107.81
311.179	93.81
311.409	106.81
311.639	108.81
311.868	104.81
312.098	99.81
312.328	122.81
312.557	92.81
312.787	111.81
313.017	96.81
313.246	85.81
313.476	86.81
313.706	99.81
313.935	81.81
314.165	100.81
314.394	114.81
314.624	92.81
314.853	104.81
315.083	89.81
315.312	90.81
315.542	95.81
315.771	108.81
316.001	96.81
316.23	90.81
316.46	90.81
316.689	91.81
316.919	86.81
317.148	101.81
317.377	105.81
317.607	107.81
317.836	96.81
318.065	79.81
318.295	90.81
318.524	95.81
318.753	106.81
318.983	114.81
319.212	116.81
319.441	109.81
319.67	95.81
319.9	97.81
320.129	109.81
320.358	98.81
320.587	106.81
320.816	107.81
321.046	105.81
321.275	109.81
321.504	94.81
321.733	90.81
321.962	104.81
322.191	97.81
322.42	110.81
322.649	109.81
322.878	114.81
323.108	117.81
323.337	125.81
323.566	137.81
323.795	153.81
324.024	212.81
324.253	406.81
324.482	804.81
324.71	1694.81
324.939	2242.81
325.168	809.81
325.397	245.81
325.626	149.81
325.855	129.81
326.084	120.81
326.313	134.81
326.542	147.81
326.77	232.81
326.999	478.81
327.228	905.81
327.457	1687.81
327.686	1353.81
327.914	373.81
328.143	229.81
328.372	194.81
328.6	142.81
328.829	126.81
329.058	138.81
329.287	125.81
329.515	105.81
329.744	113.81
329.972	146.81
330.201	197.81
330.43	237.81
330.658	179.81
330.887	142.81
331.115	119.81
331.344	109.81
331.572	105.81
331.801	104.81
332.03	95.81
332.258	122.81
332.486	83.81
332.715	109.81
332.943	94.81
333.172	115.81
333.4	103.81
333.629	114.81
333.857	121.81
334.085	144.81
334.314	177.81
334.542	289.81
334.771	277.81
334.999	129.81
335.227	98.81
335.455	98.81
335.684	97.81
335.912	98.81
336.14	106.81
336.369	99.81
336.597	111.81
336.825	98.81
337.053	92.81
337.281	83.81
337.51	98.81
337.738	87.81
337.966	93.81
338.194	88.81
338.422	97.81
338.65	84.81
338.878	105.81
339.106	98.81
339.334	89.81
339.562	86.81
339.79	107.81
340.018	87.81
340.246	78.81
340.474	92.81
340.702	90.81
340.93	87.81
341.158	98.81
341.386	91.81
341.614	90.81
341.842	96.81
342.07	90.81
342.298	75.81
342.526	91.81
342.754	97.81
342.981	97.81
343.209	87.81
343.437	97.81
343.665	87.81
343.893	92.81
344.12	86.81
344.348	85.81
344.576	90.81
344.804	90.81
345.031	92.81
345.259	100.81
345.487	78.81
345.714	103.81
345.942	95.81
346.17	92.81
346.397	92.81
346.625	92.81
346.853	95.81
347.08	108.81
347.308	83.81
347.535	101.81
347.763	113.81
347.99	102.81
348.218	100.81
348.445	121.81
348.673	108.81
348.9	109.81
349.128	104.81
349.355	93.81
349.583	103.81
349.81	95.81
350.037	102.81
350.265	97.81
350.492	97.81
350.72	93.81
350.947	103.81
351.174	92.81
351.402	113.81
351.629	110.81
351.856	97.81
352.083	105.81
352.311	115.81
352.538	98.81
352.765	105.81
352.992	118.81
353.22	118.81
353.447	107.81
353.674	103.81
353.901	100.81
354.128	94.81
354.355	91.81
354.583	104.81
354.81	105.81
355.037	93.81
355.264	100.81
355.491	93.81
355.718	92.81
355.945	103.81
356.172	92.81
356.399	91.81
356.626	94.81
356.853	98.81
357.08	83.81
357.307	102.81
357.534	95.81
357.761	97.81
357.988	96.81
358.215	121.81
358.441	87.81
358.668	86.81
358.895	86.81
359.122	92.81
359.349	85.81
359.576	92.81
359.802	99.81
360.029	120.81
360.256	121.81
360.483	113.81
360.709	108.81
360.936	102.81
361.163	97.81
361.39	99.81
361.616	97.81
361.843	77.81
362.07	99.81
362.296	107.81
362.523	79.81
362.749	95.81
362.976	96.81
363.203	80.81
363.429	82.81
363.656	89.81
363.882	89.81
364.109	80.81
364.335	87.81
364.562	104.81
364.788	102.81
365.015	94.81
365.241	116.81
365.468	93.81
365.694	118.81
365.92	90.81
366.147	94.81
366.373	89.81
366.599	85.81
366.826	100.81
367.052	98.81
367.278	102.81
367.505	90.81
367.731	94.81
367.957	97.81
368.184	94.81
368.41	106.81
368.636	104.81
368.862	123.81
369.089	101.81
369.315	91.81
369.541	96.81
369.767	96.81
369.993	92.81
370.219	97.81
370.445	87.81
370.672	96.81
370.898	80.81
371.124	91.81
371.35	93.81
371.576	100.81
371.802	80.81
372.028	93.81
372.254	90.81
372.48	91.81
372.706	82.81
372.932	94.81
373.158	87.81
373.384	97.81
373.61	89.81
373.835	91.81
374.061	93.81
374.287	91.81
374.513	94.81
374.739	93.81
374.965	93.81
375.191	86.81
375.416	88.81
375.642	102.81
375.868	92.81
376.094	82.81
376.319	83.81
376.545	74.81
376.771	94.81
376.997	95.81
377.222	73.81
377.448	86.81
377.674	82.81
377.899	90.81
378.125	94.81
378.35	98.81
378.576	94.81
378.802	97.81
379.027	89.81
379.253	84.81
379.478	78.81
379.704	92.81
379.929	95.81
380.155	86.81
380.38	100.81
380.606	90.81
380.831	98.81
381.057	108.81
381.282	90.81
381.507	92.81
381.733	85.81
381.958	94.81
382.184	98.81
382.409	94.81
382.634	104.81
382.86	95.81
383.085	98.81
383.31	104.81
383.535	87.81
383.761	108.81
383.986	99.81
384.211	109.81
384.436	105.81
384.662	101.81
384.887	89.81
385.112	95.81
385.337	106.81
385.562	98.81
385.787	99.81
386.013	119.81
386.238	98.81
386.463	104.81
386.688	119.81
386.913	105.81
387.138	102.81
387.363	92.81
387.588	98.81
387.813	92.81
388.038	111.81
388.263	114.81
388.488	107.81
388.713	101.81
388.938	86.81
389.163	94.81
389.387	95.81
389.612	109.81
389.837	101.81
390.062	93.81
390.287	79.81
390.512	79.81
390.736	81.81
390.961	95.81
391.186	83.81
391.411	94.81
391.636	93.81
391.86	83.81
392.085	95.81
392.31	89.81
392.534	83.81
392.759	89.81
392.984	85.81
393.208	92.81
393.433	96.81
393.658	89.81
393.882	78.81
394.107	70.81
394.331	80.81
394.556	65.81
394.78	97.81
395.005	97.81
395.229	84.81
395.454	83.81
395.678	83.81
395.903	90.81
396.127	97.81
396.352	81.81
396.576	84.81
396.801	104.81
397.025	90.81
397.249	85.81
397.474	87.81
397.698	91.81
397.922	97.81
398.147	106.81
398.371	77.81
398.595	90.81
398.82	84.81
399.044	82.81
399.268	81.81
399.492	89.81
399.717	99.81
399.941	86.81
400.165	94.81
400.389	91.81
400.613	92.81
400.837	86.81
401.062	88.81
401.286	86.81
401.51	90.81
401.734	87.81
401.958	117.81
402.182	129.81
402.406	156.81
402.63	121.81
402.854	85.81
403.078	100.81
403.302	93.81
403.526	96.81
403.75	95.81
403.974	93.81
404.198	93.81
404.422	103.81
404.645	92.81
404.869	104.81
405.093	91.81
405.317	114.81
405.541	88.81
405.765	119.81
405.988	133.81
406.212	178.81
406.436	252.81
406.66	159.81
406.883	102.81
407.107	97.81
407.331	101.81
407.555	98.81
407.778	95.81
408.002	93.81
408.226	101.81
408.449	74.81
408.673	90.81
408.896	92.81
409.12	92.81
409.344	90.81
409.567	92.81
409.791	88.81
410.014	99.81
410.238	91.81
410.461	100.81
410.685	106.81
410.908	102.81
411.132	102.81
411.355	100.81
411.578	89.81
411.802	97.81
412.025	86.81
412.249	93.81
412.472	80.81
412.695	105.81
412.919	83.81
413.142	88.81
413.365	73.81
413.589	84.81
413.812	68.81
414.035	85.81
414.258	88.81
414.482	95.81
414.705	76.81
414.928	82.81
415.151	99.81
415.374	97.81
415.597	88.81
415.821	96.81
416.044	91.81
416.267	88.81
416.49	88.81
416.713	93.81
416.936	81.81
417.159	87.81
417.382	89.81
417.605	93.81
417.828	91.81
418.051	83.81
418.274	82.81
418.497	86.81
418.72	86.81
418.943	103.81
419.166	100.81
419.389	89.81
419.611	88.81
419.834	90.81
420.057	91.81
420.28	91.81
420.503	94.81
420.726	69.81
420.948	86.81
421.171	105.81
421.394	82.81
421.617	85.81
421.839	74.81
422.062	77.81
422.285	106.81
422.507	89.81
422.73	97.81
422.953	88.81
423.175	99.81
423.398	97.81
423.621	87.81
423.843	77.81
424.066	92.81
424.288	88.81
424.511	95.81
424.733	96.81
424.956	102.81
425.178	95.81
425.401	92.81
425.623	95.81
425.846	76.81
426.068	96.81
426.291	76.81
426.513	95.81
426.735	88.81
426.958	97.81
427.18	96.81
427.402	138.81
427.625	169.81
427.847	149.81
428.069	144.81
428.292	96.81
428.514	89.81
428.736	76.81
428.958	93.81
429.181	79.81
429.403	85.81
429.625	85.81
429.847	87.81
430.069	86.81
430.292	79.81
430.514	73.81
430.736	69.81
430.958	91.81
431.18	87.81
431.402	88.81
431.624	89.81
431.846	88.81
432.068	83.81
432.29	88.81
432.512	87.81
432.734	92.81
432.956	83.81
433.178	93.81
433.4	106.81
433.622	106.81
433.844	91.81
434.066	97.81
434.287	83.81
434.509	91.81
434.731	85.81
434.953	87.81
435.175	86.81
435.397	100.81
435.618	84.81
435.84	100.81
436.062	128.81
436.284	117.81
436.505	103.81
436.727	100.81
436.949	101.81
437.17	77.81
437.392	75.81
437.614	91.81
437.835	117.81
438.057	133.81
438.278	101.81
438.5	104.81
438.721	106.81
438.943	92.81
439.165	90.81
439.386	85.81
439.608	90.81
439.829	95.81
440.05	127.81
440.272	146.81
440.493	102.81
440.715	88.81
440.936	98.81
441.158	88.81
441.379	85.81
441.6	101.81
441.822	88.81
442.043	94.81
442.264	101.81
442.486	88.81
442.707	88.81
442.928	102.81
443.149	134.81
443.371	131.81
443.592	117.81
443.813	114.81
444.034	104.81
444.255	77.81
444.476	83.81
444.698	79.81
444.919	95.81
445.14	130.81
445.361	137.81
445.582	119.81
445.803	130.81
446.024	143.81
446.245	132.81
446.466	106.81
446.687	91.81
446.908	91.81
447.129	90.81
447.35	94.81
447.571	98.81
447.792	98.81
448.013	103.81
448.234	104.81
448.455	106.81
448.675	123.81
448.896	113.81
449.117	105.81
449.338	100.81
449.559	118.81
449.779	137.81
450	94.81
450.221	78.81
450.442	86.81
450.662	97.81
450.883	109.81
451.104	100.81
451.324	89.81
451.545	92.81
451.766	102.81
451.986	86.81
452.207	90.81
452.428	88.81
452.648	85.81
452.869	112.81
453.089	114.81
453.31	110.81
453.53	91.81
453.751	91.81
453.971	106.81
454.192	101.81
454.412	95.81
454.633	95.81
454.853	86.81
455.073	86.81
455.294	87.81
455.514	101.81
455.734	85.81
455.955	91.81
456.175	84.81
456.395	89.81
456.616	96.81
456.836	85.81
457.056	78.81
457.276	88.81
457.497	77.81
457.717	79.81
457.937	79.81
458.157	86.81
458.377	90.81
458.598	108.81
458.818	139.81
459.038	161.81
459.258	119.81
459.478	93.81
459.698	76.81
459.918	92.81
460.138	84.81
460.358	95.81
460.578	87.81
460.798	92.81
461.018	93.81
461.238	82.81
461.458	79.81
461.678	83.81
461.898	91.81
462.118	82.81
462.338	93.81
462.558	97.81
462.777	86.81
462.997	86.81
463.217	71.81
463.437	86.81
463.657	92.81
463.876	84.81
464.096	89.81
464.316	74.81
464.536	81.81
464.755	84.81
464.975	99.81
465.195	165.81
465.414	164.81
465.634	78.81
465.854	91.81
466.073	94.81
466.293	96.81
466.512	90.81
466.732	95.81
466.951	92.81
467.171	90.81
467.391	109.81
467.61	101.81
467.829	110.81
468.049	137.81
468.268	166.81
468.488	97.81
468.707	102.81
468.927	85.81
469.146	75.81
469.365	89.81
469.585	74.81
469.804	101.81
470.023	106.81
470.243	94.81
470.462	108.81
470.681	105.81
470.901	84.81
471.12	101.81
471.339	88.81
471.558	99.81
471.777	109.81
471.997	120.81
472.216	207.81
472.435	350.81
472.654	135.81
472.873	89.81
473.092	89.81
473.311	92.81
473.53	84.81
473.749	99.81
473.968	104.81
474.187	106.81
474.406	91.81
474.625	90.81
474.844	89.81
475.063	91.81
475.282	95.81
475.501	88.81
475.72	89.81
475.939	80.81
476.158	83.81
476.377	78.81
476.596	87.81
476.814	104.81
477.033	96.81
477.252	80.81
477.471	85.81
477.69	100.81
477.908	87.81
478.127	83.81
478.346	91.81
478.564	77.81
478.783	109.81
479.002	97.81
479.22	92.81
479.439	97.81
479.658	107.81
479.876	82.81
480.095	87.81
480.313	97.81
480.532	99.81
480.751	114.81
480.969	206.81
481.188	551.81
481.406	383.81
481.624	113.81
481.843	87.81
482.061	77.81
482.28	107.81
482.498	92.81
482.717	92.81
482.935	67.81
483.153	93.81
483.372	91.81
483.59	88.81
483.808	100.81
484.027	89.81
484.245	93.81
484.463	102.81
484.681	108.81
484.9	91.81
485.118	91.81
485.336	97.81
485.554	92.81
485.772	96.81
485.99	95.81
486.209	94.81
486.427	101.81
486.645	96.81
486.863	109.81
487.081	104.81
487.299	90.81
487.517	93.81
487.735	98.81
487.953	106.81
488.171	101.81
488.389	98.81
488.607	88.81
488.825	103.81
489.043	93.81
489.261	99.81
489.479	107.81
489.696	79.81
489.914	91.81
490.132	70.81
490.35	91.81
490.568	101.81
490.786	96.81
491.003	91.81
491.221	78.81
491.439	105.81
491.657	104.81
491.874	78.81
492.092	97.81
492.31	82.81
492.527	86.81
492.745	92.81
492.963	92.81
493.18	100.81
493.398	98.81
493.615	98.81
493.833	90.81
494.05	83.81
494.268	86.81
494.485	106.81
494.703	88.81
494.92	98.81
495.138	75.81
495.355	86.81
495.573	91.81
495.79	91.81
496.008	89.81
496.225	105.81
496.442	94.81
496.66	85.81
496.877	92.81
497.094	84.81
497.312	93.81
497.529	96.81
497.746	84.81
497.963	92.81
498.181	107.81
498.398	101.81
498.615	113.81
498.832	109.81
499.049	94.81
499.267	86.81
499.484	89.81
499.701	98.81
499.918	82.81
500.135	89.81
500.352	88.81
500.569	86.81
500.786	87.81
501.003	93.81
501.22	91.81
501.437	88.81
501.654	100.81
501.871	117.81
502.088	104.81
502.305	105.81
502.522	82.81
502.739	90.81
502.956	107.81
503.172	90.81
503.389	89.81
503.606	99.81
503.823	96.81
504.04	91.81
504.256	85.81
504.473	79.81
504.69	88.81
504.907	96.81
505.123	80.81
505.34	84.81
505.557	102.81
505.773	90.81
505.99	86.81
506.207	100.81
506.423	87.81
506.64	85.81
506.856	98.81
507.073	93.81
507.289	89.81
507.506	110.81
507.722	113.81
507.939	99.81
508.155	88.81
508.372	84.81
508.588	100.81
508.805	104.81
509.021	103.81
509.238	104.81
509.454	91.81
509.67	109.81
509.887	101.81
510.103	140.81
510.319	216.81
510.536	794.81
510.752	2741.81
510.968	781.81
511.184	165.81
511.401	107.81
511.617	104.81
511.833	106.81
512.049	80.81
512.265	109.81
512.481	86.81
512.698	81.81
512.914	94.81
513.13	102.81
513.346	92.81
513.562	97.81
513.778	102.81
513.994	108.81
514.21	91.81
514.426	116.81
514.642	140.81
514.858	134.81
515.074	179.81
