Data from Circ_2014_H10_HRD10591_00059.txt Node
Date: Wed Jan 03 10:02:21 EST 2024
User: Yrep
Spectrometer: HR+D1059
Trigger mode: 1
Integration Time (sec): 1.000000E-1
Scans to average: 1
Electric dark correction enabled: true
Nonlinearity correction enabled: false
Boxcar width: 0
XAxis mode: Wavelengths
Number of Pixels in Spectrum: 2048
>>>>>Begin Spectral Data<<<<<
223.165	-18.69
223.4	-18.69
223.635	-18.69
223.869	-18.69
224.104	-19.69
224.338	-15.69
224.573	-14.69
224.808	-6.69
225.042	-10.69
225.277	-4.69
225.511	-0.69
225.746	-0.69
225.98	5.31
226.215	15.31
226.449	5.31
226.683	17.31
226.918	36.31
227.152	31.31
227.387	26.31
227.621	44.31
227.856	60.31
228.09	41.31
228.324	54.31
228.559	70.31
228.793	51.31
229.027	82.31
229.262	81.31
229.496	76.31
229.73	83.31
229.964	91.31
230.199	94.31
230.433	81.31
230.667	80.31
230.901	77.31
231.136	77.31
231.37	98.31
231.604	92.31
231.838	88.31
232.072	95.31
232.306	88.31
232.541	77.31
232.775	75.31
233.009	89.31
233.243	98.31
233.477	71.31
233.711	88.31
233.945	86.31
234.179	78.31
234.413	78.31
234.647	82.31
234.881	95.31
235.115	88.31
235.349	78.31
235.583	73.31
235.817	80.31
236.051	68.31
236.285	72.31
236.519	80.31
236.753	83.31
236.987	81.31
237.221	89.31
237.455	91.31
237.689	78.31
237.922	80.31
238.156	64.31
238.39	79.31
238.624	80.31
238.858	84.31
239.091	71.31
239.325	92.31
239.559	92.31
239.793	91.31
240.027	72.31
240.26	85.31
240.494	101.31
240.728	93.31
240.961	91.31
241.195	65.31
241.429	75.31
241.662	88.31
241.896	75.31
242.13	71.31
242.363	86.31
242.597	82.31
242.83	80.31
243.064	95.31
243.298	89.31
243.531	74.31
243.765	82.31
243.998	74.31
244.232	88.31
244.465	89.31
244.699	90.31
244.932	79.31
245.166	80.31
245.399	83.31
245.633	85.31
245.866	79.31
246.099	88.31
246.333	83.31
246.566	92.31
246.8	89.31
247.033	78.31
247.266	95.31
247.5	89.31
247.733	79.31
247.966	89.31
248.2	100.31
248.433	79.31
248.666	94.31
248.899	88.31
249.133	83.31
249.366	106.31
249.599	100.31
249.832	93.31
250.066	89.31
250.299	79.31
250.532	102.31
250.765	91.31
250.998	90.31
251.231	89.31
251.465	101.31
251.698	77.31
251.931	82.31
252.164	91.31
252.397	86.31
252.63	75.31
252.863	87.31
253.096	98.31
253.329	102.31
253.562	79.31
253.795	78.31
254.028	87.31
254.261	87.31
254.494	93.31
254.727	86.31
254.96	90.31
255.193	90.31
255.426	87.31
255.659	89.31
255.892	91.31
256.124	87.31
256.357	92.31
256.59	89.31
256.823	84.31
257.056	89.31
257.289	77.31
257.521	83.31
257.754	80.31
257.987	81.31
258.22	82.31
258.452	81.31
258.685	88.31
258.918	97.31
259.151	79.31
259.383	76.31
259.616	77.31
259.849	83.31
260.081	83.31
260.314	76.31
260.547	92.31
260.779	86.31
261.012	93.31
261.244	71.31
261.477	87.31
261.71	89.31
261.942	106.31
262.175	114.31
262.407	103.31
262.64	93.31
262.872	81.31
263.105	82.31
263.337	90.31
263.57	96.31
263.802	87.31
264.035	85.31
264.267	89.31
264.499	83.31
264.732	97.31
264.964	86.31
265.197	83.31
265.429	91.31
265.661	79.31
265.894	89.31
266.126	107.31
266.358	92.31
266.591	104.31
266.823	82.31
267.055	77.31
267.287	80.31
267.52	89.31
267.752	87.31
267.984	91.31
268.216	91.31
268.448	90.31
268.681	84.31
268.913	100.31
269.145	89.31
269.377	78.31
269.609	93.31
269.841	83.31
270.073	92.31
270.306	90.31
270.538	91.31
270.77	92.31
271.002	88.31
271.234	83.31
271.466	99.31
271.698	89.31
271.93	97.31
272.162	94.31
272.394	99.31
272.626	101.31
272.858	77.31
273.09	77.31
273.322	90.31
273.553	78.31
273.785	89.31
274.017	100.31
274.249	90.31
274.481	80.31
274.713	88.31
274.945	103.31
275.176	86.31
275.408	88.31
275.64	98.31
275.872	84.31
276.104	92.31
276.335	88.31
276.567	109.31
276.799	99.31
277.031	106.31
277.262	93.31
277.494	101.31
277.726	99.31
277.957	100.31
278.189	83.31
278.421	94.31
278.652	95.31
278.884	80.31
279.115	77.31
279.347	87.31
279.579	103.31
279.81	87.31
280.042	89.31
280.273	93.31
280.505	99.31
280.736	98.31
280.968	91.31
281.199	86.31
281.431	100.31
281.662	86.31
281.894	93.31
282.125	104.31
282.356	122.31
282.588	136.31
282.819	105.31
283.051	96.31
283.282	88.31
283.513	87.31
283.745	89.31
283.976	89.31
284.207	90.31
284.439	86.31
284.67	89.31
284.901	91.31
285.132	86.31
285.364	90.31
285.595	77.31
285.826	87.31
286.057	96.31
286.288	93.31
286.52	105.31
286.751	90.31
286.982	73.31
287.213	81.31
287.444	87.31
287.675	94.31
287.906	97.31
288.138	95.31
288.369	101.31
288.6	96.31
288.831	90.31
289.062	87.31
289.293	79.31
289.524	86.31
289.755	93.31
289.986	99.31
290.217	102.31
290.448	87.31
290.679	88.31
290.91	98.31
291.141	82.31
291.371	83.31
291.602	78.31
291.833	89.31
292.064	91.31
292.295	94.31
292.526	92.31
292.757	98.31
292.987	93.31
293.218	100.31
293.449	95.31
293.68	102.31
293.91	91.31
294.141	98.31
294.372	85.31
294.603	84.31
294.833	96.31
295.064	106.31
295.295	80.31
295.525	110.31
295.756	119.31
295.987	121.31
296.217	147.31
296.448	125.31
296.679	97.31
296.909	94.31
297.14	98.31
297.37	103.31
297.601	105.31
297.831	93.31
298.062	87.31
298.292	95.31
298.523	97.31
298.753	95.31
298.984	99.31
299.214	78.31
299.445	95.31
299.675	85.31
299.905	104.31
300.136	95.31
300.366	91.31
300.597	105.31
300.827	105.31
301.057	92.31
301.288	108.31
301.518	104.31
301.748	101.31
301.979	99.31
302.209	99.31
302.439	98.31
302.669	84.31
302.9	105.31
303.13	106.31
303.36	97.31
303.59	96.31
303.82	113.31
304.051	111.31
304.281	98.31
304.511	96.31
304.741	103.31
304.971	97.31
305.201	97.31
305.431	90.31
305.661	98.31
305.891	97.31
306.121	87.31
306.352	112.31
306.582	110.31
306.812	103.31
307.042	93.31
307.272	101.31
307.502	106.31
307.731	97.31
307.961	94.31
308.191	89.31
308.421	98.31
308.651	95.31
308.881	82.31
309.111	104.31
309.341	102.31
309.571	104.31
309.8	104.31
310.03	110.31
310.26	98.31
310.49	91.31
310.72	106.31
310.949	88.31
311.179	100.31
311.409	90.31
311.639	104.31
311.868	110.31
312.098	102.31
312.328	103.31
312.557	115.31
312.787	105.31
313.017	95.31
313.246	98.31
313.476	92.31
313.706	99.31
313.935	93.31
314.165	104.31
314.394	98.31
314.624	87.31
314.853	119.31
315.083	98.31
315.312	85.31
315.542	78.31
315.771	114.31
316.001	85.31
316.23	104.31
316.46	91.31
316.689	81.31
316.919	104.31
317.148	97.31
317.377	122.31
317.607	114.31
317.836	95.31
318.065	90.31
318.295	95.31
318.524	95.31
318.753	102.31
318.983	96.31
319.212	102.31
319.441	109.31
319.67	122.31
319.9	103.31
320.129	117.31
320.358	91.31
320.587	105.31
320.816	101.31
321.046	96.31
321.275	98.31
321.504	102.31
321.733	106.31
321.962	101.31
322.191	109.31
322.42	105.31
322.649	101.31
322.878	100.31
323.108	113.31
323.337	123.31
323.566	132.31
323.795	144.31
324.024	202.31
324.253	376.31
324.482	754.31
324.71	1539.31
324.939	1983.31
325.168	745.31
325.397	236.31
325.626	159.31
325.855	138.31
326.084	122.31
326.313	139.31
326.542	155.31
326.77	217.31
326.999	416.31
327.228	851.31
327.457	1485.31
327.686	1191.31
327.914	351.31
328.143	196.31
328.372	171.31
328.6	135.31
328.829	108.31
329.058	129.31
329.287	142.31
329.515	112.31
329.744	102.31
329.972	119.31
330.201	127.31
330.43	167.31
330.658	148.31
330.887	162.31
331.115	141.31
331.344	96.31
331.572	106.31
331.801	109.31
332.03	118.31
332.258	103.31
332.486	108.31
332.715	96.31
332.943	106.31
333.172	116.31
333.4	120.31
333.629	101.31
333.857	129.31
334.085	125.31
334.314	134.31
334.542	171.31
334.771	157.31
334.999	112.31
335.227	109.31
335.455	105.31
335.684	104.31
335.912	107.31
336.14	123.31
336.369	82.31
336.597	109.31
336.825	97.31
337.053	98.31
337.281	99.31
337.51	81.31
337.738	89.31
337.966	94.31
338.194	103.31
338.422	109.31
338.65	94.31
338.878	110.31
339.106	109.31
339.334	96.31
339.562	94.31
339.79	106.31
340.018	94.31
340.246	94.31
340.474	107.31
340.702	95.31
340.93	102.31
341.158	98.31
341.386	100.31
341.614	101.31
341.842	110.31
342.07	90.31
342.298	110.31
342.526	94.31
342.754	90.31
342.981	88.31
343.209	96.31
343.437	102.31
343.665	86.31
343.893	104.31
344.12	92.31
344.348	98.31
344.576	97.31
344.804	97.31
345.031	83.31
345.259	114.31
345.487	88.31
345.714	89.31
345.942	96.31
346.17	99.31
346.397	99.31
346.625	95.31
346.853	89.31
347.08	113.31
347.308	97.31
347.535	94.31
347.763	114.31
347.99	107.31
348.218	107.31
348.445	117.31
348.673	105.31
348.9	108.31
349.128	97.31
349.355	91.31
349.583	96.31
349.81	94.31
350.037	98.31
350.265	88.31
350.492	102.31
350.72	114.31
350.947	102.31
351.174	117.31
351.402	101.31
351.629	107.31
351.856	104.31
352.083	104.31
352.311	106.31
352.538	112.31
352.765	125.31
352.992	112.31
353.22	115.31
353.447	118.31
353.674	111.31
353.901	101.31
354.128	101.31
354.355	95.31
354.583	101.31
354.81	97.31
355.037	106.31
355.264	91.31
355.491	114.31
355.718	101.31
355.945	103.31
356.172	102.31
356.399	100.31
356.626	94.31
356.853	96.31
357.08	110.31
357.307	97.31
357.534	94.31
357.761	93.31
357.988	115.31
358.215	107.31
358.441	105.31
358.668	99.31
358.895	100.31
359.122	99.31
359.349	99.31
359.576	108.31
359.802	114.31
360.029	110.31
360.256	126.31
360.483	104.31
360.709	105.31
360.936	103.31
361.163	120.31
361.39	99.31
361.616	73.31
361.843	106.31
362.07	83.31
362.296	117.31
362.523	105.31
362.749	105.31
362.976	90.31
363.203	101.31
363.429	87.31
363.656	89.31
363.882	105.31
364.109	94.31
364.335	95.31
364.562	108.31
364.788	98.31
365.015	90.31
365.241	100.31
365.468	127.31
365.694	101.31
365.92	108.31
366.147	98.31
366.373	92.31
366.599	92.31
366.826	103.31
367.052	97.31
367.278	99.31
367.505	91.31
367.731	99.31
367.957	94.31
368.184	89.31
368.41	96.31
368.636	110.31
368.862	134.31
369.089	109.31
369.315	111.31
369.541	88.31
369.767	82.31
369.993	107.31
370.219	94.31
370.445	74.31
370.672	95.31
370.898	86.31
371.124	93.31
371.35	83.31
371.576	80.31
371.802	107.31
372.028	92.31
372.254	95.31
372.48	95.31
372.706	103.31
372.932	92.31
373.158	89.31
373.384	91.31
373.61	92.31
373.835	102.31
374.061	93.31
374.287	89.31
374.513	88.31
374.739	81.31
374.965	96.31
375.191	99.31
375.416	92.31
375.642	99.31
375.868	101.31
376.094	91.31
376.319	103.31
376.545	106.31
376.771	97.31
376.997	94.31
377.222	88.31
377.448	89.31
377.674	96.31
377.899	95.31
378.125	96.31
378.35	107.31
378.576	98.31
378.802	104.31
379.027	99.31
379.253	106.31
379.478	96.31
379.704	91.31
379.929	88.31
380.155	92.31
380.38	115.31
380.606	106.31
380.831	96.31
381.057	89.31
381.282	106.31
381.507	106.31
381.733	94.31
381.958	104.31
382.184	109.31
382.409	108.31
382.634	109.31
382.86	102.31
383.085	94.31
383.31	105.31
383.535	120.31
383.761	107.31
383.986	117.31
384.211	96.31
384.436	117.31
384.662	105.31
384.887	111.31
385.112	111.31
385.337	110.31
385.562	104.31
385.787	109.31
386.013	120.31
386.238	133.31
386.463	120.31
386.688	100.31
386.913	121.31
387.138	107.31
387.363	101.31
387.588	111.31
387.813	113.31
388.038	112.31
388.263	122.31
388.488	106.31
388.713	91.31
388.938	79.31
389.163	112.31
389.387	94.31
389.612	96.31
389.837	110.31
390.062	101.31
390.287	91.31
390.512	99.31
390.736	106.31
390.961	98.31
391.186	98.31
391.411	102.31
391.636	99.31
391.86	82.31
392.085	73.31
392.31	79.31
392.534	93.31
392.759	83.31
392.984	80.31
393.208	106.31
393.433	88.31
393.658	97.31
393.882	88.31
394.107	93.31
394.331	82.31
394.556	92.31
394.78	87.31
395.005	88.31
395.229	82.31
395.454	105.31
395.678	87.31
395.903	102.31
396.127	89.31
396.352	83.31
396.576	85.31
396.801	91.31
397.025	75.31
397.249	96.31
397.474	85.31
397.698	91.31
397.922	77.31
398.147	85.31
398.371	88.31
398.595	94.31
398.82	88.31
399.044	94.31
399.268	85.31
399.492	101.31
399.717	78.31
399.941	98.31
400.165	101.31
400.389	89.31
400.613	92.31
400.837	91.31
401.062	85.31
401.286	99.31
401.51	83.31
401.734	89.31
401.958	107.31
402.182	141.31
402.406	163.31
402.63	130.31
402.854	92.31
403.078	90.31
403.302	86.31
403.526	100.31
403.75	82.31
403.974	83.31
404.198	101.31
404.422	88.31
404.645	89.31
404.869	97.31
405.093	87.31
405.317	103.31
405.541	94.31
405.765	106.31
405.988	111.31
406.212	171.31
406.436	234.31
406.66	148.31
406.883	114.31
407.107	107.31
407.331	100.31
407.555	108.31
407.778	105.31
408.002	93.31
408.226	106.31
408.449	90.31
408.673	95.31
408.896	96.31
409.12	113.31
409.344	96.31
409.567	90.31
409.791	97.31
410.014	100.31
410.238	99.31
410.461	101.31
410.685	109.31
410.908	85.31
411.132	103.31
411.355	106.31
411.578	89.31
411.802	79.31
412.025	92.31
412.249	104.31
412.472	90.31
412.695	89.31
412.919	93.31
413.142	112.31
413.365	93.31
413.589	91.31
413.812	90.31
414.035	103.31
414.258	85.31
414.482	95.31
414.705	89.31
414.928	87.31
415.151	109.31
415.374	98.31
415.597	95.31
415.821	101.31
416.044	90.31
416.267	82.31
416.49	100.31
416.713	98.31
416.936	100.31
417.159	91.31
417.382	79.31
417.605	85.31
417.828	102.31
418.051	90.31
418.274	94.31
418.497	87.31
418.72	90.31
418.943	95.31
419.166	94.31
419.389	83.31
419.611	81.31
419.834	90.31
420.057	93.31
420.28	77.31
420.503	92.31
420.726	95.31
420.948	81.31
421.171	81.31
421.394	101.31
421.617	88.31
421.839	90.31
422.062	93.31
422.285	100.31
422.507	98.31
422.73	119.31
422.953	89.31
423.175	86.31
423.398	94.31
423.621	102.31
423.843	93.31
424.066	97.31
424.288	101.31
424.511	89.31
424.733	93.31
424.956	110.31
425.178	85.31
425.401	97.31
425.623	114.31
425.846	97.31
426.068	97.31
426.291	79.31
426.513	98.31
426.735	92.31
426.958	91.31
427.18	100.31
427.402	143.31
427.625	174.31
427.847	131.31
428.069	110.31
428.292	90.31
428.514	87.31
428.736	85.31
428.958	87.31
429.181	86.31
429.403	83.31
429.625	87.31
429.847	84.31
430.069	90.31
430.292	101.31
430.514	82.31
430.736	89.31
430.958	88.31
431.18	88.31
431.402	88.31
431.624	93.31
431.846	92.31
432.068	86.31
432.29	96.31
432.512	102.31
432.734	80.31
432.956	101.31
433.178	100.31
433.4	102.31
433.622	102.31
433.844	90.31
434.066	89.31
434.287	110.31
434.509	81.31
434.731	97.31
434.953	93.31
435.175	82.31
435.397	98.31
435.618	97.31
435.84	89.31
436.062	125.31
436.284	92.31
436.505	117.31
436.727	102.31
436.949	85.31
437.17	96.31
437.392	83.31
437.614	104.31
437.835	108.31
438.057	122.31
438.278	93.31
438.5	105.31
438.721	120.31
438.943	107.31
439.165	92.31
439.386	82.31
439.608	89.31
439.829	93.31
440.05	104.31
440.272	135.31
440.493	100.31
440.715	94.31
440.936	86.31
441.158	102.31
441.379	94.31
441.6	105.31
441.822	103.31
442.043	98.31
442.264	99.31
442.486	101.31
442.707	102.31
442.928	121.31
443.149	138.31
443.371	141.31
443.592	115.31
443.813	110.31
444.034	113.31
444.255	81.31
444.476	103.31
444.698	92.31
444.919	84.31
445.14	120.31
445.361	132.31
445.582	117.31
445.803	133.31
446.024	114.31
446.245	129.31
446.466	107.31
446.687	96.31
446.908	91.31
447.129	98.31
447.35	84.31
447.571	94.31
447.792	83.31
448.013	112.31
448.234	103.31
448.455	112.31
448.675	101.31
448.896	100.31
449.117	119.31
449.338	103.31
449.559	117.31
449.779	124.31
450	99.31
450.221	84.31
450.442	105.31
450.662	95.31
450.883	111.31
451.104	121.31
451.324	104.31
451.545	99.31
451.766	80.31
451.986	76.31
452.207	98.31
452.428	102.31
452.648	99.31
452.869	121.31
453.089	119.31
453.31	111.31
453.53	117.31
453.751	98.31
453.971	105.31
454.192	114.31
454.412	97.31
454.633	101.31
454.853	89.31
455.073	81.31
455.294	104.31
455.514	91.31
455.734	103.31
455.955	82.31
456.175	96.31
456.395	81.31
456.616	85.31
456.836	96.31
457.056	75.31
457.276	90.31
457.497	91.31
457.717	85.31
457.937	91.31
458.157	104.31
458.377	95.31
458.598	104.31
458.818	150.31
459.038	169.31
459.258	115.31
459.478	97.31
459.698	82.31
459.918	82.31
460.138	96.31
460.358	98.31
460.578	88.31
460.798	101.31
461.018	91.31
461.238	77.31
461.458	89.31
461.678	85.31
461.898	89.31
462.118	97.31
462.338	89.31
462.558	80.31
462.777	94.31
462.997	86.31
463.217	83.31
463.437	88.31
463.657	89.31
463.876	82.31
464.096	76.31
464.316	91.31
464.536	84.31
464.755	93.31
464.975	99.31
465.195	161.31
465.414	171.31
465.634	98.31
465.854	101.31
466.073	79.31
466.293	99.31
466.512	89.31
466.732	83.31
466.951	102.31
467.171	97.31
467.391	82.31
467.61	96.31
467.829	99.31
468.049	112.31
468.268	111.31
468.488	97.31
468.707	79.31
468.927	70.31
469.146	73.31
469.365	97.31
469.585	88.31
469.804	107.31
470.023	109.31
470.243	98.31
470.462	94.31
470.681	113.31
470.901	92.31
471.12	102.31
471.339	98.31
471.558	99.31
471.777	96.31
471.997	105.31
472.216	131.31
472.435	191.31
472.654	102.31
472.873	90.31
473.092	85.31
473.311	82.31
473.53	99.31
473.749	102.31
473.968	94.31
474.187	98.31
474.406	95.31
474.625	98.31
474.844	101.31
475.063	91.31
475.282	92.31
475.501	77.31
475.72	98.31
475.939	93.31
476.158	89.31
476.377	86.31
476.596	89.31
476.814	95.31
477.033	90.31
477.252	89.31
477.471	106.31
477.69	92.31
477.908	93.31
478.127	97.31
478.346	98.31
478.564	96.31
478.783	110.31
479.002	93.31
479.22	94.31
479.439	98.31
479.658	106.31
479.876	97.31
480.095	104.31
480.313	94.31
480.532	90.31
480.751	117.31
480.969	141.31
481.188	286.31
481.406	190.31
481.624	110.31
481.843	89.31
482.061	87.31
482.28	101.31
482.498	98.31
482.717	96.31
482.935	90.31
483.153	102.31
483.372	96.31
483.59	96.31
483.808	87.31
484.027	100.31
484.245	101.31
484.463	94.31
484.681	102.31
484.9	94.31
485.118	108.31
485.336	96.31
485.554	93.31
485.772	100.31
485.99	114.31
486.209	105.31
486.427	111.31
486.645	115.31
486.863	114.31
487.081	107.31
487.299	110.31
487.517	98.31
487.735	101.31
487.953	85.31
488.171	95.31
488.389	94.31
488.607	99.31
488.825	87.31
489.043	95.31
489.261	75.31
489.479	86.31
489.696	94.31
489.914	79.31
490.132	83.31
490.35	89.31
490.568	101.31
490.786	96.31
491.003	84.31
491.221	84.31
491.439	93.31
491.657	94.31
491.874	92.31
492.092	95.31
492.31	90.31
492.527	86.31
492.745	92.31
492.963	86.31
493.18	89.31
493.398	109.31
493.615	83.31
493.833	90.31
494.05	106.31
494.268	87.31
494.485	94.31
494.703	92.31
494.92	94.31
495.138	87.31
495.355	91.31
495.573	76.31
495.79	101.31
496.008	111.31
496.225	82.31
496.442	100.31
496.66	102.31
496.877	97.31
497.094	103.31
497.312	98.31
497.529	94.31
497.746	94.31
497.963	103.31
498.181	110.31
498.398	88.31
498.615	105.31
498.832	113.31
499.049	102.31
499.267	87.31
499.484	98.31
499.701	96.31
499.918	92.31
500.135	101.31
500.352	90.31
500.569	106.31
500.786	90.31
501.003	90.31
501.22	91.31
501.437	95.31
501.654	101.31
501.871	112.31
502.088	97.31
502.305	85.31
502.522	103.31
502.739	88.31
502.956	106.31
503.172	102.31
503.389	102.31
503.606	113.31
503.823	90.31
504.04	94.31
504.256	99.31
504.473	94.31
504.69	89.31
504.907	108.31
505.123	98.31
505.34	100.31
505.557	101.31
505.773	99.31
505.99	96.31
506.207	97.31
506.423	87.31
506.64	95.31
506.856	78.31
507.073	90.31
507.289	106.31
507.506	88.31
507.722	117.31
507.939	119.31
508.155	105.31
508.372	104.31
508.588	101.31
508.805	94.31
509.021	111.31
509.238	106.31
509.454	109.31
509.67	101.31
509.887	109.31
510.103	134.31
510.319	222.31
510.536	808.31
510.752	2649.31
510.968	752.31
511.184	177.31
511.401	105.31
511.617	93.31
511.833	103.31
512.049	100.31
512.265	105.31
512.481	91.31
512.698	93.31
512.914	78.31
513.13	100.31
513.346	95.31
