Data from Circ_2014_H10_HRD10591_00029.txt Node
Date: Wed Jan 03 10:02:15 EST 2024
User: Yrep
Spectrometer: HR+D1059
Trigger mode: 1
Integration Time (sec): 1.000000E-1
Scans to average: 1
Electric dark correction enabled: true
Nonlinearity correction enabled: false
Boxcar width: 0
XAxis mode: Wavelengths
Number of Pixels in Spectrum: 2048
>>>>>Begin Spectral Data<<<<<
223.165	-24.88
223.4	-24.88
223.635	-24.88
223.869	-7.88
224.104	-15.88
224.338	-18.88
224.573	-26.88
224.808	7.12
225.042	-6.88
225.277	-2.88
225.511	-11.88
225.746	2.12
225.98	9.12
226.215	11.12
226.449	15.12
226.683	24.12
226.918	23.12
227.152	24.12
227.387	35.12
227.621	34.12
227.856	48.12
228.09	60.12
228.324	69.12
228.559	44.12
228.793	48.12
229.027	65.12
229.262	76.12
229.496	67.12
229.73	91.12
229.964	88.12
230.199	69.12
230.433	62.12
230.667	72.12
230.901	67.12
231.136	73.12
231.37	70.12
231.604	68.12
231.838	86.12
232.072	89.12
232.306	86.12
232.541	86.12
232.775	76.12
233.009	83.12
233.243	76.12
233.477	81.12
233.711	77.12
233.945	69.12
234.179	84.12
234.413	67.12
234.647	69.12
234.881	72.12
235.115	86.12
235.349	88.12
235.583	85.12
235.817	81.12
236.051	84.12
236.285	88.12
236.519	80.12
236.753	75.12
236.987	86.12
237.221	80.12
237.455	92.12
237.689	87.12
237.922	75.12
238.156	79.12
238.39	82.12
238.624	65.12
238.858	73.12
239.091	75.12
239.325	77.12
239.559	89.12
239.793	77.12
240.027	90.12
240.26	65.12
240.494	72.12
240.728	61.12
240.961	64.12
241.195	94.12
241.429	80.12
241.662	66.12
241.896	64.12
242.13	71.12
242.363	85.12
242.597	80.12
242.83	70.12
243.064	69.12
243.298	86.12
243.531	64.12
243.765	72.12
243.998	75.12
244.232	84.12
244.465	81.12
244.699	72.12
244.932	77.12
245.166	80.12
245.399	76.12
245.633	77.12
245.866	98.12
246.099	80.12
246.333	78.12
246.566	76.12
246.8	87.12
247.033	75.12
247.266	63.12
247.5	80.12
247.733	69.12
247.966	69.12
248.2	66.12
248.433	75.12
248.666	78.12
248.899	86.12
249.133	84.12
249.366	82.12
249.599	92.12
249.832	74.12
250.066	81.12
250.299	84.12
250.532	73.12
250.765	81.12
250.998	76.12
251.231	96.12
251.465	91.12
251.698	71.12
251.931	74.12
252.164	83.12
252.397	76.12
252.63	88.12
252.863	90.12
253.096	84.12
253.329	67.12
253.562	72.12
253.795	74.12
254.028	79.12
254.261	76.12
254.494	82.12
254.727	80.12
254.96	83.12
255.193	78.12
255.426	69.12
255.659	65.12
255.892	79.12
256.124	82.12
256.357	93.12
256.59	84.12
256.823	82.12
257.056	87.12
257.289	89.12
257.521	85.12
257.754	89.12
257.987	84.12
258.22	81.12
258.452	81.12
258.685	96.12
258.918	77.12
259.151	88.12
259.383	72.12
259.616	93.12
259.849	97.12
260.081	80.12
260.314	81.12
260.547	89.12
260.779	81.12
261.012	94.12
261.244	97.12
261.477	84.12
261.71	103.12
261.942	109.12
262.175	115.12
262.407	104.12
262.64	93.12
262.872	83.12
263.105	81.12
263.337	84.12
263.57	77.12
263.802	82.12
264.035	66.12
264.267	76.12
264.499	82.12
264.732	72.12
264.964	80.12
265.197	89.12
265.429	82.12
265.661	78.12
265.894	76.12
266.126	67.12
266.358	86.12
266.591	80.12
266.823	85.12
267.055	85.12
267.287	81.12
267.52	69.12
267.752	91.12
267.984	93.12
268.216	90.12
268.448	81.12
268.681	82.12
268.913	82.12
269.145	90.12
269.377	78.12
269.609	64.12
269.841	78.12
270.073	90.12
270.306	75.12
270.538	72.12
270.77	83.12
271.002	85.12
271.234	85.12
271.466	88.12
271.698	91.12
271.93	91.12
272.162	90.12
272.394	99.12
272.626	84.12
272.858	91.12
273.09	76.12
273.322	75.12
273.553	73.12
273.785	83.12
274.017	81.12
274.249	82.12
274.481	73.12
274.713	85.12
274.945	99.12
275.176	93.12
275.408	86.12
275.64	75.12
275.872	91.12
276.104	86.12
276.335	85.12
276.567	105.12
276.799	119.12
277.031	94.12
277.262	97.12
277.494	67.12
277.726	66.12
277.957	72.12
278.189	105.12
278.421	80.12
278.652	89.12
278.884	84.12
279.115	103.12
279.347	89.12
279.579	94.12
279.81	85.12
280.042	101.12
280.273	93.12
280.505	90.12
280.736	89.12
280.968	74.12
281.199	97.12
281.431	83.12
281.662	84.12
281.894	91.12
282.125	88.12
282.356	124.12
282.588	138.12
282.819	105.12
283.051	78.12
283.282	81.12
283.513	96.12
283.745	92.12
283.976	88.12
284.207	88.12
284.439	90.12
284.67	74.12
284.901	96.12
285.132	76.12
285.364	89.12
285.595	88.12
285.826	86.12
286.057	87.12
286.288	87.12
286.52	88.12
286.751	86.12
286.982	77.12
287.213	91.12
287.444	79.12
287.675	81.12
287.906	89.12
288.138	87.12
288.369	101.12
288.6	83.12
288.831	93.12
289.062	79.12
289.293	93.12
289.524	88.12
289.755	79.12
289.986	81.12
290.217	81.12
290.448	86.12
290.679	88.12
290.91	85.12
291.141	88.12
291.371	93.12
291.602	85.12
291.833	97.12
292.064	82.12
292.295	96.12
292.526	78.12
292.757	82.12
292.987	98.12
293.218	83.12
293.449	93.12
293.68	86.12
293.91	94.12
294.141	96.12
294.372	100.12
294.603	78.12
294.833	88.12
295.064	80.12
295.295	68.12
295.525	97.12
295.756	81.12
295.987	130.12
296.217	140.12
296.448	116.12
296.679	93.12
296.909	87.12
297.14	83.12
297.37	75.12
297.601	90.12
297.831	91.12
298.062	92.12
298.292	83.12
298.523	85.12
298.753	84.12
298.984	91.12
299.214	78.12
299.445	94.12
299.675	93.12
299.905	102.12
300.136	91.12
300.366	80.12
300.597	77.12
300.827	83.12
301.057	91.12
301.288	101.12
301.518	98.12
301.748	91.12
301.979	89.12
302.209	93.12
302.439	105.12
302.669	83.12
302.9	80.12
303.13	87.12
303.36	88.12
303.59	93.12
303.82	101.12
304.051	101.12
304.281	99.12
304.511	85.12
304.741	88.12
304.971	90.12
305.201	93.12
305.431	97.12
305.661	85.12
305.891	88.12
306.121	89.12
306.352	90.12
306.582	112.12
306.812	113.12
307.042	99.12
307.272	82.12
307.502	89.12
307.731	82.12
307.961	87.12
308.191	97.12
308.421	82.12
308.651	97.12
308.881	92.12
309.111	87.12
309.341	103.12
309.571	86.12
309.8	97.12
310.03	85.12
310.26	103.12
310.49	101.12
310.72	89.12
310.949	84.12
311.179	103.12
311.409	99.12
311.639	85.12
311.868	103.12
312.098	109.12
312.328	95.12
312.557	91.12
312.787	101.12
313.017	89.12
313.246	102.12
313.476	108.12
313.706	90.12
313.935	97.12
314.165	99.12
314.394	89.12
314.624	89.12
314.853	91.12
315.083	84.12
315.312	89.12
315.542	84.12
315.771	84.12
316.001	86.12
316.23	98.12
316.46	84.12
316.689	82.12
316.919	92.12
317.148	83.12
317.377	70.12
317.607	90.12
317.836	87.12
318.065	83.12
318.295	90.12
318.524	94.12
318.753	87.12
318.983	100.12
319.212	89.12
319.441	99.12
319.67	99.12
319.9	98.12
320.129	90.12
320.358	98.12
320.587	106.12
320.816	100.12
321.046	124.12
321.275	93.12
321.504	91.12
321.733	109.12
321.962	101.12
322.191	101.12
322.42	109.12
322.649	116.12
322.878	84.12
323.108	118.12
323.337	120.12
323.566	126.12
323.795	138.12
324.024	197.12
324.253	375.12
324.482	810.12
324.71	1672.12
324.939	2140.12
325.168	788.12
325.397	251.12
325.626	143.12
325.855	142.12
326.084	117.12
326.313	124.12
326.542	167.12
326.77	234.12
326.999	425.12
327.228	921.12
327.457	1670.12
327.686	1312.12
327.914	372.12
328.143	192.12
328.372	142.12
328.6	121.12
328.829	117.12
329.058	140.12
329.287	125.12
329.515	107.12
329.744	90.12
329.972	102.12
330.201	116.12
330.43	118.12
330.658	123.12
330.887	146.12
331.115	116.12
331.344	86.12
331.572	105.12
331.801	106.12
332.03	103.12
332.258	99.12
332.486	91.12
332.715	80.12
332.943	93.12
333.172	104.12
333.4	97.12
333.629	102.12
333.857	117.12
334.085	98.12
334.314	107.12
334.542	106.12
334.771	116.12
334.999	104.12
335.227	102.12
335.455	88.12
335.684	84.12
335.912	84.12
336.14	97.12
336.369	95.12
336.597	117.12
336.825	89.12
337.053	83.12
337.281	100.12
337.51	86.12
337.738	85.12
337.966	86.12
338.194	86.12
338.422	81.12
338.65	82.12
338.878	92.12
339.106	97.12
339.334	84.12
339.562	96.12
339.79	90.12
340.018	86.12
340.246	104.12
340.474	96.12
340.702	87.12
340.93	91.12
341.158	93.12
341.386	100.12
341.614	87.12
341.842	91.12
342.07	92.12
342.298	83.12
342.526	89.12
342.754	84.12
342.981	93.12
343.209	86.12
343.437	99.12
343.665	93.12
343.893	83.12
344.12	92.12
344.348	93.12
344.576	91.12
344.804	94.12
345.031	88.12
345.259	89.12
345.487	95.12
345.714	89.12
345.942	103.12
346.17	94.12
346.397	91.12
346.625	83.12
346.853	89.12
347.08	102.12
347.308	104.12
347.535	91.12
347.763	101.12
347.99	89.12
348.218	99.12
348.445	106.12
348.673	97.12
348.9	96.12
349.128	86.12
349.355	75.12
349.583	88.12
349.81	89.12
350.037	99.12
350.265	81.12
350.492	102.12
350.72	90.12
350.947	94.12
351.174	103.12
351.402	113.12
351.629	110.12
351.856	112.12
352.083	117.12
352.311	113.12
352.538	100.12
352.765	97.12
352.992	117.12
353.22	111.12
353.447	94.12
353.674	91.12
353.901	90.12
354.128	96.12
354.355	84.12
354.583	94.12
354.81	85.12
355.037	92.12
355.264	89.12
355.491	107.12
355.718	90.12
355.945	93.12
356.172	84.12
356.399	86.12
356.626	88.12
356.853	71.12
357.08	93.12
357.307	98.12
357.534	90.12
357.761	93.12
357.988	83.12
358.215	101.12
358.441	92.12
358.668	88.12
358.895	97.12
359.122	80.12
359.349	91.12
359.576	83.12
359.802	90.12
360.029	90.12
360.256	99.12
360.483	105.12
360.709	104.12
360.936	91.12
361.163	81.12
361.39	91.12
361.616	88.12
361.843	84.12
362.07	84.12
362.296	84.12
362.523	98.12
362.749	111.12
362.976	76.12
363.203	92.12
363.429	96.12
363.656	97.12
363.882	92.12
364.109	82.12
364.335	76.12
364.562	104.12
364.788	97.12
365.015	93.12
365.241	110.12
365.468	123.12
365.694	105.12
365.92	97.12
366.147	91.12
366.373	75.12
366.599	104.12
366.826	86.12
367.052	75.12
367.278	102.12
367.505	87.12
367.731	82.12
367.957	92.12
368.184	106.12
368.41	90.12
368.636	97.12
368.862	115.12
369.089	108.12
369.315	87.12
369.541	97.12
369.767	100.12
369.993	97.12
370.219	100.12
370.445	91.12
370.672	95.12
370.898	99.12
371.124	88.12
371.35	98.12
371.576	85.12
371.802	80.12
372.028	89.12
372.254	92.12
372.48	82.12
372.706	87.12
372.932	75.12
373.158	92.12
373.384	78.12
373.61	97.12
373.835	78.12
374.061	85.12
374.287	101.12
374.513	91.12
374.739	75.12
374.965	77.12
375.191	82.12
375.416	105.12
375.642	97.12
375.868	92.12
376.094	89.12
376.319	89.12
376.545	76.12
376.771	94.12
376.997	101.12
377.222	98.12
377.448	79.12
377.674	94.12
377.899	86.12
378.125	95.12
378.35	97.12
378.576	88.12
378.802	92.12
379.027	95.12
379.253	95.12
379.478	82.12
379.704	81.12
379.929	86.12
380.155	105.12
380.38	103.12
380.606	92.12
380.831	97.12
381.057	89.12
381.282	96.12
381.507	91.12
381.733	99.12
381.958	98.12
382.184	88.12
382.409	90.12
382.634	89.12
382.86	101.12
383.085	87.12
383.31	118.12
383.535	109.12
383.761	111.12
383.986	97.12
384.211	100.12
384.436	114.12
384.662	96.12
384.887	94.12
385.112	92.12
385.337	100.12
385.562	112.12
385.787	94.12
386.013	109.12
386.238	124.12
386.463	93.12
386.688	94.12
386.913	112.12
387.138	102.12
387.363	106.12
387.588	101.12
387.813	95.12
388.038	117.12
388.263	127.12
388.488	102.12
388.713	88.12
388.938	79.12
389.163	99.12
389.387	109.12
389.612	88.12
389.837	87.12
390.062	94.12
390.287	86.12
390.512	99.12
390.736	92.12
390.961	73.12
391.186	86.12
391.411	106.12
391.636	94.12
391.86	86.12
392.085	90.12
392.31	93.12
392.534	89.12
392.759	85.12
392.984	84.12
393.208	88.12
393.433	82.12
393.658	90.12
393.882	87.12
394.107	88.12
394.331	80.12
394.556	90.12
394.78	88.12
395.005	93.12
395.229	78.12
395.454	86.12
395.678	96.12
395.903	94.12
396.127	83.12
396.352	95.12
396.576	68.12
396.801	89.12
397.025	78.12
397.249	85.12
397.474	83.12
397.698	71.12
397.922	88.12
398.147	83.12
398.371	86.12
398.595	85.12
398.82	87.12
399.044	84.12
399.268	92.12
399.492	82.12
399.717	91.12
399.941	86.12
400.165	99.12
400.389	87.12
400.613	81.12
400.837	96.12
401.062	83.12
401.286	84.12
401.51	88.12
401.734	92.12
401.958	99.12
402.182	124.12
402.406	164.12
402.63	123.12
402.854	86.12
403.078	86.12
403.302	100.12
403.526	83.12
403.75	84.12
403.974	77.12
404.198	86.12
404.422	74.12
404.645	82.12
404.869	84.12
405.093	103.12
405.317	103.12
405.541	107.12
405.765	121.12
405.988	134.12
406.212	170.12
406.436	230.12
406.66	172.12
406.883	92.12
407.107	87.12
407.331	89.12
407.555	100.12
407.778	108.12
408.002	90.12
408.226	87.12
408.449	84.12
408.673	89.12
408.896	91.12
409.12	93.12
409.344	83.12
409.567	83.12
409.791	89.12
410.014	84.12
410.238	89.12
410.461	94.12
410.685	92.12
410.908	82.12
411.132	108.12
411.355	100.12
411.578	91.12
411.802	90.12
412.025	96.12
412.249	92.12
412.472	89.12
412.695	94.12
412.919	103.12
413.142	88.12
413.365	76.12
413.589	91.12
413.812	98.12
414.035	90.12
414.258	86.12
414.482	84.12
414.705	100.12
414.928	97.12
415.151	87.12
415.374	88.12
415.597	93.12
415.821	92.12
416.044	93.12
416.267	91.12
416.49	87.12
416.713	96.12
416.936	77.12
417.159	89.12
417.382	85.12
417.605	104.12
417.828	76.12
418.051	85.12
418.274	68.12
418.497	90.12
418.72	84.12
418.943	89.12
419.166	84.12
419.389	83.12
419.611	71.12
419.834	76.12
420.057	96.12
420.28	91.12
420.503	82.12
420.726	84.12
420.948	83.12
421.171	98.12
421.394	88.12
421.617	80.12
421.839	87.12
422.062	86.12
422.285	85.12
422.507	92.12
422.73	100.12
422.953	80.12
423.175	75.12
423.398	82.12
423.621	90.12
423.843	87.12
424.066	80.12
424.288	91.12
424.511	100.12
424.733	89.12
424.956	104.12
425.178	106.12
425.401	93.12
425.623	82.12
425.846	85.12
426.068	98.12
426.291	91.12
426.513	90.12
426.735	87.12
426.958	86.12
427.18	98.12
427.402	121.12
427.625	161.12
427.847	125.12
428.069	105.12
428.292	98.12
428.514	85.12
428.736	85.12
428.958	84.12
429.181	77.12
429.403	96.12
429.625	86.12
429.847	89.12
430.069	90.12
430.292	74.12
430.514	74.12
430.736	92.12
430.958	98.12
431.18	86.12
431.402	82.12
431.624	84.12
431.846	87.12
432.068	78.12
432.29	77.12
432.512	95.12
432.734	88.12
432.956	97.12
433.178	82.12
433.4	97.12
433.622	86.12
433.844	92.12
434.066	84.12
434.287	104.12
434.509	91.12
434.731	75.12
434.953	91.12
435.175	86.12
435.397	87.12
435.618	77.12
435.84	100.12
436.062	120.12
436.284	109.12
436.505	99.12
436.727	118.12
436.949	88.12
437.17	79.12
437.392	87.12
437.614	87.12
437.835	116.12
438.057	109.12
438.278	111.12
438.5	86.12
438.721	120.12
438.943	106.12
439.165	92.12
439.386	102.12
439.608	93.12
439.829	111.12
440.05	128.12
440.272	132.12
440.493	104.12
440.715	69.12
440.936	77.12
441.158	86.12
441.379	81.12
441.6	83.12
441.822	83.12
442.043	91.12
442.264	94.12
442.486	104.12
442.707	73.12
442.928	108.12
443.149	128.12
443.371	145.12
443.592	94.12
443.813	108.12
444.034	112.12
444.255	93.12
444.476	76.12
444.698	76.12
444.919	97.12
445.14	134.12
445.361	124.12
445.582	121.12
445.803	133.12
446.024	112.12
446.245	138.12
446.466	119.12
446.687	87.12
446.908	91.12
447.129	92.12
447.35	90.12
447.571	93.12
447.792	96.12
448.013	91.12
448.234	113.12
448.455	91.12
448.675	105.12
448.896	121.12
449.117	98.12
449.338	95.12
449.559	122.12
449.779	130.12
450	103.12
450.221	80.12
450.442	99.12
450.662	103.12
450.883	99.12
451.104	104.12
451.324	85.12
451.545	93.12
451.766	96.12
451.986	84.12
452.207	105.12
452.428	95.12
452.648	88.12
452.869	110.12
453.089	118.12
453.31	125.12
453.53	97.12
453.751	86.12
453.971	94.12
454.192	106.12
454.412	107.12
454.633	92.12
454.853	84.12
455.073	83.12
455.294	88.12
455.514	92.12
455.734	95.12
455.955	70.12
456.175	82.12
456.395	78.12
456.616	78.12
456.836	94.12
457.056	91.12
457.276	65.12
457.497	78.12
457.717	84.12
457.937	78.12
458.157	78.12
458.377	94.12
458.598	97.12
458.818	155.12
459.038	167.12
459.258	124.12
459.478	85.12
459.698	80.12
459.918	84.12
460.138	89.12
460.358	66.12
460.578	84.12
460.798	95.12
461.018	70.12
461.238	96.12
461.458	82.12
461.678	89.12
461.898	87.12
462.118	79.12
462.338	76.12
462.558	93.12
462.777	89.12
462.997	75.12
463.217	78.12
463.437	84.12
463.657	88.12
463.876	92.12
464.096	92.12
464.316	88.12
464.536	92.12
464.755	101.12
464.975	91.12
465.195	171.12
465.414	172.12
465.634	93.12
465.854	81.12
466.073	90.12
466.293	90.12
466.512	84.12
466.732	80.12
466.951	90.12
467.171	89.12
467.391	93.12
467.61	97.12
467.829	84.12
468.049	84.12
468.268	90.12
468.488	73.12
468.707	90.12
468.927	67.12
469.146	82.12
469.365	92.12
469.585	88.12
469.804	85.12
470.023	98.12
470.243	95.12
470.462	97.12
470.681	119.12
470.901	95.12
471.12	80.12
471.339	86.12
471.558	96.12
471.777	82.12
471.997	69.12
472.216	106.12
472.435	124.12
472.654	89.12
472.873	89.12
473.092	84.12
473.311	82.12
473.53	84.12
473.749	90.12
473.968	113.12
474.187	98.12
474.406	93.12
474.625	82.12
474.844	96.12
475.063	82.12
475.282	88.12
475.501	97.12
475.72	97.12
475.939	82.12
476.158	85.12
476.377	86.12
476.596	99.12
476.814	96.12
477.033	76.12
477.252	81.12
477.471	95.12
477.69	91.12
477.908	86.12
478.127	92.12
478.346	80.12
478.564	97.12
478.783	102.12
479.002	89.12
479.22	91.12
479.439	111.12
479.658	101.12
479.876	95.12
480.095	80.12
480.313	78.12
480.532	81.12
480.751	101.12
480.969	104.12
481.188	133.12
481.406	119.12
481.624	77.12
481.843	82.12
482.061	95.12
482.28	78.12
482.498	92.12
482.717	74.12
482.935	77.12
483.153	86.12
483.372	89.12
483.59	84.12
483.808	80.12
484.027	102.12
484.245	104.12
484.463	91.12
484.681	84.12
484.9	80.12
485.118	87.12
485.336	100.12
485.554	92.12
485.772	83.12
485.99	99.12
486.209	84.12
486.427	98.12
486.645	113.12
486.863	112.12
487.081	98.12
487.299	103.12
487.517	100.12
487.735	88.12
487.953	86.12
488.171	86.12
488.389	98.12
488.607	103.12
488.825	92.12
489.043	103.12
489.261	86.12
489.479	89.12
489.696	86.12
489.914	89.12
490.132	91.12
490.35	83.12
490.568	82.12
490.786	89.12
491.003	93.12
491.221	87.12
491.439	109.12
491.657	89.12
491.874	83.12
492.092	93.12
492.31	86.12
492.527	85.12
492.745	92.12
492.963	102.12
493.18	86.12
493.398	93.12
493.615	98.12
493.833	84.12
494.05	90.12
494.268	90.12
494.485	97.12
494.703	82.12
494.92	84.12
495.138	77.12
495.355	78.12
495.573	95.12
495.79	78.12
496.008	91.12
496.225	102.12
496.442	97.12
496.66	99.12
496.877	88.12
497.094	81.12
497.312	95.12
497.529	93.12
497.746	91.12
497.963	90.12
498.181	94.12
498.398	83.12
498.615	114.12
498.832	112.12
499.049	92.12
499.267	93.12
499.484	87.12
499.701	81.12
499.918	91.12
500.135	85.12
500.352	92.12
500.569	90.12
500.786	89.12
501.003	86.12
501.22	91.12
501.437	82.12
501.654	103.12
501.871	116.12
502.088	104.12
502.305	94.12
502.522	88.12
502.739	104.12
502.956	96.12
503.172	80.12
503.389	96.12
503.606	94.12
503.823	93.12
504.04	84.12
504.256	116.12
504.473	89.12
504.69	84.12
504.907	81.12
505.123	86.12
505.34	93.12
505.557	105.12
505.773	89.12
505.99	86.12
506.207	88.12
506.423	86.12
506.64	84.12
506.856	92.12
507.073	73.12
507.289	84.12
507.506	105.12
507.722	112.12
507.939	104.12
508.155	98.12
508.372	103.12
508.588	77.12
508.805	92.12
509.021	84.12
509.238	99.12
509.454	92.12
509.67	104.12
509.887	109.12
510.103	124.12
510.319	232.12
510.536	813.12
510.752	2740.12
510.968	764.12
511.184	170.12
511.401	119.12
511.617	100.12
511.833	91.12
512.049	81.12
512.265	97.12
512.481	81.12
512.698	84.12
512.914	107.12
513.13	94.12
513.346	90.12
513.562	88.12
513.778	113.12
513.994	106.12
514.21	100.12
514.426	103.12
514.642	134.12
514.858	128.12
515.074	176.12
515.29	504.12
515.506	1713.12
515.721	658.12
515.937	159.12
516.153	115.12
