Data from Circ_2014_H10_HRD10591_00092.txt Node
Date: Wed Jan 03 10:02:27 EST 2024
User: Yrep
Spectrometer: HR+D1059
Trigger mode: 1
Integration Time (sec): 1.000000E-1
Scans to average: 1
Electric dark correction enabled: true
Nonlinearity correction enabled: false
Boxcar width: 0
XAxis mode: Wavelengths
Number of Pixels in Spectrum: 2048
>>>>>Begin Spectral Data<<<<<
223.165	-4.56
223.4	-4.56
223.635	-4.56
223.869	-13.56
224.104	-28.56
224.338	-13.56
224.573	-17.56
224.808	-7.56
225.042	-2.56
225.277	-2.56
225.511	-4.56
225.746	6.44
225.98	3.44
226.215	2.44
226.449	8.44
226.683	11.44
226.918	37.44
227.152	25.44
227.387	30.44
227.621	37.44
227.856	33.44
228.09	46.44
228.324	34.44
228.559	62.44
228.793	54.44
229.027	50.44
229.262	75.44
229.496	70.44
229.73	81.44
229.964	85.44
230.199	86.44
230.433	83.44
230.667	58.44
230.901	75.44
231.136	69.44
231.37	76.44
231.604	69.44
231.838	75.44
232.072	73.44
232.306	74.44
232.541	82.44
232.775	91.44
233.009	82.44
233.243	84.44
233.477	64.44
233.711	70.44
233.945	72.44
234.179	78.44
234.413	85.44
234.647	54.44
234.881	93.44
235.115	82.44
235.349	82.44
235.583	79.44
235.817	87.44
236.051	88.44
236.285	89.44
236.519	72.44
236.753	79.44
236.987	76.44
237.221	95.44
237.455	90.44
237.689	76.44
237.922	63.44
238.156	66.44
238.39	88.44
238.624	76.44
238.858	72.44
239.091	83.44
239.325	89.44
239.559	76.44
239.793	74.44
240.027	72.44
240.26	84.44
240.494	76.44
240.728	79.44
240.961	62.44
241.195	98.44
241.429	72.44
241.662	79.44
241.896	78.44
242.13	71.44
242.363	80.44
242.597	85.44
242.83	70.44
243.064	89.44
243.298	69.44
243.531	90.44
243.765	76.44
243.998	81.44
244.232	68.44
244.465	73.44
244.699	73.44
244.932	92.44
245.166	82.44
245.399	75.44
245.633	90.44
245.866	84.44
246.099	69.44
246.333	79.44
246.566	81.44
246.8	79.44
247.033	84.44
247.266	91.44
247.5	74.44
247.733	83.44
247.966	84.44
248.2	82.44
248.433	76.44
248.666	76.44
248.899	81.44
249.133	85.44
249.366	93.44
249.599	103.44
249.832	80.44
250.066	89.44
250.299	91.44
250.532	88.44
250.765	76.44
250.998	69.44
251.231	78.44
251.465	84.44
251.698	87.44
251.931	67.44
252.164	73.44
252.397	76.44
252.63	78.44
252.863	95.44
253.096	75.44
253.329	92.44
253.562	77.44
253.795	80.44
254.028	72.44
254.261	86.44
254.494	82.44
254.727	83.44
254.96	78.44
255.193	72.44
255.426	79.44
255.659	63.44
255.892	81.44
256.124	80.44
256.357	85.44
256.59	79.44
256.823	97.44
257.056	73.44
257.289	77.44
257.521	80.44
257.754	98.44
257.987	69.44
258.22	92.44
258.452	80.44
258.685	86.44
258.918	87.44
259.151	85.44
259.383	65.44
259.616	80.44
259.849	76.44
260.081	83.44
260.314	85.44
260.547	77.44
260.779	81.44
261.012	89.44
261.244	76.44
261.477	92.44
261.71	100.44
261.942	111.44
262.175	112.44
262.407	96.44
262.64	79.44
262.872	81.44
263.105	86.44
263.337	76.44
263.57	79.44
263.802	81.44
264.035	81.44
264.267	83.44
264.499	80.44
264.732	99.44
264.964	70.44
265.197	88.44
265.429	76.44
265.661	80.44
265.894	69.44
266.126	91.44
266.358	93.44
266.591	82.44
266.823	84.44
267.055	76.44
267.287	81.44
267.52	97.44
267.752	84.44
267.984	69.44
268.216	80.44
268.448	67.44
268.681	71.44
268.913	80.44
269.145	83.44
269.377	70.44
269.609	80.44
269.841	65.44
270.073	79.44
270.306	87.44
270.538	94.44
270.77	72.44
271.002	79.44
271.234	81.44
271.466	83.44
271.698	83.44
271.93	82.44
272.162	86.44
272.394	78.44
272.626	77.44
272.858	68.44
273.09	84.44
273.322	81.44
273.553	88.44
273.785	86.44
274.017	81.44
274.249	79.44
274.481	76.44
274.713	73.44
274.945	80.44
275.176	68.44
275.408	84.44
275.64	87.44
275.872	82.44
276.104	86.44
276.335	90.44
276.567	97.44
276.799	115.44
277.031	115.44
277.262	98.44
277.494	87.44
277.726	89.44
277.957	74.44
278.189	74.44
278.421	89.44
278.652	84.44
278.884	67.44
279.115	80.44
279.347	89.44
279.579	96.44
279.81	90.44
280.042	96.44
280.273	104.44
280.505	83.44
280.736	89.44
280.968	100.44
281.199	90.44
281.431	80.44
281.662	90.44
281.894	68.44
282.125	101.44
282.356	112.44
282.588	138.44
282.819	118.44
283.051	86.44
283.282	89.44
283.513	94.44
283.745	96.44
283.976	79.44
284.207	90.44
284.439	91.44
284.67	95.44
284.901	89.44
285.132	77.44
285.364	88.44
285.595	88.44
285.826	87.44
286.057	76.44
286.288	89.44
286.52	82.44
286.751	88.44
286.982	83.44
287.213	87.44
287.444	84.44
287.675	92.44
287.906	86.44
288.138	78.44
288.369	87.44
288.6	91.44
288.831	84.44
289.062	87.44
289.293	79.44
289.524	86.44
289.755	81.44
289.986	80.44
290.217	78.44
290.448	81.44
290.679	86.44
290.91	91.44
291.141	78.44
291.371	83.44
291.602	76.44
291.833	88.44
292.064	83.44
292.295	76.44
292.526	87.44
292.757	89.44
292.987	84.44
293.218	73.44
293.449	87.44
293.68	78.44
293.91	68.44
294.141	84.44
294.372	78.44
294.603	89.44
294.833	73.44
295.064	90.44
295.295	91.44
295.525	88.44
295.756	97.44
295.987	105.44
296.217	147.44
296.448	130.44
296.679	98.44
296.909	98.44
297.14	95.44
297.37	86.44
297.601	90.44
297.831	99.44
298.062	81.44
298.292	89.44
298.523	92.44
298.753	90.44
298.984	102.44
299.214	74.44
299.445	92.44
299.675	86.44
299.905	94.44
300.136	89.44
300.366	82.44
300.597	82.44
300.827	87.44
301.057	91.44
301.288	99.44
301.518	96.44
301.748	93.44
301.979	89.44
302.209	94.44
302.439	95.44
302.669	92.44
302.9	76.44
303.13	86.44
303.36	84.44
303.59	103.44
303.82	130.44
304.051	86.44
304.281	91.44
304.511	92.44
304.741	71.44
304.971	70.44
305.201	91.44
305.431	95.44
305.661	95.44
305.891	91.44
306.121	99.44
306.352	93.44
306.582	90.44
306.812	85.44
307.042	72.44
307.272	95.44
307.502	116.44
307.731	113.44
307.961	92.44
308.191	98.44
308.421	96.44
308.651	90.44
308.881	86.44
309.111	98.44
309.341	90.44
309.571	72.44
309.8	90.44
310.03	79.44
310.26	92.44
310.49	72.44
310.72	83.44
310.949	95.44
311.179	92.44
311.409	94.44
311.639	77.44
311.868	87.44
312.098	102.44
312.328	102.44
312.557	97.44
312.787	114.44
313.017	93.44
313.246	86.44
313.476	87.44
313.706	83.44
313.935	94.44
314.165	98.44
314.394	98.44
314.624	76.44
314.853	82.44
315.083	76.44
315.312	86.44
315.542	86.44
315.771	91.44
316.001	97.44
316.23	74.44
316.46	81.44
316.689	95.44
316.919	91.44
317.148	107.44
317.377	84.44
317.607	89.44
317.836	77.44
318.065	92.44
318.295	94.44
318.524	79.44
318.753	83.44
318.983	87.44
319.212	103.44
319.441	99.44
319.67	108.44
319.9	107.44
320.129	83.44
320.358	90.44
320.587	104.44
320.816	93.44
321.046	88.44
321.275	99.44
321.504	87.44
321.733	104.44
321.962	89.44
322.191	107.44
322.42	102.44
322.649	104.44
322.878	106.44
323.108	131.44
323.337	112.44
323.566	118.44
323.795	151.44
324.024	213.44
324.253	398.44
324.482	834.44
324.71	1697.44
324.939	2249.44
325.168	851.44
325.397	251.44
325.626	139.44
325.855	136.44
326.084	112.44
326.313	134.44
326.542	149.44
326.77	219.44
326.999	450.44
327.228	908.44
327.457	1683.44
327.686	1346.44
327.914	386.44
328.143	240.44
328.372	196.44
328.6	144.44
328.829	140.44
329.058	125.44
329.287	156.44
329.515	120.44
329.744	101.44
329.972	148.44
330.201	193.44
330.43	279.44
330.658	185.44
330.887	154.44
331.115	116.44
331.344	94.44
331.572	105.44
331.801	93.44
332.03	101.44
332.258	97.44
332.486	88.44
332.715	97.44
332.943	96.44
333.172	93.44
333.4	105.44
333.629	111.44
333.857	101.44
334.085	125.44
334.314	209.44
334.542	329.44
334.771	315.44
334.999	144.44
335.227	102.44
335.455	85.44
335.684	90.44
335.912	93.44
336.14	100.44
336.369	96.44
336.597	91.44
336.825	96.44
337.053	91.44
337.281	94.44
337.51	80.44
337.738	87.44
337.966	91.44
338.194	93.44
338.422	96.44
338.65	91.44
338.878	79.44
339.106	95.44
339.334	86.44
339.562	87.44
339.79	96.44
340.018	71.44
340.246	90.44
340.474	94.44
340.702	86.44
340.93	83.44
341.158	89.44
341.386	82.44
341.614	89.44
341.842	88.44
342.07	85.44
342.298	83.44
342.526	91.44
342.754	83.44
342.981	75.44
343.209	72.44
343.437	98.44
343.665	90.44
343.893	91.44
344.12	89.44
344.348	82.44
344.576	82.44
344.804	85.44
345.031	90.44
345.259	112.44
345.487	110.44
345.714	98.44
345.942	85.44
346.17	77.44
346.397	89.44
346.625	85.44
346.853	79.44
347.08	89.44
347.308	99.44
347.535	103.44
347.763	92.44
347.99	93.44
348.218	118.44
348.445	105.44
348.673	95.44
348.9	95.44
349.128	81.44
349.355	80.44
349.583	88.44
349.81	82.44
350.037	89.44
350.265	91.44
350.492	89.44
350.72	100.44
350.947	91.44
351.174	91.44
351.402	101.44
351.629	83.44
351.856	89.44
352.083	93.44
352.311	94.44
352.538	116.44
352.765	96.44
352.992	102.44
353.22	105.44
353.447	106.44
353.674	87.44
353.901	101.44
354.128	80.44
354.355	94.44
354.583	81.44
354.81	101.44
355.037	89.44
355.264	93.44
355.491	95.44
355.718	91.44
355.945	99.44
356.172	80.44
356.399	83.44
356.626	88.44
356.853	85.44
357.08	82.44
357.307	86.44
357.534	83.44
357.761	86.44
357.988	78.44
358.215	88.44
358.441	87.44
358.668	98.44
358.895	88.44
359.122	80.44
359.349	89.44
359.576	89.44
359.802	95.44
360.029	117.44
360.256	116.44
360.483	96.44
360.709	80.44
360.936	83.44
361.163	83.44
361.39	96.44
361.616	97.44
361.843	94.44
362.07	98.44
362.296	100.44
362.523	93.44
362.749	77.44
362.976	106.44
363.203	76.44
363.429	73.44
363.656	74.44
363.882	83.44
364.109	84.44
364.335	86.44
364.562	85.44
364.788	85.44
365.015	89.44
365.241	109.44
365.468	118.44
365.694	95.44
365.92	86.44
366.147	100.44
366.373	84.44
366.599	79.44
366.826	90.44
367.052	82.44
367.278	86.44
367.505	91.44
367.731	88.44
367.957	94.44
368.184	82.44
368.41	106.44
368.636	98.44
368.862	120.44
369.089	103.44
369.315	96.44
369.541	90.44
369.767	88.44
369.993	101.44
370.219	82.44
370.445	91.44
370.672	88.44
370.898	82.44
371.124	89.44
371.35	84.44
371.576	78.44
371.802	91.44
372.028	82.44
372.254	88.44
372.48	92.44
372.706	95.44
372.932	90.44
373.158	87.44
373.384	89.44
373.61	80.44
373.835	90.44
374.061	86.44
374.287	83.44
374.513	88.44
374.739	80.44
374.965	89.44
375.191	72.44
375.416	95.44
375.642	86.44
375.868	89.44
376.094	100.44
376.319	76.44
376.545	84.44
376.771	89.44
376.997	73.44
377.222	89.44
377.448	85.44
377.674	84.44
377.899	81.44
378.125	75.44
378.35	87.44
378.576	97.44
378.802	97.44
379.027	93.44
379.253	83.44
379.478	90.44
379.704	92.44
379.929	91.44
380.155	91.44
380.38	91.44
380.606	84.44
380.831	84.44
381.057	103.44
381.282	93.44
381.507	90.44
381.733	100.44
381.958	94.44
382.184	100.44
382.409	103.44
382.634	86.44
382.86	94.44
383.085	93.44
383.31	101.44
383.535	114.44
383.761	112.44
383.986	101.44
384.211	80.44
384.436	91.44
384.662	92.44
384.887	91.44
385.112	85.44
385.337	103.44
385.562	107.44
385.787	89.44
386.013	87.44
386.238	104.44
386.463	98.44
386.688	95.44
386.913	99.44
387.138	110.44
387.363	84.44
387.588	100.44
387.813	93.44
388.038	110.44
388.263	113.44
388.488	90.44
388.713	92.44
388.938	94.44
389.163	100.44
389.387	96.44
389.612	96.44
389.837	91.44
390.062	98.44
390.287	83.44
390.512	82.44
390.736	99.44
390.961	86.44
391.186	86.44
391.411	91.44
391.636	94.44
391.86	81.44
392.085	94.44
392.31	74.44
392.534	80.44
392.759	89.44
392.984	81.44
393.208	99.44
393.433	97.44
393.658	79.44
393.882	84.44
394.107	72.44
394.331	81.44
394.556	70.44
394.78	82.44
395.005	87.44
395.229	74.44
395.454	87.44
395.678	82.44
395.903	93.44
396.127	75.44
396.352	90.44
396.576	73.44
396.801	75.44
397.025	62.44
397.249	86.44
397.474	79.44
397.698	90.44
397.922	102.44
398.147	88.44
398.371	81.44
398.595	82.44
398.82	88.44
399.044	80.44
399.268	76.44
399.492	88.44
399.717	79.44
399.941	73.44
400.165	78.44
400.389	88.44
400.613	90.44
400.837	92.44
401.062	82.44
401.286	90.44
401.51	72.44
401.734	97.44
401.958	89.44
402.182	116.44
402.406	158.44
402.63	126.44
402.854	86.44
403.078	92.44
403.302	91.44
403.526	92.44
403.75	89.44
403.974	85.44
404.198	94.44
404.422	88.44
404.645	85.44
404.869	84.44
405.093	89.44
405.317	94.44
405.541	110.44
405.765	98.44
405.988	135.44
406.212	170.44
406.436	245.44
406.66	155.44
406.883	107.44
407.107	109.44
407.331	86.44
407.555	100.44
407.778	98.44
408.002	89.44
408.226	80.44
408.449	90.44
408.673	82.44
408.896	85.44
409.12	82.44
409.344	83.44
409.567	76.44
409.791	81.44
410.014	104.44
410.238	93.44
410.461	86.44
410.685	81.44
410.908	97.44
411.132	109.44
411.355	93.44
411.578	93.44
411.802	69.44
412.025	82.44
412.249	75.44
412.472	96.44
412.695	99.44
412.919	86.44
413.142	80.44
413.365	85.44
413.589	80.44
413.812	84.44
414.035	80.44
414.258	77.44
414.482	98.44
414.705	72.44
414.928	88.44
415.151	84.44
415.374	88.44
415.597	76.44
415.821	76.44
416.044	85.44
416.267	86.44
416.49	79.44
416.713	99.44
416.936	91.44
417.159	92.44
417.382	82.44
417.605	82.44
417.828	81.44
418.051	88.44
418.274	83.44
418.497	92.44
418.72	84.44
418.943	80.44
419.166	82.44
419.389	76.44
419.611	79.44
419.834	73.44
420.057	82.44
420.28	79.44
420.503	83.44
420.726	67.44
420.948	90.44
421.171	85.44
421.394	97.44
421.617	75.44
421.839	77.44
422.062	89.44
422.285	91.44
422.507	83.44
422.73	88.44
422.953	78.44
423.175	80.44
423.398	80.44
423.621	79.44
423.843	77.44
424.066	76.44
424.288	96.44
424.511	84.44
424.733	88.44
424.956	110.44
425.178	88.44
425.401	90.44
425.623	98.44
425.846	89.44
426.068	86.44
426.291	88.44
426.513	82.44
426.735	88.44
426.958	91.44
427.18	114.44
427.402	120.44
427.625	174.44
427.847	154.44
428.069	144.44
428.292	89.44
428.514	101.44
428.736	80.44
428.958	86.44
429.181	97.44
429.403	84.44
429.625	82.44
429.847	94.44
430.069	100.44
430.292	95.44
430.514	79.44
430.736	90.44
430.958	85.44
431.18	69.44
431.402	75.44
431.624	84.44
431.846	81.44
432.068	85.44
432.29	82.44
432.512	90.44
432.734	80.44
432.956	99.44
433.178	77.44
433.4	100.44
433.622	99.44
433.844	102.44
434.066	81.44
434.287	92.44
434.509	75.44
434.731	87.44
434.953	99.44
435.175	102.44
435.397	84.44
435.618	75.44
435.84	100.44
436.062	107.44
436.284	116.44
436.505	102.44
436.727	97.44
436.949	106.44
437.17	89.44
437.392	81.44
437.614	93.44
437.835	115.44
438.057	123.44
438.278	112.44
438.5	96.44
438.721	107.44
438.943	102.44
439.165	75.44
439.386	92.44
439.608	84.44
439.829	98.44
440.05	126.44
440.272	128.44
440.493	115.44
440.715	90.44
440.936	86.44
441.158	88.44
441.379	97.44
441.6	87.44
441.822	99.44
442.043	98.44
442.264	89.44
442.486	89.44
442.707	91.44
442.928	98.44
443.149	122.44
443.371	134.44
443.592	98.44
443.813	115.44
444.034	95.44
444.255	95.44
444.476	73.44
444.698	95.44
444.919	84.44
445.14	124.44
445.361	118.44
445.582	111.44
445.803	144.44
446.024	138.44
446.245	136.44
446.466	99.44
446.687	94.44
446.908	97.44
447.129	90.44
447.35	74.44
447.571	90.44
447.792	85.44
448.013	96.44
448.234	102.44
448.455	103.44
448.675	109.44
448.896	105.44
449.117	87.44
449.338	90.44
449.559	119.44
449.779	119.44
450	99.44
450.221	82.44
450.442	87.44
450.662	97.44
450.883	126.44
451.104	106.44
451.324	92.44
451.545	75.44
451.766	86.44
451.986	62.44
452.207	84.44
452.428	83.44
452.648	91.44
452.869	110.44
453.089	99.44
453.31	109.44
453.53	92.44
453.751	84.44
453.971	94.44
454.192	104.44
454.412	89.44
454.633	75.44
454.853	75.44
455.073	105.44
455.294	82.44
455.514	122.44
455.734	82.44
455.955	63.44
456.175	63.44
456.395	83.44
456.616	68.44
456.836	86.44
457.056	87.44
457.276	68.44
457.497	79.44
457.717	84.44
457.937	85.44
458.157	79.44
458.377	80.44
458.598	101.44
458.818	146.44
459.038	166.44
459.258	122.44
459.478	85.44
459.698	81.44
459.918	82.44
460.138	66.44
460.358	101.44
460.578	99.44
460.798	92.44
461.018	87.44
461.238	78.44
461.458	74.44
461.678	55.44
461.898	86.44
462.118	74.44
462.338	75.44
462.558	75.44
462.777	90.44
462.997	94.44
463.217	82.44
463.437	76.44
463.657	68.44
463.876	96.44
464.096	83.44
464.316	82.44
464.536	90.44
464.755	91.44
464.975	101.44
465.195	177.44
465.414	167.44
465.634	99.44
465.854	98.44
466.073	87.44
466.293	89.44
466.512	94.44
466.732	81.44
466.951	78.44
467.171	87.44
467.391	87.44
467.61	108.44
467.829	98.44
468.049	137.44
468.268	178.44
468.488	101.44
468.707	89.44
468.927	72.44
469.146	82.44
469.365	87.44
469.585	83.44
469.804	85.44
470.023	95.44
470.243	97.44
470.462	80.44
470.681	98.44
470.901	89.44
471.12	81.44
471.339	84.44
471.558	94.44
471.777	98.44
471.997	119.44
472.216	220.44
472.435	421.44
472.654	164.44
472.873	99.44
473.092	97.44
473.311	87.44
473.53	90.44
473.749	81.44
473.968	94.44
474.187	90.44
474.406	97.44
474.625	83.44
474.844	86.44
475.063	85.44
475.282	95.44
475.501	82.44
475.72	90.44
475.939	81.44
476.158	73.44
476.377	81.44
476.596	75.44
476.814	100.44
477.033	87.44
477.252	100.44
477.471	87.44
477.69	81.44
477.908	73.44
478.127	76.44
478.346	76.44
478.564	94.44
478.783	92.44
479.002	92.44
479.22	87.44
479.439	95.44
479.658	96.44
479.876	91.44
480.095	72.44
480.313	70.44
480.532	82.44
480.751	102.44
480.969	227.44
481.188	710.44
481.406	457.44
481.624	128.44
481.843	75.44
482.061	77.44
482.28	87.44
482.498	91.44
482.717	83.44
482.935	72.44
483.153	98.44
483.372	95.44
483.59	83.44
483.808	77.44
484.027	90.44
484.245	94.44
484.463	83.44
484.681	83.44
484.9	95.44
485.118	95.44
485.336	81.44
485.554	87.44
485.772	85.44
485.99	85.44
486.209	98.44
486.427	85.44
486.645	106.44
486.863	91.44
487.081	98.44
487.299	94.44
487.517	93.44
487.735	85.44
487.953	86.44
488.171	99.44
488.389	105.44
488.607	92.44
488.825	80.44
489.043	86.44
489.261	78.44
489.479	82.44
489.696	82.44
489.914	82.44
490.132	75.44
490.35	90.44
490.568	91.44
490.786	94.44
491.003	75.44
491.221	102.44
491.439	91.44
491.657	89.44
491.874	83.44
492.092	91.44
492.31	79.44
492.527	74.44
492.745	93.44
492.963	84.44
493.18	92.44
493.398	84.44
493.615	90.44
493.833	76.44
494.05	89.44
494.268	80.44
494.485	83.44
494.703	95.44
494.92	89.44
495.138	89.44
495.355	78.44
495.573	81.44
495.79	80.44
496.008	92.44
496.225	83.44
496.442	92.44
496.66	89.44
496.877	82.44
497.094	86.44
497.312	87.44
497.529	92.44
497.746	80.44
497.963	79.44
498.181	84.44
498.398	92.44
498.615	131.44
498.832	99.44
499.049	83.44
499.267	92.44
499.484	81.44
499.701	93.44
499.918	83.44
500.135	89.44
500.352	78.44
500.569	88.44
500.786	80.44
501.003	87.44
501.22	79.44
501.437	85.44
501.654	85.44
501.871	109.44
502.088	97.44
502.305	73.44
502.522	82.44
502.739	82.44
502.956	81.44
503.172	81.44
503.389	102.44
503.606	110.44
503.823	86.44
504.04	96.44
504.256	85.44
504.473	99.44
504.69	82.44
504.907	97.44
505.123	97.44
505.34	97.44
505.557	93.44
505.773	81.44
505.99	81.44
506.207	87.44
506.423	98.44
506.64	87.44
506.856	95.44
507.073	90.44
507.289	86.44
507.506	96.44
507.722	111.44
507.939	119.44
508.155	97.44
508.372	80.44
508.588	85.44
508.805	87.44
509.021	80.44
509.238	91.44
509.454	86.44
509.67	111.44
509.887	107.44
510.103	138.44
510.319	208.44
510.536	762.44
510.752	2612.44
510.968	746.44
511.184	161.44
511.401	119.44
511.617	95.44
511.833	85.44
512.049	87.44
512.265	105.44
512.481	90.44
512.698	92.44
512.914	84.44
513.13	103.44
513.346	82.44
513.562	99.44
513.778	89.44
513.994	87.44
514.21	103.44
514.426	112.44
514.642	147.44
514.858	107.44
515.074	160.44
515.29	489.44
515.506	1788.44
515.721	647.44
515.937	168.44
516.153	122.44
516.369	99.44
516.585	86.44
516.801	106.44
