Data from Circ_2014_H10_HRD10591_00069.txt Node
Date: Wed Jan 03 10:02:23 EST 2024
User: Yrep
Spectrometer: HR+D1059
Trigger mode: 1
Integration Time (sec): 1.000000E-1
Scans to average: 1
Electric dark correction enabled: true
Nonlinearity correction enabled: false
Boxcar width: 0
XAxis mode: Wavelengths
Number of Pixels in Spectrum: 2048
>>>>>Begin Spectral Data<<<<<
223.165	-9.62
223.4	-9.62
223.635	-9.62
223.869	-15.62
224.104	-13.62
224.338	-18.62
224.573	-22.62
224.808	-18.62
225.042	-3.62
225.277	-21.62
225.511	-6.62
225.746	-3.62
225.98	5.38
226.215	17.38
226.449	26.38
226.683	19.38
226.918	43.38
227.152	22.38
227.387	35.38
227.621	32.38
227.856	35.38
228.09	47.38
228.324	60.38
228.559	47.38
228.793	55.38
229.027	74.38
229.262	53.38
229.496	72.38
229.73	76.38
229.964	74.38
230.199	68.38
230.433	70.38
230.667	68.38
230.901	72.38
231.136	63.38
231.37	74.38
231.604	70.38
231.838	76.38
232.072	77.38
232.306	83.38
232.541	79.38
232.775	75.38
233.009	84.38
233.243	58.38
233.477	73.38
233.711	84.38
233.945	76.38
234.179	80.38
234.413	87.38
234.647	87.38
234.881	81.38
235.115	80.38
235.349	76.38
235.583	85.38
235.817	83.38
236.051	63.38
236.285	87.38
236.519	80.38
236.753	85.38
236.987	84.38
237.221	79.38
237.455	83.38
237.689	83.38
237.922	88.38
238.156	64.38
238.39	63.38
238.624	66.38
238.858	81.38
239.091	86.38
239.325	85.38
239.559	69.38
239.793	75.38
240.027	75.38
240.26	61.38
240.494	86.38
240.728	73.38
240.961	80.38
241.195	83.38
241.429	77.38
241.662	73.38
241.896	61.38
242.13	70.38
242.363	82.38
242.597	77.38
242.83	79.38
243.064	64.38
243.298	73.38
243.531	86.38
243.765	73.38
243.998	81.38
244.232	83.38
244.465	81.38
244.699	80.38
244.932	79.38
245.166	84.38
245.399	85.38
245.633	74.38
245.866	79.38
246.099	66.38
246.333	84.38
246.566	78.38
246.8	81.38
247.033	53.38
247.266	76.38
247.5	66.38
247.733	59.38
247.966	78.38
248.2	71.38
248.433	77.38
248.666	68.38
248.899	84.38
249.133	96.38
249.366	103.38
249.599	90.38
249.832	85.38
250.066	86.38
250.299	64.38
250.532	69.38
250.765	82.38
250.998	89.38
251.231	71.38
251.465	75.38
251.698	71.38
251.931	82.38
252.164	85.38
252.397	77.38
252.63	81.38
252.863	81.38
253.096	68.38
253.329	78.38
253.562	73.38
253.795	83.38
254.028	66.38
254.261	89.38
254.494	79.38
254.727	90.38
254.96	84.38
255.193	88.38
255.426	75.38
255.659	92.38
255.892	87.38
256.124	89.38
256.357	80.38
256.59	79.38
256.823	81.38
257.056	84.38
257.289	86.38
257.521	92.38
257.754	97.38
257.987	77.38
258.22	84.38
258.452	84.38
258.685	73.38
258.918	83.38
259.151	78.38
259.383	84.38
259.616	74.38
259.849	79.38
260.081	83.38
260.314	64.38
260.547	79.38
260.779	80.38
261.012	75.38
261.244	87.38
261.477	83.38
261.71	90.38
261.942	100.38
262.175	124.38
262.407	86.38
262.64	81.38
262.872	98.38
263.105	79.38
263.337	75.38
263.57	92.38
263.802	80.38
264.035	73.38
264.267	72.38
264.499	84.38
264.732	84.38
264.964	80.38
265.197	82.38
265.429	102.38
265.661	90.38
265.894	77.38
266.126	58.38
266.358	74.38
266.591	86.38
266.823	84.38
267.055	89.38
267.287	74.38
267.52	93.38
267.752	71.38
267.984	95.38
268.216	78.38
268.448	79.38
268.681	74.38
268.913	91.38
269.145	90.38
269.377	82.38
269.609	92.38
269.841	90.38
270.073	63.38
270.306	71.38
270.538	80.38
270.77	77.38
271.002	100.38
271.234	89.38
271.466	83.38
271.698	84.38
271.93	89.38
272.162	76.38
272.394	73.38
272.626	82.38
272.858	105.38
273.09	98.38
273.322	79.38
273.553	75.38
273.785	88.38
274.017	79.38
274.249	83.38
274.481	72.38
274.713	86.38
274.945	94.38
275.176	78.38
275.408	84.38
275.64	86.38
275.872	80.38
276.104	92.38
276.335	93.38
276.567	92.38
276.799	102.38
277.031	111.38
277.262	101.38
277.494	93.38
277.726	85.38
277.957	82.38
278.189	89.38
278.421	86.38
278.652	83.38
278.884	85.38
279.115	93.38
279.347	104.38
279.579	89.38
279.81	101.38
280.042	96.38
280.273	86.38
280.505	86.38
280.736	85.38
280.968	93.38
281.199	81.38
281.431	92.38
281.662	95.38
281.894	104.38
282.125	98.38
282.356	119.38
282.588	146.38
282.819	113.38
283.051	101.38
283.282	87.38
283.513	88.38
283.745	98.38
283.976	72.38
284.207	86.38
284.439	96.38
284.67	88.38
284.901	95.38
285.132	81.38
285.364	85.38
285.595	77.38
285.826	83.38
286.057	84.38
286.288	83.38
286.52	82.38
286.751	86.38
286.982	87.38
287.213	81.38
287.444	82.38
287.675	91.38
287.906	83.38
288.138	89.38
288.369	64.38
288.6	77.38
288.831	84.38
289.062	95.38
289.293	81.38
289.524	76.38
289.755	89.38
289.986	92.38
290.217	82.38
290.448	88.38
290.679	92.38
290.91	76.38
291.141	83.38
291.371	85.38
291.602	80.38
291.833	88.38
292.064	76.38
292.295	83.38
292.526	81.38
292.757	86.38
292.987	98.38
293.218	80.38
293.449	99.38
293.68	89.38
293.91	89.38
294.141	98.38
294.372	87.38
294.603	83.38
294.833	85.38
295.064	98.38
295.295	77.38
295.525	88.38
295.756	98.38
295.987	106.38
296.217	128.38
296.448	120.38
296.679	82.38
296.909	96.38
297.14	94.38
297.37	92.38
297.601	91.38
297.831	82.38
298.062	80.38
298.292	78.38
298.523	91.38
298.753	82.38
298.984	96.38
299.214	74.38
299.445	81.38
299.675	93.38
299.905	86.38
300.136	74.38
300.366	82.38
300.597	79.38
300.827	88.38
301.057	88.38
301.288	94.38
301.518	79.38
301.748	86.38
301.979	97.38
302.209	75.38
302.439	84.38
302.669	97.38
302.9	92.38
303.13	89.38
303.36	92.38
303.59	89.38
303.82	104.38
304.051	100.38
304.281	84.38
304.511	77.38
304.741	90.38
304.971	82.38
305.201	83.38
305.431	96.38
305.661	99.38
305.891	71.38
306.121	95.38
306.352	93.38
306.582	97.38
306.812	103.38
307.042	89.38
307.272	75.38
307.502	97.38
307.731	97.38
307.961	82.38
308.191	96.38
308.421	91.38
308.651	92.38
308.881	93.38
309.111	84.38
309.341	99.38
309.571	92.38
309.8	98.38
310.03	87.38
310.26	81.38
310.49	105.38
310.72	102.38
310.949	104.38
311.179	93.38
311.409	88.38
311.639	83.38
311.868	94.38
312.098	93.38
312.328	112.38
312.557	97.38
312.787	104.38
313.017	115.38
313.246	104.38
313.476	82.38
313.706	97.38
313.935	91.38
314.165	101.38
314.394	92.38
314.624	88.38
314.853	87.38
315.083	94.38
315.312	95.38
315.542	92.38
315.771	82.38
316.001	77.38
316.23	98.38
316.46	85.38
316.689	77.38
316.919	92.38
317.148	72.38
317.377	91.38
317.607	87.38
317.836	80.38
318.065	91.38
318.295	89.38
318.524	92.38
318.753	84.38
318.983	89.38
319.212	108.38
319.441	99.38
319.67	100.38
319.9	102.38
320.129	99.38
320.358	77.38
320.587	86.38
320.816	91.38
321.046	84.38
321.275	92.38
321.504	91.38
321.733	91.38
321.962	100.38
322.191	89.38
322.42	101.38
322.649	96.38
322.878	100.38
323.108	98.38
323.337	111.38
323.566	121.38
323.795	145.38
324.024	188.38
324.253	376.38
324.482	728.38
324.71	1484.38
324.939	1951.38
325.168	747.38
325.397	220.38
325.626	131.38
325.855	128.38
326.084	135.38
326.313	131.38
326.542	139.38
326.77	220.38
326.999	412.38
327.228	849.38
327.457	1473.38
327.686	1179.38
327.914	333.38
328.143	185.38
328.372	164.38
328.6	131.38
328.829	114.38
329.058	132.38
329.287	114.38
329.515	107.38
329.744	104.38
329.972	104.38
330.201	145.38
330.43	172.38
330.658	127.38
330.887	153.38
331.115	112.38
331.344	94.38
331.572	93.38
331.801	104.38
332.03	104.38
332.258	86.38
332.486	100.38
332.715	102.38
332.943	90.38
333.172	82.38
333.4	97.38
333.629	87.38
333.857	103.38
334.085	124.38
334.314	123.38
334.542	181.38
334.771	191.38
334.999	113.38
335.227	106.38
335.455	97.38
335.684	87.38
335.912	96.38
336.14	85.38
336.369	86.38
336.597	89.38
336.825	89.38
337.053	96.38
337.281	91.38
337.51	85.38
337.738	102.38
337.966	95.38
338.194	89.38
338.422	103.38
338.65	88.38
338.878	92.38
339.106	80.38
339.334	80.38
339.562	89.38
339.79	86.38
340.018	80.38
340.246	85.38
340.474	84.38
340.702	80.38
340.93	88.38
341.158	81.38
341.386	87.38
341.614	77.38
341.842	68.38
342.07	84.38
342.298	79.38
342.526	81.38
342.754	83.38
342.981	88.38
343.209	81.38
343.437	96.38
343.665	93.38
343.893	91.38
344.12	84.38
344.348	95.38
344.576	92.38
344.804	104.38
345.031	90.38
345.259	96.38
345.487	101.38
345.714	93.38
345.942	92.38
346.17	77.38
346.397	82.38
346.625	79.38
346.853	66.38
347.08	88.38
347.308	97.38
347.535	86.38
347.763	95.38
347.99	94.38
348.218	104.38
348.445	103.38
348.673	82.38
348.9	95.38
349.128	92.38
349.355	81.38
349.583	96.38
349.81	97.38
350.037	78.38
350.265	84.38
350.492	99.38
350.72	83.38
350.947	81.38
351.174	115.38
351.402	103.38
351.629	101.38
351.856	99.38
352.083	111.38
352.311	104.38
352.538	98.38
352.765	119.38
352.992	113.38
353.22	107.38
353.447	92.38
353.674	89.38
353.901	86.38
354.128	106.38
354.355	115.38
354.583	86.38
354.81	103.38
355.037	76.38
355.264	83.38
355.491	88.38
355.718	104.38
355.945	101.38
356.172	77.38
356.399	102.38
356.626	93.38
356.853	87.38
357.08	95.38
357.307	89.38
357.534	95.38
357.761	90.38
357.988	87.38
358.215	79.38
358.441	82.38
358.668	82.38
358.895	84.38
359.122	96.38
359.349	71.38
359.576	93.38
359.802	105.38
360.029	111.38
360.256	103.38
360.483	103.38
360.709	92.38
360.936	84.38
361.163	77.38
361.39	95.38
361.616	88.38
361.843	88.38
362.07	91.38
362.296	89.38
362.523	86.38
362.749	79.38
362.976	92.38
363.203	103.38
363.429	77.38
363.656	74.38
363.882	84.38
364.109	85.38
364.335	79.38
364.562	78.38
364.788	90.38
365.015	89.38
365.241	88.38
365.468	83.38
365.694	89.38
365.92	78.38
366.147	89.38
366.373	72.38
366.599	80.38
366.826	85.38
367.052	90.38
367.278	94.38
367.505	97.38
367.731	107.38
367.957	97.38
368.184	91.38
368.41	81.38
368.636	103.38
368.862	119.38
369.089	100.38
369.315	106.38
369.541	97.38
369.767	85.38
369.993	92.38
370.219	95.38
370.445	85.38
370.672	81.38
370.898	85.38
371.124	76.38
371.35	82.38
371.576	82.38
371.802	76.38
372.028	83.38
372.254	69.38
372.48	86.38
372.706	83.38
372.932	80.38
373.158	77.38
373.384	81.38
373.61	89.38
373.835	87.38
374.061	83.38
374.287	77.38
374.513	80.38
374.739	91.38
374.965	76.38
375.191	103.38
375.416	82.38
375.642	85.38
375.868	86.38
376.094	79.38
376.319	92.38
376.545	74.38
376.771	87.38
376.997	74.38
377.222	82.38
377.448	82.38
377.674	88.38
377.899	90.38
378.125	78.38
378.35	88.38
378.576	89.38
378.802	80.38
379.027	81.38
379.253	83.38
379.478	83.38
379.704	85.38
379.929	77.38
380.155	87.38
380.38	85.38
380.606	93.38
380.831	91.38
381.057	69.38
381.282	92.38
381.507	77.38
381.733	85.38
381.958	89.38
382.184	83.38
382.409	104.38
382.634	87.38
382.86	95.38
383.085	94.38
383.31	90.38
383.535	84.38
383.761	88.38
383.986	86.38
384.211	89.38
384.436	89.38
384.662	102.38
384.887	96.38
385.112	97.38
385.337	103.38
385.562	92.38
385.787	93.38
386.013	101.38
386.238	106.38
386.463	104.38
386.688	96.38
386.913	85.38
387.138	98.38
387.363	111.38
387.588	91.38
387.813	96.38
388.038	105.38
388.263	111.38
388.488	104.38
388.713	72.38
388.938	92.38
389.163	93.38
389.387	92.38
389.612	85.38
389.837	75.38
390.062	83.38
390.287	86.38
390.512	96.38
390.736	84.38
390.961	97.38
391.186	89.38
391.411	91.38
391.636	96.38
391.86	71.38
392.085	87.38
392.31	85.38
392.534	88.38
392.759	81.38
392.984	86.38
393.208	77.38
393.433	100.38
393.658	93.38
393.882	81.38
394.107	84.38
394.331	84.38
394.556	82.38
394.78	75.38
395.005	92.38
395.229	91.38
395.454	83.38
395.678	82.38
395.903	69.38
396.127	78.38
396.352	76.38
396.576	95.38
396.801	87.38
397.025	72.38
397.249	83.38
397.474	90.38
397.698	87.38
397.922	84.38
398.147	70.38
398.371	91.38
398.595	77.38
398.82	92.38
399.044	81.38
399.268	77.38
399.492	69.38
399.717	96.38
399.941	85.38
400.165	84.38
400.389	93.38
400.613	96.38
400.837	83.38
401.062	76.38
401.286	88.38
401.51	89.38
401.734	88.38
401.958	91.38
402.182	133.38
402.406	144.38
402.63	108.38
402.854	97.38
403.078	85.38
403.302	80.38
403.526	66.38
403.75	93.38
403.974	79.38
404.198	87.38
404.422	83.38
404.645	85.38
404.869	83.38
405.093	88.38
405.317	87.38
405.541	99.38
405.765	97.38
405.988	111.38
406.212	164.38
406.436	220.38
406.66	138.38
406.883	93.38
407.107	88.38
407.331	90.38
407.555	88.38
407.778	89.38
408.002	77.38
408.226	83.38
408.449	86.38
408.673	79.38
408.896	93.38
409.12	85.38
409.344	63.38
409.567	79.38
409.791	81.38
410.014	82.38
410.238	80.38
410.461	85.38
410.685	83.38
410.908	87.38
411.132	96.38
411.355	97.38
411.578	83.38
411.802	86.38
412.025	83.38
412.249	91.38
412.472	104.38
412.695	84.38
412.919	100.38
413.142	82.38
413.365	74.38
413.589	92.38
413.812	77.38
414.035	85.38
414.258	83.38
414.482	82.38
414.705	66.38
414.928	81.38
415.151	98.38
415.374	87.38
415.597	85.38
415.821	78.38
416.044	73.38
416.267	99.38
416.49	76.38
416.713	86.38
416.936	75.38
417.159	80.38
417.382	79.38
417.605	88.38
417.828	100.38
418.051	78.38
418.274	101.38
418.497	91.38
418.72	87.38
418.943	93.38
419.166	80.38
419.389	93.38
419.611	79.38
419.834	82.38
420.057	87.38
420.28	76.38
420.503	96.38
420.726	82.38
420.948	97.38
421.171	106.38
421.394	83.38
421.617	75.38
421.839	96.38
422.062	99.38
422.285	90.38
422.507	88.38
422.73	98.38
422.953	97.38
423.175	86.38
423.398	88.38
423.621	83.38
423.843	79.38
424.066	77.38
424.288	78.38
424.511	84.38
424.733	104.38
424.956	91.38
425.178	88.38
425.401	92.38
425.623	97.38
425.846	73.38
426.068	85.38
426.291	92.38
426.513	92.38
426.735	78.38
426.958	89.38
427.18	91.38
427.402	137.38
427.625	157.38
427.847	118.38
428.069	118.38
428.292	83.38
428.514	71.38
428.736	69.38
428.958	81.38
429.181	87.38
429.403	87.38
429.625	89.38
429.847	85.38
430.069	94.38
430.292	90.38
430.514	89.38
430.736	77.38
430.958	76.38
431.18	72.38
431.402	85.38
431.624	76.38
431.846	101.38
432.068	93.38
432.29	78.38
432.512	86.38
432.734	84.38
432.956	79.38
433.178	94.38
433.4	91.38
433.622	79.38
433.844	83.38
434.066	88.38
434.287	86.38
434.509	86.38
434.731	92.38
434.953	85.38
435.175	88.38
435.397	78.38
435.618	90.38
435.84	94.38
436.062	101.38
436.284	123.38
436.505	88.38
436.727	107.38
436.949	89.38
437.17	82.38
437.392	87.38
437.614	80.38
437.835	99.38
438.057	100.38
438.278	99.38
438.5	106.38
438.721	107.38
438.943	101.38
439.165	91.38
439.386	87.38
439.608	83.38
439.829	93.38
440.05	105.38
440.272	126.38
440.493	102.38
440.715	67.38
440.936	90.38
441.158	82.38
441.379	91.38
441.6	88.38
441.822	82.38
442.043	86.38
442.264	96.38
442.486	108.38
442.707	85.38
442.928	101.38
443.149	107.38
443.371	106.38
443.592	97.38
443.813	112.38
444.034	80.38
444.255	107.38
444.476	98.38
444.698	91.38
444.919	88.38
445.14	120.38
445.361	108.38
445.582	122.38
445.803	111.38
446.024	120.38
446.245	100.38
446.466	108.38
446.687	85.38
446.908	74.38
447.129	83.38
447.35	94.38
447.571	82.38
447.792	88.38
448.013	102.38
448.234	106.38
448.455	99.38
448.675	100.38
448.896	120.38
449.117	91.38
449.338	107.38
449.559	132.38
449.779	124.38
450	81.38
450.221	87.38
450.442	87.38
450.662	98.38
450.883	97.38
451.104	101.38
451.324	93.38
451.545	80.38
451.766	72.38
451.986	84.38
452.207	92.38
452.428	93.38
452.648	92.38
452.869	97.38
453.089	110.38
453.31	123.38
453.53	101.38
453.751	98.38
453.971	108.38
454.192	103.38
454.412	90.38
454.633	86.38
454.853	96.38
455.073	91.38
455.294	81.38
455.514	84.38
455.734	87.38
455.955	83.38
456.175	94.38
456.395	73.38
456.616	87.38
456.836	77.38
457.056	70.38
457.276	99.38
457.497	77.38
457.717	87.38
457.937	79.38
458.157	92.38
458.377	74.38
458.598	115.38
458.818	140.38
459.038	147.38
459.258	110.38
459.478	85.38
459.698	71.38
459.918	74.38
460.138	84.38
460.358	74.38
460.578	87.38
460.798	72.38
461.018	88.38
461.238	91.38
461.458	91.38
461.678	83.38
461.898	75.38
462.118	90.38
462.338	80.38
462.558	82.38
462.777	90.38
462.997	100.38
463.217	87.38
463.437	78.38
463.657	103.38
463.876	82.38
464.096	93.38
464.316	77.38
464.536	97.38
464.755	92.38
464.975	97.38
465.195	125.38
465.414	159.38
465.634	93.38
465.854	84.38
466.073	81.38
466.293	78.38
466.512	80.38
466.732	92.38
466.951	88.38
467.171	84.38
467.391	87.38
467.61	88.38
467.829	96.38
468.049	106.38
468.268	108.38
468.488	91.38
468.707	99.38
468.927	85.38
469.146	77.38
469.365	108.38
469.585	85.38
469.804	83.38
470.023	96.38
470.243	93.38
470.462	97.38
470.681	114.38
470.901	93.38
471.12	84.38
471.339	84.38
471.558	77.38
471.777	98.38
471.997	95.38
472.216	150.38
472.435	213.38
472.654	107.38
472.873	77.38
473.092	95.38
473.311	78.38
473.53	89.38
473.749	94.38
473.968	84.38
474.187	92.38
474.406	90.38
474.625	71.38
474.844	91.38
475.063	92.38
475.282	88.38
475.501	89.38
475.72	86.38
475.939	81.38
476.158	78.38
476.377	85.38
476.596	87.38
476.814	88.38
477.033	102.38
477.252	77.38
477.471	78.38
477.69	95.38
477.908	88.38
478.127	80.38
478.346	90.38
478.564	82.38
478.783	98.38
479.002	80.38
479.22	89.38
479.439	100.38
479.658	101.38
479.876	95.38
480.095	93.38
480.313	80.38
480.532	82.38
480.751	77.38
480.969	140.38
481.188	317.38
481.406	227.38
481.624	108.38
481.843	85.38
482.061	87.38
482.28	74.38
482.498	82.38
482.717	96.38
482.935	95.38
483.153	88.38
483.372	87.38
483.59	93.38
483.808	99.38
484.027	93.38
484.245	90.38
484.463	85.38
484.681	106.38
484.9	94.38
485.118	86.38
485.336	97.38
485.554	96.38
485.772	94.38
485.99	108.38
486.209	94.38
486.427	99.38
486.645	100.38
486.863	104.38
487.081	97.38
487.299	97.38
487.517	91.38
487.735	93.38
487.953	87.38
488.171	76.38
488.389	95.38
488.607	80.38
488.825	81.38
489.043	96.38
489.261	80.38
489.479	84.38
489.696	92.38
489.914	100.38
490.132	86.38
490.35	96.38
490.568	83.38
490.786	85.38
491.003	84.38
491.221	96.38
491.439	95.38
491.657	96.38
491.874	83.38
492.092	76.38
492.31	81.38
492.527	84.38
492.745	83.38
492.963	93.38
493.18	87.38
493.398	74.38
493.615	88.38
493.833	98.38
494.05	87.38
494.268	95.38
494.485	89.38
494.703	88.38
494.92	84.38
495.138	91.38
495.355	69.38
495.573	89.38
495.79	85.38
496.008	77.38
496.225	96.38
496.442	90.38
496.66	85.38
496.877	90.38
497.094	78.38
497.312	83.38
497.529	77.38
497.746	88.38
497.963	96.38
498.181	107.38
498.398	106.38
498.615	102.38
498.832	93.38
499.049	103.38
499.267	89.38
499.484	96.38
499.701	86.38
499.918	94.38
500.135	95.38
500.352	84.38
500.569	83.38
500.786	81.38
501.003	95.38
501.22	77.38
501.437	93.38
501.654	107.38
501.871	99.38
502.088	84.38
502.305	89.38
502.522	90.38
502.739	71.38
502.956	81.38
503.172	89.38
503.389	78.38
503.606	95.38
503.823	89.38
504.04	64.38
504.256	91.38
504.473	95.38
504.69	87.38
504.907	88.38
505.123	96.38
505.34	81.38
505.557	83.38
505.773	84.38
505.99	95.38
506.207	91.38
506.423	95.38
506.64	88.38
506.856	92.38
507.073	103.38
507.289	97.38
507.506	106.38
507.722	97.38
507.939	92.38
508.155	90.38
508.372	98.38
508.588	101.38
508.805	84.38
509.021	93.38
509.238	98.38
509.454	119.38
509.67	96.38
509.887	100.38
510.103	125.38
510.319	209.38
510.536	736.38
510.752	2318.38
510.968	680.38
511.184	171.38
511.401	92.38
511.617	99.38
511.833	88.38
512.049	76.38
512.265	85.38
512.481	98.38
512.698	99.38
512.914	107.38
513.13	87.38
513.346	96.38
513.562	88.38
513.778	84.38
513.994	88.38
514.21	84.38
514.426	124.38
514.642	124.38
514.858	123.38
515.074	169.38
515.29	439.38
515.506	1481.38
515.721	586.38
515.937	156.38
516.153	101.38
516.369	116.38
516.585	88.38
516.801	93.38
