Data from Circ_2014_H10_HRD10591_00051.txt Node
Date: Wed Jan 03 10:02:19 EST 2024
User: Yrep
Spectrometer: HR+D1059
Trigger mode: 1
Integration Time (sec): 1.000000E-1
Scans to average: 1
Electric dark correction enabled: true
Nonlinearity correction enabled: false
Boxcar width: 0
XAxis mode: Wavelengths
Number of Pixels in Spectrum: 2048
>>>>>Begin Spectral Data<<<<<
223.165	-13.12
223.4	-13.12
223.635	-13.12
223.869	-11.12
224.104	-26.12
224.338	-20.12
224.573	-19.12
224.808	-18.12
225.042	-6.12
225.277	-4.12
225.511	14.88
225.746	6.88
225.98	2.88
226.215	2.88
226.449	16.88
226.683	19.88
226.918	22.88
227.152	30.88
227.387	28.88
227.621	43.88
227.856	39.88
228.09	55.88
228.324	52.88
228.559	55.88
228.793	63.88
229.027	71.88
229.262	78.88
229.496	74.88
229.73	84.88
229.964	89.88
230.199	66.88
230.433	78.88
230.667	92.88
230.901	71.88
231.136	69.88
231.37	83.88
231.604	88.88
231.838	93.88
232.072	80.88
232.306	72.88
232.541	92.88
232.775	83.88
233.009	86.88
233.243	75.88
233.477	78.88
233.711	77.88
233.945	72.88
234.179	81.88
234.413	74.88
234.647	77.88
234.881	84.88
235.115	88.88
235.349	88.88
235.583	83.88
235.817	89.88
236.051	78.88
236.285	84.88
236.519	74.88
236.753	84.88
236.987	87.88
237.221	77.88
237.455	94.88
237.689	78.88
237.922	74.88
238.156	76.88
238.39	80.88
238.624	65.88
238.858	75.88
239.091	66.88
239.325	93.88
239.559	95.88
239.793	78.88
240.027	75.88
240.26	79.88
240.494	74.88
240.728	65.88
240.961	73.88
241.195	88.88
241.429	75.88
241.662	74.88
241.896	82.88
242.13	80.88
242.363	70.88
242.597	74.88
242.83	77.88
243.064	67.88
243.298	81.88
243.531	88.88
243.765	79.88
243.998	95.88
244.232	80.88
244.465	103.88
244.699	75.88
244.932	74.88
245.166	82.88
245.399	72.88
245.633	97.88
245.866	85.88
246.099	81.88
246.333	78.88
246.566	70.88
246.8	88.88
247.033	85.88
247.266	99.88
247.5	88.88
247.733	66.88
247.966	69.88
248.2	72.88
248.433	72.88
248.666	58.88
248.899	82.88
249.133	78.88
249.366	87.88
249.599	91.88
249.832	86.88
250.066	72.88
250.299	78.88
250.532	101.88
250.765	72.88
250.998	70.88
251.231	90.88
251.465	83.88
251.698	72.88
251.931	76.88
252.164	88.88
252.397	87.88
252.63	81.88
252.863	81.88
253.096	84.88
253.329	79.88
253.562	75.88
253.795	80.88
254.028	77.88
254.261	88.88
254.494	83.88
254.727	78.88
254.96	78.88
255.193	80.88
255.426	75.88
255.659	87.88
255.892	90.88
256.124	83.88
256.357	82.88
256.59	86.88
256.823	84.88
257.056	87.88
257.289	68.88
257.521	82.88
257.754	75.88
257.987	84.88
258.22	78.88
258.452	77.88
258.685	78.88
258.918	78.88
259.151	79.88
259.383	77.88
259.616	79.88
259.849	76.88
260.081	79.88
260.314	88.88
260.547	72.88
260.779	69.88
261.012	81.88
261.244	94.88
261.477	96.88
261.71	79.88
261.942	116.88
262.175	103.88
262.407	88.88
262.64	100.88
262.872	77.88
263.105	87.88
263.337	94.88
263.57	81.88
263.802	73.88
264.035	92.88
264.267	90.88
264.499	82.88
264.732	93.88
264.964	88.88
265.197	77.88
265.429	100.88
265.661	84.88
265.894	79.88
266.126	79.88
266.358	94.88
266.591	93.88
266.823	81.88
267.055	83.88
267.287	91.88
267.52	83.88
267.752	78.88
267.984	79.88
268.216	86.88
268.448	92.88
268.681	78.88
268.913	98.88
269.145	79.88
269.377	90.88
269.609	89.88
269.841	79.88
270.073	77.88
270.306	83.88
270.538	86.88
270.77	86.88
271.002	87.88
271.234	76.88
271.466	73.88
271.698	93.88
271.93	86.88
272.162	88.88
272.394	85.88
272.626	82.88
272.858	80.88
273.09	78.88
273.322	95.88
273.553	91.88
273.785	78.88
274.017	83.88
274.249	90.88
274.481	74.88
274.713	85.88
274.945	91.88
275.176	88.88
275.408	90.88
275.64	99.88
275.872	84.88
276.104	99.88
276.335	90.88
276.567	87.88
276.799	90.88
277.031	85.88
277.262	99.88
277.494	85.88
277.726	86.88
277.957	93.88
278.189	82.88
278.421	82.88
278.652	91.88
278.884	90.88
279.115	79.88
279.347	91.88
279.579	92.88
279.81	92.88
280.042	87.88
280.273	83.88
280.505	84.88
280.736	97.88
280.968	90.88
281.199	85.88
281.431	71.88
281.662	103.88
281.894	89.88
282.125	95.88
282.356	121.88
282.588	142.88
282.819	102.88
283.051	94.88
283.282	96.88
283.513	84.88
283.745	91.88
283.976	89.88
284.207	83.88
284.439	84.88
284.67	72.88
284.901	80.88
285.132	86.88
285.364	89.88
285.595	98.88
285.826	82.88
286.057	88.88
286.288	89.88
286.52	90.88
286.751	76.88
286.982	87.88
287.213	80.88
287.444	86.88
287.675	94.88
287.906	80.88
288.138	75.88
288.369	99.88
288.6	90.88
288.831	87.88
289.062	79.88
289.293	94.88
289.524	83.88
289.755	73.88
289.986	88.88
290.217	94.88
290.448	80.88
290.679	84.88
290.91	81.88
291.141	100.88
291.371	76.88
291.602	95.88
291.833	97.88
292.064	103.88
292.295	89.88
292.526	87.88
292.757	92.88
292.987	94.88
293.218	85.88
293.449	85.88
293.68	78.88
293.91	85.88
294.141	77.88
294.372	101.88
294.603	90.88
294.833	82.88
295.064	94.88
295.295	93.88
295.525	91.88
295.756	94.88
295.987	117.88
296.217	137.88
296.448	126.88
296.679	104.88
296.909	88.88
297.14	81.88
297.37	91.88
297.601	99.88
297.831	88.88
298.062	84.88
298.292	90.88
298.523	80.88
298.753	88.88
298.984	75.88
299.214	92.88
299.445	85.88
299.675	83.88
299.905	80.88
300.136	90.88
300.366	77.88
300.597	83.88
300.827	103.88
301.057	87.88
301.288	123.88
301.518	107.88
301.748	94.88
301.979	112.88
302.209	92.88
302.439	92.88
302.669	90.88
302.9	74.88
303.13	111.88
303.36	107.88
303.59	110.88
303.82	109.88
304.051	91.88
304.281	90.88
304.511	87.88
304.741	100.88
304.971	84.88
305.201	71.88
305.431	103.88
305.661	95.88
305.891	94.88
306.121	92.88
306.352	102.88
306.582	101.88
306.812	84.88
307.042	96.88
307.272	78.88
307.502	102.88
307.731	91.88
307.961	93.88
308.191	90.88
308.421	82.88
308.651	99.88
308.881	67.88
309.111	95.88
309.341	99.88
309.571	103.88
309.8	98.88
310.03	87.88
310.26	101.88
310.49	80.88
310.72	101.88
310.949	101.88
311.179	107.88
311.409	97.88
311.639	94.88
311.868	91.88
312.098	83.88
312.328	98.88
312.557	95.88
312.787	98.88
313.017	103.88
313.246	106.88
313.476	91.88
313.706	98.88
313.935	93.88
314.165	90.88
314.394	91.88
314.624	95.88
314.853	92.88
315.083	95.88
315.312	99.88
315.542	89.88
315.771	84.88
316.001	89.88
316.23	87.88
316.46	90.88
316.689	90.88
316.919	86.88
317.148	101.88
317.377	98.88
317.607	92.88
317.836	86.88
318.065	91.88
318.295	94.88
318.524	90.88
318.753	89.88
318.983	104.88
319.212	105.88
319.441	101.88
319.67	105.88
319.9	91.88
320.129	77.88
320.358	86.88
320.587	93.88
320.816	94.88
321.046	96.88
321.275	88.88
321.504	93.88
321.733	92.88
321.962	93.88
322.191	93.88
322.42	103.88
322.649	103.88
322.878	121.88
323.108	126.88
323.337	120.88
323.566	130.88
323.795	132.88
324.024	184.88
324.253	342.88
324.482	719.88
324.71	1476.88
324.939	1915.88
325.168	726.88
325.397	223.88
325.626	150.88
325.855	131.88
326.084	118.88
326.313	121.88
326.542	167.88
326.77	221.88
326.999	404.88
327.228	830.88
327.457	1448.88
327.686	1207.88
327.914	341.88
328.143	181.88
328.372	158.88
328.6	117.88
328.829	103.88
329.058	119.88
329.287	122.88
329.515	110.88
329.744	110.88
329.972	119.88
330.201	127.88
330.43	142.88
330.658	119.88
330.887	125.88
331.115	118.88
331.344	100.88
331.572	99.88
331.801	100.88
332.03	103.88
332.258	112.88
332.486	94.88
332.715	92.88
332.943	98.88
333.172	101.88
333.4	99.88
333.629	110.88
333.857	90.88
334.085	115.88
334.314	121.88
334.542	146.88
334.771	149.88
334.999	85.88
335.227	78.88
335.455	96.88
335.684	101.88
335.912	87.88
336.14	85.88
336.369	103.88
336.597	97.88
336.825	105.88
337.053	103.88
337.281	95.88
337.51	85.88
337.738	83.88
337.966	107.88
338.194	103.88
338.422	79.88
338.65	95.88
338.878	97.88
339.106	92.88
339.334	93.88
339.562	77.88
339.79	88.88
340.018	85.88
340.246	84.88
340.474	90.88
340.702	102.88
340.93	94.88
341.158	93.88
341.386	93.88
341.614	88.88
341.842	108.88
342.07	100.88
342.298	93.88
342.526	77.88
342.754	92.88
342.981	82.88
343.209	83.88
343.437	89.88
343.665	61.88
343.893	96.88
344.12	93.88
344.348	92.88
344.576	90.88
344.804	103.88
345.031	100.88
345.259	102.88
345.487	97.88
345.714	87.88
345.942	84.88
346.17	98.88
346.397	109.88
346.625	84.88
346.853	84.88
347.08	90.88
347.308	76.88
347.535	92.88
347.763	91.88
347.99	91.88
348.218	99.88
348.445	114.88
348.673	86.88
348.9	104.88
349.128	94.88
349.355	91.88
349.583	88.88
349.81	85.88
350.037	88.88
350.265	89.88
350.492	101.88
350.72	101.88
350.947	114.88
351.174	106.88
351.402	107.88
351.629	97.88
351.856	109.88
352.083	117.88
352.311	115.88
352.538	124.88
352.765	100.88
352.992	114.88
353.22	107.88
353.447	105.88
353.674	104.88
353.901	108.88
354.128	101.88
354.355	103.88
354.583	99.88
354.81	94.88
355.037	86.88
355.264	101.88
355.491	93.88
355.718	87.88
355.945	85.88
356.172	85.88
356.399	96.88
356.626	103.88
356.853	88.88
357.08	101.88
357.307	102.88
357.534	87.88
357.761	91.88
357.988	86.88
358.215	100.88
358.441	91.88
358.668	87.88
358.895	92.88
359.122	86.88
359.349	92.88
359.576	95.88
359.802	93.88
360.029	103.88
360.256	108.88
360.483	91.88
360.709	79.88
360.936	87.88
361.163	83.88
361.39	93.88
361.616	96.88
361.843	90.88
362.07	83.88
362.296	109.88
362.523	100.88
362.749	91.88
362.976	108.88
363.203	86.88
363.429	82.88
363.656	85.88
363.882	95.88
364.109	92.88
364.335	84.88
364.562	97.88
364.788	89.88
365.015	97.88
365.241	90.88
365.468	99.88
365.694	105.88
365.92	99.88
366.147	88.88
366.373	101.88
366.599	95.88
366.826	79.88
367.052	77.88
367.278	96.88
367.505	86.88
367.731	95.88
367.957	86.88
368.184	83.88
368.41	92.88
368.636	95.88
368.862	110.88
369.089	111.88
369.315	84.88
369.541	87.88
369.767	84.88
369.993	96.88
370.219	86.88
370.445	85.88
370.672	91.88
370.898	86.88
371.124	85.88
371.35	95.88
371.576	93.88
371.802	98.88
372.028	87.88
372.254	89.88
372.48	95.88
372.706	89.88
372.932	82.88
373.158	94.88
373.384	84.88
373.61	88.88
373.835	91.88
374.061	95.88
374.287	87.88
374.513	96.88
374.739	98.88
374.965	93.88
375.191	82.88
375.416	96.88
375.642	90.88
375.868	93.88
376.094	99.88
376.319	80.88
376.545	102.88
376.771	98.88
376.997	87.88
377.222	99.88
377.448	88.88
377.674	92.88
377.899	96.88
378.125	95.88
378.35	87.88
378.576	81.88
378.802	90.88
379.027	83.88
379.253	93.88
379.478	100.88
379.704	90.88
379.929	101.88
380.155	98.88
380.38	93.88
380.606	79.88
380.831	91.88
381.057	101.88
381.282	84.88
381.507	79.88
381.733	84.88
381.958	100.88
382.184	106.88
382.409	104.88
382.634	85.88
382.86	95.88
383.085	90.88
383.31	99.88
383.535	107.88
383.761	87.88
383.986	98.88
384.211	95.88
384.436	99.88
384.662	101.88
384.887	101.88
385.112	103.88
385.337	108.88
385.562	109.88
385.787	107.88
386.013	110.88
386.238	108.88
386.463	106.88
386.688	123.88
386.913	94.88
387.138	115.88
387.363	90.88
387.588	110.88
387.813	105.88
388.038	96.88
388.263	108.88
388.488	109.88
388.713	103.88
388.938	102.88
389.163	95.88
389.387	87.88
389.612	97.88
389.837	96.88
390.062	96.88
390.287	87.88
390.512	94.88
390.736	90.88
390.961	97.88
391.186	91.88
391.411	112.88
391.636	100.88
391.86	83.88
392.085	86.88
392.31	87.88
392.534	94.88
392.759	89.88
392.984	92.88
393.208	95.88
393.433	85.88
393.658	91.88
393.882	87.88
394.107	99.88
394.331	90.88
394.556	91.88
394.78	90.88
395.005	97.88
395.229	85.88
395.454	87.88
395.678	85.88
395.903	92.88
396.127	96.88
396.352	90.88
396.576	78.88
396.801	86.88
397.025	79.88
397.249	82.88
397.474	94.88
397.698	101.88
397.922	92.88
398.147	78.88
398.371	82.88
398.595	86.88
398.82	93.88
399.044	80.88
399.268	83.88
399.492	96.88
399.717	71.88
399.941	90.88
400.165	95.88
400.389	93.88
400.613	94.88
400.837	84.88
401.062	90.88
401.286	96.88
401.51	79.88
401.734	83.88
401.958	103.88
402.182	144.88
402.406	148.88
402.63	121.88
402.854	95.88
403.078	98.88
403.302	93.88
403.526	80.88
403.75	88.88
403.974	90.88
404.198	92.88
404.422	74.88
404.645	93.88
404.869	77.88
405.093	83.88
405.317	88.88
405.541	101.88
405.765	92.88
405.988	118.88
406.212	158.88
406.436	216.88
406.66	157.88
406.883	129.88
407.107	109.88
407.331	105.88
407.555	99.88
407.778	99.88
408.002	101.88
408.226	86.88
408.449	86.88
408.673	95.88
408.896	98.88
409.12	88.88
409.344	95.88
409.567	93.88
409.791	89.88
410.014	90.88
410.238	89.88
410.461	84.88
410.685	103.88
410.908	111.88
411.132	110.88
411.355	106.88
411.578	97.88
411.802	87.88
412.025	86.88
412.249	99.88
412.472	95.88
412.695	104.88
412.919	93.88
413.142	88.88
413.365	87.88
413.589	76.88
413.812	94.88
414.035	93.88
414.258	97.88
414.482	86.88
414.705	84.88
414.928	89.88
415.151	83.88
415.374	101.88
415.597	96.88
415.821	81.88
416.044	81.88
416.267	79.88
416.49	95.88
416.713	80.88
416.936	96.88
417.159	78.88
417.382	100.88
417.605	86.88
417.828	98.88
418.051	92.88
418.274	88.88
418.497	83.88
418.72	87.88
418.943	93.88
419.166	96.88
419.389	71.88
419.611	99.88
419.834	96.88
420.057	78.88
420.28	81.88
420.503	91.88
420.726	104.88
420.948	90.88
421.171	92.88
421.394	103.88
421.617	102.88
421.839	97.88
422.062	99.88
422.285	105.88
422.507	102.88
422.73	96.88
422.953	92.88
423.175	95.88
423.398	80.88
423.621	88.88
423.843	96.88
424.066	93.88
424.288	109.88
424.511	95.88
424.733	91.88
424.956	101.88
425.178	98.88
425.401	105.88
425.623	107.88
425.846	96.88
426.068	95.88
426.291	91.88
426.513	88.88
426.735	99.88
426.958	88.88
427.18	110.88
427.402	141.88
427.625	155.88
427.847	114.88
428.069	100.88
428.292	80.88
428.514	80.88
428.736	86.88
428.958	86.88
429.181	80.88
429.403	81.88
429.625	92.88
429.847	100.88
430.069	102.88
430.292	92.88
430.514	94.88
430.736	83.88
430.958	90.88
431.18	93.88
431.402	87.88
431.624	99.88
431.846	93.88
432.068	80.88
432.29	95.88
432.512	93.88
432.734	69.88
432.956	100.88
433.178	91.88
433.4	92.88
433.622	88.88
433.844	76.88
434.066	86.88
434.287	87.88
434.509	79.88
434.731	95.88
434.953	79.88
435.175	81.88
435.397	92.88
435.618	101.88
435.84	93.88
436.062	125.88
436.284	116.88
436.505	100.88
436.727	87.88
436.949	95.88
437.17	91.88
437.392	91.88
437.614	90.88
437.835	104.88
438.057	107.88
438.278	106.88
438.5	101.88
438.721	105.88
438.943	104.88
439.165	90.88
439.386	93.88
439.608	101.88
439.829	103.88
440.05	120.88
440.272	138.88
440.493	98.88
440.715	93.88
440.936	84.88
441.158	102.88
441.379	101.88
441.6	103.88
441.822	94.88
442.043	84.88
442.264	107.88
442.486	94.88
442.707	102.88
442.928	108.88
443.149	118.88
443.371	127.88
443.592	92.88
443.813	107.88
444.034	94.88
444.255	91.88
444.476	92.88
444.698	79.88
444.919	95.88
445.14	122.88
445.361	103.88
445.582	109.88
445.803	127.88
446.024	130.88
446.245	123.88
446.466	111.88
446.687	100.88
446.908	91.88
447.129	80.88
447.35	90.88
447.571	83.88
447.792	93.88
448.013	96.88
448.234	106.88
448.455	109.88
448.675	112.88
448.896	100.88
449.117	103.88
449.338	109.88
449.559	124.88
449.779	114.88
450	83.88
450.221	76.88
450.442	96.88
450.662	97.88
450.883	96.88
451.104	88.88
451.324	98.88
451.545	88.88
451.766	100.88
451.986	74.88
452.207	76.88
452.428	89.88
452.648	88.88
452.869	108.88
453.089	118.88
453.31	112.88
453.53	96.88
453.751	101.88
453.971	109.88
454.192	106.88
454.412	100.88
454.633	94.88
454.853	95.88
455.073	91.88
455.294	90.88
455.514	91.88
455.734	81.88
455.955	96.88
456.175	79.88
456.395	86.88
456.616	91.88
456.836	86.88
457.056	90.88
457.276	70.88
457.497	94.88
457.717	88.88
457.937	94.88
458.157	83.88
458.377	89.88
458.598	106.88
458.818	143.88
459.038	146.88
459.258	100.88
459.478	87.88
459.698	92.88
459.918	77.88
460.138	87.88
460.358	91.88
460.578	98.88
460.798	62.88
461.018	92.88
461.238	80.88
461.458	82.88
461.678	87.88
461.898	83.88
462.118	97.88
462.338	71.88
462.558	86.88
462.777	76.88
462.997	71.88
463.217	87.88
463.437	91.88
463.657	88.88
463.876	88.88
464.096	93.88
464.316	83.88
464.536	85.88
464.755	79.88
464.975	94.88
465.195	153.88
465.414	162.88
465.634	99.88
465.854	100.88
466.073	85.88
466.293	78.88
466.512	98.88
466.732	84.88
466.951	94.88
467.171	77.88
467.391	93.88
467.61	91.88
467.829	81.88
468.049	125.88
468.268	119.88
468.488	99.88
468.707	83.88
468.927	91.88
469.146	96.88
469.365	89.88
469.585	91.88
469.804	98.88
470.023	106.88
470.243	79.88
470.462	100.88
470.681	101.88
470.901	94.88
471.12	94.88
471.339	103.88
471.558	88.88
471.777	90.88
471.997	89.88
472.216	109.88
472.435	168.88
472.654	97.88
472.873	91.88
473.092	75.88
473.311	78.88
473.53	95.88
473.749	99.88
473.968	115.88
474.187	108.88
474.406	86.88
474.625	92.88
474.844	86.88
475.063	87.88
475.282	90.88
475.501	86.88
475.72	92.88
475.939	77.88
476.158	92.88
476.377	76.88
476.596	89.88
476.814	80.88
477.033	83.88
477.252	85.88
477.471	99.88
477.69	75.88
477.908	88.88
478.127	89.88
478.346	87.88
478.564	94.88
478.783	80.88
479.002	92.88
479.22	101.88
479.439	111.88
479.658	88.88
479.876	99.88
480.095	95.88
480.313	88.88
480.532	100.88
480.751	86.88
480.969	104.88
481.188	225.88
481.406	175.88
481.624	97.88
481.843	95.88
482.061	92.88
482.28	88.88
482.498	83.88
482.717	91.88
482.935	87.88
483.153	95.88
483.372	95.88
483.59	101.88
483.808	86.88
484.027	83.88
484.245	95.88
484.463	86.88
484.681	101.88
484.9	97.88
485.118	96.88
485.336	95.88
485.554	91.88
485.772	106.88
485.99	96.88
486.209	107.88
486.427	101.88
486.645	96.88
486.863	105.88
487.081	83.88
487.299	91.88
487.517	87.88
487.735	91.88
487.953	104.88
488.171	84.88
488.389	107.88
488.607	98.88
488.825	111.88
489.043	87.88
489.261	88.88
489.479	87.88
489.696	88.88
489.914	95.88
490.132	104.88
490.35	86.88
490.568	88.88
490.786	90.88
491.003	74.88
491.221	94.88
491.439	91.88
491.657	86.88
491.874	83.88
492.092	87.88
492.31	93.88
492.527	94.88
492.745	78.88
492.963	83.88
493.18	86.88
493.398	75.88
493.615	92.88
493.833	90.88
494.05	102.88
494.268	84.88
494.485	96.88
494.703	83.88
494.92	84.88
495.138	93.88
495.355	84.88
495.573	81.88
495.79	93.88
496.008	86.88
496.225	94.88
496.442	79.88
496.66	101.88
496.877	79.88
497.094	98.88
497.312	91.88
497.529	94.88
497.746	93.88
497.963	98.88
498.181	86.88
498.398	86.88
498.615	99.88
498.832	104.88
499.049	88.88
499.267	90.88
499.484	95.88
499.701	87.88
499.918	94.88
500.135	86.88
500.352	83.88
500.569	87.88
500.786	91.88
501.003	90.88
501.22	96.88
501.437	97.88
501.654	90.88
501.871	101.88
502.088	82.88
502.305	94.88
502.522	88.88
502.739	103.88
502.956	95.88
503.172	98.88
503.389	87.88
503.606	99.88
503.823	113.88
504.04	84.88
504.256	89.88
504.473	85.88
504.69	93.88
504.907	87.88
505.123	93.88
505.34	82.88
505.557	85.88
505.773	84.88
505.99	81.88
506.207	85.88
506.423	85.88
506.64	85.88
506.856	89.88
507.073	94.88
507.289	84.88
507.506	91.88
507.722	100.88
507.939	116.88
508.155	100.88
508.372	85.88
508.588	83.88
508.805	106.88
509.021	99.88
509.238	101.88
509.454	92.88
509.67	101.88
509.887	107.88
510.103	120.88
510.319	193.88
510.536	743.88
510.752	2344.88
510.968	694.88
511.184	148.88
511.401	109.88
511.617	106.88
511.833	102.88
512.049	91.88
512.265	99.88
512.481	107.88
512.698	92.88
512.914	84.88
513.13	88.88
513.346	106.88
513.562	94.88
513.778	93.88
513.994	99.88
514.21	85.88
514.426	119.88
514.642	128.88
514.858	132.88
515.074	153.88
515.29	414.88
515.506	1428.88
515.721	546.88
