Data from Circ_2014_H10_HRD10591_00076.txt Node
Date: Wed Jan 03 10:02:24 EST 2024
User: Yrep
Spectrometer: HR+D1059
Trigger mode: 1
Integration Time (sec): 1.000000E-1
Scans to average: 1
Electric dark correction enabled: true
Nonlinearity correction enabled: false
Boxcar width: 0
XAxis mode: Wavelengths
Number of Pixels in Spectrum: 2048
>>>>>Begin Spectral Data<<<<<
223.165	-14
223.4	-14
223.635	-14
223.869	-21
224.104	-23
224.338	-4
224.573	-4
224.808	-22
225.042	-1
225.277	-21
225.511	-19
225.746	3
225.98	10
226.215	17
226.449	27
226.683	19
226.918	23
227.152	30
227.387	20
227.621	39
227.856	47
228.09	37
228.324	45
228.559	64
228.793	65
229.027	75
229.262	50
229.496	68
229.73	88
229.964	94
230.199	74
230.433	68
230.667	81
230.901	76
231.136	84
231.37	65
231.604	79
231.838	67
232.072	75
232.306	66
232.541	73
232.775	89
233.009	77
233.243	81
233.477	93
233.711	81
233.945	72
234.179	85
234.413	89
234.647	87
234.881	88
235.115	90
235.349	82
235.583	73
235.817	69
236.051	75
236.285	77
236.519	80
236.753	89
236.987	87
237.221	89
237.455	87
237.689	71
237.922	84
238.156	77
238.39	70
238.624	85
238.858	80
239.091	77
239.325	77
239.559	71
239.793	74
240.027	73
240.26	70
240.494	76
240.728	78
240.961	75
241.195	76
241.429	78
241.662	63
241.896	74
242.13	79
242.363	83
242.597	69
242.83	70
243.064	72
243.298	65
243.531	61
243.765	68
243.998	82
244.232	69
244.465	81
244.699	84
244.932	68
245.166	82
245.399	76
245.633	60
245.866	79
246.099	69
246.333	78
246.566	79
246.8	75
247.033	72
247.266	79
247.5	71
247.733	68
247.966	76
248.2	71
248.433	85
248.666	81
248.899	88
249.133	91
249.366	88
249.599	96
249.832	82
250.066	88
250.299	76
250.532	78
250.765	84
250.998	76
251.231	84
251.465	75
251.698	69
251.931	72
252.164	84
252.397	82
252.63	79
252.863	75
253.096	77
253.329	74
253.562	85
253.795	83
254.028	79
254.261	77
254.494	82
254.727	84
254.96	90
255.193	84
255.426	88
255.659	83
255.892	80
256.124	80
256.357	82
256.59	85
256.823	74
257.056	83
257.289	76
257.521	86
257.754	77
257.987	82
258.22	83
258.452	83
258.685	107
258.918	74
259.151	79
259.383	85
259.616	78
259.849	85
260.081	97
260.314	77
260.547	79
260.779	92
261.012	96
261.244	58
261.477	91
261.71	78
261.942	111
262.175	114
262.407	78
262.64	79
262.872	90
263.105	89
263.337	92
263.57	79
263.802	80
264.035	76
264.267	91
264.499	78
264.732	77
264.964	81
265.197	84
265.429	80
265.661	74
265.894	83
266.126	92
266.358	90
266.591	82
266.823	84
267.055	75
267.287	83
267.52	77
267.752	86
267.984	92
268.216	80
268.448	82
268.681	87
268.913	92
269.145	78
269.377	73
269.609	73
269.841	82
270.073	83
270.306	76
270.538	89
270.77	79
271.002	91
271.234	90
271.466	95
271.698	77
271.93	88
272.162	99
272.394	92
272.626	71
272.858	92
273.09	88
273.322	87
273.553	84
273.785	75
274.017	71
274.249	77
274.481	80
274.713	81
274.945	79
275.176	75
275.408	81
275.64	88
275.872	91
276.104	80
276.335	90
276.567	98
276.799	115
277.031	99
277.262	97
277.494	87
277.726	69
277.957	82
278.189	66
278.421	93
278.652	88
278.884	98
279.115	93
279.347	85
279.579	72
279.81	69
280.042	96
280.273	101
280.505	106
280.736	87
280.968	81
281.199	71
281.431	73
281.662	83
281.894	84
282.125	105
282.356	113
282.588	143
282.819	108
283.051	89
283.282	79
283.513	82
283.745	101
283.976	90
284.207	88
284.439	76
284.67	82
284.901	91
285.132	73
285.364	68
285.595	82
285.826	76
286.057	81
286.288	90
286.52	93
286.751	89
286.982	72
287.213	94
287.444	75
287.675	86
287.906	82
288.138	94
288.369	84
288.6	81
288.831	88
289.062	92
289.293	81
289.524	71
289.755	83
289.986	78
290.217	97
290.448	77
290.679	88
290.91	74
291.141	62
291.371	85
291.602	81
291.833	104
292.064	85
292.295	85
292.526	86
292.757	98
292.987	90
293.218	81
293.449	86
293.68	79
293.91	84
294.141	79
294.372	95
294.603	77
294.833	91
295.064	89
295.295	82
295.525	86
295.756	82
295.987	114
296.217	144
296.448	124
296.679	87
296.909	87
297.14	83
297.37	87
297.601	84
297.831	94
298.062	74
298.292	94
298.523	89
298.753	87
298.984	90
299.214	84
299.445	84
299.675	79
299.905	103
300.136	74
300.366	83
300.597	83
300.827	94
301.057	79
301.288	85
301.518	79
301.748	101
301.979	101
302.209	87
302.439	93
302.669	95
302.9	95
303.13	95
303.36	81
303.59	99
303.82	103
304.051	99
304.281	107
304.511	103
304.741	88
304.971	85
305.201	81
305.431	76
305.661	84
305.891	82
306.121	96
306.352	106
306.582	97
306.812	84
307.042	86
307.272	92
307.502	96
307.731	105
307.961	91
308.191	84
308.421	87
308.651	79
308.881	92
309.111	100
309.341	90
309.571	94
309.8	81
310.03	113
310.26	89
310.49	72
310.72	96
310.949	92
311.179	96
311.409	99
311.639	108
311.868	84
312.098	86
312.328	83
312.557	94
312.787	92
313.017	89
313.246	89
313.476	93
313.706	102
313.935	88
314.165	97
314.394	83
314.624	107
314.853	100
315.083	96
315.312	93
315.542	92
315.771	98
316.001	95
316.23	75
316.46	93
316.689	83
316.919	90
317.148	83
317.377	70
317.607	93
317.836	76
318.065	83
318.295	95
318.524	83
318.753	86
318.983	86
319.212	96
319.441	106
319.67	108
319.9	72
320.129	100
320.358	80
320.587	75
320.816	85
321.046	98
321.275	91
321.504	89
321.733	104
321.962	102
322.191	96
322.42	88
322.649	84
322.878	91
323.108	105
323.337	104
323.566	128
323.795	144
324.024	179
324.253	349
324.482	713
324.71	1385
324.939	1817
325.168	689
325.397	223
325.626	134
325.855	131
326.084	118
326.313	134
326.542	140
326.77	209
326.999	389
327.228	752
327.457	1348
327.686	1133
327.914	329
328.143	179
328.372	159
328.6	112
328.829	105
329.058	112
329.287	114
329.515	100
329.744	105
329.972	115
330.201	164
330.43	180
330.658	148
330.887	136
331.115	120
331.344	107
331.572	111
331.801	104
332.03	95
332.258	99
332.486	91
332.715	94
332.943	96
333.172	91
333.4	83
333.629	99
333.857	124
334.085	111
334.314	151
334.542	208
334.771	196
334.999	109
335.227	95
335.455	100
335.684	90
335.912	89
336.14	106
336.369	84
336.597	91
336.825	91
337.053	94
337.281	92
337.51	100
337.738	100
337.966	85
338.194	91
338.422	99
338.65	72
338.878	81
339.106	87
339.334	80
339.562	84
339.79	82
340.018	88
340.246	91
340.474	82
340.702	83
340.93	89
341.158	84
341.386	99
341.614	100
341.842	88
342.07	90
342.298	107
342.526	87
342.754	84
342.981	77
343.209	87
343.437	100
343.665	79
343.893	95
344.12	96
344.348	84
344.576	94
344.804	85
345.031	92
345.259	105
345.487	85
345.714	89
345.942	91
346.17	77
346.397	91
346.625	88
346.853	94
347.08	84
347.308	84
347.535	97
347.763	92
347.99	94
348.218	90
348.445	99
348.673	95
348.9	87
349.128	95
349.355	89
349.583	89
349.81	86
350.037	91
350.265	92
350.492	92
350.72	80
350.947	101
351.174	106
351.402	103
351.629	86
351.856	92
352.083	94
352.311	96
352.538	112
352.765	116
352.992	113
353.22	98
353.447	103
353.674	93
353.901	88
354.128	90
354.355	87
354.583	93
354.81	97
355.037	105
355.264	90
355.491	96
355.718	93
355.945	85
356.172	95
356.399	113
356.626	89
356.853	92
357.08	102
357.307	88
357.534	94
357.761	81
357.988	93
358.215	106
358.441	93
358.668	82
358.895	80
359.122	85
359.349	94
359.576	79
359.802	96
360.029	97
360.256	104
360.483	102
360.709	88
360.936	92
361.163	89
361.39	97
361.616	88
361.843	96
362.07	73
362.296	97
362.523	89
362.749	83
362.976	89
363.203	100
363.429	89
363.656	96
363.882	88
364.109	95
364.335	94
364.562	87
364.788	91
365.015	91
365.241	102
365.468	113
365.694	96
365.92	86
366.147	78
366.373	83
366.599	88
366.826	84
367.052	81
367.278	86
367.505	88
367.731	95
367.957	96
368.184	89
368.41	99
368.636	101
368.862	110
369.089	102
369.315	93
369.541	86
369.767	83
369.993	89
370.219	91
370.445	97
370.672	89
370.898	99
371.124	80
371.35	83
371.576	93
371.802	69
372.028	78
372.254	97
372.48	95
372.706	85
372.932	88
373.158	92
373.384	95
373.61	85
373.835	80
374.061	85
374.287	76
374.513	83
374.739	85
374.965	89
375.191	88
375.416	96
375.642	87
375.868	77
376.094	89
376.319	87
376.545	84
376.771	91
376.997	96
377.222	83
377.448	89
377.674	97
377.899	106
378.125	100
378.35	87
378.576	76
378.802	88
379.027	89
379.253	96
379.478	97
379.704	91
379.929	97
380.155	96
380.38	95
380.606	89
380.831	81
381.057	86
381.282	95
381.507	113
381.733	95
381.958	100
382.184	87
382.409	83
382.634	97
382.86	85
383.085	86
383.31	92
383.535	100
383.761	95
383.986	89
384.211	92
384.436	101
384.662	75
384.887	97
385.112	93
385.337	107
385.562	101
385.787	94
386.013	99
386.238	111
386.463	99
386.688	109
386.913	93
387.138	99
387.363	108
387.588	100
387.813	82
388.038	93
388.263	115
388.488	106
388.713	91
388.938	100
389.163	98
389.387	91
389.612	108
389.837	82
390.062	80
390.287	84
390.512	89
390.736	78
390.961	71
391.186	72
391.411	85
391.636	81
391.86	80
392.085	82
392.31	85
392.534	72
392.759	76
392.984	87
393.208	84
393.433	84
393.658	82
393.882	92
394.107	80
394.331	95
394.556	91
394.78	85
395.005	81
395.229	80
395.454	81
395.678	81
395.903	87
396.127	87
396.352	77
396.576	81
396.801	74
397.025	83
397.249	70
397.474	94
397.698	74
397.922	85
398.147	85
398.371	78
398.595	85
398.82	83
399.044	63
399.268	90
399.492	73
399.717	87
399.941	91
400.165	81
400.389	85
400.613	90
400.837	77
401.062	97
401.286	68
401.51	84
401.734	82
401.958	90
402.182	123
402.406	155
402.63	121
402.854	91
403.078	84
403.302	87
403.526	95
403.75	75
403.974	100
404.198	92
404.422	97
404.645	87
404.869	88
405.093	90
405.317	90
405.541	90
405.765	89
405.988	96
406.212	165
406.436	207
406.66	124
406.883	83
407.107	97
407.331	83
407.555	110
407.778	92
408.002	88
408.226	89
408.449	83
408.673	88
408.896	85
409.12	89
409.344	78
409.567	95
409.791	85
410.014	92
410.238	89
410.461	85
410.685	94
410.908	97
411.132	104
411.355	92
411.578	82
411.802	92
412.025	79
412.249	92
412.472	113
412.695	108
412.919	95
413.142	91
413.365	87
413.589	92
413.812	87
414.035	76
414.258	85
414.482	86
414.705	79
414.928	100
415.151	83
415.374	83
415.597	79
415.821	82
416.044	71
416.267	74
416.49	84
416.713	79
416.936	95
417.159	86
417.382	83
417.605	80
417.828	70
418.051	92
418.274	85
418.497	86
418.72	82
418.943	92
419.166	77
419.389	83
419.611	72
419.834	95
420.057	81
420.28	90
420.503	95
420.726	82
420.948	83
421.171	91
421.394	76
421.617	80
421.839	95
422.062	99
422.285	90
422.507	90
422.73	93
422.953	99
423.175	99
423.398	72
423.621	77
423.843	77
424.066	82
424.288	76
424.511	88
424.733	76
424.956	89
425.178	82
425.401	105
425.623	114
425.846	102
426.068	96
426.291	95
426.513	80
426.735	86
426.958	96
427.18	99
427.402	139
427.625	160
427.847	123
428.069	109
428.292	96
428.514	98
428.736	91
428.958	83
429.181	82
429.403	96
429.625	79
429.847	89
430.069	92
430.292	98
430.514	75
430.736	77
430.958	97
431.18	80
431.402	75
431.624	91
431.846	96
432.068	90
432.29	91
432.512	75
432.734	95
432.956	89
433.178	97
433.4	103
433.622	91
433.844	85
434.066	99
434.287	93
434.509	85
434.731	86
434.953	77
435.175	74
435.397	87
435.618	81
435.84	96
436.062	101
436.284	106
436.505	104
436.727	108
436.949	90
437.17	77
437.392	79
437.614	86
437.835	112
438.057	113
438.278	102
438.5	99
438.721	111
438.943	104
439.165	94
439.386	96
439.608	94
439.829	87
440.05	109
440.272	117
440.493	94
440.715	88
440.936	81
441.158	85
441.379	85
441.6	86
441.822	81
442.043	98
442.264	103
442.486	88
442.707	96
442.928	114
443.149	106
443.371	129
443.592	107
443.813	96
444.034	81
444.255	79
444.476	79
444.698	83
444.919	85
445.14	134
445.361	121
445.582	117
445.803	123
446.024	132
446.245	119
446.466	101
446.687	75
446.908	81
447.129	92
447.35	91
447.571	106
447.792	83
448.013	103
448.234	113
448.455	96
448.675	113
448.896	118
449.117	92
449.338	106
449.559	113
449.779	125
450	93
450.221	76
450.442	98
450.662	106
450.883	104
451.104	111
451.324	88
451.545	79
451.766	89
451.986	100
452.207	88
452.428	96
452.648	91
452.869	99
453.089	123
453.31	99
453.53	95
453.751	91
453.971	106
454.192	99
454.412	91
454.633	90
454.853	91
455.073	88
455.294	97
455.514	97
455.734	78
455.955	85
456.175	72
456.395	93
456.616	84
456.836	87
457.056	84
457.276	86
457.497	87
457.717	93
457.937	73
458.157	85
458.377	91
458.598	110
458.818	124
459.038	162
459.258	101
459.478	87
459.698	79
459.918	89
460.138	87
460.358	83
460.578	84
460.798	80
461.018	88
461.238	90
461.458	93
461.678	85
461.898	98
462.118	92
462.338	81
462.558	74
462.777	91
462.997	96
463.217	83
463.437	68
463.657	82
463.876	84
464.096	87
464.316	103
464.536	78
464.755	91
464.975	101
465.195	154
465.414	145
465.634	91
465.854	85
466.073	88
466.293	93
466.512	83
466.732	80
466.951	80
467.171	83
467.391	97
467.61	93
467.829	100
468.049	129
468.268	131
468.488	90
468.707	78
468.927	78
469.146	77
469.365	77
469.585	88
469.804	93
470.023	93
470.243	85
470.462	90
470.681	114
470.901	88
471.12	87
471.339	82
471.558	85
471.777	108
471.997	91
472.216	165
472.435	254
472.654	97
472.873	77
473.092	85
473.311	80
473.53	85
473.749	88
473.968	101
474.187	103
474.406	87
474.625	84
474.844	84
475.063	88
475.282	92
475.501	91
475.72	93
475.939	88
476.158	93
476.377	84
476.596	89
476.814	111
477.033	90
477.252	100
477.471	85
477.69	82
477.908	71
478.127	92
478.346	100
478.564	86
478.783	82
479.002	106
479.22	92
479.439	94
479.658	94
479.876	87
480.095	75
480.313	90
480.532	96
480.751	93
480.969	147
481.188	374
481.406	279
481.624	101
481.843	90
482.061	75
482.28	84
482.498	81
482.717	86
482.935	88
483.153	94
483.372	83
483.59	86
483.808	85
484.027	91
484.245	91
484.463	87
484.681	96
484.9	93
485.118	109
485.336	96
485.554	100
485.772	98
485.99	95
486.209	102
486.427	107
486.645	111
486.863	107
487.081	101
487.299	75
487.517	87
487.735	85
487.953	85
488.171	82
488.389	97
488.607	95
488.825	81
489.043	80
489.261	88
489.479	104
489.696	93
489.914	97
490.132	86
490.35	91
490.568	92
490.786	91
491.003	87
491.221	82
491.439	68
491.657	96
491.874	85
492.092	82
492.31	78
492.527	100
492.745	87
492.963	86
493.18	80
493.398	88
493.615	74
493.833	96
494.05	79
494.268	86
494.485	91
494.703	90
494.92	82
495.138	90
495.355	87
495.573	81
495.79	86
496.008	87
496.225	104
496.442	88
496.66	103
496.877	85
497.094	92
497.312	83
497.529	78
497.746	75
497.963	92
498.181	85
498.398	90
498.615	115
498.832	90
499.049	71
499.267	96
499.484	81
499.701	89
499.918	92
500.135	88
500.352	75
500.569	76
500.786	80
501.003	76
501.22	77
501.437	89
501.654	89
501.871	102
502.088	98
502.305	94
502.522	95
502.739	83
502.956	85
503.172	90
503.389	86
503.606	87
503.823	93
504.04	93
504.256	93
504.473	83
504.69	91
504.907	83
505.123	73
505.34	89
505.557	88
505.773	103
505.99	91
506.207	81
506.423	80
506.64	85
506.856	92
507.073	92
507.289	91
507.506	84
507.722	106
507.939	109
508.155	87
508.372	99
508.588	90
508.805	83
509.021	96
509.238	90
509.454	103
509.67	101
509.887	107
510.103	108
510.319	191
510.536	700
510.752	2341
510.968	676
511.184	165
511.401	95
511.617	108
511.833	104
512.049	82
512.265	88
512.481	77
512.698	100
512.914	87
513.13	83
513.346	84
513.562	96
513.778	96
513.994	94
514.21	74
514.426	123
514.642	144
514.858	114
515.074	151
515.29	407
515.506	1415
515.721	533
515.937	145
516.153	100
516.369	104
516.585	97
516.801	83
517.016	88
517.232	96
517.448	80
517.664	86
517.879	92
518.095	89
518.311	93
518.527	85
518.742	91
518.958	92
519.173	86
519.389	92
519.605	91
519.82	99
520.036	91
520.251	125
520.467	121
520.682	91
520.898	99
521.113	111
521.329	127
521.544	187
521.76	527
521.975	2280
522.19	1443
522.406	309
522.621	138
522.836	95
523.052	79
523.267	96
523.482	95
523.698	103
523.913	112
524.128	111
524.343	91
524.559	85
524.774	86
524.989	103
525.204	108
525.419	99
525.634	74
525.849	87
526.064	89
526.28	92
526.495	72
526.71	89
526.925	87
527.14	72
527.355	75
527.57	91
527.785	96
527.999	89
528.214	84
528.429	72
528.644	81
528.859	88
529.074	95
529.289	124
529.503	171
529.718	91
529.933	91
530.148	82
530.363	74
530.577	87
530.792	94
531.007	92
531.221	83
531.436	88
531.651	89
531.865	101
532.08	81
532.295	91
532.509	94
532.724	72
532.938	84
533.153	106
533.367	76
533.582	112
533.796	94
534.011	87
534.225	81
534.44	87
534.654	89
534.868	90
535.083	97
535.297	93
535.511	104
535.726	85
535.94	99
536.154	86
536.369	91
536.583	79
536.797	79
537.011	80
537.225	83
537.44	103
537.654	83
537.868	95
538.082	73
538.296	79
538.51	79
538.724	82
538.938	101
539.153	106
539.367	112
539.581	91
539.795	91
540.009	73
540.222	97
540.436	77
540.65	83
540.864	102
541.078	93
541.292	92
541.506	91
541.72	79
541.934	80
542.147	89
542.361	92
542.575	83
542.789	85
543.002	77
543.216	70
543.43	98
543.644	98
543.857	77
544.071	73
544.285	80
544.498	81
544.712	95
544.925	83
545.139	76
545.352	76
545.566	90
545.779	67
545.993	70
546.206	92
546.42	99
546.633	79
546.847	95
547.06	96
547.274	87
547.487	89
547.7	92
547.914	86
548.127	74
548.34	75
548.554	67
548.767	83
548.98	80
549.193	82
549.407	82
549.62	89
549.833	92
550.046	88
550.259	84
550.473	82
550.686	73
550.899	81
551.112	89
551.325	89
551.538	89
551.751	99
551.964	85
552.177	72
552.39	68
552.603	71
552.816	85
553.029	87
553.242	79
553.455	94
553.667	90
553.88	97
554.093	84
554.306	93
554.519	66
554.732	86
554.944	85
555.157	74
555.37	90
555.583	99
555.795	94
556.008	91
556.221	99
556.433	86
556.646	75
556.859	90
557.071	95
557.284	89
557.496	90
557.709	102
557.921	92
558.134	105
558.346	98
558.559	97
558.771	84
558.984	84
559.196	84
559.409	81
559.621	80
559.833	81
560.046	78
560.258	82
560.47	96
560.683	96
560.895	98
561.107	92
561.32	82
561.532	93
561.744	84
561.956	103
562.168	95
562.381	81
562.593	85
562.805	90
563.017	87
563.229	85
563.441	81
563.653	82
563.865	72
564.077	77
564.289	97
564.501	87
564.713	80
564.925	81
565.137	101
565.349	95
565.561	81
565.773	88
565.985	84
566.197	88
566.408	84
566.62	93
566.832	97
567.044	85
567.255	79
567.467	90
567.679	94
567.891	95
568.102	75
568.314	79
568.526	74
568.737	71
568.949	85
569.161	68
569.372	83
569.584	79
569.795	105
570.007	107
570.218	236
570.43	125
570.641	100
570.853	87
571.064	86
571.276	86
571.487	75
571.698	95
571.91	78
572.121	100
572.333	87
572.544	91
572.755	94
572.966	81
573.178	104
573.389	74
573.6	76
573.811	85
574.023	77
574.234	100
574.445	81
574.656	77
574.867	71
575.078	87
575.289	89
575.501	81
575.712	82
575.923	85
576.134	87
576.345	82
576.556	83
576.767	83
576.978	89
577.188	85
577.399	105
577.61	101
577.821	92
578.032	114
578.243	249
578.454	732
578.665	223
578.875	125
579.086	80
579.297	73
579.508	94
579.718	78
579.929	86
580.14	87
580.35	88
580.561	90
580.772	91
580.982	81
581.193	96
581.403	88
581.614	83
581.825	81
582.035	86
582.246	74
582.456	86
582.667	85
582.877	76
583.087	78
583.298	83
583.508	73
583.719	77
583.929	88
584.139	84
584.35	88
584.56	88
584.77	82
584.981	83
585.191	98
585.401	78
585.611	95
585.821	85
