Data from Circ_2014_H10_HRD10591_00001.txt Node
Date: Wed Jan 03 10:02:09 EST 2024
User: Yrep
Spectrometer: HR+D1059
Trigger mode: 1
Integration Time (sec): 1.000000E-1
Scans to average: 1
Electric dark correction enabled: true
Nonlinearity correction enabled: false
Boxcar width: 0
XAxis mode: Wavelengths
Number of Pixels in Spectrum: 2048
>>>>>Begin Spectral Data<<<<<
223.165	-14.56
223.4	-14.56
223.635	-14.56
223.869	-13.56
224.104	-23.56
224.338	-4.56
224.573	-22.56
224.808	-10.56
225.042	-8.56
225.277	-1.56
225.511	-1.56
225.746	-5.56
225.98	3.44
226.215	14.44
226.449	16.44
226.683	12.44
226.918	27.44
227.152	32.44
227.387	33.44
227.621	47.44
227.856	44.44
228.09	41.44
228.324	60.44
228.559	59.44
228.793	64.44
229.027	57.44
229.262	76.44
229.496	73.44
229.73	90.44
229.964	71.44
230.199	83.44
230.433	69.44
230.667	67.44
230.901	91.44
231.136	71.44
231.37	86.44
231.604	76.44
231.838	90.44
232.072	85.44
232.306	78.44
232.541	88.44
232.775	71.44
233.009	95.44
233.243	100.44
233.477	72.44
233.711	88.44
233.945	90.44
234.179	81.44
234.413	84.44
234.647	83.44
234.881	86.44
235.115	85.44
235.349	89.44
235.583	80.44
235.817	80.44
236.051	81.44
236.285	77.44
236.519	87.44
236.753	78.44
236.987	100.44
237.221	87.44
237.455	92.44
237.689	68.44
237.922	79.44
238.156	88.44
238.39	78.44
238.624	92.44
238.858	77.44
239.091	71.44
239.325	72.44
239.559	83.44
239.793	78.44
240.027	77.44
240.26	85.44
240.494	81.44
240.728	88.44
240.961	75.44
241.195	87.44
241.429	83.44
241.662	75.44
241.896	76.44
242.13	73.44
242.363	73.44
242.597	71.44
242.83	78.44
243.064	78.44
243.298	73.44
243.531	85.44
243.765	77.44
243.998	69.44
244.232	77.44
244.465	81.44
244.699	83.44
244.932	67.44
245.166	80.44
245.399	91.44
245.633	85.44
245.866	76.44
246.099	72.44
246.333	73.44
246.566	87.44
246.8	64.44
247.033	78.44
247.266	71.44
247.5	76.44
247.733	79.44
247.966	85.44
248.2	84.44
248.433	77.44
248.666	80.44
248.899	87.44
249.133	87.44
249.366	92.44
249.599	92.44
249.832	80.44
250.066	76.44
250.299	81.44
250.532	88.44
250.765	80.44
250.998	82.44
251.231	84.44
251.465	75.44
251.698	84.44
251.931	96.44
252.164	62.44
252.397	70.44
252.63	86.44
252.863	88.44
253.096	75.44
253.329	92.44
253.562	77.44
253.795	76.44
254.028	90.44
254.261	81.44
254.494	76.44
254.727	84.44
254.96	69.44
255.193	84.44
255.426	84.44
255.659	78.44
255.892	83.44
256.124	80.44
256.357	61.44
256.59	87.44
256.823	81.44
257.056	93.44
257.289	91.44
257.521	80.44
257.754	88.44
257.987	82.44
258.22	97.44
258.452	77.44
258.685	82.44
258.918	80.44
259.151	81.44
259.383	91.44
259.616	84.44
259.849	77.44
260.081	62.44
260.314	92.44
260.547	85.44
260.779	88.44
261.012	97.44
261.244	87.44
261.477	91.44
261.71	93.44
261.942	116.44
262.175	128.44
262.407	87.44
262.64	91.44
262.872	92.44
263.105	85.44
263.337	81.44
263.57	90.44
263.802	75.44
264.035	84.44
264.267	85.44
264.499	79.44
264.732	80.44
264.964	79.44
265.197	88.44
265.429	72.44
265.661	96.44
265.894	87.44
266.126	70.44
266.358	78.44
266.591	92.44
266.823	83.44
267.055	102.44
267.287	81.44
267.52	81.44
267.752	88.44
267.984	83.44
268.216	92.44
268.448	78.44
268.681	70.44
268.913	81.44
269.145	84.44
269.377	88.44
269.609	95.44
269.841	77.44
270.073	86.44
270.306	72.44
270.538	84.44
270.77	98.44
271.002	85.44
271.234	88.44
271.466	84.44
271.698	79.44
271.93	92.44
272.162	78.44
272.394	91.44
272.626	79.44
272.858	82.44
273.09	96.44
273.322	91.44
273.553	77.44
273.785	72.44
274.017	79.44
274.249	62.44
274.481	84.44
274.713	83.44
274.945	85.44
275.176	92.44
275.408	74.44
275.64	85.44
275.872	64.44
276.104	89.44
276.335	92.44
276.567	95.44
276.799	96.44
277.031	110.44
277.262	84.44
277.494	86.44
277.726	94.44
277.957	74.44
278.189	91.44
278.421	91.44
278.652	84.44
278.884	90.44
279.115	84.44
279.347	72.44
279.579	81.44
279.81	88.44
280.042	76.44
280.273	84.44
280.505	89.44
280.736	88.44
280.968	79.44
281.199	92.44
281.431	78.44
281.662	91.44
281.894	75.44
282.125	94.44
282.356	121.44
282.588	149.44
282.819	123.44
283.051	87.44
283.282	87.44
283.513	94.44
283.745	92.44
283.976	96.44
284.207	90.44
284.439	83.44
284.67	92.44
284.901	86.44
285.132	88.44
285.364	84.44
285.595	94.44
285.826	73.44
286.057	95.44
286.288	92.44
286.52	87.44
286.751	91.44
286.982	85.44
287.213	94.44
287.444	87.44
287.675	90.44
287.906	79.44
288.138	82.44
288.369	99.44
288.6	95.44
288.831	85.44
289.062	87.44
289.293	84.44
289.524	88.44
289.755	86.44
289.986	80.44
290.217	73.44
290.448	97.44
290.679	88.44
290.91	78.44
291.141	93.44
291.371	93.44
291.602	91.44
291.833	90.44
292.064	99.44
292.295	95.44
292.526	107.44
292.757	79.44
292.987	91.44
293.218	85.44
293.449	80.44
293.68	92.44
293.91	75.44
294.141	93.44
294.372	96.44
294.603	99.44
294.833	94.44
295.064	88.44
295.295	89.44
295.525	96.44
295.756	91.44
295.987	102.44
296.217	144.44
296.448	126.44
296.679	104.44
296.909	93.44
297.14	100.44
297.37	91.44
297.601	95.44
297.831	86.44
298.062	90.44
298.292	93.44
298.523	93.44
298.753	89.44
298.984	86.44
299.214	92.44
299.445	93.44
299.675	91.44
299.905	79.44
300.136	86.44
300.366	88.44
300.597	97.44
300.827	97.44
301.057	101.44
301.288	98.44
301.518	91.44
301.748	97.44
301.979	95.44
302.209	85.44
302.439	85.44
302.669	82.44
302.9	88.44
303.13	105.44
303.36	91.44
303.59	110.44
303.82	96.44
304.051	100.44
304.281	81.44
304.511	98.44
304.741	94.44
304.971	102.44
305.201	101.44
305.431	96.44
305.661	83.44
305.891	98.44
306.121	108.44
306.352	100.44
306.582	107.44
306.812	102.44
307.042	87.44
307.272	91.44
307.502	100.44
307.731	96.44
307.961	92.44
308.191	96.44
308.421	92.44
308.651	84.44
308.881	103.44
309.111	99.44
309.341	87.44
309.571	108.44
309.8	90.44
310.03	97.44
310.26	104.44
310.49	95.44
310.72	88.44
310.949	89.44
311.179	93.44
311.409	89.44
311.639	92.44
311.868	109.44
312.098	93.44
312.328	97.44
312.557	117.44
312.787	101.44
313.017	92.44
313.246	95.44
313.476	95.44
313.706	76.44
313.935	92.44
314.165	101.44
314.394	98.44
314.624	104.44
314.853	110.44
315.083	96.44
315.312	95.44
315.542	96.44
315.771	89.44
316.001	97.44
316.23	101.44
316.46	108.44
316.689	99.44
316.919	90.44
317.148	103.44
317.377	104.44
317.607	87.44
317.836	91.44
318.065	92.44
318.295	79.44
318.524	86.44
318.753	104.44
318.983	102.44
319.212	99.44
319.441	115.44
319.67	111.44
319.9	91.44
320.129	107.44
320.358	89.44
320.587	101.44
320.816	108.44
321.046	94.44
321.275	99.44
321.504	89.44
321.733	84.44
321.962	109.44
322.191	101.44
322.42	108.44
322.649	104.44
322.878	106.44
323.108	120.44
323.337	118.44
323.566	143.44
323.795	159.44
324.024	217.44
324.253	418.44
324.482	886.44
324.71	1818.44
324.939	2351.44
325.168	895.44
325.397	259.44
325.626	155.44
325.855	121.44
326.084	116.44
326.313	136.44
326.542	167.44
326.77	227.44
326.999	461.44
327.228	991.44
327.457	1836.44
327.686	1461.44
327.914	377.44
328.143	211.44
328.372	153.44
328.6	122.44
328.829	118.44
329.058	148.44
329.287	137.44
329.515	113.44
329.744	105.44
329.972	100.44
330.201	108.44
330.43	95.44
330.658	121.44
330.887	138.44
331.115	130.44
331.344	104.44
331.572	108.44
331.801	100.44
332.03	108.44
332.258	86.44
332.486	87.44
332.715	84.44
332.943	97.44
333.172	88.44
333.4	97.44
333.629	120.44
333.857	120.44
334.085	111.44
334.314	99.44
334.542	83.44
334.771	100.44
334.999	97.44
335.227	99.44
335.455	92.44
335.684	96.44
335.912	102.44
336.14	111.44
336.369	113.44
336.597	112.44
336.825	82.44
337.053	102.44
337.281	97.44
337.51	90.44
337.738	95.44
337.966	90.44
338.194	95.44
338.422	95.44
338.65	104.44
338.878	84.44
339.106	92.44
339.334	108.44
339.562	94.44
339.79	97.44
340.018	96.44
340.246	90.44
340.474	102.44
340.702	102.44
340.93	95.44
341.158	88.44
341.386	99.44
341.614	113.44
341.842	100.44
342.07	82.44
342.298	100.44
342.526	92.44
342.754	69.44
342.981	87.44
343.209	99.44
343.437	104.44
343.665	94.44
343.893	90.44
344.12	87.44
344.348	99.44
344.576	94.44
344.804	100.44
345.031	94.44
345.259	112.44
345.487	99.44
345.714	105.44
345.942	95.44
346.17	91.44
346.397	94.44
346.625	101.44
346.853	87.44
347.08	95.44
347.308	109.44
347.535	85.44
347.763	103.44
347.99	108.44
348.218	110.44
348.445	108.44
348.673	109.44
348.9	100.44
349.128	101.44
349.355	80.44
349.583	120.44
349.81	91.44
350.037	108.44
350.265	101.44
350.492	92.44
350.72	105.44
350.947	93.44
351.174	112.44
351.402	113.44
351.629	103.44
351.856	110.44
352.083	99.44
352.311	116.44
352.538	103.44
352.765	109.44
352.992	128.44
353.22	132.44
353.447	91.44
353.674	89.44
353.901	92.44
354.128	101.44
354.355	87.44
354.583	105.44
354.81	103.44
355.037	92.44
355.264	105.44
355.491	80.44
355.718	98.44
355.945	102.44
356.172	97.44
356.399	106.44
356.626	105.44
356.853	100.44
357.08	95.44
357.307	102.44
357.534	96.44
357.761	106.44
357.988	95.44
358.215	96.44
358.441	102.44
358.668	103.44
358.895	99.44
359.122	104.44
359.349	109.44
359.576	107.44
359.802	107.44
360.029	109.44
360.256	105.44
360.483	100.44
360.709	99.44
360.936	102.44
361.163	89.44
361.39	96.44
361.616	103.44
361.843	94.44
362.07	90.44
362.296	95.44
362.523	93.44
362.749	102.44
362.976	90.44
363.203	112.44
363.429	102.44
363.656	82.44
363.882	77.44
364.109	93.44
364.335	85.44
364.562	95.44
364.788	88.44
365.015	92.44
365.241	95.44
365.468	116.44
365.694	115.44
365.92	91.44
366.147	84.44
366.373	91.44
366.599	98.44
366.826	112.44
367.052	101.44
367.278	102.44
367.505	101.44
367.731	93.44
367.957	94.44
368.184	90.44
368.41	104.44
368.636	108.44
368.862	131.44
369.089	117.44
369.315	108.44
369.541	101.44
369.767	116.44
369.993	97.44
370.219	86.44
370.445	96.44
370.672	84.44
370.898	76.44
371.124	80.44
371.35	97.44
371.576	102.44
371.802	94.44
372.028	77.44
372.254	94.44
372.48	82.44
372.706	85.44
372.932	88.44
373.158	90.44
373.384	91.44
373.61	82.44
373.835	93.44
374.061	80.44
374.287	89.44
374.513	88.44
374.739	86.44
374.965	100.44
375.191	105.44
375.416	94.44
375.642	111.44
375.868	99.44
376.094	99.44
376.319	95.44
376.545	74.44
376.771	90.44
376.997	90.44
377.222	104.44
377.448	85.44
377.674	94.44
377.899	105.44
378.125	101.44
378.35	94.44
378.576	90.44
378.802	88.44
379.027	96.44
379.253	103.44
379.478	94.44
379.704	95.44
379.929	89.44
380.155	101.44
380.38	115.44
380.606	124.44
380.831	104.44
381.057	116.44
381.282	115.44
381.507	116.44
381.733	105.44
381.958	99.44
382.184	112.44
382.409	119.44
382.634	109.44
382.86	117.44
383.085	94.44
383.31	108.44
383.535	118.44
383.761	119.44
383.986	109.44
384.211	112.44
384.436	103.44
384.662	120.44
384.887	137.44
385.112	137.44
385.337	132.44
385.562	101.44
385.787	127.44
386.013	129.44
386.238	137.44
386.463	132.44
386.688	134.44
386.913	125.44
387.138	125.44
387.363	117.44
387.588	115.44
387.813	128.44
388.038	138.44
388.263	144.44
388.488	127.44
388.713	118.44
388.938	97.44
389.163	89.44
389.387	90.44
389.612	108.44
389.837	96.44
390.062	92.44
390.287	86.44
390.512	87.44
390.736	87.44
390.961	93.44
391.186	94.44
391.411	96.44
391.636	99.44
391.86	100.44
392.085	92.44
392.31	96.44
392.534	93.44
392.759	96.44
392.984	86.44
393.208	88.44
393.433	115.44
393.658	94.44
393.882	91.44
394.107	101.44
394.331	95.44
394.556	103.44
394.78	96.44
395.005	97.44
395.229	85.44
395.454	70.44
395.678	91.44
395.903	88.44
396.127	95.44
396.352	69.44
396.576	86.44
396.801	96.44
397.025	104.44
397.249	96.44
397.474	88.44
397.698	92.44
397.922	87.44
398.147	102.44
398.371	80.44
398.595	92.44
398.82	79.44
399.044	85.44
399.268	91.44
399.492	85.44
399.717	91.44
399.941	88.44
400.165	103.44
400.389	88.44
400.613	79.44
400.837	104.44
401.062	88.44
401.286	91.44
401.51	91.44
401.734	104.44
401.958	97.44
402.182	129.44
402.406	179.44
402.63	127.44
402.854	88.44
403.078	102.44
403.302	82.44
403.526	88.44
403.75	102.44
403.974	88.44
404.198	92.44
404.422	96.44
404.645	79.44
404.869	90.44
405.093	95.44
405.317	96.44
405.541	101.44
405.765	96.44
405.988	135.44
406.212	172.44
406.436	259.44
406.66	160.44
406.883	114.44
407.107	95.44
407.331	99.44
407.555	83.44
407.778	96.44
408.002	85.44
408.226	80.44
408.449	98.44
408.673	90.44
408.896	102.44
409.12	101.44
409.344	102.44
409.567	93.44
409.791	98.44
410.014	93.44
410.238	99.44
410.461	93.44
410.685	94.44
410.908	87.44
411.132	100.44
411.355	99.44
411.578	99.44
411.802	99.44
412.025	92.44
412.249	91.44
412.472	73.44
412.695	102.44
412.919	97.44
413.142	84.44
413.365	91.44
413.589	95.44
413.812	95.44
414.035	92.44
414.258	83.44
414.482	81.44
414.705	101.44
414.928	103.44
415.151	92.44
415.374	96.44
415.597	101.44
415.821	84.44
416.044	89.44
416.267	94.44
416.49	98.44
416.713	89.44
416.936	102.44
417.159	92.44
417.382	94.44
417.605	108.44
417.828	101.44
418.051	87.44
418.274	86.44
418.497	76.44
418.72	94.44
418.943	97.44
419.166	81.44
419.389	100.44
419.611	99.44
419.834	88.44
420.057	99.44
420.28	95.44
420.503	86.44
420.726	92.44
420.948	86.44
421.171	98.44
421.394	92.44
421.617	89.44
421.839	105.44
422.062	105.44
422.285	96.44
422.507	95.44
422.73	102.44
422.953	102.44
423.175	92.44
423.398	109.44
423.621	100.44
423.843	91.44
424.066	97.44
424.288	102.44
424.511	85.44
424.733	97.44
424.956	101.44
425.178	116.44
425.401	119.44
425.623	107.44
425.846	76.44
426.068	93.44
426.291	107.44
426.513	101.44
426.735	77.44
426.958	87.44
427.18	103.44
427.402	142.44
427.625	157.44
427.847	120.44
428.069	109.44
428.292	98.44
428.514	97.44
428.736	81.44
428.958	86.44
429.181	97.44
429.403	76.44
429.625	81.44
429.847	81.44
430.069	109.44
430.292	100.44
430.514	79.44
430.736	99.44
430.958	91.44
431.18	92.44
431.402	101.44
431.624	92.44
431.846	97.44
432.068	101.44
432.29	87.44
432.512	107.44
432.734	98.44
432.956	85.44
433.178	86.44
433.4	115.44
433.622	74.44
433.844	99.44
434.066	81.44
434.287	97.44
434.509	95.44
434.731	95.44
434.953	88.44
435.175	90.44
435.397	81.44
435.618	94.44
435.84	115.44
436.062	133.44
436.284	124.44
436.505	111.44
436.727	110.44
436.949	99.44
437.17	96.44
437.392	86.44
437.614	98.44
437.835	116.44
438.057	126.44
438.278	117.44
438.5	116.44
438.721	140.44
438.943	96.44
439.165	84.44
439.386	104.44
439.608	100.44
439.829	99.44
440.05	141.44
440.272	155.44
440.493	104.44
440.715	82.44
440.936	98.44
441.158	93.44
441.379	99.44
441.6	95.44
441.822	100.44
442.043	108.44
442.264	120.44
442.486	99.44
442.707	86.44
442.928	107.44
443.149	143.44
443.371	127.44
443.592	119.44
443.813	116.44
444.034	92.44
444.255	94.44
444.476	95.44
444.698	90.44
444.919	95.44
445.14	131.44
445.361	144.44
445.582	120.44
445.803	144.44
446.024	137.44
446.245	123.44
446.466	118.44
446.687	89.44
446.908	96.44
447.129	82.44
447.35	85.44
447.571	101.44
447.792	102.44
448.013	108.44
448.234	107.44
448.455	120.44
448.675	106.44
448.896	125.44
449.117	106.44
449.338	123.44
449.559	141.44
449.779	124.44
450	96.44
450.221	95.44
450.442	86.44
450.662	89.44
450.883	115.44
451.104	110.44
451.324	95.44
451.545	75.44
451.766	79.44
451.986	92.44
452.207	96.44
452.428	90.44
452.648	87.44
452.869	105.44
453.089	120.44
453.31	123.44
453.53	111.44
453.751	95.44
453.971	101.44
454.192	109.44
454.412	92.44
454.633	90.44
454.853	77.44
455.073	85.44
455.294	87.44
455.514	106.44
455.734	105.44
455.955	91.44
456.175	95.44
456.395	94.44
456.616	84.44
456.836	96.44
457.056	93.44
457.276	92.44
457.497	80.44
457.717	89.44
457.937	102.44
458.157	83.44
458.377	95.44
458.598	96.44
458.818	173.44
459.038	173.44
459.258	112.44
459.478	103.44
459.698	85.44
459.918	96.44
460.138	94.44
460.358	76.44
460.578	96.44
460.798	97.44
461.018	99.44
461.238	105.44
461.458	96.44
461.678	89.44
461.898	91.44
462.118	76.44
462.338	109.44
462.558	100.44
462.777	96.44
462.997	87.44
463.217	78.44
463.437	75.44
463.657	88.44
463.876	73.44
464.096	88.44
464.316	89.44
464.536	91.44
464.755	89.44
464.975	105.44
465.195	170.44
465.414	168.44
465.634	101.44
465.854	93.44
466.073	86.44
466.293	98.44
466.512	96.44
466.732	91.44
466.951	98.44
467.171	100.44
467.391	92.44
467.61	104.44
467.829	97.44
468.049	73.44
468.268	92.44
468.488	94.44
468.707	88.44
468.927	97.44
469.146	98.44
469.365	98.44
469.585	95.44
469.804	102.44
470.023	90.44
470.243	106.44
470.462	117.44
470.681	118.44
470.901	96.44
471.12	89.44
471.339	86.44
471.558	91.44
471.777	91.44
471.997	89.44
472.216	96.44
472.435	85.44
472.654	90.44
472.873	80.44
473.092	86.44
473.311	87.44
473.53	86.44
473.749	80.44
473.968	94.44
474.187	112.44
474.406	97.44
474.625	85.44
474.844	95.44
475.063	96.44
475.282	88.44
475.501	76.44
475.72	95.44
475.939	94.44
476.158	95.44
476.377	80.44
476.596	90.44
476.814	101.44
477.033	96.44
477.252	82.44
477.471	89.44
477.69	95.44
477.908	86.44
478.127	102.44
478.346	90.44
478.564	94.44
478.783	103.44
479.002	86.44
479.22	97.44
479.439	100.44
479.658	106.44
479.876	95.44
480.095	92.44
480.313	94.44
480.532	88.44
480.751	86.44
480.969	89.44
481.188	89.44
481.406	92.44
481.624	86.44
481.843	94.44
482.061	75.44
482.28	83.44
482.498	88.44
482.717	85.44
482.935	76.44
483.153	78.44
483.372	83.44
483.59	99.44
483.808	100.44
484.027	96.44
484.245	88.44
484.463	90.44
484.681	111.44
484.9	93.44
485.118	99.44
485.336	98.44
485.554	97.44
485.772	99.44
485.99	107.44
486.209	103.44
486.427	97.44
486.645	118.44
486.863	94.44
487.081	108.44
487.299	93.44
487.517	89.44
487.735	111.44
487.953	96.44
488.171	92.44
488.389	93.44
488.607	81.44
488.825	93.44
489.043	94.44
489.261	95.44
489.479	100.44
489.696	91.44
489.914	104.44
490.132	95.44
490.35	93.44
490.568	105.44
490.786	89.44
491.003	88.44
491.221	94.44
491.439	87.44
491.657	82.44
491.874	95.44
492.092	104.44
492.31	83.44
492.527	85.44
492.745	99.44
492.963	82.44
493.18	103.44
493.398	92.44
493.615	103.44
493.833	95.44
494.05	78.44
494.268	87.44
494.485	89.44
494.703	93.44
494.92	85.44
495.138	97.44
495.355	82.44
495.573	96.44
495.79	76.44
496.008	98.44
496.225	97.44
496.442	76.44
496.66	96.44
496.877	78.44
497.094	93.44
497.312	86.44
497.529	89.44
497.746	90.44
497.963	91.44
498.181	86.44
498.398	91.44
498.615	107.44
498.832	103.44
499.049	89.44
499.267	92.44
499.484	89.44
499.701	78.44
499.918	117.44
500.135	84.44
500.352	85.44
500.569	102.44
500.786	97.44
501.003	79.44
501.22	94.44
501.437	89.44
501.654	85.44
501.871	120.44
502.088	100.44
502.305	105.44
502.522	93.44
502.739	89.44
502.956	95.44
503.172	98.44
503.389	117.44
503.606	101.44
503.823	107.44
504.04	97.44
504.256	93.44
504.473	93.44
504.69	83.44
504.907	81.44
505.123	88.44
505.34	92.44
505.557	83.44
505.773	103.44
505.99	89.44
506.207	92.44
506.423	90.44
506.64	101.44
506.856	90.44
507.073	92.44
507.289	95.44
507.506	103.44
507.722	107.44
507.939	102.44
508.155	89.44
508.372	96.44
508.588	93.44
508.805	93.44
509.021	94.44
509.238	111.44
509.454	111.44
509.67	97.44
509.887	119.44
510.103	133.44
510.319	220.44
510.536	793.44
510.752	2736.44
510.968	773.44
511.184	162.44
511.401	120.44
511.617	116.44
511.833	87.44
512.049	97.44
512.265	94.44
512.481	88.44
512.698	93.44
512.914	95.44
513.13	93.44
513.346	107.44
513.562	93.44
513.778	94.44
513.994	94.44
514.21	100.44
514.426	118.44
