Data from Circ_2014_H10_HRD10591_00026.txt Node
Date: Wed Jan 03 10:02:14 EST 2024
User: Yrep
Spectrometer: HR+D1059
Trigger mode: 1
Integration Time (sec): 1.000000E-1
Scans to average: 1
Electric dark correction enabled: true
Nonlinearity correction enabled: false
Boxcar width: 0
XAxis mode: Wavelengths
Number of Pixels in Spectrum: 2048
>>>>>Begin Spectral Data<<<<<
223.165	-10.69
223.4	-10.69
223.635	-10.69
223.869	-20.69
224.104	-25.69
224.338	-1.69
224.573	-17.69
224.808	-7.69
225.042	-6.69
225.277	-8.69
225.511	-11.69
225.746	4.31
225.98	10.31
226.215	8.31
226.449	20.31
226.683	9.31
226.918	20.31
227.152	38.31
227.387	39.31
227.621	38.31
227.856	56.31
228.09	54.31
228.324	62.31
228.559	61.31
228.793	78.31
229.027	50.31
229.262	71.31
229.496	68.31
229.73	77.31
229.964	87.31
230.199	92.31
230.433	73.31
230.667	70.31
230.901	72.31
231.136	83.31
231.37	74.31
231.604	79.31
231.838	84.31
232.072	82.31
232.306	95.31
232.541	74.31
232.775	78.31
233.009	95.31
233.243	93.31
233.477	70.31
233.711	93.31
233.945	84.31
234.179	72.31
234.413	87.31
234.647	82.31
234.881	72.31
235.115	77.31
235.349	81.31
235.583	75.31
235.817	84.31
236.051	78.31
236.285	77.31
236.519	74.31
236.753	79.31
236.987	90.31
237.221	88.31
237.455	82.31
237.689	78.31
237.922	79.31
238.156	76.31
238.39	63.31
238.624	87.31
238.858	86.31
239.091	72.31
239.325	87.31
239.559	80.31
239.793	67.31
240.027	87.31
240.26	76.31
240.494	84.31
240.728	83.31
240.961	72.31
241.195	74.31
241.429	63.31
241.662	82.31
241.896	80.31
242.13	70.31
242.363	76.31
242.597	68.31
242.83	76.31
243.064	62.31
243.298	68.31
243.531	80.31
243.765	92.31
243.998	79.31
244.232	85.31
244.465	72.31
244.699	92.31
244.932	83.31
245.166	92.31
245.399	77.31
245.633	60.31
245.866	86.31
246.099	78.31
246.333	75.31
246.566	82.31
246.8	84.31
247.033	91.31
247.266	89.31
247.5	69.31
247.733	59.31
247.966	83.31
248.2	86.31
248.433	62.31
248.666	69.31
248.899	80.31
249.133	78.31
249.366	92.31
249.599	91.31
249.832	69.31
250.066	78.31
250.299	84.31
250.532	80.31
250.765	75.31
250.998	84.31
251.231	67.31
251.465	82.31
251.698	72.31
251.931	87.31
252.164	73.31
252.397	78.31
252.63	84.31
252.863	72.31
253.096	92.31
253.329	103.31
253.562	80.31
253.795	82.31
254.028	83.31
254.261	94.31
254.494	71.31
254.727	72.31
254.96	82.31
255.193	79.31
255.426	76.31
255.659	80.31
255.892	87.31
256.124	76.31
256.357	70.31
256.59	77.31
256.823	78.31
257.056	71.31
257.289	76.31
257.521	90.31
257.754	75.31
257.987	78.31
258.22	85.31
258.452	93.31
258.685	58.31
258.918	72.31
259.151	90.31
259.383	82.31
259.616	64.31
259.849	84.31
260.081	100.31
260.314	87.31
260.547	79.31
260.779	84.31
261.012	86.31
261.244	84.31
261.477	94.31
261.71	93.31
261.942	110.31
262.175	124.31
262.407	91.31
262.64	96.31
262.872	78.31
263.105	86.31
263.337	89.31
263.57	95.31
263.802	80.31
264.035	97.31
264.267	79.31
264.499	80.31
264.732	80.31
264.964	87.31
265.197	78.31
265.429	78.31
265.661	83.31
265.894	73.31
266.126	84.31
266.358	85.31
266.591	80.31
266.823	84.31
267.055	94.31
267.287	78.31
267.52	87.31
267.752	76.31
267.984	82.31
268.216	107.31
268.448	74.31
268.681	87.31
268.913	89.31
269.145	87.31
269.377	74.31
269.609	87.31
269.841	81.31
270.073	80.31
270.306	95.31
270.538	87.31
270.77	73.31
271.002	74.31
271.234	85.31
271.466	92.31
271.698	77.31
271.93	100.31
272.162	90.31
272.394	78.31
272.626	86.31
272.858	71.31
273.09	89.31
273.322	86.31
273.553	83.31
273.785	85.31
274.017	80.31
274.249	71.31
274.481	77.31
274.713	95.31
274.945	91.31
275.176	84.31
275.408	78.31
275.64	85.31
275.872	79.31
276.104	86.31
276.335	111.31
276.567	114.31
276.799	119.31
277.031	100.31
277.262	85.31
277.494	92.31
277.726	89.31
277.957	85.31
278.189	86.31
278.421	94.31
278.652	78.31
278.884	86.31
279.115	80.31
279.347	86.31
279.579	91.31
279.81	94.31
280.042	91.31
280.273	80.31
280.505	84.31
280.736	88.31
280.968	105.31
281.199	87.31
281.431	88.31
281.662	86.31
281.894	84.31
282.125	99.31
282.356	117.31
282.588	149.31
282.819	115.31
283.051	83.31
283.282	76.31
283.513	82.31
283.745	88.31
283.976	87.31
284.207	88.31
284.439	97.31
284.67	91.31
284.901	92.31
285.132	89.31
285.364	93.31
285.595	88.31
285.826	83.31
286.057	80.31
286.288	81.31
286.52	99.31
286.751	87.31
286.982	83.31
287.213	85.31
287.444	80.31
287.675	80.31
287.906	85.31
288.138	86.31
288.369	94.31
288.6	106.31
288.831	87.31
289.062	90.31
289.293	89.31
289.524	96.31
289.755	85.31
289.986	88.31
290.217	97.31
290.448	92.31
290.679	97.31
290.91	92.31
291.141	79.31
291.371	73.31
291.602	82.31
291.833	77.31
292.064	91.31
292.295	86.31
292.526	88.31
292.757	93.31
292.987	88.31
293.218	88.31
293.449	90.31
293.68	92.31
293.91	83.31
294.141	83.31
294.372	87.31
294.603	82.31
294.833	95.31
295.064	83.31
295.295	92.31
295.525	91.31
295.756	102.31
295.987	125.31
296.217	137.31
296.448	135.31
296.679	114.31
296.909	94.31
297.14	68.31
297.37	98.31
297.601	82.31
297.831	86.31
298.062	87.31
298.292	101.31
298.523	90.31
298.753	97.31
298.984	95.31
299.214	92.31
299.445	89.31
299.675	97.31
299.905	90.31
300.136	93.31
300.366	94.31
300.597	85.31
300.827	83.31
301.057	94.31
301.288	104.31
301.518	72.31
301.748	83.31
301.979	104.31
302.209	90.31
302.439	91.31
302.669	76.31
302.9	97.31
303.13	94.31
303.36	99.31
303.59	93.31
303.82	111.31
304.051	81.31
304.281	97.31
304.511	88.31
304.741	88.31
304.971	86.31
305.201	83.31
305.431	77.31
305.661	90.31
305.891	84.31
306.121	106.31
306.352	118.31
306.582	102.31
306.812	92.31
307.042	84.31
307.272	94.31
307.502	93.31
307.731	85.31
307.961	83.31
308.191	109.31
308.421	89.31
308.651	99.31
308.881	106.31
309.111	84.31
309.341	91.31
309.571	102.31
309.8	98.31
310.03	100.31
310.26	107.31
310.49	99.31
310.72	104.31
310.949	109.31
311.179	90.31
311.409	87.31
311.639	94.31
311.868	94.31
312.098	103.31
312.328	107.31
312.557	94.31
312.787	95.31
313.017	96.31
313.246	99.31
313.476	96.31
313.706	90.31
313.935	94.31
314.165	101.31
314.394	111.31
314.624	96.31
314.853	99.31
315.083	102.31
315.312	95.31
315.542	97.31
315.771	93.31
316.001	82.31
316.23	88.31
316.46	84.31
316.689	77.31
316.919	86.31
317.148	101.31
317.377	99.31
317.607	98.31
317.836	94.31
318.065	92.31
318.295	92.31
318.524	97.31
318.753	93.31
318.983	99.31
319.212	101.31
319.441	87.31
319.67	96.31
319.9	98.31
320.129	84.31
320.358	90.31
320.587	79.31
320.816	98.31
321.046	103.31
321.275	96.31
321.504	87.31
321.733	101.31
321.962	110.31
322.191	106.31
322.42	93.31
322.649	94.31
322.878	117.31
323.108	115.31
323.337	133.31
323.566	119.31
323.795	150.31
324.024	204.31
324.253	420.31
324.482	852.31
324.71	1765.31
324.939	2286.31
325.168	867.31
325.397	259.31
325.626	154.31
325.855	124.31
326.084	139.31
326.313	154.31
326.542	150.31
326.77	229.31
326.999	463.31
327.228	949.31
327.457	1741.31
327.686	1383.31
327.914	366.31
328.143	200.31
328.372	171.31
328.6	130.31
328.829	116.31
329.058	128.31
329.287	122.31
329.515	115.31
329.744	118.31
329.972	110.31
330.201	125.31
330.43	124.31
330.658	124.31
330.887	142.31
331.115	128.31
331.344	105.31
331.572	109.31
331.801	89.31
332.03	114.31
332.258	93.31
332.486	94.31
332.715	88.31
332.943	80.31
333.172	94.31
333.4	91.31
333.629	117.31
333.857	123.31
334.085	111.31
334.314	103.31
334.542	115.31
334.771	106.31
334.999	111.31
335.227	97.31
335.455	104.31
335.684	104.31
335.912	96.31
336.14	112.31
336.369	85.31
336.597	94.31
336.825	102.31
337.053	85.31
337.281	83.31
337.51	96.31
337.738	105.31
337.966	110.31
338.194	105.31
338.422	98.31
338.65	97.31
338.878	87.31
339.106	83.31
339.334	91.31
339.562	95.31
339.79	104.31
340.018	97.31
340.246	103.31
340.474	95.31
340.702	95.31
340.93	98.31
341.158	88.31
341.386	88.31
341.614	100.31
341.842	84.31
342.07	84.31
342.298	100.31
342.526	87.31
342.754	91.31
342.981	92.31
343.209	92.31
343.437	99.31
343.665	87.31
343.893	90.31
344.12	102.31
344.348	88.31
344.576	83.31
344.804	96.31
345.031	105.31
345.259	97.31
345.487	94.31
345.714	110.31
345.942	83.31
346.17	90.31
346.397	86.31
346.625	93.31
346.853	91.31
347.08	99.31
347.308	101.31
347.535	105.31
347.763	100.31
347.99	90.31
348.218	103.31
348.445	110.31
348.673	96.31
348.9	109.31
349.128	103.31
349.355	102.31
349.583	99.31
349.81	91.31
350.037	102.31
350.265	94.31
350.492	85.31
350.72	111.31
350.947	94.31
351.174	97.31
351.402	118.31
351.629	98.31
351.856	92.31
352.083	104.31
352.311	99.31
352.538	95.31
352.765	111.31
352.992	122.31
353.22	118.31
353.447	99.31
353.674	107.31
353.901	107.31
354.128	110.31
354.355	95.31
354.583	94.31
354.81	103.31
355.037	108.31
355.264	97.31
355.491	101.31
355.718	88.31
355.945	98.31
356.172	94.31
356.399	95.31
356.626	94.31
356.853	87.31
357.08	118.31
357.307	77.31
357.534	90.31
357.761	99.31
357.988	102.31
358.215	99.31
358.441	93.31
358.668	110.31
358.895	83.31
359.122	86.31
359.349	90.31
359.576	91.31
359.802	100.31
360.029	104.31
360.256	115.31
360.483	94.31
360.709	89.31
360.936	104.31
361.163	92.31
361.39	106.31
361.616	101.31
361.843	96.31
362.07	86.31
362.296	91.31
362.523	86.31
362.749	86.31
362.976	84.31
363.203	99.31
363.429	89.31
363.656	78.31
363.882	92.31
364.109	77.31
364.335	87.31
364.562	84.31
364.788	89.31
365.015	87.31
365.241	96.31
365.468	111.31
365.694	111.31
365.92	108.31
366.147	92.31
366.373	99.31
366.599	95.31
366.826	88.31
367.052	96.31
367.278	83.31
367.505	90.31
367.731	91.31
367.957	89.31
368.184	86.31
368.41	113.31
368.636	119.31
368.862	136.31
369.089	108.31
369.315	83.31
369.541	79.31
369.767	87.31
369.993	85.31
370.219	97.31
370.445	84.31
370.672	101.31
370.898	86.31
371.124	83.31
371.35	101.31
371.576	84.31
371.802	96.31
372.028	79.31
372.254	84.31
372.48	83.31
372.706	90.31
372.932	94.31
373.158	88.31
373.384	98.31
373.61	89.31
373.835	86.31
374.061	98.31
374.287	93.31
374.513	90.31
374.739	92.31
374.965	96.31
375.191	98.31
375.416	89.31
375.642	81.31
375.868	86.31
376.094	90.31
376.319	92.31
376.545	89.31
376.771	84.31
376.997	79.31
377.222	95.31
377.448	102.31
377.674	84.31
377.899	82.31
378.125	94.31
378.35	112.31
378.576	96.31
378.802	84.31
379.027	90.31
379.253	90.31
379.478	85.31
379.704	88.31
379.929	103.31
380.155	102.31
380.38	96.31
380.606	101.31
380.831	100.31
381.057	104.31
381.282	98.31
381.507	88.31
381.733	105.31
381.958	85.31
382.184	98.31
382.409	105.31
382.634	106.31
382.86	111.31
383.085	90.31
383.31	100.31
383.535	115.31
383.761	92.31
383.986	90.31
384.211	105.31
384.436	110.31
384.662	102.31
384.887	110.31
385.112	104.31
385.337	93.31
385.562	102.31
385.787	86.31
386.013	105.31
386.238	118.31
386.463	108.31
386.688	107.31
386.913	91.31
387.138	112.31
387.363	123.31
387.588	111.31
387.813	106.31
388.038	109.31
388.263	121.31
388.488	111.31
388.713	94.31
388.938	91.31
389.163	96.31
389.387	98.31
389.612	86.31
389.837	93.31
390.062	101.31
390.287	103.31
390.512	74.31
390.736	102.31
390.961	81.31
391.186	88.31
391.411	95.31
391.636	84.31
391.86	87.31
392.085	81.31
392.31	80.31
392.534	84.31
392.759	76.31
392.984	68.31
393.208	88.31
393.433	94.31
393.658	86.31
393.882	99.31
394.107	92.31
394.331	78.31
394.556	79.31
394.78	90.31
395.005	88.31
395.229	76.31
395.454	78.31
395.678	74.31
395.903	86.31
396.127	90.31
396.352	83.31
396.576	96.31
396.801	92.31
397.025	90.31
397.249	93.31
397.474	80.31
397.698	95.31
397.922	73.31
398.147	79.31
398.371	94.31
398.595	77.31
398.82	99.31
399.044	103.31
399.268	95.31
399.492	87.31
399.717	94.31
399.941	103.31
400.165	93.31
400.389	92.31
400.613	75.31
400.837	88.31
401.062	88.31
401.286	101.31
401.51	95.31
401.734	91.31
401.958	110.31
402.182	126.31
402.406	165.31
402.63	103.31
402.854	98.31
403.078	91.31
403.302	86.31
403.526	84.31
403.75	99.31
403.974	82.31
404.198	93.31
404.422	78.31
404.645	95.31
404.869	89.31
405.093	92.31
405.317	106.31
405.541	101.31
405.765	93.31
405.988	135.31
406.212	172.31
406.436	232.31
406.66	154.31
406.883	112.31
407.107	90.31
407.331	87.31
407.555	96.31
407.778	92.31
408.002	90.31
408.226	91.31
408.449	100.31
408.673	89.31
408.896	91.31
409.12	101.31
409.344	94.31
409.567	93.31
409.791	95.31
410.014	92.31
410.238	74.31
410.461	92.31
410.685	94.31
410.908	100.31
411.132	106.31
411.355	105.31
411.578	89.31
411.802	85.31
412.025	99.31
412.249	90.31
412.472	98.31
412.695	98.31
412.919	87.31
413.142	98.31
413.365	95.31
413.589	94.31
413.812	97.31
414.035	92.31
414.258	80.31
414.482	87.31
414.705	85.31
414.928	90.31
415.151	92.31
415.374	78.31
415.597	82.31
415.821	95.31
416.044	100.31
416.267	103.31
416.49	89.31
416.713	97.31
416.936	91.31
417.159	76.31
417.382	92.31
417.605	92.31
417.828	98.31
418.051	84.31
418.274	83.31
418.497	93.31
418.72	86.31
418.943	95.31
419.166	90.31
419.389	87.31
419.611	80.31
419.834	85.31
420.057	80.31
420.28	85.31
420.503	81.31
420.726	101.31
420.948	100.31
421.171	96.31
421.394	96.31
421.617	75.31
421.839	92.31
422.062	90.31
422.285	93.31
422.507	91.31
422.73	99.31
422.953	103.31
423.175	90.31
423.398	88.31
423.621	92.31
423.843	86.31
424.066	94.31
424.288	112.31
424.511	90.31
424.733	107.31
424.956	103.31
425.178	91.31
425.401	95.31
425.623	88.31
425.846	88.31
426.068	88.31
426.291	107.31
426.513	87.31
426.735	88.31
426.958	100.31
427.18	93.31
427.402	131.31
427.625	172.31
427.847	130.31
428.069	101.31
428.292	80.31
428.514	78.31
428.736	71.31
428.958	97.31
429.181	84.31
429.403	88.31
429.625	78.31
429.847	94.31
430.069	102.31
430.292	95.31
430.514	94.31
430.736	73.31
430.958	86.31
431.18	79.31
431.402	74.31
431.624	76.31
431.846	87.31
432.068	95.31
432.29	94.31
432.512	95.31
432.734	87.31
432.956	90.31
433.178	93.31
433.4	98.31
433.622	97.31
433.844	95.31
434.066	97.31
434.287	87.31
434.509	98.31
434.731	90.31
434.953	73.31
435.175	98.31
435.397	87.31
435.618	100.31
435.84	101.31
436.062	119.31
436.284	93.31
436.505	104.31
436.727	97.31
436.949	93.31
437.17	92.31
437.392	90.31
437.614	76.31
437.835	107.31
438.057	122.31
438.278	124.31
438.5	101.31
438.721	108.31
438.943	94.31
439.165	75.31
439.386	91.31
439.608	95.31
439.829	94.31
440.05	142.31
440.272	128.31
440.493	102.31
440.715	96.31
440.936	92.31
441.158	91.31
441.379	91.31
441.6	84.31
441.822	98.31
442.043	95.31
442.264	102.31
442.486	100.31
442.707	95.31
442.928	122.31
443.149	127.31
443.371	134.31
443.592	111.31
443.813	124.31
444.034	105.31
444.255	100.31
444.476	68.31
444.698	83.31
444.919	75.31
445.14	128.31
445.361	111.31
445.582	116.31
445.803	140.31
446.024	136.31
446.245	126.31
446.466	106.31
446.687	95.31
446.908	83.31
447.129	98.31
447.35	94.31
447.571	83.31
447.792	101.31
448.013	102.31
448.234	109.31
448.455	101.31
448.675	99.31
448.896	129.31
449.117	99.31
449.338	105.31
449.559	116.31
449.779	123.31
450	91.31
450.221	78.31
450.442	87.31
450.662	96.31
450.883	125.31
451.104	121.31
451.324	100.31
451.545	95.31
451.766	84.31
451.986	90.31
452.207	88.31
452.428	94.31
452.648	98.31
452.869	109.31
453.089	119.31
453.31	120.31
453.53	95.31
453.751	88.31
453.971	77.31
454.192	107.31
454.412	92.31
454.633	79.31
454.853	98.31
455.073	88.31
455.294	85.31
455.514	111.31
455.734	88.31
455.955	79.31
456.175	69.31
456.395	86.31
456.616	69.31
456.836	98.31
457.056	92.31
457.276	96.31
457.497	87.31
457.717	75.31
457.937	83.31
458.157	81.31
458.377	89.31
458.598	104.31
458.818	144.31
459.038	167.31
459.258	133.31
459.478	88.31
459.698	84.31
459.918	96.31
460.138	94.31
460.358	85.31
460.578	103.31
460.798	83.31
461.018	66.31
461.238	81.31
461.458	80.31
461.678	85.31
461.898	89.31
462.118	86.31
462.338	82.31
462.558	76.31
462.777	87.31
462.997	101.31
463.217	80.31
463.437	85.31
463.657	85.31
463.876	81.31
464.096	98.31
464.316	92.31
464.536	100.31
464.755	91.31
464.975	103.31
465.195	178.31
465.414	173.31
465.634	107.31
465.854	97.31
466.073	99.31
466.293	89.31
466.512	101.31
466.732	89.31
466.951	72.31
467.171	96.31
467.391	81.31
467.61	96.31
467.829	93.31
468.049	93.31
468.268	105.31
468.488	89.31
468.707	89.31
468.927	76.31
469.146	87.31
469.365	85.31
469.585	77.31
469.804	100.31
470.023	109.31
470.243	94.31
470.462	118.31
470.681	100.31
470.901	95.31
471.12	94.31
471.339	78.31
471.558	76.31
471.777	85.31
471.997	111.31
472.216	115.31
472.435	115.31
472.654	102.31
472.873	75.31
473.092	81.31
473.311	88.31
473.53	83.31
473.749	86.31
473.968	93.31
474.187	94.31
474.406	98.31
474.625	93.31
474.844	96.31
475.063	87.31
475.282	83.31
475.501	97.31
475.72	104.31
475.939	98.31
476.158	103.31
476.377	91.31
476.596	81.31
476.814	101.31
477.033	99.31
477.252	95.31
477.471	95.31
477.69	83.31
477.908	86.31
478.127	81.31
478.346	92.31
478.564	95.31
478.783	108.31
479.002	96.31
479.22	103.31
479.439	108.31
479.658	96.31
479.876	92.31
480.095	88.31
480.313	88.31
480.532	91.31
480.751	86.31
480.969	89.31
481.188	134.31
481.406	135.31
481.624	90.31
481.843	84.31
482.061	84.31
482.28	90.31
482.498	86.31
482.717	87.31
482.935	93.31
483.153	85.31
483.372	97.31
483.59	92.31
483.808	80.31
484.027	83.31
484.245	97.31
484.463	98.31
484.681	87.31
484.9	84.31
485.118	94.31
485.336	94.31
485.554	88.31
485.772	93.31
485.99	93.31
486.209	108.31
486.427	109.31
486.645	113.31
486.863	120.31
487.081	98.31
487.299	91.31
487.517	89.31
487.735	88.31
487.953	75.31
488.171	84.31
488.389	98.31
488.607	90.31
488.825	94.31
489.043	80.31
489.261	93.31
489.479	92.31
489.696	87.31
489.914	87.31
490.132	98.31
490.35	96.31
490.568	74.31
490.786	91.31
491.003	80.31
491.221	98.31
491.439	93.31
491.657	85.31
491.874	86.31
492.092	91.31
492.31	82.31
492.527	95.31
492.745	95.31
492.963	69.31
493.18	81.31
493.398	102.31
493.615	101.31
493.833	97.31
494.05	90.31
494.268	93.31
494.485	89.31
494.703	101.31
494.92	88.31
495.138	79.31
495.355	80.31
495.573	74.31
495.79	80.31
496.008	101.31
496.225	103.31
496.442	91.31
496.66	81.31
496.877	88.31
497.094	93.31
497.312	80.31
497.529	98.31
497.746	93.31
497.963	105.31
498.181	92.31
498.398	90.31
498.615	102.31
498.832	104.31
499.049	96.31
499.267	95.31
499.484	82.31
499.701	86.31
499.918	98.31
500.135	87.31
500.352	90.31
500.569	97.31
500.786	102.31
501.003	93.31
501.22	103.31
501.437	90.31
501.654	84.31
501.871	100.31
502.088	92.31
502.305	90.31
502.522	93.31
502.739	89.31
502.956	80.31
503.172	98.31
503.389	94.31
503.606	118.31
503.823	99.31
504.04	105.31
504.256	105.31
504.473	96.31
504.69	87.31
504.907	88.31
505.123	84.31
505.34	101.31
505.557	88.31
505.773	82.31
505.99	98.31
506.207	98.31
506.423	88.31
506.64	87.31
506.856	93.31
507.073	85.31
507.289	103.31
507.506	96.31
507.722	108.31
507.939	107.31
508.155	93.31
508.372	91.31
508.588	95.31
508.805	111.31
509.021	87.31
509.238	102.31
509.454	90.31
509.67	104.31
509.887	99.31
510.103	119.31
510.319	204.31
510.536	799.31
510.752	2700.31
510.968	762.31
511.184	144.31
511.401	107.31
511.617	89.31
511.833	95.31
512.049	90.31
512.265	95.31
512.481	90.31
512.698	82.31
512.914	84.31
513.13	99.31
513.346	105.31
513.562	105.31
513.778	101.31
513.994	118.31
514.21	106.31
514.426	106.31
514.642	142.31
514.858	126.31
515.074	188.31
515.29	493.31
515.506	1694.31
