Data from Circ_2014_H10_HRD10591_00072.txt Node
Date: Wed Jan 03 10:02:23 EST 2024
User: Yrep
Spectrometer: HR+D1059
Trigger mode: 1
Integration Time (sec): 1.000000E-1
Scans to average: 1
Electric dark correction enabled: true
Nonlinearity correction enabled: false
Boxcar width: 0
XAxis mode: Wavelengths
Number of Pixels in Spectrum: 2048
>>>>>Begin Spectral Data<<<<<
223.165	-16
223.4	-16
223.635	-16
223.869	-13
224.104	-25
224.338	-27
224.573	-15
224.808	-7
225.042	3
225.277	-7
225.511	-9
225.746	15
225.98	0
226.215	10
226.449	12
226.683	31
226.918	24
227.152	24
227.387	39
227.621	37
227.856	37
228.09	49
228.324	37
228.559	55
228.793	71
229.027	73
229.262	56
229.496	70
229.73	83
229.964	78
230.199	74
230.433	67
230.667	72
230.901	71
231.136	89
231.37	82
231.604	77
231.838	71
232.072	77
232.306	78
232.541	78
232.775	70
233.009	71
233.243	88
233.477	68
233.711	68
233.945	85
234.179	71
234.413	65
234.647	82
234.881	84
235.115	76
235.349	72
235.583	67
235.817	78
236.051	75
236.285	63
236.519	88
236.753	75
236.987	64
237.221	74
237.455	75
237.689	72
237.922	73
238.156	72
238.39	69
238.624	68
238.858	96
239.091	69
239.325	82
239.559	86
239.793	89
240.027	81
240.26	87
240.494	77
240.728	71
240.961	76
241.195	82
241.429	74
241.662	76
241.896	73
242.13	69
242.363	74
242.597	82
242.83	73
243.064	67
243.298	70
243.531	78
243.765	71
243.998	79
244.232	75
244.465	77
244.699	82
244.932	68
245.166	69
245.399	76
245.633	75
245.866	71
246.099	77
246.333	80
246.566	73
246.8	81
247.033	87
247.266	82
247.5	72
247.733	67
247.966	78
248.2	83
248.433	77
248.666	77
248.899	72
249.133	85
249.366	90
249.599	87
249.832	106
250.066	87
250.299	68
250.532	75
250.765	72
250.998	80
251.231	70
251.465	66
251.698	75
251.931	94
252.164	82
252.397	69
252.63	98
252.863	79
253.096	83
253.329	69
253.562	73
253.795	67
254.028	70
254.261	88
254.494	91
254.727	79
254.96	84
255.193	80
255.426	88
255.659	77
255.892	82
256.124	76
256.357	76
256.59	81
256.823	70
257.056	83
257.289	91
257.521	76
257.754	85
257.987	77
258.22	75
258.452	73
258.685	71
258.918	76
259.151	85
259.383	79
259.616	80
259.849	92
260.081	81
260.314	69
260.547	77
260.779	81
261.012	81
261.244	82
261.477	80
261.71	93
261.942	112
262.175	128
262.407	82
262.64	89
262.872	73
263.105	86
263.337	84
263.57	76
263.802	76
264.035	77
264.267	89
264.499	84
264.732	84
264.964	80
265.197	75
265.429	83
265.661	93
265.894	82
266.126	76
266.358	74
266.591	73
266.823	70
267.055	76
267.287	86
267.52	99
267.752	76
267.984	86
268.216	83
268.448	81
268.681	90
268.913	83
269.145	75
269.377	93
269.609	92
269.841	77
270.073	84
270.306	80
270.538	85
270.77	80
271.002	80
271.234	86
271.466	76
271.698	82
271.93	76
272.162	91
272.394	92
272.626	91
272.858	80
273.09	79
273.322	97
273.553	93
273.785	84
274.017	90
274.249	85
274.481	77
274.713	85
274.945	90
275.176	83
275.408	90
275.64	84
275.872	78
276.104	90
276.335	94
276.567	95
276.799	104
277.031	113
277.262	93
277.494	74
277.726	81
277.957	91
278.189	90
278.421	80
278.652	83
278.884	81
279.115	90
279.347	76
279.579	72
279.81	88
280.042	87
280.273	91
280.505	78
280.736	79
280.968	92
281.199	82
281.431	90
281.662	86
281.894	86
282.125	106
282.356	129
282.588	114
282.819	99
283.051	77
283.282	75
283.513	84
283.745	77
283.976	82
284.207	87
284.439	85
284.67	76
284.901	89
285.132	99
285.364	96
285.595	89
285.826	67
286.057	78
286.288	81
286.52	84
286.751	85
286.982	74
287.213	88
287.444	86
287.675	95
287.906	92
288.138	93
288.369	71
288.6	81
288.831	85
289.062	100
289.293	97
289.524	77
289.755	89
289.986	85
290.217	97
290.448	72
290.679	103
290.91	96
291.141	90
291.371	84
291.602	86
291.833	81
292.064	81
292.295	78
292.526	97
292.757	75
292.987	77
293.218	83
293.449	81
293.68	93
293.91	86
294.141	87
294.372	87
294.603	91
294.833	91
295.064	84
295.295	93
295.525	80
295.756	111
295.987	109
296.217	131
296.448	131
296.679	96
296.909	90
297.14	95
297.37	77
297.601	74
297.831	84
298.062	90
298.292	86
298.523	86
298.753	80
298.984	83
299.214	86
299.445	85
299.675	92
299.905	95
300.136	88
300.366	103
300.597	86
300.827	95
301.057	90
301.288	88
301.518	83
301.748	93
301.979	98
302.209	82
302.439	108
302.669	95
302.9	87
303.13	77
303.36	93
303.59	96
303.82	100
304.051	93
304.281	75
304.511	92
304.741	90
304.971	75
305.201	97
305.431	82
305.661	94
305.891	87
306.121	93
306.352	91
306.582	100
306.812	97
307.042	86
307.272	97
307.502	109
307.731	100
307.961	103
308.191	93
308.421	85
308.651	75
308.881	83
309.111	91
309.341	104
309.571	87
309.8	100
310.03	105
310.26	102
310.49	95
310.72	84
310.949	103
311.179	98
311.409	92
311.639	79
311.868	90
312.098	91
312.328	93
312.557	103
312.787	82
313.017	96
313.246	82
313.476	91
313.706	100
313.935	107
314.165	96
314.394	115
314.624	95
314.853	111
315.083	96
315.312	97
315.542	93
315.771	92
316.001	95
316.23	94
316.46	92
316.689	89
316.919	87
317.148	88
317.377	89
317.607	98
317.836	96
318.065	99
318.295	91
318.524	86
318.753	95
318.983	83
319.212	89
319.441	117
319.67	101
319.9	87
320.129	93
320.358	96
320.587	112
320.816	102
321.046	103
321.275	81
321.504	84
321.733	84
321.962	93
322.191	101
322.42	107
322.649	103
322.878	90
323.108	111
323.337	126
323.566	121
323.795	159
324.024	193
324.253	369
324.482	782
324.71	1592
324.939	2088
325.168	794
325.397	234
325.626	131
325.855	134
326.084	116
326.313	121
326.542	149
326.77	219
326.999	442
327.228	905
327.457	1620
327.686	1294
327.914	357
328.143	210
328.372	152
328.6	142
328.829	100
329.058	138
329.287	143
329.515	107
329.744	104
329.972	130
330.201	165
330.43	181
330.658	152
330.887	135
331.115	144
331.344	100
331.572	107
331.801	98
332.03	111
332.258	100
332.486	78
332.715	97
332.943	96
333.172	116
333.4	107
333.629	108
333.857	116
334.085	127
334.314	152
334.542	218
334.771	209
334.999	123
335.227	102
335.455	81
335.684	100
335.912	102
336.14	97
336.369	88
336.597	107
336.825	103
337.053	92
337.281	92
337.51	80
337.738	106
337.966	97
338.194	83
338.422	86
338.65	84
338.878	97
339.106	86
339.334	103
339.562	94
339.79	93
340.018	87
340.246	84
340.474	94
340.702	92
340.93	94
341.158	101
341.386	108
341.614	84
341.842	96
342.07	86
342.298	79
342.526	93
342.754	99
342.981	85
343.209	92
343.437	93
343.665	86
343.893	83
344.12	117
344.348	105
344.576	98
344.804	90
345.031	99
345.259	98
345.487	97
345.714	89
345.942	90
346.17	96
346.397	88
346.625	96
346.853	102
347.08	82
347.308	99
347.535	99
347.763	90
347.99	80
348.218	92
348.445	90
348.673	92
348.9	103
349.128	98
349.355	83
349.583	86
349.81	91
350.037	106
350.265	94
350.492	78
350.72	99
350.947	105
351.174	115
351.402	99
351.629	87
351.856	77
352.083	98
352.311	110
352.538	109
352.765	114
352.992	117
353.22	107
353.447	97
353.674	87
353.901	82
354.128	101
354.355	104
354.583	98
354.81	106
355.037	101
355.264	89
355.491	103
355.718	92
355.945	93
356.172	103
356.399	87
356.626	93
356.853	85
357.08	83
357.307	93
357.534	88
357.761	86
357.988	91
358.215	97
358.441	91
358.668	91
358.895	96
359.122	85
359.349	99
359.576	93
359.802	111
360.029	111
360.256	107
360.483	99
360.709	92
360.936	99
361.163	81
361.39	87
361.616	101
361.843	93
362.07	86
362.296	90
362.523	84
362.749	95
362.976	94
363.203	87
363.429	72
363.656	93
363.882	93
364.109	93
364.335	101
364.562	82
364.788	88
365.015	88
365.241	101
365.468	108
365.694	98
365.92	96
366.147	83
366.373	97
366.599	86
366.826	81
367.052	82
367.278	93
367.505	72
367.731	74
367.957	88
368.184	98
368.41	93
368.636	89
368.862	116
369.089	106
369.315	96
369.541	87
369.767	84
369.993	92
370.219	86
370.445	84
370.672	76
370.898	99
371.124	77
371.35	85
371.576	90
371.802	86
372.028	77
372.254	84
372.48	90
372.706	94
372.932	90
373.158	82
373.384	91
373.61	98
373.835	90
374.061	88
374.287	75
374.513	85
374.739	89
374.965	93
375.191	97
375.416	71
375.642	101
375.868	108
376.094	80
376.319	97
376.545	91
376.771	82
376.997	84
377.222	78
377.448	96
377.674	95
377.899	89
378.125	83
378.35	98
378.576	92
378.802	76
379.027	92
379.253	88
379.478	95
379.704	82
379.929	97
380.155	91
380.38	98
380.606	105
380.831	92
381.057	85
381.282	92
381.507	101
381.733	105
381.958	98
382.184	108
382.409	105
382.634	103
382.86	88
383.085	91
383.31	97
383.535	99
383.761	106
383.986	113
384.211	101
384.436	85
384.662	103
384.887	106
385.112	106
385.337	99
385.562	91
385.787	92
386.013	105
386.238	116
386.463	95
386.688	105
386.913	97
387.138	104
387.363	93
387.588	99
387.813	94
388.038	115
388.263	100
388.488	107
388.713	96
388.938	95
389.163	87
389.387	103
389.612	86
389.837	90
390.062	74
390.287	87
390.512	90
390.736	73
390.961	72
391.186	84
391.411	107
391.636	90
391.86	88
392.085	85
392.31	90
392.534	73
392.759	90
392.984	85
393.208	89
393.433	94
393.658	91
393.882	86
394.107	82
394.331	87
394.556	91
394.78	83
395.005	79
395.229	92
395.454	79
395.678	81
395.903	88
396.127	98
396.352	98
396.576	77
396.801	95
397.025	83
397.249	90
397.474	96
397.698	88
397.922	79
398.147	90
398.371	81
398.595	84
398.82	89
399.044	69
399.268	77
399.492	72
399.717	88
399.941	99
400.165	93
400.389	75
400.613	97
400.837	99
401.062	99
401.286	85
401.51	79
401.734	96
401.958	107
402.182	111
402.406	152
402.63	122
402.854	92
403.078	81
403.302	80
403.526	80
403.75	86
403.974	84
404.198	63
404.422	71
404.645	92
404.869	86
405.093	92
405.317	95
405.541	112
405.765	99
405.988	131
406.212	182
406.436	216
406.66	141
406.883	100
407.107	96
407.331	118
407.555	81
407.778	84
408.002	92
408.226	76
408.449	80
408.673	89
408.896	83
409.12	81
409.344	86
409.567	80
409.791	93
410.014	102
410.238	90
410.461	80
410.685	89
410.908	111
411.132	101
411.355	87
411.578	74
411.802	74
412.025	81
412.249	86
412.472	92
412.695	111
412.919	81
413.142	89
413.365	106
413.589	75
413.812	91
414.035	81
414.258	88
414.482	82
414.705	83
414.928	88
415.151	78
415.374	99
415.597	88
415.821	85
416.044	88
416.267	88
416.49	84
416.713	77
416.936	92
417.159	88
417.382	85
417.605	86
417.828	98
418.051	92
418.274	94
418.497	79
418.72	79
418.943	91
419.166	83
419.389	84
419.611	88
419.834	69
420.057	80
420.28	83
420.503	99
420.726	87
420.948	80
421.171	82
421.394	93
421.617	97
421.839	92
422.062	71
422.285	109
422.507	113
422.73	106
422.953	81
423.175	87
423.398	85
423.621	87
423.843	93
424.066	84
424.288	74
424.511	86
424.733	116
424.956	117
425.178	93
425.401	100
425.623	87
425.846	92
426.068	84
426.291	95
426.513	81
426.735	94
426.958	89
427.18	111
427.402	129
427.625	170
427.847	127
428.069	101
428.292	77
428.514	84
428.736	96
428.958	82
429.181	85
429.403	81
429.625	84
429.847	93
430.069	92
430.292	93
430.514	81
430.736	75
430.958	89
431.18	66
431.402	83
431.624	82
431.846	93
432.068	80
432.29	74
432.512	81
432.734	87
432.956	78
433.178	103
433.4	91
433.622	90
433.844	91
434.066	94
434.287	80
434.509	89
434.731	101
434.953	89
435.175	89
435.397	108
435.618	100
435.84	95
436.062	125
436.284	100
436.505	87
436.727	96
436.949	81
437.17	85
437.392	73
437.614	96
437.835	100
438.057	104
438.278	104
438.5	88
438.721	124
438.943	100
439.165	100
439.386	83
439.608	104
439.829	103
440.05	107
440.272	141
440.493	102
440.715	88
440.936	92
441.158	84
441.379	95
441.6	106
441.822	91
442.043	80
442.264	117
442.486	96
442.707	102
442.928	95
443.149	133
443.371	115
443.592	118
443.813	87
444.034	105
444.255	96
444.476	87
444.698	80
444.919	84
445.14	145
445.361	120
445.582	120
445.803	133
446.024	128
446.245	145
446.466	119
446.687	102
446.908	94
447.129	88
447.35	88
447.571	96
447.792	91
448.013	83
448.234	107
448.455	108
448.675	97
448.896	123
449.117	99
449.338	105
449.559	128
449.779	113
450	98
450.221	88
450.442	92
450.662	101
450.883	100
451.104	119
451.324	99
451.545	90
451.766	81
451.986	90
452.207	92
452.428	89
452.648	98
452.869	114
453.089	113
453.31	131
453.53	80
453.751	101
453.971	93
454.192	101
454.412	98
454.633	98
454.853	88
455.073	77
455.294	87
455.514	92
455.734	88
455.955	89
456.175	76
456.395	83
456.616	95
456.836	88
457.056	76
457.276	75
457.497	83
457.717	85
457.937	83
458.157	92
458.377	99
458.598	131
458.818	141
459.038	157
459.258	104
459.478	91
459.698	67
459.918	73
460.138	84
460.358	84
460.578	83
460.798	84
461.018	85
461.238	84
461.458	90
461.678	73
461.898	79
462.118	71
462.338	88
462.558	90
462.777	84
462.997	85
463.217	79
463.437	91
463.657	70
463.876	87
464.096	91
464.316	87
464.536	94
464.755	79
464.975	100
465.195	166
465.414	165
465.634	91
465.854	93
466.073	84
466.293	80
466.512	74
466.732	85
466.951	86
467.171	93
467.391	90
467.61	119
467.829	114
468.049	123
468.268	108
468.488	99
468.707	89
468.927	88
469.146	86
469.365	93
469.585	95
469.804	97
470.023	96
470.243	92
470.462	82
470.681	106
470.901	88
471.12	95
471.339	88
471.558	75
471.777	88
471.997	99
472.216	156
472.435	264
472.654	117
472.873	105
473.092	84
473.311	83
473.53	85
473.749	93
473.968	100
474.187	100
474.406	87
474.625	81
474.844	80
475.063	90
475.282	84
475.501	94
475.72	88
475.939	89
476.158	89
476.377	92
476.596	110
476.814	79
477.033	78
477.252	93
477.471	90
477.69	87
477.908	71
478.127	93
478.346	90
478.564	84
478.783	103
479.002	92
479.22	90
479.439	113
479.658	91
479.876	90
480.095	81
480.313	90
480.532	102
480.751	100
480.969	151
481.188	405
481.406	293
481.624	111
481.843	108
482.061	88
482.28	76
482.498	98
482.717	98
482.935	85
483.153	90
483.372	84
483.59	95
483.808	73
484.027	92
484.245	87
484.463	88
484.681	98
484.9	88
485.118	101
485.336	86
485.554	90
485.772	89
485.99	97
486.209	103
486.427	100
486.645	100
486.863	114
487.081	100
487.299	97
487.517	88
487.735	89
487.953	100
488.171	78
488.389	89
488.607	99
488.825	83
489.043	90
489.261	92
489.479	78
489.696	82
489.914	83
490.132	74
490.35	73
490.568	79
490.786	82
491.003	91
491.221	96
491.439	100
491.657	97
491.874	95
492.092	79
492.31	94
492.527	95
492.745	91
492.963	84
493.18	94
493.398	97
493.615	97
493.833	86
494.05	85
494.268	84
494.485	91
494.703	60
494.92	80
495.138	85
495.355	77
495.573	89
495.79	80
496.008	92
496.225	99
496.442	96
496.66	81
496.877	93
497.094	95
497.312	84
497.529	94
497.746	96
497.963	88
498.181	86
498.398	92
498.615	111
498.832	111
499.049	88
499.267	92
499.484	84
499.701	89
499.918	83
500.135	93
500.352	93
500.569	91
500.786	83
501.003	77
501.22	79
501.437	89
501.654	96
501.871	107
502.088	88
502.305	99
502.522	93
502.739	82
502.956	79
503.172	87
503.389	85
503.606	108
503.823	94
504.04	120
504.256	88
504.473	90
504.69	92
504.907	111
505.123	95
505.34	92
505.557	91
505.773	98
505.99	92
506.207	95
506.423	90
506.64	72
506.856	85
507.073	83
507.289	88
507.506	99
507.722	116
507.939	111
508.155	83
508.372	88
508.588	98
508.805	93
509.021	95
509.238	108
509.454	89
509.67	107
509.887	106
510.103	134
510.319	199
510.536	724
510.752	2414
510.968	697
511.184	160
511.401	103
511.617	108
511.833	76
512.049	94
512.265	100
512.481	95
512.698	84
512.914	82
513.13	83
513.346	91
513.562	94
513.778	100
513.994	87
514.21	98
514.426	119
514.642	136
514.858	127
515.074	164
515.29	442
515.506	1543
515.721	597
515.937	154
516.153	120
516.369	97
516.585	86
516.801	82
517.016	75
517.232	83
517.448	85
517.664	85
517.879	93
518.095	100
518.311	102
518.527	91
518.742	84
518.958	99
519.173	91
519.389	96
519.605	104
519.82	94
520.036	101
520.251	120
520.467	118
520.682	112
520.898	118
521.113	116
521.329	135
521.544	187
521.76	543
521.975	2503
522.19	1600
522.406	326
522.621	127
522.836	107
523.052	87
523.267	90
523.482	83
523.698	104
523.913	109
524.128	98
524.343	91
524.559	84
524.774	90
524.989	106
525.204	99
525.419	96
525.634	88
525.849	96
526.064	100
526.28	90
526.495	87
526.71	85
526.925	85
527.14	93
527.355	78
527.57	94
527.785	91
527.999	90
528.214	83
528.429	92
528.644	77
528.859	88
529.074	106
529.289	129
529.503	166
529.718	96
529.933	91
530.148	76
530.363	87
530.577	81
530.792	83
531.007	81
531.221	97
531.436	79
531.651	88
531.865	83
532.08	85
532.295	104
532.509	86
532.724	88
532.938	77
533.153	85
533.367	86
533.582	68
533.796	93
534.011	92
534.225	95
534.44	81
534.654	93
534.868	92
535.083	101
535.297	91
535.511	99
535.726	86
535.94	91
536.154	91
536.369	98
536.583	76
536.797	86
537.011	83
537.225	94
537.44	102
537.654	90
537.868	90
538.082	82
538.296	89
538.51	66
538.724	86
538.938	106
539.153	92
539.367	100
539.581	78
539.795	87
540.009	86
540.222	81
540.436	89
540.65	101
540.864	92
541.078	83
541.292	86
541.506	95
541.72	94
541.934	92
542.147	88
542.361	81
542.575	87
542.789	88
543.002	100
543.216	90
543.43	96
543.644	68
543.857	98
544.071	88
544.285	86
544.498	93
544.712	103
544.925	76
545.139	87
545.352	78
545.566	93
545.779	84
545.993	95
546.206	87
546.42	88
546.633	96
546.847	77
547.06	59
547.274	84
547.487	88
547.7	82
547.914	90
548.127	82
548.34	88
548.554	88
548.767	87
548.98	93
549.193	91
549.407	86
549.62	84
549.833	90
550.046	86
550.259	86
550.473	87
550.686	99
550.899	78
551.112	97
551.325	81
551.538	87
551.751	94
551.964	89
552.177	95
552.39	92
552.603	79
552.816	92
553.029	96
553.242	88
553.455	100
553.667	103
553.88	101
554.093	89
554.306	87
554.519	76
554.732	83
554.944	84
555.157	96
555.37	83
555.583	86
555.795	95
556.008	89
556.221	97
556.433	81
556.646	100
556.859	92
557.071	88
557.284	88
557.496	92
557.709	76
557.921	79
558.134	116
558.346	90
558.559	87
558.771	93
558.984	94
559.196	86
559.409	87
559.621	85
559.833	87
560.046	100
560.258	89
560.47	82
560.683	80
560.895	83
561.107	90
561.32	80
561.532	85
561.744	87
561.956	95
562.168	85
562.381	87
562.593	95
562.805	81
563.017	97
563.229	93
563.441	83
563.653	87
563.865	83
564.077	87
564.289	90
564.501	99
564.713	88
564.925	88
565.137	87
565.349	92
565.561	86
565.773	82
565.985	88
566.197	87
566.408	92
566.62	73
566.832	82
567.044	94
567.255	85
567.467	83
567.679	80
567.891	71
568.102	82
568.314	96
568.526	98
568.737	84
568.949	87
569.161	97
569.372	84
569.584	79
569.795	102
570.007	114
570.218	232
570.43	145
570.641	86
570.853	79
571.064	79
571.276	91
571.487	94
571.698	77
571.91	91
572.121	83
572.333	87
572.544	77
572.755	70
572.966	95
573.178	93
573.389	99
573.6	83
573.811	89
574.023	86
574.234	99
574.445	84
574.656	86
574.867	87
575.078	88
575.289	84
575.501	96
575.712	88
575.923	88
576.134	90
576.345	89
576.556	100
576.767	92
576.978	90
577.188	80
577.399	79
577.61	81
577.821	86
578.032	96
578.243	273
578.454	806
578.665	230
578.875	103
579.086	83
579.297	88
579.508	98
579.718	87
579.929	102
580.14	84
580.35	77
580.561	96
580.772	82
580.982	92
581.193	74
581.403	74
581.614	99
581.825	107
582.035	87
582.246	89
582.456	85
582.667	88
582.877	90
583.087	94
583.298	87
583.508	90
583.719	87
583.929	80
584.139	78
584.35	90
584.56	90
584.77	77
584.981	80
