Data from Circ_2014_H10_HRD10591_00047.txt Node
Date: Wed Jan 03 10:02:18 EST 2024
User: Yrep
Spectrometer: HR+D1059
Trigger mode: 1
Integration Time (sec): 1.000000E-1
Scans to average: 1
Electric dark correction enabled: true
Nonlinearity correction enabled: false
Boxcar width: 0
XAxis mode: Wavelengths
Number of Pixels in Spectrum: 2048
>>>>>Begin Spectral Data<<<<<
223.165	-16.81
223.4	-16.81
223.635	-16.81
223.869	-8.81
224.104	-11.81
224.338	-24.81
224.573	-7.81
224.808	-7.81
225.042	-9.81
225.277	-10.81
225.511	-9.81
225.746	-9.81
225.98	-10.81
226.215	19.19
226.449	19.19
226.683	25.19
226.918	31.19
227.152	34.19
227.387	29.19
227.621	46.19
227.856	58.19
228.09	38.19
228.324	51.19
228.559	66.19
228.793	70.19
229.027	56.19
229.262	63.19
229.496	75.19
229.73	72.19
229.964	72.19
230.199	58.19
230.433	71.19
230.667	72.19
230.901	83.19
231.136	82.19
231.37	82.19
231.604	78.19
231.838	91.19
232.072	78.19
232.306	82.19
232.541	80.19
232.775	93.19
233.009	84.19
233.243	89.19
233.477	87.19
233.711	86.19
233.945	66.19
234.179	73.19
234.413	80.19
234.647	77.19
234.881	80.19
235.115	82.19
235.349	86.19
235.583	78.19
235.817	77.19
236.051	78.19
236.285	79.19
236.519	81.19
236.753	78.19
236.987	66.19
237.221	83.19
237.455	72.19
237.689	70.19
237.922	79.19
238.156	80.19
238.39	68.19
238.624	73.19
238.858	79.19
239.091	74.19
239.325	88.19
239.559	93.19
239.793	69.19
240.027	73.19
240.26	71.19
240.494	77.19
240.728	75.19
240.961	76.19
241.195	85.19
241.429	77.19
241.662	81.19
241.896	80.19
242.13	77.19
242.363	84.19
242.597	75.19
242.83	82.19
243.064	89.19
243.298	88.19
243.531	79.19
243.765	85.19
243.998	80.19
244.232	81.19
244.465	76.19
244.699	87.19
244.932	83.19
245.166	71.19
245.399	67.19
245.633	69.19
245.866	73.19
246.099	77.19
246.333	86.19
246.566	75.19
246.8	70.19
247.033	73.19
247.266	81.19
247.5	85.19
247.733	80.19
247.966	79.19
248.2	67.19
248.433	79.19
248.666	89.19
248.899	79.19
249.133	87.19
249.366	92.19
249.599	90.19
249.832	74.19
250.066	81.19
250.299	77.19
250.532	71.19
250.765	88.19
250.998	76.19
251.231	79.19
251.465	81.19
251.698	79.19
251.931	87.19
252.164	83.19
252.397	77.19
252.63	70.19
252.863	78.19
253.096	77.19
253.329	79.19
253.562	81.19
253.795	81.19
254.028	88.19
254.261	70.19
254.494	66.19
254.727	79.19
254.96	91.19
255.193	76.19
255.426	78.19
255.659	72.19
255.892	82.19
256.124	73.19
256.357	69.19
256.59	88.19
256.823	74.19
257.056	72.19
257.289	79.19
257.521	82.19
257.754	75.19
257.987	85.19
258.22	87.19
258.452	76.19
258.685	78.19
258.918	87.19
259.151	84.19
259.383	84.19
259.616	87.19
259.849	75.19
260.081	76.19
260.314	77.19
260.547	75.19
260.779	83.19
261.012	94.19
261.244	93.19
261.477	95.19
261.71	87.19
261.942	111.19
262.175	110.19
262.407	88.19
262.64	87.19
262.872	79.19
263.105	76.19
263.337	78.19
263.57	98.19
263.802	79.19
264.035	91.19
264.267	84.19
264.499	93.19
264.732	91.19
264.964	72.19
265.197	87.19
265.429	78.19
265.661	81.19
265.894	76.19
266.126	75.19
266.358	82.19
266.591	79.19
266.823	89.19
267.055	88.19
267.287	79.19
267.52	99.19
267.752	80.19
267.984	73.19
268.216	76.19
268.448	75.19
268.681	97.19
268.913	97.19
269.145	88.19
269.377	75.19
269.609	72.19
269.841	64.19
270.073	84.19
270.306	97.19
270.538	102.19
270.77	87.19
271.002	80.19
271.234	72.19
271.466	89.19
271.698	75.19
271.93	91.19
272.162	85.19
272.394	91.19
272.626	86.19
272.858	87.19
273.09	91.19
273.322	80.19
273.553	78.19
273.785	81.19
274.017	77.19
274.249	75.19
274.481	62.19
274.713	66.19
274.945	88.19
275.176	87.19
275.408	99.19
275.64	86.19
275.872	85.19
276.104	86.19
276.335	97.19
276.567	111.19
276.799	108.19
277.031	94.19
277.262	90.19
277.494	88.19
277.726	82.19
277.957	85.19
278.189	87.19
278.421	90.19
278.652	91.19
278.884	85.19
279.115	74.19
279.347	94.19
279.579	92.19
279.81	86.19
280.042	90.19
280.273	80.19
280.505	90.19
280.736	103.19
280.968	91.19
281.199	90.19
281.431	83.19
281.662	117.19
281.894	92.19
282.125	95.19
282.356	113.19
282.588	121.19
282.819	119.19
283.051	101.19
283.282	83.19
283.513	80.19
283.745	105.19
283.976	74.19
284.207	87.19
284.439	84.19
284.67	88.19
284.901	79.19
285.132	91.19
285.364	95.19
285.595	100.19
285.826	88.19
286.057	87.19
286.288	72.19
286.52	89.19
286.751	90.19
286.982	91.19
287.213	85.19
287.444	84.19
287.675	87.19
287.906	91.19
288.138	86.19
288.369	86.19
288.6	87.19
288.831	83.19
289.062	87.19
289.293	86.19
289.524	101.19
289.755	85.19
289.986	92.19
290.217	87.19
290.448	105.19
290.679	91.19
290.91	74.19
291.141	89.19
291.371	78.19
291.602	94.19
291.833	96.19
292.064	101.19
292.295	89.19
292.526	86.19
292.757	75.19
292.987	98.19
293.218	99.19
293.449	92.19
293.68	91.19
293.91	86.19
294.141	78.19
294.372	96.19
294.603	96.19
294.833	91.19
295.064	98.19
295.295	82.19
295.525	78.19
295.756	104.19
295.987	110.19
296.217	142.19
296.448	118.19
296.679	103.19
296.909	85.19
297.14	79.19
297.37	104.19
297.601	84.19
297.831	95.19
298.062	89.19
298.292	75.19
298.523	96.19
298.753	87.19
298.984	93.19
299.214	88.19
299.445	83.19
299.675	87.19
299.905	108.19
300.136	94.19
300.366	96.19
300.597	89.19
300.827	82.19
301.057	99.19
301.288	94.19
301.518	103.19
301.748	97.19
301.979	102.19
302.209	102.19
302.439	86.19
302.669	87.19
302.9	90.19
303.13	102.19
303.36	88.19
303.59	89.19
303.82	93.19
304.051	91.19
304.281	92.19
304.511	89.19
304.741	84.19
304.971	93.19
305.201	106.19
305.431	94.19
305.661	104.19
305.891	93.19
306.121	89.19
306.352	106.19
306.582	112.19
306.812	101.19
307.042	102.19
307.272	99.19
307.502	96.19
307.731	100.19
307.961	83.19
308.191	96.19
308.421	103.19
308.651	89.19
308.881	100.19
309.111	93.19
309.341	98.19
309.571	95.19
309.8	98.19
310.03	98.19
310.26	102.19
310.49	101.19
310.72	102.19
310.949	105.19
311.179	88.19
311.409	105.19
311.639	97.19
311.868	87.19
312.098	100.19
312.328	103.19
312.557	96.19
312.787	98.19
313.017	91.19
313.246	99.19
313.476	100.19
313.706	94.19
313.935	93.19
314.165	100.19
314.394	99.19
314.624	102.19
314.853	82.19
315.083	83.19
315.312	74.19
315.542	88.19
315.771	96.19
316.001	87.19
316.23	88.19
316.46	91.19
316.689	90.19
316.919	102.19
317.148	93.19
317.377	90.19
317.607	93.19
317.836	88.19
318.065	93.19
318.295	95.19
318.524	94.19
318.753	91.19
318.983	103.19
319.212	106.19
319.441	109.19
319.67	104.19
319.9	85.19
320.129	86.19
320.358	94.19
320.587	88.19
320.816	100.19
321.046	100.19
321.275	84.19
321.504	91.19
321.733	94.19
321.962	92.19
322.191	100.19
322.42	121.19
322.649	120.19
322.878	109.19
323.108	117.19
323.337	111.19
323.566	114.19
323.795	134.19
324.024	202.19
324.253	364.19
324.482	729.19
324.71	1443.19
324.939	1915.19
325.168	716.19
325.397	229.19
325.626	140.19
325.855	127.19
326.084	122.19
326.313	130.19
326.542	147.19
326.77	214.19
326.999	406.19
327.228	800.19
327.457	1458.19
327.686	1158.19
327.914	332.19
328.143	194.19
328.372	159.19
328.6	129.19
328.829	102.19
329.058	103.19
329.287	109.19
329.515	99.19
329.744	115.19
329.972	115.19
330.201	120.19
330.43	144.19
330.658	135.19
330.887	136.19
331.115	114.19
331.344	93.19
331.572	108.19
331.801	98.19
332.03	100.19
332.258	103.19
332.486	98.19
332.715	105.19
332.943	93.19
333.172	94.19
333.4	83.19
333.629	110.19
333.857	100.19
334.085	118.19
334.314	100.19
334.542	141.19
334.771	139.19
334.999	109.19
335.227	92.19
335.455	95.19
335.684	111.19
335.912	108.19
336.14	110.19
336.369	90.19
336.597	93.19
336.825	103.19
337.053	93.19
337.281	93.19
337.51	92.19
337.738	93.19
337.966	91.19
338.194	98.19
338.422	86.19
338.65	72.19
338.878	94.19
339.106	89.19
339.334	93.19
339.562	99.19
339.79	98.19
340.018	98.19
340.246	93.19
340.474	93.19
340.702	99.19
340.93	91.19
341.158	88.19
341.386	108.19
341.614	91.19
341.842	96.19
342.07	68.19
342.298	79.19
342.526	88.19
342.754	85.19
342.981	92.19
343.209	99.19
343.437	93.19
343.665	95.19
343.893	97.19
344.12	93.19
344.348	82.19
344.576	92.19
344.804	84.19
345.031	80.19
345.259	103.19
345.487	87.19
345.714	91.19
345.942	104.19
346.17	81.19
346.397	91.19
346.625	91.19
346.853	86.19
347.08	85.19
347.308	100.19
347.535	108.19
347.763	99.19
347.99	91.19
348.218	106.19
348.445	102.19
348.673	102.19
348.9	90.19
349.128	85.19
349.355	86.19
349.583	93.19
349.81	89.19
350.037	100.19
350.265	79.19
350.492	86.19
350.72	84.19
350.947	90.19
351.174	130.19
351.402	123.19
351.629	87.19
351.856	102.19
352.083	108.19
352.311	115.19
352.538	103.19
352.765	102.19
352.992	115.19
353.22	103.19
353.447	93.19
353.674	94.19
353.901	89.19
354.128	90.19
354.355	80.19
354.583	101.19
354.81	95.19
355.037	92.19
355.264	96.19
355.491	91.19
355.718	93.19
355.945	87.19
356.172	97.19
356.399	95.19
356.626	89.19
356.853	102.19
357.08	86.19
357.307	91.19
357.534	99.19
357.761	95.19
357.988	102.19
358.215	93.19
358.441	88.19
358.668	92.19
358.895	88.19
359.122	99.19
359.349	100.19
359.576	122.19
359.802	102.19
360.029	111.19
360.256	108.19
360.483	98.19
360.709	76.19
360.936	109.19
361.163	92.19
361.39	98.19
361.616	98.19
361.843	94.19
362.07	96.19
362.296	82.19
362.523	92.19
362.749	84.19
362.976	96.19
363.203	81.19
363.429	85.19
363.656	90.19
363.882	88.19
364.109	86.19
364.335	82.19
364.562	90.19
364.788	90.19
365.015	78.19
365.241	88.19
365.468	106.19
365.694	111.19
365.92	93.19
366.147	88.19
366.373	83.19
366.599	87.19
366.826	93.19
367.052	85.19
367.278	83.19
367.505	84.19
367.731	103.19
367.957	77.19
368.184	83.19
368.41	90.19
368.636	102.19
368.862	127.19
369.089	105.19
369.315	95.19
369.541	93.19
369.767	92.19
369.993	86.19
370.219	84.19
370.445	96.19
370.672	95.19
370.898	91.19
371.124	105.19
371.35	83.19
371.576	85.19
371.802	87.19
372.028	87.19
372.254	85.19
372.48	83.19
372.706	69.19
372.932	87.19
373.158	90.19
373.384	105.19
373.61	102.19
373.835	95.19
374.061	90.19
374.287	92.19
374.513	89.19
374.739	106.19
374.965	86.19
375.191	94.19
375.416	89.19
375.642	89.19
375.868	94.19
376.094	98.19
376.319	93.19
376.545	89.19
376.771	90.19
376.997	93.19
377.222	104.19
377.448	96.19
377.674	87.19
377.899	96.19
378.125	89.19
378.35	90.19
378.576	94.19
378.802	95.19
379.027	83.19
379.253	98.19
379.478	86.19
379.704	85.19
379.929	92.19
380.155	106.19
380.38	99.19
380.606	94.19
380.831	93.19
381.057	93.19
381.282	86.19
381.507	102.19
381.733	94.19
381.958	80.19
382.184	91.19
382.409	103.19
382.634	108.19
382.86	91.19
383.085	88.19
383.31	95.19
383.535	102.19
383.761	99.19
383.986	96.19
384.211	88.19
384.436	111.19
384.662	102.19
384.887	106.19
385.112	102.19
385.337	109.19
385.562	107.19
385.787	95.19
386.013	114.19
386.238	121.19
386.463	108.19
386.688	105.19
386.913	107.19
387.138	109.19
387.363	97.19
387.588	91.19
387.813	111.19
388.038	87.19
388.263	101.19
388.488	99.19
388.713	110.19
388.938	102.19
389.163	78.19
389.387	90.19
389.612	97.19
389.837	85.19
390.062	94.19
390.287	87.19
390.512	100.19
390.736	102.19
390.961	87.19
391.186	88.19
391.411	82.19
391.636	99.19
391.86	85.19
392.085	88.19
392.31	86.19
392.534	80.19
392.759	92.19
392.984	66.19
393.208	85.19
393.433	87.19
393.658	81.19
393.882	87.19
394.107	103.19
394.331	89.19
394.556	92.19
394.78	91.19
395.005	87.19
395.229	90.19
395.454	81.19
395.678	98.19
395.903	81.19
396.127	85.19
396.352	92.19
396.576	92.19
396.801	70.19
397.025	96.19
397.249	88.19
397.474	95.19
397.698	93.19
397.922	75.19
398.147	88.19
398.371	72.19
398.595	71.19
398.82	84.19
399.044	90.19
399.268	68.19
399.492	83.19
399.717	84.19
399.941	82.19
400.165	96.19
400.389	99.19
400.613	95.19
400.837	80.19
401.062	88.19
401.286	95.19
401.51	87.19
401.734	95.19
401.958	109.19
402.182	136.19
402.406	155.19
402.63	133.19
402.854	86.19
403.078	92.19
403.302	91.19
403.526	102.19
403.75	90.19
403.974	81.19
404.198	83.19
404.422	92.19
404.645	92.19
404.869	89.19
405.093	87.19
405.317	91.19
405.541	93.19
405.765	104.19
405.988	109.19
406.212	158.19
406.436	226.19
406.66	138.19
406.883	102.19
407.107	81.19
407.331	89.19
407.555	98.19
407.778	106.19
408.002	95.19
408.226	92.19
408.449	107.19
408.673	83.19
408.896	90.19
409.12	97.19
409.344	95.19
409.567	87.19
409.791	98.19
410.014	94.19
410.238	84.19
410.461	90.19
410.685	89.19
410.908	87.19
411.132	104.19
411.355	103.19
411.578	89.19
411.802	89.19
412.025	94.19
412.249	92.19
412.472	88.19
412.695	94.19
412.919	74.19
413.142	95.19
413.365	90.19
413.589	98.19
413.812	94.19
414.035	93.19
414.258	83.19
414.482	102.19
414.705	93.19
414.928	102.19
415.151	102.19
415.374	99.19
415.597	79.19
415.821	84.19
416.044	92.19
416.267	98.19
416.49	92.19
416.713	78.19
416.936	99.19
417.159	87.19
417.382	82.19
417.605	88.19
417.828	99.19
418.051	95.19
418.274	77.19
418.497	83.19
418.72	78.19
418.943	89.19
419.166	79.19
419.389	86.19
419.611	87.19
419.834	95.19
420.057	87.19
420.28	82.19
420.503	100.19
420.726	99.19
420.948	93.19
421.171	94.19
421.394	88.19
421.617	83.19
421.839	87.19
422.062	91.19
422.285	85.19
422.507	98.19
422.73	93.19
422.953	92.19
423.175	75.19
423.398	88.19
423.621	88.19
423.843	88.19
424.066	84.19
424.288	85.19
424.511	87.19
424.733	106.19
424.956	103.19
425.178	98.19
425.401	98.19
425.623	97.19
425.846	90.19
426.068	104.19
426.291	89.19
426.513	91.19
426.735	85.19
426.958	108.19
427.18	107.19
427.402	116.19
427.625	165.19
427.847	141.19
428.069	117.19
428.292	94.19
428.514	80.19
428.736	95.19
428.958	80.19
429.181	87.19
429.403	85.19
429.625	92.19
429.847	94.19
430.069	91.19
430.292	98.19
430.514	90.19
430.736	76.19
430.958	78.19
431.18	84.19
431.402	90.19
431.624	86.19
431.846	97.19
432.068	87.19
432.29	84.19
432.512	98.19
432.734	84.19
432.956	88.19
433.178	91.19
433.4	90.19
433.622	82.19
433.844	79.19
434.066	75.19
434.287	87.19
434.509	103.19
434.731	87.19
434.953	89.19
435.175	75.19
435.397	90.19
435.618	83.19
435.84	100.19
436.062	107.19
436.284	107.19
436.505	114.19
436.727	101.19
436.949	90.19
437.17	93.19
437.392	95.19
437.614	96.19
437.835	110.19
438.057	115.19
438.278	98.19
438.5	99.19
438.721	90.19
438.943	92.19
439.165	86.19
439.386	93.19
439.608	82.19
439.829	94.19
440.05	109.19
440.272	140.19
440.493	101.19
440.715	82.19
440.936	92.19
441.158	84.19
441.379	88.19
441.6	101.19
441.822	95.19
442.043	96.19
442.264	107.19
442.486	106.19
442.707	89.19
442.928	119.19
443.149	117.19
443.371	128.19
443.592	99.19
443.813	106.19
444.034	96.19
444.255	97.19
444.476	80.19
444.698	74.19
444.919	89.19
445.14	110.19
445.361	108.19
445.582	115.19
445.803	139.19
446.024	131.19
446.245	121.19
446.466	98.19
446.687	80.19
446.908	87.19
447.129	67.19
447.35	95.19
447.571	88.19
447.792	87.19
448.013	89.19
448.234	107.19
448.455	97.19
448.675	111.19
448.896	106.19
449.117	105.19
449.338	95.19
449.559	102.19
449.779	127.19
450	91.19
450.221	105.19
450.442	87.19
450.662	99.19
450.883	98.19
451.104	117.19
451.324	89.19
451.545	92.19
451.766	79.19
451.986	88.19
452.207	88.19
452.428	97.19
452.648	99.19
452.869	92.19
453.089	105.19
453.31	124.19
453.53	104.19
453.751	93.19
453.971	95.19
454.192	107.19
454.412	110.19
454.633	102.19
454.853	80.19
455.073	100.19
455.294	79.19
455.514	90.19
455.734	97.19
455.955	96.19
456.175	88.19
456.395	75.19
456.616	68.19
456.836	85.19
457.056	81.19
457.276	92.19
457.497	94.19
457.717	88.19
457.937	76.19
458.157	78.19
458.377	77.19
458.598	94.19
458.818	147.19
459.038	162.19
459.258	92.19
459.478	92.19
459.698	96.19
459.918	87.19
460.138	80.19
460.358	83.19
460.578	93.19
460.798	85.19
461.018	98.19
461.238	83.19
461.458	77.19
461.678	86.19
461.898	90.19
462.118	77.19
462.338	79.19
462.558	83.19
462.777	81.19
462.997	88.19
463.217	70.19
463.437	82.19
463.657	101.19
463.876	82.19
464.096	101.19
464.316	94.19
464.536	100.19
464.755	84.19
464.975	107.19
465.195	155.19
465.414	163.19
465.634	99.19
465.854	81.19
466.073	94.19
466.293	91.19
466.512	93.19
466.732	72.19
466.951	66.19
467.171	87.19
467.391	97.19
467.61	99.19
467.829	96.19
468.049	97.19
468.268	117.19
468.488	92.19
468.707	88.19
468.927	74.19
469.146	86.19
469.365	81.19
469.585	88.19
469.804	103.19
470.023	85.19
470.243	97.19
470.462	107.19
470.681	113.19
470.901	101.19
471.12	91.19
471.339	86.19
471.558	86.19
471.777	86.19
471.997	93.19
472.216	107.19
472.435	163.19
472.654	103.19
472.873	86.19
473.092	83.19
473.311	83.19
473.53	89.19
473.749	96.19
473.968	83.19
474.187	93.19
474.406	96.19
474.625	89.19
474.844	92.19
475.063	84.19
475.282	95.19
475.501	90.19
475.72	92.19
475.939	81.19
476.158	90.19
476.377	87.19
476.596	98.19
476.814	76.19
477.033	83.19
477.252	100.19
477.471	96.19
477.69	93.19
477.908	81.19
478.127	86.19
478.346	77.19
478.564	94.19
478.783	102.19
479.002	87.19
479.22	90.19
479.439	109.19
479.658	109.19
479.876	91.19
480.095	83.19
480.313	77.19
480.532	84.19
480.751	88.19
480.969	130.19
481.188	248.19
481.406	171.19
481.624	85.19
481.843	82.19
482.061	81.19
482.28	89.19
482.498	92.19
482.717	88.19
482.935	94.19
483.153	91.19
483.372	94.19
483.59	91.19
483.808	98.19
484.027	102.19
484.245	78.19
484.463	105.19
484.681	97.19
484.9	98.19
485.118	89.19
485.336	102.19
485.554	90.19
485.772	98.19
485.99	104.19
486.209	87.19
486.427	96.19
486.645	113.19
486.863	105.19
487.081	100.19
487.299	101.19
487.517	101.19
487.735	100.19
487.953	105.19
488.171	90.19
488.389	101.19
488.607	98.19
488.825	95.19
489.043	93.19
489.261	87.19
489.479	80.19
489.696	74.19
489.914	89.19
490.132	78.19
490.35	72.19
490.568	82.19
490.786	81.19
491.003	92.19
491.221	83.19
491.439	97.19
491.657	94.19
491.874	98.19
492.092	92.19
492.31	88.19
492.527	97.19
492.745	99.19
492.963	83.19
493.18	87.19
493.398	103.19
493.615	94.19
493.833	84.19
494.05	100.19
494.268	84.19
494.485	82.19
494.703	98.19
494.92	87.19
495.138	94.19
495.355	96.19
495.573	101.19
495.79	93.19
496.008	92.19
496.225	90.19
496.442	88.19
496.66	102.19
496.877	85.19
497.094	88.19
497.312	82.19
497.529	94.19
497.746	87.19
497.963	105.19
498.181	87.19
498.398	90.19
498.615	103.19
498.832	105.19
499.049	90.19
499.267	78.19
499.484	100.19
499.701	99.19
499.918	105.19
500.135	77.19
500.352	92.19
500.569	87.19
500.786	80.19
501.003	81.19
501.22	96.19
501.437	88.19
501.654	94.19
501.871	114.19
502.088	101.19
502.305	97.19
502.522	94.19
502.739	88.19
502.956	108.19
503.172	82.19
503.389	90.19
503.606	110.19
503.823	83.19
504.04	95.19
504.256	89.19
504.473	97.19
504.69	91.19
504.907	97.19
505.123	87.19
505.34	92.19
505.557	86.19
505.773	103.19
505.99	85.19
506.207	87.19
506.423	93.19
506.64	91.19
506.856	87.19
507.073	92.19
507.289	88.19
507.506	89.19
507.722	100.19
507.939	99.19
508.155	107.19
508.372	91.19
508.588	90.19
508.805	101.19
509.021	84.19
509.238	100.19
509.454	99.19
509.67	94.19
509.887	99.19
510.103	129.19
510.319	199.19
510.536	712.19
510.752	2460.19
510.968	680.19
511.184	167.19
511.401	114.19
511.617	93.19
511.833	80.19
512.049	97.19
512.265	91.19
512.481	89.19
512.698	92.19
512.914	86.19
513.13	100.19
513.346	93.19
513.562	89.19
513.778	102.19
513.994	100.19
514.21	107.19
514.426	126.19
514.642	132.19
514.858	124.19
515.074	151.19
515.29	428.19
515.506	1542.19
515.721	587.19
