Data from Circ_2014_H10_HRD10591_00082.txt Node
Date: Wed Jan 03 10:02:25 EST 2024
User: Yrep
Spectrometer: HR+D1059
Trigger mode: 1
Integration Time (sec): 1.000000E-1
Scans to average: 1
Electric dark correction enabled: true
Nonlinearity correction enabled: false
Boxcar width: 0
XAxis mode: Wavelengths
Number of Pixels in Spectrum: 2048
>>>>>Begin Spectral Data<<<<<
223.165	-18.25
223.4	-18.25
223.635	-18.25
223.869	-16.25
224.104	-14.25
224.338	-26.25
224.573	-14.25
224.808	-24.25
225.042	-6.25
225.277	-0.25
225.511	9.75
225.746	4.75
225.98	1.75
226.215	-3.25
226.449	15.75
226.683	27.75
226.918	32.75
227.152	30.75
227.387	17.75
227.621	30.75
227.856	37.75
228.09	37.75
228.324	40.75
228.559	49.75
228.793	63.75
229.027	61.75
229.262	48.75
229.496	67.75
229.73	75.75
229.964	71.75
230.199	74.75
230.433	61.75
230.667	84.75
230.901	75.75
231.136	70.75
231.37	78.75
231.604	75.75
231.838	77.75
232.072	65.75
232.306	72.75
232.541	80.75
232.775	81.75
233.009	78.75
233.243	75.75
233.477	74.75
233.711	76.75
233.945	69.75
234.179	72.75
234.413	84.75
234.647	80.75
234.881	79.75
235.115	76.75
235.349	79.75
235.583	69.75
235.817	82.75
236.051	85.75
236.285	67.75
236.519	80.75
236.753	70.75
236.987	77.75
237.221	80.75
237.455	77.75
237.689	70.75
237.922	69.75
238.156	79.75
238.39	75.75
238.624	81.75
238.858	77.75
239.091	81.75
239.325	71.75
239.559	88.75
239.793	80.75
240.027	73.75
240.26	75.75
240.494	78.75
240.728	67.75
240.961	77.75
241.195	64.75
241.429	74.75
241.662	75.75
241.896	71.75
242.13	81.75
242.363	71.75
242.597	69.75
242.83	89.75
243.064	82.75
243.298	90.75
243.531	80.75
243.765	79.75
243.998	80.75
244.232	71.75
244.465	77.75
244.699	66.75
244.932	71.75
245.166	75.75
245.399	86.75
245.633	74.75
245.866	74.75
246.099	78.75
246.333	74.75
246.566	66.75
246.8	82.75
247.033	74.75
247.266	68.75
247.5	84.75
247.733	71.75
247.966	58.75
248.2	68.75
248.433	75.75
248.666	78.75
248.899	76.75
249.133	88.75
249.366	91.75
249.599	99.75
249.832	81.75
250.066	80.75
250.299	63.75
250.532	60.75
250.765	67.75
250.998	61.75
251.231	74.75
251.465	73.75
251.698	75.75
251.931	66.75
252.164	85.75
252.397	75.75
252.63	75.75
252.863	71.75
253.096	86.75
253.329	81.75
253.562	76.75
253.795	98.75
254.028	72.75
254.261	67.75
254.494	78.75
254.727	88.75
254.96	75.75
255.193	65.75
255.426	78.75
255.659	73.75
255.892	77.75
256.124	71.75
256.357	65.75
256.59	79.75
256.823	83.75
257.056	83.75
257.289	85.75
257.521	83.75
257.754	84.75
257.987	70.75
258.22	72.75
258.452	71.75
258.685	69.75
258.918	84.75
259.151	86.75
259.383	74.75
259.616	77.75
259.849	85.75
260.081	73.75
260.314	69.75
260.547	71.75
260.779	67.75
261.012	74.75
261.244	78.75
261.477	76.75
261.71	88.75
261.942	97.75
262.175	103.75
262.407	90.75
262.64	79.75
262.872	89.75
263.105	85.75
263.337	91.75
263.57	73.75
263.802	90.75
264.035	64.75
264.267	82.75
264.499	71.75
264.732	65.75
264.964	82.75
265.197	71.75
265.429	68.75
265.661	62.75
265.894	80.75
266.126	82.75
266.358	75.75
266.591	69.75
266.823	71.75
267.055	80.75
267.287	94.75
267.52	76.75
267.752	86.75
267.984	69.75
268.216	61.75
268.448	73.75
268.681	80.75
268.913	80.75
269.145	87.75
269.377	94.75
269.609	79.75
269.841	62.75
270.073	66.75
270.306	71.75
270.538	65.75
270.77	72.75
271.002	76.75
271.234	90.75
271.466	85.75
271.698	86.75
271.93	87.75
272.162	72.75
272.394	79.75
272.626	73.75
272.858	84.75
273.09	68.75
273.322	94.75
273.553	81.75
273.785	80.75
274.017	87.75
274.249	79.75
274.481	84.75
274.713	75.75
274.945	81.75
275.176	73.75
275.408	83.75
275.64	90.75
275.872	78.75
276.104	99.75
276.335	78.75
276.567	111.75
276.799	104.75
277.031	102.75
277.262	100.75
277.494	87.75
277.726	82.75
277.957	67.75
278.189	76.75
278.421	83.75
278.652	75.75
278.884	99.75
279.115	95.75
279.347	75.75
279.579	68.75
279.81	93.75
280.042	72.75
280.273	101.75
280.505	97.75
280.736	83.75
280.968	80.75
281.199	79.75
281.431	68.75
281.662	81.75
281.894	94.75
282.125	97.75
282.356	115.75
282.588	126.75
282.819	89.75
283.051	73.75
283.282	83.75
283.513	80.75
283.745	85.75
283.976	72.75
284.207	84.75
284.439	87.75
284.67	80.75
284.901	74.75
285.132	70.75
285.364	80.75
285.595	100.75
285.826	78.75
286.057	89.75
286.288	91.75
286.52	86.75
286.751	87.75
286.982	86.75
287.213	70.75
287.444	75.75
287.675	79.75
287.906	66.75
288.138	74.75
288.369	100.75
288.6	70.75
288.831	86.75
289.062	75.75
289.293	77.75
289.524	80.75
289.755	98.75
289.986	84.75
290.217	99.75
290.448	81.75
290.679	99.75
290.91	79.75
291.141	79.75
291.371	83.75
291.602	87.75
291.833	74.75
292.064	98.75
292.295	77.75
292.526	79.75
292.757	74.75
292.987	79.75
293.218	81.75
293.449	85.75
293.68	80.75
293.91	84.75
294.141	94.75
294.372	85.75
294.603	82.75
294.833	92.75
295.064	88.75
295.295	95.75
295.525	89.75
295.756	97.75
295.987	109.75
296.217	142.75
296.448	121.75
296.679	91.75
296.909	89.75
297.14	89.75
297.37	72.75
297.601	73.75
297.831	84.75
298.062	98.75
298.292	94.75
298.523	79.75
298.753	82.75
298.984	97.75
299.214	80.75
299.445	92.75
299.675	79.75
299.905	81.75
300.136	81.75
300.366	96.75
300.597	80.75
300.827	80.75
301.057	98.75
301.288	116.75
301.518	82.75
301.748	95.75
301.979	92.75
302.209	85.75
302.439	100.75
302.669	100.75
302.9	85.75
303.13	90.75
303.36	90.75
303.59	97.75
303.82	114.75
304.051	88.75
304.281	82.75
304.511	91.75
304.741	79.75
304.971	78.75
305.201	74.75
305.431	76.75
305.661	83.75
305.891	92.75
306.121	87.75
306.352	92.75
306.582	110.75
306.812	87.75
307.042	94.75
307.272	81.75
307.502	93.75
307.731	85.75
307.961	107.75
308.191	94.75
308.421	111.75
308.651	99.75
308.881	102.75
309.111	89.75
309.341	95.75
309.571	86.75
309.8	84.75
310.03	81.75
310.26	87.75
310.49	95.75
310.72	99.75
310.949	97.75
311.179	99.75
311.409	96.75
311.639	110.75
311.868	93.75
312.098	95.75
312.328	95.75
312.557	95.75
312.787	101.75
313.017	113.75
313.246	97.75
313.476	77.75
313.706	83.75
313.935	89.75
314.165	91.75
314.394	99.75
314.624	99.75
314.853	84.75
315.083	80.75
315.312	90.75
315.542	84.75
315.771	96.75
316.001	99.75
316.23	80.75
316.46	78.75
316.689	91.75
316.919	100.75
317.148	94.75
317.377	81.75
317.607	82.75
317.836	96.75
318.065	86.75
318.295	86.75
318.524	90.75
318.753	100.75
318.983	84.75
319.212	85.75
319.441	99.75
319.67	102.75
319.9	92.75
320.129	78.75
320.358	98.75
320.587	95.75
320.816	94.75
321.046	96.75
321.275	83.75
321.504	78.75
321.733	98.75
321.962	92.75
322.191	109.75
322.42	100.75
322.649	100.75
322.878	108.75
323.108	124.75
323.337	117.75
323.566	121.75
323.795	153.75
324.024	193.75
324.253	382.75
324.482	771.75
324.71	1550.75
324.939	2084.75
325.168	782.75
325.397	256.75
325.626	138.75
325.855	115.75
326.084	121.75
326.313	125.75
326.542	139.75
326.77	213.75
326.999	430.75
327.228	869.75
327.457	1561.75
327.686	1241.75
327.914	353.75
328.143	210.75
328.372	189.75
328.6	137.75
328.829	122.75
329.058	119.75
329.287	114.75
329.515	97.75
329.744	107.75
329.972	134.75
330.201	190.75
330.43	241.75
330.658	177.75
330.887	145.75
331.115	136.75
331.344	98.75
331.572	107.75
331.801	81.75
332.03	84.75
332.258	84.75
332.486	89.75
332.715	94.75
332.943	97.75
333.172	83.75
333.4	89.75
333.629	113.75
333.857	126.75
334.085	141.75
334.314	187.75
334.542	272.75
334.771	247.75
334.999	129.75
335.227	100.75
335.455	113.75
335.684	87.75
335.912	102.75
336.14	104.75
336.369	97.75
336.597	113.75
336.825	97.75
337.053	97.75
337.281	86.75
337.51	95.75
337.738	95.75
337.966	77.75
338.194	90.75
338.422	92.75
338.65	89.75
338.878	77.75
339.106	91.75
339.334	87.75
339.562	79.75
339.79	80.75
340.018	99.75
340.246	87.75
340.474	88.75
340.702	84.75
340.93	87.75
341.158	85.75
341.386	98.75
341.614	90.75
341.842	89.75
342.07	83.75
342.298	97.75
342.526	84.75
342.754	81.75
342.981	78.75
343.209	89.75
343.437	97.75
343.665	92.75
343.893	86.75
344.12	102.75
344.348	85.75
344.576	83.75
344.804	97.75
345.031	90.75
345.259	98.75
345.487	85.75
345.714	88.75
345.942	89.75
346.17	87.75
346.397	78.75
346.625	90.75
346.853	88.75
347.08	81.75
347.308	81.75
347.535	95.75
347.763	98.75
347.99	96.75
348.218	88.75
348.445	87.75
348.673	87.75
348.9	95.75
349.128	73.75
349.355	91.75
349.583	85.75
349.81	80.75
350.037	89.75
350.265	95.75
350.492	93.75
350.72	82.75
350.947	94.75
351.174	111.75
351.402	112.75
351.629	94.75
351.856	98.75
352.083	101.75
352.311	82.75
352.538	94.75
352.765	101.75
352.992	100.75
353.22	113.75
353.447	100.75
353.674	104.75
353.901	85.75
354.128	89.75
354.355	91.75
354.583	100.75
354.81	102.75
355.037	95.75
355.264	101.75
355.491	84.75
355.718	89.75
355.945	85.75
356.172	69.75
356.399	74.75
356.626	81.75
356.853	83.75
357.08	77.75
357.307	99.75
357.534	89.75
357.761	98.75
357.988	95.75
358.215	95.75
358.441	90.75
358.668	100.75
358.895	74.75
359.122	84.75
359.349	93.75
359.576	84.75
359.802	98.75
360.029	104.75
360.256	97.75
360.483	98.75
360.709	93.75
360.936	104.75
361.163	87.75
361.39	92.75
361.616	83.75
361.843	99.75
362.07	80.75
362.296	85.75
362.523	82.75
362.749	89.75
362.976	93.75
363.203	72.75
363.429	91.75
363.656	86.75
363.882	71.75
364.109	93.75
364.335	87.75
364.562	97.75
364.788	78.75
365.015	85.75
365.241	110.75
365.468	107.75
365.694	109.75
365.92	97.75
366.147	76.75
366.373	70.75
366.599	92.75
366.826	80.75
367.052	98.75
367.278	85.75
367.505	90.75
367.731	87.75
367.957	88.75
368.184	93.75
368.41	89.75
368.636	99.75
368.862	118.75
369.089	115.75
369.315	97.75
369.541	79.75
369.767	89.75
369.993	85.75
370.219	76.75
370.445	98.75
370.672	91.75
370.898	86.75
371.124	91.75
371.35	96.75
371.576	79.75
371.802	77.75
372.028	83.75
372.254	83.75
372.48	86.75
372.706	63.75
372.932	80.75
373.158	80.75
373.384	81.75
373.61	87.75
373.835	82.75
374.061	81.75
374.287	104.75
374.513	105.75
374.739	80.75
374.965	82.75
375.191	84.75
375.416	73.75
375.642	99.75
375.868	76.75
376.094	101.75
376.319	90.75
376.545	73.75
376.771	93.75
376.997	82.75
377.222	81.75
377.448	98.75
377.674	90.75
377.899	74.75
378.125	81.75
378.35	94.75
378.576	96.75
378.802	81.75
379.027	97.75
379.253	95.75
379.478	80.75
379.704	91.75
379.929	83.75
380.155	74.75
380.38	83.75
380.606	99.75
380.831	95.75
381.057	90.75
381.282	98.75
381.507	79.75
381.733	83.75
381.958	79.75
382.184	117.75
382.409	86.75
382.634	103.75
382.86	99.75
383.085	97.75
383.31	100.75
383.535	99.75
383.761	102.75
383.986	94.75
384.211	91.75
384.436	97.75
384.662	101.75
384.887	91.75
385.112	102.75
385.337	105.75
385.562	104.75
385.787	84.75
386.013	102.75
386.238	112.75
386.463	103.75
386.688	104.75
386.913	95.75
387.138	95.75
387.363	101.75
387.588	90.75
387.813	93.75
388.038	98.75
388.263	110.75
388.488	101.75
388.713	95.75
388.938	99.75
389.163	103.75
389.387	88.75
389.612	85.75
389.837	86.75
390.062	88.75
390.287	93.75
390.512	83.75
390.736	90.75
390.961	91.75
391.186	89.75
391.411	84.75
391.636	95.75
391.86	74.75
392.085	86.75
392.31	93.75
392.534	76.75
392.759	82.75
392.984	79.75
393.208	79.75
393.433	79.75
393.658	71.75
393.882	83.75
394.107	87.75
394.331	97.75
394.556	83.75
394.78	82.75
395.005	76.75
395.229	88.75
395.454	84.75
395.678	82.75
395.903	86.75
396.127	84.75
396.352	81.75
396.576	98.75
396.801	87.75
397.025	87.75
397.249	65.75
397.474	87.75
397.698	90.75
397.922	84.75
398.147	86.75
398.371	87.75
398.595	79.75
398.82	93.75
399.044	75.75
399.268	88.75
399.492	68.75
399.717	90.75
399.941	96.75
400.165	87.75
400.389	87.75
400.613	88.75
400.837	69.75
401.062	80.75
401.286	86.75
401.51	82.75
401.734	93.75
401.958	94.75
402.182	124.75
402.406	170.75
402.63	109.75
402.854	84.75
403.078	77.75
403.302	94.75
403.526	98.75
403.75	95.75
403.974	86.75
404.198	74.75
404.422	97.75
404.645	86.75
404.869	75.75
405.093	97.75
405.317	99.75
405.541	100.75
405.765	83.75
405.988	115.75
406.212	165.75
406.436	227.75
406.66	144.75
406.883	101.75
407.107	94.75
407.331	92.75
407.555	88.75
407.778	91.75
408.002	90.75
408.226	85.75
408.449	80.75
408.673	86.75
408.896	75.75
409.12	78.75
409.344	92.75
409.567	74.75
409.791	79.75
410.014	83.75
410.238	83.75
410.461	89.75
410.685	95.75
410.908	95.75
411.132	83.75
411.355	93.75
411.578	87.75
411.802	76.75
412.025	81.75
412.249	90.75
412.472	88.75
412.695	90.75
412.919	84.75
413.142	77.75
413.365	87.75
413.589	73.75
413.812	70.75
414.035	90.75
414.258	87.75
414.482	79.75
414.705	87.75
414.928	86.75
415.151	74.75
415.374	87.75
415.597	82.75
415.821	85.75
416.044	90.75
416.267	63.75
416.49	81.75
416.713	73.75
416.936	79.75
417.159	82.75
417.382	85.75
417.605	83.75
417.828	95.75
418.051	81.75
418.274	88.75
418.497	62.75
418.72	83.75
418.943	79.75
419.166	96.75
419.389	80.75
419.611	67.75
419.834	81.75
420.057	90.75
420.28	76.75
420.503	89.75
420.726	89.75
420.948	80.75
421.171	95.75
421.394	91.75
421.617	85.75
421.839	83.75
422.062	88.75
422.285	82.75
422.507	101.75
422.73	99.75
422.953	90.75
423.175	83.75
423.398	109.75
423.621	79.75
423.843	78.75
424.066	72.75
424.288	95.75
424.511	89.75
424.733	104.75
424.956	102.75
425.178	97.75
425.401	96.75
425.623	84.75
425.846	76.75
426.068	81.75
426.291	84.75
426.513	83.75
426.735	92.75
426.958	97.75
427.18	103.75
427.402	113.75
427.625	162.75
427.847	131.75
428.069	116.75
428.292	87.75
428.514	89.75
428.736	64.75
428.958	80.75
429.181	85.75
429.403	99.75
429.625	79.75
429.847	84.75
430.069	87.75
430.292	61.75
430.514	87.75
430.736	93.75
430.958	92.75
431.18	84.75
431.402	79.75
431.624	82.75
431.846	100.75
432.068	87.75
432.29	87.75
432.512	89.75
432.734	70.75
432.956	83.75
433.178	92.75
433.4	100.75
433.622	95.75
433.844	90.75
434.066	90.75
434.287	82.75
434.509	81.75
434.731	90.75
434.953	94.75
435.175	68.75
435.397	92.75
435.618	89.75
435.84	109.75
436.062	90.75
436.284	109.75
436.505	77.75
436.727	90.75
436.949	96.75
437.17	86.75
437.392	72.75
437.614	86.75
437.835	94.75
438.057	106.75
438.278	117.75
438.5	99.75
438.721	118.75
438.943	107.75
439.165	86.75
439.386	76.75
439.608	95.75
439.829	97.75
440.05	111.75
440.272	138.75
440.493	97.75
440.715	73.75
440.936	96.75
441.158	89.75
441.379	77.75
441.6	91.75
441.822	81.75
442.043	102.75
442.264	95.75
442.486	97.75
442.707	93.75
442.928	110.75
443.149	119.75
443.371	126.75
443.592	111.75
443.813	113.75
444.034	102.75
444.255	82.75
444.476	70.75
444.698	93.75
444.919	81.75
445.14	125.75
445.361	106.75
445.582	106.75
445.803	112.75
446.024	136.75
446.245	142.75
446.466	95.75
446.687	81.75
446.908	74.75
447.129	76.75
447.35	89.75
447.571	93.75
447.792	90.75
448.013	100.75
448.234	110.75
448.455	97.75
448.675	102.75
448.896	109.75
449.117	99.75
449.338	85.75
449.559	116.75
449.779	132.75
450	82.75
450.221	79.75
450.442	86.75
450.662	73.75
450.883	104.75
451.104	109.75
451.324	81.75
451.545	92.75
451.766	89.75
451.986	81.75
452.207	90.75
452.428	80.75
452.648	88.75
452.869	88.75
453.089	107.75
453.31	115.75
453.53	80.75
453.751	89.75
453.971	100.75
454.192	104.75
454.412	82.75
454.633	83.75
454.853	89.75
455.073	79.75
455.294	96.75
455.514	91.75
455.734	89.75
455.955	79.75
456.175	78.75
456.395	75.75
456.616	87.75
456.836	93.75
457.056	81.75
457.276	89.75
457.497	80.75
457.717	88.75
457.937	66.75
458.157	86.75
458.377	96.75
458.598	108.75
458.818	146.75
459.038	149.75
459.258	111.75
459.478	90.75
459.698	82.75
459.918	91.75
460.138	65.75
460.358	93.75
460.578	87.75
460.798	94.75
461.018	99.75
461.238	85.75
461.458	87.75
461.678	67.75
461.898	81.75
462.118	81.75
462.338	79.75
462.558	71.75
462.777	81.75
462.997	77.75
463.217	91.75
463.437	92.75
463.657	88.75
463.876	91.75
464.096	89.75
464.316	98.75
464.536	88.75
464.755	83.75
464.975	119.75
465.195	148.75
465.414	163.75
465.634	89.75
465.854	85.75
466.073	75.75
466.293	99.75
466.512	81.75
466.732	81.75
466.951	79.75
467.171	102.75
467.391	84.75
467.61	94.75
467.829	96.75
468.049	126.75
468.268	145.75
468.488	80.75
468.707	88.75
468.927	88.75
469.146	90.75
469.365	97.75
469.585	70.75
469.804	85.75
470.023	88.75
470.243	82.75
470.462	86.75
470.681	104.75
470.901	76.75
471.12	73.75
471.339	80.75
471.558	82.75
471.777	97.75
471.997	107.75
472.216	170.75
472.435	320.75
472.654	123.75
472.873	99.75
473.092	79.75
473.311	84.75
473.53	78.75
473.749	85.75
473.968	90.75
474.187	102.75
474.406	91.75
474.625	102.75
474.844	93.75
475.063	89.75
475.282	90.75
475.501	91.75
475.72	73.75
475.939	72.75
476.158	72.75
476.377	89.75
476.596	86.75
476.814	71.75
477.033	84.75
477.252	69.75
477.471	82.75
477.69	87.75
477.908	78.75
478.127	93.75
478.346	83.75
478.564	81.75
478.783	97.75
479.002	94.75
479.22	85.75
479.439	104.75
479.658	102.75
479.876	90.75
480.095	87.75
480.313	78.75
480.532	90.75
480.751	94.75
480.969	183.75
481.188	527.75
481.406	357.75
481.624	110.75
481.843	98.75
482.061	93.75
482.28	83.75
482.498	75.75
482.717	77.75
482.935	80.75
483.153	95.75
483.372	101.75
483.59	82.75
483.808	88.75
484.027	74.75
484.245	75.75
484.463	88.75
484.681	78.75
484.9	84.75
485.118	99.75
485.336	99.75
485.554	96.75
485.772	98.75
485.99	85.75
486.209	91.75
486.427	101.75
486.645	95.75
486.863	85.75
487.081	97.75
487.299	88.75
487.517	85.75
487.735	72.75
487.953	72.75
488.171	90.75
488.389	91.75
488.607	82.75
488.825	86.75
489.043	84.75
489.261	91.75
489.479	84.75
489.696	94.75
489.914	83.75
490.132	86.75
490.35	81.75
490.568	84.75
490.786	85.75
491.003	69.75
491.221	88.75
491.439	97.75
491.657	103.75
491.874	82.75
492.092	91.75
492.31	105.75
492.527	72.75
492.745	98.75
492.963	81.75
493.18	91.75
493.398	99.75
493.615	95.75
493.833	82.75
494.05	84.75
494.268	79.75
494.485	71.75
494.703	74.75
494.92	89.75
495.138	93.75
495.355	82.75
495.573	87.75
495.79	85.75
496.008	82.75
496.225	85.75
496.442	81.75
496.66	80.75
496.877	83.75
497.094	91.75
497.312	90.75
497.529	75.75
497.746	80.75
497.963	90.75
498.181	82.75
498.398	95.75
498.615	107.75
498.832	104.75
499.049	97.75
499.267	84.75
499.484	80.75
499.701	86.75
499.918	95.75
500.135	86.75
500.352	75.75
500.569	85.75
500.786	89.75
501.003	75.75
501.22	86.75
501.437	82.75
501.654	90.75
501.871	97.75
502.088	90.75
502.305	84.75
502.522	89.75
502.739	101.75
502.956	86.75
503.172	89.75
503.389	90.75
503.606	87.75
503.823	98.75
504.04	87.75
504.256	89.75
504.473	88.75
504.69	79.75
504.907	92.75
505.123	82.75
505.34	84.75
505.557	79.75
505.773	96.75
505.99	84.75
506.207	80.75
506.423	103.75
506.64	84.75
506.856	83.75
507.073	73.75
507.289	91.75
507.506	91.75
507.722	112.75
507.939	103.75
508.155	89.75
508.372	88.75
508.588	96.75
508.805	88.75
509.021	94.75
509.238	90.75
509.454	90.75
509.67	99.75
509.887	89.75
510.103	138.75
510.319	214.75
510.536	739.75
510.752	2489.75
510.968	712.75
511.184	154.75
511.401	94.75
511.617	96.75
511.833	87.75
512.049	93.75
512.265	90.75
512.481	78.75
512.698	91.75
512.914	104.75
513.13	82.75
513.346	81.75
513.562	91.75
513.778	91.75
513.994	93.75
514.21	81.75
514.426	110.75
514.642	143.75
514.858	113.75
515.074	156.75
515.29	473.75
515.506	1611.75
515.721	612.75
515.937	149.75
516.153	109.75
516.369	93.75
516.585	84.75
516.801	87.75
517.016	91.75
