Data from Circ_2014_H10_HRD10591_00028.txt Node
Date: Wed Jan 03 10:02:14 EST 2024
User: Yrep
Spectrometer: HR+D1059
Trigger mode: 1
Integration Time (sec): 1.000000E-1
Scans to average: 1
Electric dark correction enabled: true
Nonlinearity correction enabled: false
Boxcar width: 0
XAxis mode: Wavelengths
Number of Pixels in Spectrum: 2048
>>>>>Begin Spectral Data<<<<<
223.165	-1.44
223.4	-1.44
223.635	-1.44
223.869	-9.44
224.104	-29.44
224.338	-13.44
224.573	-14.44
224.808	-13.44
225.042	-4.44
225.277	-18.44
225.511	-10.44
225.746	-2.44
225.98	19.56
226.215	10.56
226.449	13.56
226.683	22.56
226.918	25.56
227.152	25.56
227.387	45.56
227.621	35.56
227.856	33.56
228.09	22.56
228.324	47.56
228.559	48.56
228.793	73.56
229.027	76.56
229.262	62.56
229.496	82.56
229.73	85.56
229.964	70.56
230.199	77.56
230.433	66.56
230.667	84.56
230.901	81.56
231.136	83.56
231.37	83.56
231.604	78.56
231.838	68.56
232.072	75.56
232.306	89.56
232.541	65.56
232.775	87.56
233.009	89.56
233.243	76.56
233.477	71.56
233.711	62.56
233.945	83.56
234.179	67.56
234.413	78.56
234.647	88.56
234.881	84.56
235.115	73.56
235.349	82.56
235.583	77.56
235.817	84.56
236.051	83.56
236.285	95.56
236.519	84.56
236.753	83.56
236.987	76.56
237.221	79.56
237.455	87.56
237.689	89.56
237.922	86.56
238.156	74.56
238.39	92.56
238.624	75.56
238.858	93.56
239.091	61.56
239.325	74.56
239.559	75.56
239.793	82.56
240.027	64.56
240.26	83.56
240.494	74.56
240.728	77.56
240.961	90.56
241.195	91.56
241.429	66.56
241.662	78.56
241.896	78.56
242.13	93.56
242.363	77.56
242.597	75.56
242.83	72.56
243.064	61.56
243.298	90.56
243.531	85.56
243.765	67.56
243.998	72.56
244.232	90.56
244.465	78.56
244.699	83.56
244.932	85.56
245.166	85.56
245.399	78.56
245.633	73.56
245.866	78.56
246.099	76.56
246.333	70.56
246.566	76.56
246.8	70.56
247.033	79.56
247.266	74.56
247.5	76.56
247.733	84.56
247.966	86.56
248.2	60.56
248.433	85.56
248.666	78.56
248.899	80.56
249.133	105.56
249.366	92.56
249.599	84.56
249.832	86.56
250.066	74.56
250.299	88.56
250.532	84.56
250.765	85.56
250.998	78.56
251.231	77.56
251.465	82.56
251.698	71.56
251.931	75.56
252.164	73.56
252.397	96.56
252.63	79.56
252.863	70.56
253.096	93.56
253.329	87.56
253.562	68.56
253.795	79.56
254.028	73.56
254.261	82.56
254.494	73.56
254.727	102.56
254.96	91.56
255.193	84.56
255.426	84.56
255.659	68.56
255.892	94.56
256.124	76.56
256.357	83.56
256.59	89.56
256.823	78.56
257.056	83.56
257.289	72.56
257.521	81.56
257.754	78.56
257.987	79.56
258.22	95.56
258.452	74.56
258.685	75.56
258.918	77.56
259.151	73.56
259.383	77.56
259.616	82.56
259.849	70.56
260.081	91.56
260.314	87.56
260.547	71.56
260.779	90.56
261.012	89.56
261.244	99.56
261.477	77.56
261.71	90.56
261.942	101.56
262.175	115.56
262.407	93.56
262.64	84.56
262.872	86.56
263.105	84.56
263.337	81.56
263.57	71.56
263.802	85.56
264.035	86.56
264.267	84.56
264.499	87.56
264.732	81.56
264.964	82.56
265.197	84.56
265.429	85.56
265.661	90.56
265.894	79.56
266.126	79.56
266.358	91.56
266.591	79.56
266.823	86.56
267.055	72.56
267.287	88.56
267.52	84.56
267.752	69.56
267.984	85.56
268.216	69.56
268.448	84.56
268.681	74.56
268.913	76.56
269.145	87.56
269.377	92.56
269.609	84.56
269.841	88.56
270.073	87.56
270.306	81.56
270.538	84.56
270.77	99.56
271.002	85.56
271.234	79.56
271.466	92.56
271.698	79.56
271.93	87.56
272.162	73.56
272.394	73.56
272.626	90.56
272.858	84.56
273.09	89.56
273.322	82.56
273.553	95.56
273.785	76.56
274.017	93.56
274.249	78.56
274.481	78.56
274.713	89.56
274.945	79.56
275.176	78.56
275.408	81.56
275.64	90.56
275.872	69.56
276.104	95.56
276.335	94.56
276.567	100.56
276.799	105.56
277.031	101.56
277.262	86.56
277.494	77.56
277.726	78.56
277.957	77.56
278.189	70.56
278.421	92.56
278.652	82.56
278.884	84.56
279.115	88.56
279.347	88.56
279.579	84.56
279.81	80.56
280.042	79.56
280.273	85.56
280.505	68.56
280.736	81.56
280.968	90.56
281.199	98.56
281.431	77.56
281.662	92.56
281.894	98.56
282.125	108.56
282.356	117.56
282.588	139.56
282.819	107.56
283.051	90.56
283.282	83.56
283.513	86.56
283.745	70.56
283.976	77.56
284.207	93.56
284.439	75.56
284.67	83.56
284.901	81.56
285.132	100.56
285.364	83.56
285.595	80.56
285.826	75.56
286.057	81.56
286.288	79.56
286.52	103.56
286.751	93.56
286.982	88.56
287.213	65.56
287.444	90.56
287.675	93.56
287.906	99.56
288.138	86.56
288.369	103.56
288.6	82.56
288.831	84.56
289.062	82.56
289.293	78.56
289.524	99.56
289.755	87.56
289.986	86.56
290.217	85.56
290.448	82.56
290.679	90.56
290.91	80.56
291.141	73.56
291.371	84.56
291.602	74.56
291.833	85.56
292.064	74.56
292.295	78.56
292.526	93.56
292.757	81.56
292.987	74.56
293.218	82.56
293.449	96.56
293.68	97.56
293.91	99.56
294.141	96.56
294.372	90.56
294.603	79.56
294.833	69.56
295.064	85.56
295.295	79.56
295.525	93.56
295.756	109.56
295.987	130.56
296.217	158.56
296.448	123.56
296.679	79.56
296.909	89.56
297.14	86.56
297.37	92.56
297.601	76.56
297.831	90.56
298.062	94.56
298.292	97.56
298.523	89.56
298.753	86.56
298.984	87.56
299.214	86.56
299.445	91.56
299.675	99.56
299.905	98.56
300.136	92.56
300.366	84.56
300.597	89.56
300.827	99.56
301.057	115.56
301.288	114.56
301.518	83.56
301.748	83.56
301.979	95.56
302.209	100.56
302.439	87.56
302.669	94.56
302.9	85.56
303.13	97.56
303.36	89.56
303.59	107.56
303.82	100.56
304.051	82.56
304.281	76.56
304.511	86.56
304.741	98.56
304.971	88.56
305.201	80.56
305.431	85.56
305.661	80.56
305.891	77.56
306.121	91.56
306.352	101.56
306.582	113.56
306.812	101.56
307.042	88.56
307.272	90.56
307.502	89.56
307.731	92.56
307.961	90.56
308.191	77.56
308.421	88.56
308.651	86.56
308.881	102.56
309.111	80.56
309.341	82.56
309.571	89.56
309.8	102.56
310.03	91.56
310.26	102.56
310.49	101.56
310.72	94.56
310.949	113.56
311.179	99.56
311.409	89.56
311.639	97.56
311.868	90.56
312.098	88.56
312.328	94.56
312.557	109.56
312.787	117.56
313.017	85.56
313.246	97.56
313.476	88.56
313.706	103.56
313.935	105.56
314.165	94.56
314.394	82.56
314.624	90.56
314.853	101.56
315.083	94.56
315.312	90.56
315.542	92.56
315.771	89.56
316.001	78.56
316.23	99.56
316.46	87.56
316.689	102.56
316.919	96.56
317.148	79.56
317.377	80.56
317.607	105.56
317.836	94.56
318.065	85.56
318.295	94.56
318.524	81.56
318.753	101.56
318.983	97.56
319.212	97.56
319.441	103.56
319.67	100.56
319.9	93.56
320.129	101.56
320.358	101.56
320.587	103.56
320.816	90.56
321.046	94.56
321.275	93.56
321.504	95.56
321.733	94.56
321.962	103.56
322.191	110.56
322.42	101.56
322.649	98.56
322.878	131.56
323.108	120.56
323.337	119.56
323.566	143.56
323.795	166.56
324.024	202.56
324.253	390.56
324.482	827.56
324.71	1716.56
324.939	2255.56
325.168	828.56
325.397	261.56
325.626	162.56
325.855	117.56
326.084	141.56
326.313	137.56
326.542	148.56
326.77	227.56
326.999	475.56
327.228	927.56
327.457	1731.56
327.686	1373.56
327.914	381.56
328.143	207.56
328.372	132.56
328.6	125.56
328.829	105.56
329.058	122.56
329.287	119.56
329.515	101.56
329.744	99.56
329.972	81.56
330.201	106.56
330.43	126.56
330.658	127.56
330.887	134.56
331.115	113.56
331.344	113.56
331.572	92.56
331.801	106.56
332.03	96.56
332.258	106.56
332.486	110.56
332.715	97.56
332.943	105.56
333.172	106.56
333.4	109.56
333.629	104.56
333.857	99.56
334.085	107.56
334.314	99.56
334.542	118.56
334.771	107.56
334.999	108.56
335.227	101.56
335.455	91.56
335.684	88.56
335.912	89.56
336.14	93.56
336.369	102.56
336.597	106.56
336.825	93.56
337.053	90.56
337.281	96.56
337.51	94.56
337.738	94.56
337.966	94.56
338.194	89.56
338.422	99.56
338.65	87.56
338.878	88.56
339.106	97.56
339.334	98.56
339.562	95.56
339.79	94.56
340.018	103.56
340.246	100.56
340.474	94.56
340.702	99.56
340.93	77.56
341.158	92.56
341.386	79.56
341.614	97.56
341.842	89.56
342.07	93.56
342.298	84.56
342.526	87.56
342.754	83.56
342.981	94.56
343.209	88.56
343.437	95.56
343.665	82.56
343.893	108.56
344.12	92.56
344.348	83.56
344.576	75.56
344.804	87.56
345.031	90.56
345.259	99.56
345.487	86.56
345.714	95.56
345.942	97.56
346.17	113.56
346.397	89.56
346.625	79.56
346.853	97.56
347.08	96.56
347.308	93.56
347.535	99.56
347.763	103.56
347.99	88.56
348.218	89.56
348.445	103.56
348.673	106.56
348.9	104.56
349.128	111.56
349.355	95.56
349.583	97.56
349.81	111.56
350.037	102.56
350.265	89.56
350.492	98.56
350.72	85.56
350.947	101.56
351.174	125.56
351.402	97.56
351.629	103.56
351.856	103.56
352.083	102.56
352.311	91.56
352.538	129.56
352.765	95.56
352.992	103.56
353.22	107.56
353.447	109.56
353.674	115.56
353.901	112.56
354.128	104.56
354.355	102.56
354.583	102.56
354.81	89.56
355.037	107.56
355.264	99.56
355.491	99.56
355.718	88.56
355.945	93.56
356.172	110.56
356.399	105.56
356.626	97.56
356.853	91.56
357.08	97.56
357.307	92.56
357.534	90.56
357.761	76.56
357.988	90.56
358.215	95.56
358.441	96.56
358.668	90.56
358.895	86.56
359.122	92.56
359.349	83.56
359.576	94.56
359.802	96.56
360.029	109.56
360.256	126.56
360.483	92.56
360.709	91.56
360.936	95.56
361.163	99.56
361.39	90.56
361.616	89.56
361.843	96.56
362.07	95.56
362.296	93.56
362.523	91.56
362.749	113.56
362.976	75.56
363.203	107.56
363.429	92.56
363.656	103.56
363.882	88.56
364.109	90.56
364.335	86.56
364.562	98.56
364.788	81.56
365.015	100.56
365.241	96.56
365.468	105.56
365.694	113.56
365.92	91.56
366.147	98.56
366.373	98.56
366.599	86.56
366.826	81.56
367.052	89.56
367.278	102.56
367.505	97.56
367.731	92.56
367.957	79.56
368.184	101.56
368.41	107.56
368.636	110.56
368.862	124.56
369.089	110.56
369.315	99.56
369.541	92.56
369.767	103.56
369.993	86.56
370.219	78.56
370.445	84.56
370.672	97.56
370.898	82.56
371.124	92.56
371.35	78.56
371.576	95.56
371.802	88.56
372.028	83.56
372.254	97.56
372.48	90.56
372.706	105.56
372.932	87.56
373.158	93.56
373.384	97.56
373.61	85.56
373.835	93.56
374.061	103.56
374.287	86.56
374.513	102.56
374.739	92.56
374.965	85.56
375.191	77.56
375.416	98.56
375.642	85.56
375.868	95.56
376.094	87.56
376.319	93.56
376.545	74.56
376.771	94.56
376.997	85.56
377.222	84.56
377.448	95.56
377.674	88.56
377.899	82.56
378.125	100.56
378.35	95.56
378.576	83.56
378.802	92.56
379.027	103.56
379.253	102.56
379.478	83.56
379.704	103.56
379.929	82.56
380.155	89.56
380.38	92.56
380.606	101.56
380.831	97.56
381.057	100.56
381.282	93.56
381.507	91.56
381.733	98.56
381.958	88.56
382.184	98.56
382.409	105.56
382.634	103.56
382.86	97.56
383.085	111.56
383.31	107.56
383.535	102.56
383.761	84.56
383.986	115.56
384.211	92.56
384.436	95.56
384.662	105.56
384.887	125.56
385.112	115.56
385.337	102.56
385.562	94.56
385.787	108.56
386.013	117.56
386.238	115.56
386.463	115.56
386.688	111.56
386.913	101.56
387.138	101.56
387.363	104.56
387.588	118.56
387.813	105.56
388.038	103.56
388.263	96.56
388.488	123.56
388.713	88.56
388.938	99.56
389.163	113.56
389.387	95.56
389.612	86.56
389.837	93.56
390.062	94.56
390.287	89.56
390.512	102.56
390.736	98.56
390.961	92.56
391.186	92.56
391.411	96.56
391.636	88.56
391.86	79.56
392.085	83.56
392.31	101.56
392.534	86.56
392.759	83.56
392.984	98.56
393.208	87.56
393.433	89.56
393.658	99.56
393.882	87.56
394.107	101.56
394.331	83.56
394.556	93.56
394.78	94.56
395.005	98.56
395.229	79.56
395.454	79.56
395.678	76.56
395.903	80.56
396.127	93.56
396.352	86.56
396.576	89.56
396.801	100.56
397.025	99.56
397.249	93.56
397.474	93.56
397.698	90.56
397.922	89.56
398.147	81.56
398.371	87.56
398.595	85.56
398.82	94.56
399.044	89.56
399.268	88.56
399.492	91.56
399.717	89.56
399.941	84.56
400.165	90.56
400.389	81.56
400.613	91.56
400.837	88.56
401.062	86.56
401.286	79.56
401.51	101.56
401.734	91.56
401.958	104.56
402.182	127.56
402.406	140.56
402.63	109.56
402.854	84.56
403.078	106.56
403.302	81.56
403.526	80.56
403.75	93.56
403.974	91.56
404.198	89.56
404.422	90.56
404.645	88.56
404.869	79.56
405.093	85.56
405.317	102.56
405.541	99.56
405.765	104.56
405.988	128.56
406.212	165.56
406.436	243.56
406.66	146.56
406.883	95.56
407.107	90.56
407.331	101.56
407.555	77.56
407.778	87.56
408.002	84.56
408.226	92.56
408.449	88.56
408.673	94.56
408.896	76.56
409.12	97.56
409.344	102.56
409.567	93.56
409.791	107.56
410.014	92.56
410.238	88.56
410.461	82.56
410.685	82.56
410.908	94.56
411.132	113.56
411.355	105.56
411.578	85.56
411.802	96.56
412.025	101.56
412.249	89.56
412.472	107.56
412.695	97.56
412.919	88.56
413.142	89.56
413.365	86.56
413.589	73.56
413.812	87.56
414.035	101.56
414.258	89.56
414.482	82.56
414.705	97.56
414.928	79.56
415.151	92.56
415.374	90.56
415.597	91.56
415.821	80.56
416.044	87.56
416.267	91.56
416.49	95.56
416.713	85.56
416.936	85.56
417.159	90.56
417.382	88.56
417.605	89.56
417.828	83.56
418.051	83.56
418.274	79.56
418.497	91.56
418.72	89.56
418.943	94.56
419.166	79.56
419.389	92.56
419.611	101.56
419.834	94.56
420.057	88.56
420.28	86.56
420.503	88.56
420.726	92.56
420.948	88.56
421.171	92.56
421.394	87.56
421.617	102.56
421.839	92.56
422.062	78.56
422.285	102.56
422.507	87.56
422.73	92.56
422.953	94.56
423.175	99.56
423.398	110.56
423.621	86.56
423.843	98.56
424.066	86.56
424.288	99.56
424.511	91.56
424.733	91.56
424.956	93.56
425.178	104.56
425.401	80.56
425.623	89.56
425.846	86.56
426.068	75.56
426.291	91.56
426.513	92.56
426.735	97.56
426.958	87.56
427.18	100.56
427.402	126.56
427.625	167.56
427.847	146.56
428.069	108.56
428.292	92.56
428.514	102.56
428.736	85.56
428.958	95.56
429.181	92.56
429.403	94.56
429.625	91.56
429.847	91.56
430.069	89.56
430.292	99.56
430.514	87.56
430.736	87.56
430.958	81.56
431.18	82.56
431.402	92.56
431.624	79.56
431.846	94.56
432.068	90.56
432.29	95.56
432.512	80.56
432.734	102.56
432.956	82.56
433.178	99.56
433.4	101.56
433.622	83.56
433.844	79.56
434.066	98.56
434.287	87.56
434.509	94.56
434.731	88.56
434.953	89.56
435.175	83.56
435.397	87.56
435.618	60.56
435.84	102.56
436.062	113.56
436.284	113.56
436.505	99.56
436.727	110.56
436.949	89.56
437.17	98.56
437.392	78.56
437.614	96.56
437.835	99.56
438.057	131.56
438.278	114.56
438.5	107.56
438.721	110.56
438.943	91.56
439.165	111.56
439.386	90.56
439.608	74.56
439.829	89.56
440.05	123.56
440.272	131.56
440.493	89.56
440.715	80.56
440.936	86.56
441.158	86.56
441.379	99.56
441.6	107.56
441.822	87.56
442.043	102.56
442.264	98.56
442.486	97.56
442.707	87.56
442.928	103.56
443.149	133.56
443.371	137.56
443.592	101.56
443.813	115.56
444.034	94.56
444.255	92.56
444.476	82.56
444.698	91.56
444.919	71.56
445.14	131.56
445.361	129.56
445.582	117.56
445.803	145.56
446.024	148.56
446.245	109.56
446.466	120.56
446.687	89.56
446.908	101.56
447.129	93.56
447.35	79.56
447.571	96.56
447.792	93.56
448.013	98.56
448.234	122.56
448.455	102.56
448.675	90.56
448.896	116.56
449.117	87.56
449.338	96.56
449.559	124.56
449.779	137.56
450	97.56
450.221	90.56
450.442	98.56
450.662	104.56
450.883	98.56
451.104	118.56
451.324	106.56
451.545	95.56
451.766	75.56
451.986	89.56
452.207	81.56
452.428	86.56
452.648	94.56
452.869	105.56
453.089	110.56
453.31	123.56
453.53	98.56
453.751	98.56
453.971	102.56
454.192	121.56
454.412	101.56
454.633	93.56
454.853	83.56
455.073	98.56
455.294	83.56
455.514	91.56
455.734	102.56
455.955	88.56
456.175	81.56
456.395	92.56
456.616	73.56
456.836	86.56
457.056	94.56
457.276	80.56
457.497	86.56
457.717	77.56
457.937	94.56
458.157	77.56
458.377	92.56
458.598	115.56
458.818	151.56
459.038	164.56
459.258	131.56
459.478	93.56
459.698	80.56
459.918	82.56
460.138	90.56
460.358	79.56
460.578	90.56
460.798	96.56
461.018	94.56
461.238	95.56
461.458	86.56
461.678	78.56
461.898	97.56
462.118	82.56
462.338	94.56
462.558	79.56
462.777	95.56
462.997	89.56
463.217	89.56
463.437	84.56
463.657	84.56
463.876	92.56
464.096	89.56
464.316	77.56
464.536	89.56
464.755	98.56
464.975	108.56
465.195	160.56
465.414	170.56
465.634	97.56
465.854	91.56
466.073	87.56
466.293	89.56
466.512	79.56
466.732	82.56
466.951	95.56
467.171	74.56
467.391	92.56
467.61	89.56
467.829	86.56
468.049	90.56
468.268	85.56
468.488	79.56
468.707	75.56
468.927	87.56
469.146	89.56
469.365	85.56
469.585	92.56
469.804	106.56
470.023	92.56
470.243	91.56
470.462	99.56
470.681	115.56
470.901	100.56
471.12	85.56
471.339	94.56
471.558	82.56
471.777	80.56
471.997	84.56
472.216	90.56
472.435	121.56
472.654	84.56
472.873	90.56
473.092	82.56
473.311	68.56
473.53	78.56
473.749	75.56
473.968	86.56
474.187	102.56
474.406	87.56
474.625	97.56
474.844	92.56
475.063	83.56
475.282	90.56
475.501	91.56
475.72	67.56
475.939	80.56
476.158	78.56
476.377	88.56
476.596	86.56
476.814	79.56
477.033	84.56
477.252	102.56
477.471	82.56
477.69	74.56
477.908	95.56
478.127	79.56
478.346	78.56
478.564	85.56
478.783	94.56
479.002	89.56
479.22	100.56
479.439	90.56
479.658	103.56
479.876	86.56
480.095	98.56
480.313	76.56
480.532	95.56
480.751	92.56
480.969	98.56
481.188	148.56
481.406	115.56
481.624	110.56
481.843	98.56
482.061	79.56
482.28	89.56
482.498	78.56
482.717	93.56
482.935	90.56
483.153	93.56
483.372	93.56
483.59	117.56
483.808	80.56
484.027	81.56
484.245	74.56
484.463	93.56
484.681	94.56
484.9	78.56
485.118	88.56
485.336	86.56
485.554	104.56
485.772	94.56
485.99	107.56
486.209	89.56
486.427	91.56
486.645	95.56
486.863	110.56
487.081	94.56
487.299	95.56
487.517	83.56
487.735	88.56
487.953	88.56
488.171	88.56
488.389	86.56
488.607	99.56
488.825	86.56
489.043	89.56
489.261	74.56
489.479	94.56
489.696	93.56
489.914	86.56
490.132	90.56
490.35	82.56
490.568	92.56
490.786	99.56
491.003	88.56
491.221	93.56
491.439	87.56
491.657	91.56
491.874	90.56
492.092	88.56
492.31	97.56
492.527	87.56
492.745	89.56
492.963	81.56
493.18	81.56
493.398	89.56
493.615	85.56
493.833	100.56
494.05	82.56
494.268	91.56
494.485	90.56
494.703	79.56
494.92	89.56
495.138	99.56
495.355	91.56
495.573	98.56
495.79	92.56
496.008	101.56
496.225	101.56
496.442	89.56
496.66	90.56
496.877	89.56
497.094	82.56
497.312	93.56
497.529	91.56
497.746	99.56
497.963	80.56
498.181	84.56
498.398	89.56
498.615	98.56
498.832	97.56
499.049	100.56
499.267	78.56
499.484	74.56
499.701	89.56
499.918	80.56
500.135	77.56
500.352	92.56
500.569	94.56
500.786	96.56
501.003	93.56
501.22	72.56
501.437	69.56
501.654	97.56
501.871	103.56
502.088	93.56
502.305	89.56
502.522	84.56
502.739	82.56
502.956	90.56
503.172	82.56
503.389	83.56
503.606	117.56
503.823	91.56
504.04	90.56
504.256	94.56
504.473	107.56
504.69	94.56
504.907	91.56
505.123	86.56
505.34	90.56
505.557	84.56
505.773	94.56
505.99	83.56
506.207	74.56
506.423	74.56
506.64	91.56
506.856	100.56
507.073	86.56
507.289	91.56
507.506	98.56
507.722	121.56
507.939	92.56
508.155	101.56
508.372	87.56
508.588	108.56
508.805	99.56
509.021	106.56
509.238	103.56
509.454	104.56
509.67	109.56
509.887	103.56
510.103	144.56
510.319	233.56
510.536	789.56
510.752	2703.56
510.968	782.56
511.184	179.56
511.401	102.56
511.617	100.56
511.833	93.56
512.049	98.56
512.265	84.56
512.481	91.56
512.698	83.56
512.914	100.56
513.13	87.56
513.346	104.56
513.562	86.56
513.778	93.56
513.994	76.56
514.21	106.56
514.426	125.56
514.642	137.56
514.858	126.56
515.074	158.56
515.29	466.56
515.506	1681.56
515.721	621.56
