Data from Circ_2014_H10_HRD10591_00008.txt Node
Date: Wed Jan 03 10:02:10 EST 2024
User: Yrep
Spectrometer: HR+D1059
Trigger mode: 1
Integration Time (sec): 1.000000E-1
Scans to average: 1
Electric dark correction enabled: true
Nonlinearity correction enabled: false
Boxcar width: 0
XAxis mode: Wavelengths
Number of Pixels in Spectrum: 2048
>>>>>Begin Spectral Data<<<<<
223.165	-11.25
223.4	-11.25
223.635	-11.25
223.869	-27.25
224.104	-13.25
224.338	-15.25
224.573	-15.25
224.808	-8.25
225.042	4.75
225.277	0.75
225.511	-6.25
225.746	14.75
225.98	2.75
226.215	3.75
226.449	15.75
226.683	23.75
226.918	9.75
227.152	20.75
227.387	37.75
227.621	24.75
227.856	36.75
228.09	55.75
228.324	51.75
228.559	60.75
228.793	65.75
229.027	65.75
229.262	68.75
229.496	73.75
229.73	79.75
229.964	90.75
230.199	71.75
230.433	58.75
230.667	62.75
230.901	86.75
231.136	74.75
231.37	75.75
231.604	77.75
231.838	72.75
232.072	89.75
232.306	79.75
232.541	91.75
232.775	84.75
233.009	81.75
233.243	91.75
233.477	97.75
233.711	76.75
233.945	91.75
234.179	90.75
234.413	77.75
234.647	71.75
234.881	85.75
235.115	76.75
235.349	77.75
235.583	81.75
235.817	78.75
236.051	64.75
236.285	75.75
236.519	79.75
236.753	62.75
236.987	82.75
237.221	73.75
237.455	89.75
237.689	70.75
237.922	68.75
238.156	78.75
238.39	76.75
238.624	75.75
238.858	80.75
239.091	73.75
239.325	75.75
239.559	85.75
239.793	74.75
240.027	71.75
240.26	94.75
240.494	85.75
240.728	75.75
240.961	79.75
241.195	75.75
241.429	72.75
241.662	87.75
241.896	76.75
242.13	75.75
242.363	86.75
242.597	72.75
242.83	74.75
243.064	70.75
243.298	61.75
243.531	75.75
243.765	74.75
243.998	72.75
244.232	85.75
244.465	82.75
244.699	84.75
244.932	84.75
245.166	90.75
245.399	82.75
245.633	77.75
245.866	83.75
246.099	84.75
246.333	76.75
246.566	87.75
246.8	80.75
247.033	86.75
247.266	72.75
247.5	77.75
247.733	86.75
247.966	86.75
248.2	82.75
248.433	81.75
248.666	67.75
248.899	83.75
249.133	92.75
249.366	98.75
249.599	111.75
249.832	91.75
250.066	71.75
250.299	77.75
250.532	81.75
250.765	91.75
250.998	79.75
251.231	70.75
251.465	93.75
251.698	84.75
251.931	75.75
252.164	84.75
252.397	82.75
252.63	80.75
252.863	74.75
253.096	74.75
253.329	87.75
253.562	88.75
253.795	77.75
254.028	84.75
254.261	90.75
254.494	77.75
254.727	75.75
254.96	72.75
255.193	75.75
255.426	77.75
255.659	79.75
255.892	86.75
256.124	81.75
256.357	70.75
256.59	90.75
256.823	72.75
257.056	78.75
257.289	86.75
257.521	75.75
257.754	82.75
257.987	88.75
258.22	75.75
258.452	76.75
258.685	78.75
258.918	91.75
259.151	94.75
259.383	88.75
259.616	70.75
259.849	77.75
260.081	68.75
260.314	80.75
260.547	78.75
260.779	87.75
261.012	96.75
261.244	85.75
261.477	94.75
261.71	98.75
261.942	116.75
262.175	143.75
262.407	99.75
262.64	79.75
262.872	96.75
263.105	93.75
263.337	80.75
263.57	85.75
263.802	82.75
264.035	93.75
264.267	86.75
264.499	77.75
264.732	96.75
264.964	88.75
265.197	84.75
265.429	96.75
265.661	63.75
265.894	90.75
266.126	86.75
266.358	71.75
266.591	74.75
266.823	71.75
267.055	85.75
267.287	94.75
267.52	90.75
267.752	81.75
267.984	89.75
268.216	105.75
268.448	93.75
268.681	82.75
268.913	78.75
269.145	99.75
269.377	84.75
269.609	85.75
269.841	83.75
270.073	70.75
270.306	86.75
270.538	90.75
270.77	82.75
271.002	88.75
271.234	99.75
271.466	100.75
271.698	87.75
271.93	78.75
272.162	80.75
272.394	75.75
272.626	92.75
272.858	85.75
273.09	93.75
273.322	87.75
273.553	71.75
273.785	83.75
274.017	80.75
274.249	83.75
274.481	95.75
274.713	87.75
274.945	79.75
275.176	93.75
275.408	93.75
275.64	93.75
275.872	105.75
276.104	89.75
276.335	85.75
276.567	98.75
276.799	122.75
277.031	108.75
277.262	96.75
277.494	95.75
277.726	96.75
277.957	85.75
278.189	99.75
278.421	87.75
278.652	88.75
278.884	70.75
279.115	90.75
279.347	87.75
279.579	86.75
279.81	93.75
280.042	82.75
280.273	80.75
280.505	76.75
280.736	95.75
280.968	84.75
281.199	105.75
281.431	96.75
281.662	79.75
281.894	96.75
282.125	100.75
282.356	139.75
282.588	168.75
282.819	122.75
283.051	102.75
283.282	92.75
283.513	92.75
283.745	95.75
283.976	77.75
284.207	76.75
284.439	91.75
284.67	84.75
284.901	83.75
285.132	87.75
285.364	84.75
285.595	79.75
285.826	89.75
286.057	96.75
286.288	87.75
286.52	83.75
286.751	81.75
286.982	87.75
287.213	95.75
287.444	80.75
287.675	99.75
287.906	92.75
288.138	84.75
288.369	92.75
288.6	88.75
288.831	94.75
289.062	89.75
289.293	96.75
289.524	80.75
289.755	92.75
289.986	93.75
290.217	88.75
290.448	95.75
290.679	95.75
290.91	85.75
291.141	98.75
291.371	83.75
291.602	101.75
291.833	89.75
292.064	91.75
292.295	76.75
292.526	115.75
292.757	106.75
292.987	98.75
293.218	98.75
293.449	83.75
293.68	96.75
293.91	80.75
294.141	92.75
294.372	103.75
294.603	96.75
294.833	97.75
295.064	90.75
295.295	86.75
295.525	81.75
295.756	112.75
295.987	124.75
296.217	158.75
296.448	126.75
296.679	100.75
296.909	83.75
297.14	85.75
297.37	93.75
297.601	101.75
297.831	86.75
298.062	105.75
298.292	99.75
298.523	94.75
298.753	83.75
298.984	88.75
299.214	94.75
299.445	79.75
299.675	82.75
299.905	104.75
300.136	96.75
300.366	95.75
300.597	82.75
300.827	87.75
301.057	105.75
301.288	112.75
301.518	107.75
301.748	75.75
301.979	102.75
302.209	83.75
302.439	85.75
302.669	86.75
302.9	88.75
303.13	92.75
303.36	98.75
303.59	97.75
303.82	101.75
304.051	102.75
304.281	103.75
304.511	95.75
304.741	96.75
304.971	95.75
305.201	103.75
305.431	85.75
305.661	93.75
305.891	87.75
306.121	90.75
306.352	93.75
306.582	103.75
306.812	89.75
307.042	79.75
307.272	100.75
307.502	100.75
307.731	95.75
307.961	115.75
308.191	78.75
308.421	85.75
308.651	104.75
308.881	110.75
309.111	94.75
309.341	87.75
309.571	85.75
309.8	106.75
310.03	95.75
310.26	99.75
310.49	107.75
310.72	113.75
310.949	105.75
311.179	99.75
311.409	90.75
311.639	87.75
311.868	103.75
312.098	96.75
312.328	107.75
312.557	108.75
312.787	116.75
313.017	105.75
313.246	84.75
313.476	104.75
313.706	93.75
313.935	88.75
314.165	98.75
314.394	110.75
314.624	103.75
314.853	80.75
315.083	84.75
315.312	103.75
315.542	93.75
315.771	87.75
316.001	100.75
316.23	105.75
316.46	98.75
316.689	82.75
316.919	90.75
317.148	101.75
317.377	88.75
317.607	99.75
317.836	89.75
318.065	96.75
318.295	98.75
318.524	97.75
318.753	95.75
318.983	95.75
319.212	105.75
319.441	123.75
319.67	115.75
319.9	89.75
320.129	90.75
320.358	93.75
320.587	109.75
320.816	108.75
321.046	103.75
321.275	88.75
321.504	111.75
321.733	87.75
321.962	111.75
322.191	98.75
322.42	100.75
322.649	111.75
322.878	107.75
323.108	116.75
323.337	141.75
323.566	145.75
323.795	154.75
324.024	236.75
324.253	464.75
324.482	946.75
324.71	2000.75
324.939	2602.75
325.168	950.75
325.397	274.75
325.626	163.75
325.855	141.75
326.084	139.75
326.313	138.75
326.542	167.75
326.77	252.75
326.999	520.75
327.228	1109.75
327.457	1988.75
327.686	1571.75
327.914	429.75
328.143	231.75
328.372	170.75
328.6	138.75
328.829	116.75
329.058	147.75
329.287	137.75
329.515	116.75
329.744	104.75
329.972	99.75
330.201	116.75
330.43	103.75
330.658	136.75
330.887	162.75
331.115	149.75
331.344	93.75
331.572	95.75
331.801	107.75
332.03	107.75
332.258	100.75
332.486	97.75
332.715	95.75
332.943	92.75
333.172	104.75
333.4	94.75
333.629	109.75
333.857	125.75
334.085	116.75
334.314	109.75
334.542	102.75
334.771	103.75
334.999	108.75
335.227	121.75
335.455	104.75
335.684	108.75
335.912	95.75
336.14	101.75
336.369	98.75
336.597	85.75
336.825	114.75
337.053	92.75
337.281	87.75
337.51	87.75
337.738	98.75
337.966	87.75
338.194	95.75
338.422	93.75
338.65	89.75
338.878	86.75
339.106	97.75
339.334	93.75
339.562	94.75
339.79	89.75
340.018	102.75
340.246	92.75
340.474	104.75
340.702	97.75
340.93	99.75
341.158	103.75
341.386	99.75
341.614	89.75
341.842	93.75
342.07	91.75
342.298	108.75
342.526	90.75
342.754	87.75
342.981	89.75
343.209	89.75
343.437	104.75
343.665	106.75
343.893	106.75
344.12	86.75
344.348	91.75
344.576	89.75
344.804	80.75
345.031	101.75
345.259	98.75
345.487	85.75
345.714	83.75
345.942	110.75
346.17	92.75
346.397	87.75
346.625	98.75
346.853	91.75
347.08	95.75
347.308	98.75
347.535	97.75
347.763	103.75
347.99	98.75
348.218	103.75
348.445	99.75
348.673	105.75
348.9	90.75
349.128	79.75
349.355	92.75
349.583	103.75
349.81	88.75
350.037	99.75
350.265	86.75
350.492	84.75
350.72	99.75
350.947	103.75
351.174	108.75
351.402	120.75
351.629	108.75
351.856	78.75
352.083	90.75
352.311	114.75
352.538	122.75
352.765	114.75
352.992	114.75
353.22	122.75
353.447	110.75
353.674	107.75
353.901	106.75
354.128	100.75
354.355	102.75
354.583	102.75
354.81	95.75
355.037	92.75
355.264	106.75
355.491	100.75
355.718	105.75
355.945	106.75
356.172	104.75
356.399	98.75
356.626	88.75
356.853	87.75
357.08	105.75
357.307	105.75
357.534	87.75
357.761	92.75
357.988	100.75
358.215	101.75
358.441	99.75
358.668	96.75
358.895	100.75
359.122	95.75
359.349	93.75
359.576	106.75
359.802	104.75
360.029	122.75
360.256	118.75
360.483	113.75
360.709	96.75
360.936	90.75
361.163	83.75
361.39	94.75
361.616	91.75
361.843	92.75
362.07	90.75
362.296	103.75
362.523	103.75
362.749	92.75
362.976	94.75
363.203	108.75
363.429	100.75
363.656	87.75
363.882	96.75
364.109	97.75
364.335	92.75
364.562	101.75
364.788	99.75
365.015	114.75
365.241	91.75
365.468	109.75
365.694	107.75
365.92	96.75
366.147	86.75
366.373	100.75
366.599	77.75
366.826	95.75
367.052	81.75
367.278	103.75
367.505	94.75
367.731	102.75
367.957	95.75
368.184	86.75
368.41	99.75
368.636	104.75
368.862	136.75
369.089	117.75
369.315	104.75
369.541	86.75
369.767	99.75
369.993	92.75
370.219	87.75
370.445	99.75
370.672	86.75
370.898	78.75
371.124	89.75
371.35	85.75
371.576	86.75
371.802	91.75
372.028	94.75
372.254	96.75
372.48	87.75
372.706	95.75
372.932	93.75
373.158	100.75
373.384	89.75
373.61	96.75
373.835	94.75
374.061	96.75
374.287	85.75
374.513	98.75
374.739	90.75
374.965	79.75
375.191	88.75
375.416	91.75
375.642	77.75
375.868	87.75
376.094	102.75
376.319	90.75
376.545	78.75
376.771	92.75
376.997	91.75
377.222	98.75
377.448	92.75
377.674	105.75
377.899	91.75
378.125	92.75
378.35	92.75
378.576	101.75
378.802	92.75
379.027	86.75
379.253	80.75
379.478	98.75
379.704	91.75
379.929	87.75
380.155	99.75
380.38	83.75
380.606	101.75
380.831	98.75
381.057	114.75
381.282	101.75
381.507	109.75
381.733	111.75
381.958	99.75
382.184	95.75
382.409	107.75
382.634	98.75
382.86	113.75
383.085	104.75
383.31	103.75
383.535	120.75
383.761	109.75
383.986	102.75
384.211	89.75
384.436	111.75
384.662	111.75
384.887	106.75
385.112	116.75
385.337	122.75
385.562	130.75
385.787	116.75
386.013	132.75
386.238	130.75
386.463	116.75
386.688	123.75
386.913	110.75
387.138	128.75
387.363	107.75
387.588	106.75
387.813	104.75
388.038	124.75
388.263	129.75
388.488	130.75
388.713	102.75
388.938	89.75
389.163	84.75
389.387	93.75
389.612	91.75
389.837	87.75
390.062	107.75
390.287	92.75
390.512	97.75
390.736	90.75
390.961	103.75
391.186	105.75
391.411	90.75
391.636	87.75
391.86	84.75
392.085	78.75
392.31	94.75
392.534	80.75
392.759	73.75
392.984	77.75
393.208	99.75
393.433	105.75
393.658	100.75
393.882	96.75
394.107	87.75
394.331	88.75
394.556	91.75
394.78	78.75
395.005	97.75
395.229	94.75
395.454	95.75
395.678	75.75
395.903	82.75
396.127	84.75
396.352	93.75
396.576	83.75
396.801	86.75
397.025	100.75
397.249	92.75
397.474	94.75
397.698	80.75
397.922	90.75
398.147	93.75
398.371	84.75
398.595	80.75
398.82	96.75
399.044	90.75
399.268	83.75
399.492	94.75
399.717	89.75
399.941	98.75
400.165	98.75
400.389	93.75
400.613	89.75
400.837	91.75
401.062	94.75
401.286	97.75
401.51	91.75
401.734	93.75
401.958	101.75
402.182	143.75
402.406	172.75
402.63	135.75
402.854	96.75
403.078	106.75
403.302	86.75
403.526	104.75
403.75	71.75
403.974	93.75
404.198	80.75
404.422	91.75
404.645	80.75
404.869	80.75
405.093	95.75
405.317	108.75
405.541	90.75
405.765	108.75
405.988	123.75
406.212	195.75
406.436	262.75
406.66	172.75
406.883	116.75
407.107	100.75
407.331	110.75
407.555	115.75
407.778	102.75
408.002	93.75
408.226	94.75
408.449	87.75
408.673	79.75
408.896	94.75
409.12	102.75
409.344	90.75
409.567	72.75
409.791	84.75
410.014	98.75
410.238	98.75
410.461	87.75
410.685	99.75
410.908	85.75
411.132	107.75
411.355	98.75
411.578	92.75
411.802	90.75
412.025	94.75
412.249	93.75
412.472	99.75
412.695	94.75
412.919	74.75
413.142	74.75
413.365	90.75
413.589	91.75
413.812	95.75
414.035	94.75
414.258	84.75
414.482	100.75
414.705	87.75
414.928	91.75
415.151	76.75
415.374	114.75
415.597	98.75
415.821	86.75
416.044	94.75
416.267	79.75
416.49	87.75
416.713	90.75
416.936	102.75
417.159	83.75
417.382	88.75
417.605	79.75
417.828	76.75
418.051	98.75
418.274	84.75
418.497	89.75
418.72	97.75
418.943	91.75
419.166	84.75
419.389	87.75
419.611	80.75
419.834	82.75
420.057	85.75
420.28	91.75
420.503	80.75
420.726	90.75
420.948	95.75
421.171	85.75
421.394	79.75
421.617	98.75
421.839	90.75
422.062	79.75
422.285	79.75
422.507	114.75
422.73	112.75
422.953	97.75
423.175	88.75
423.398	88.75
423.621	87.75
423.843	87.75
424.066	85.75
424.288	92.75
424.511	85.75
424.733	98.75
424.956	110.75
425.178	107.75
425.401	90.75
425.623	94.75
425.846	94.75
426.068	83.75
426.291	92.75
426.513	99.75
426.735	96.75
426.958	92.75
427.18	102.75
427.402	130.75
427.625	179.75
427.847	125.75
428.069	94.75
428.292	97.75
428.514	92.75
428.736	93.75
428.958	84.75
429.181	75.75
429.403	87.75
429.625	78.75
429.847	96.75
430.069	116.75
430.292	85.75
430.514	93.75
430.736	97.75
430.958	90.75
431.18	75.75
431.402	91.75
431.624	83.75
431.846	89.75
432.068	93.75
432.29	79.75
432.512	87.75
432.734	67.75
432.956	75.75
433.178	98.75
433.4	103.75
433.622	97.75
433.844	98.75
434.066	77.75
434.287	89.75
434.509	91.75
434.731	94.75
434.953	95.75
435.175	87.75
435.397	87.75
435.618	103.75
435.84	107.75
436.062	129.75
436.284	106.75
436.505	101.75
436.727	89.75
436.949	85.75
437.17	89.75
437.392	95.75
437.614	110.75
437.835	113.75
438.057	128.75
438.278	127.75
438.5	120.75
438.721	136.75
438.943	111.75
439.165	82.75
439.386	96.75
439.608	97.75
439.829	99.75
440.05	135.75
440.272	150.75
440.493	106.75
440.715	85.75
440.936	89.75
441.158	87.75
441.379	88.75
441.6	102.75
441.822	96.75
442.043	108.75
442.264	93.75
442.486	102.75
442.707	92.75
442.928	123.75
443.149	141.75
443.371	143.75
443.592	120.75
443.813	114.75
444.034	120.75
444.255	99.75
444.476	92.75
444.698	71.75
444.919	99.75
445.14	132.75
445.361	111.75
445.582	127.75
445.803	151.75
446.024	146.75
446.245	132.75
446.466	135.75
446.687	88.75
446.908	111.75
447.129	83.75
447.35	88.75
447.571	100.75
447.792	98.75
448.013	99.75
448.234	98.75
448.455	96.75
448.675	122.75
448.896	122.75
449.117	97.75
449.338	100.75
449.559	130.75
449.779	146.75
450	106.75
450.221	82.75
450.442	88.75
450.662	100.75
450.883	128.75
451.104	112.75
451.324	97.75
451.545	94.75
451.766	94.75
451.986	87.75
452.207	82.75
452.428	83.75
452.648	107.75
452.869	94.75
453.089	113.75
453.31	127.75
453.53	94.75
453.751	99.75
453.971	104.75
454.192	120.75
454.412	117.75
454.633	91.75
454.853	87.75
455.073	86.75
455.294	101.75
455.514	99.75
455.734	101.75
455.955	98.75
456.175	85.75
456.395	70.75
456.616	88.75
456.836	78.75
457.056	87.75
457.276	70.75
457.497	88.75
457.717	91.75
457.937	77.75
458.157	85.75
458.377	110.75
458.598	116.75
458.818	169.75
459.038	183.75
459.258	130.75
459.478	92.75
459.698	67.75
459.918	87.75
460.138	99.75
460.358	91.75
460.578	89.75
460.798	95.75
461.018	102.75
461.238	97.75
461.458	87.75
461.678	89.75
461.898	80.75
462.118	90.75
462.338	88.75
462.558	70.75
462.777	84.75
462.997	89.75
463.217	94.75
463.437	92.75
463.657	93.75
463.876	93.75
464.096	95.75
464.316	101.75
464.536	104.75
464.755	101.75
464.975	108.75
465.195	196.75
465.414	178.75
465.634	105.75
465.854	81.75
466.073	89.75
466.293	77.75
466.512	87.75
466.732	84.75
466.951	89.75
467.171	82.75
467.391	106.75
467.61	96.75
467.829	95.75
468.049	89.75
468.268	85.75
468.488	70.75
468.707	90.75
468.927	86.75
469.146	102.75
469.365	91.75
469.585	97.75
469.804	95.75
470.023	99.75
470.243	103.75
470.462	94.75
470.681	101.75
470.901	87.75
471.12	80.75
471.339	86.75
471.558	98.75
471.777	79.75
471.997	94.75
472.216	115.75
472.435	95.75
472.654	78.75
472.873	94.75
473.092	84.75
473.311	88.75
473.53	79.75
473.749	84.75
473.968	90.75
474.187	99.75
474.406	96.75
474.625	101.75
474.844	93.75
475.063	88.75
475.282	89.75
475.501	90.75
475.72	93.75
475.939	91.75
476.158	96.75
476.377	98.75
476.596	86.75
476.814	100.75
477.033	90.75
477.252	78.75
477.471	73.75
477.69	93.75
477.908	101.75
478.127	83.75
478.346	95.75
478.564	99.75
478.783	102.75
479.002	95.75
479.22	103.75
479.439	106.75
479.658	118.75
479.876	109.75
480.095	96.75
480.313	88.75
480.532	99.75
480.751	92.75
480.969	88.75
481.188	95.75
481.406	102.75
481.624	93.75
481.843	94.75
482.061	85.75
482.28	93.75
482.498	90.75
482.717	86.75
482.935	104.75
483.153	84.75
483.372	85.75
483.59	88.75
483.808	86.75
484.027	87.75
484.245	94.75
484.463	102.75
484.681	103.75
484.9	87.75
485.118	97.75
485.336	94.75
485.554	91.75
485.772	98.75
485.99	107.75
486.209	115.75
486.427	107.75
486.645	123.75
486.863	106.75
487.081	90.75
487.299	95.75
487.517	86.75
487.735	97.75
487.953	101.75
488.171	97.75
488.389	101.75
488.607	106.75
488.825	81.75
489.043	93.75
489.261	89.75
489.479	77.75
489.696	83.75
489.914	93.75
490.132	91.75
490.35	87.75
490.568	92.75
490.786	106.75
491.003	91.75
491.221	75.75
491.439	93.75
491.657	95.75
491.874	99.75
492.092	83.75
492.31	86.75
492.527	70.75
492.745	92.75
492.963	75.75
493.18	73.75
493.398	77.75
493.615	94.75
493.833	89.75
494.05	91.75
494.268	91.75
494.485	101.75
494.703	85.75
494.92	62.75
495.138	84.75
495.355	82.75
495.573	101.75
495.79	90.75
496.008	96.75
496.225	94.75
496.442	82.75
496.66	110.75
496.877	104.75
497.094	95.75
497.312	79.75
497.529	85.75
497.746	91.75
497.963	92.75
498.181	83.75
498.398	98.75
498.615	107.75
498.832	116.75
499.049	88.75
499.267	93.75
499.484	87.75
499.701	84.75
499.918	91.75
500.135	97.75
500.352	97.75
500.569	94.75
500.786	94.75
501.003	77.75
501.22	101.75
501.437	86.75
501.654	90.75
501.871	102.75
502.088	103.75
502.305	95.75
502.522	91.75
502.739	87.75
502.956	95.75
503.172	94.75
503.389	108.75
503.606	114.75
503.823	106.75
504.04	98.75
504.256	90.75
504.473	90.75
504.69	90.75
504.907	90.75
505.123	82.75
505.34	93.75
505.557	102.75
505.773	80.75
505.99	90.75
506.207	82.75
506.423	79.75
506.64	73.75
506.856	99.75
507.073	83.75
507.289	98.75
507.506	104.75
507.722	127.75
507.939	127.75
508.155	97.75
508.372	100.75
508.588	115.75
508.805	93.75
509.021	97.75
509.238	107.75
509.454	111.75
509.67	106.75
509.887	111.75
510.103	151.75
510.319	242.75
510.536	875.75
510.752	3106.75
510.968	853.75
511.184	175.75
511.401	120.75
511.617	105.75
511.833	94.75
512.049	82.75
512.265	92.75
512.481	99.75
512.698	99.75
512.914	89.75
513.13	98.75
513.346	99.75
513.562	114.75
513.778	96.75
513.994	107.75
514.21	106.75
514.426	150.75
514.642	167.75
514.858	148.75
