Data from Circ_2014_H10_HRD10591_00087.txt Node
Date: Wed Jan 03 10:02:26 EST 2024
User: Yrep
Spectrometer: HR+D1059
Trigger mode: 1
Integration Time (sec): 1.000000E-1
Scans to average: 1
Electric dark correction enabled: true
Nonlinearity correction enabled: false
Boxcar width: 0
XAxis mode: Wavelengths
Number of Pixels in Spectrum: 2048
>>>>>Begin Spectral Data<<<<<
223.165	-5.56
223.4	-5.56
223.635	-5.56
223.869	-23.56
224.104	-18.56
224.338	-9.56
224.573	-16.56
224.808	-3.56
225.042	-5.56
225.277	6.44
225.511	-10.56
225.746	10.44
225.98	-3.56
226.215	11.44
226.449	8.44
226.683	22.44
226.918	10.44
227.152	27.44
227.387	43.44
227.621	45.44
227.856	51.44
228.09	54.44
228.324	54.44
228.559	68.44
228.793	62.44
229.027	59.44
229.262	59.44
229.496	78.44
229.73	84.44
229.964	72.44
230.199	86.44
230.433	74.44
230.667	80.44
230.901	81.44
231.136	75.44
231.37	80.44
231.604	95.44
231.838	76.44
232.072	86.44
232.306	74.44
232.541	82.44
232.775	87.44
233.009	86.44
233.243	79.44
233.477	77.44
233.711	84.44
233.945	76.44
234.179	78.44
234.413	84.44
234.647	80.44
234.881	74.44
235.115	77.44
235.349	86.44
235.583	72.44
235.817	87.44
236.051	102.44
236.285	68.44
236.519	79.44
236.753	87.44
236.987	77.44
237.221	77.44
237.455	80.44
237.689	87.44
237.922	71.44
238.156	70.44
238.39	76.44
238.624	82.44
238.858	76.44
239.091	66.44
239.325	69.44
239.559	81.44
239.793	79.44
240.027	80.44
240.26	75.44
240.494	77.44
240.728	75.44
240.961	80.44
241.195	71.44
241.429	78.44
241.662	84.44
241.896	81.44
242.13	77.44
242.363	84.44
242.597	81.44
242.83	57.44
243.064	68.44
243.298	64.44
243.531	73.44
243.765	96.44
243.998	70.44
244.232	75.44
244.465	79.44
244.699	70.44
244.932	86.44
245.166	71.44
245.399	86.44
245.633	75.44
245.866	88.44
246.099	65.44
246.333	95.44
246.566	98.44
246.8	76.44
247.033	78.44
247.266	76.44
247.5	74.44
247.733	84.44
247.966	80.44
248.2	88.44
248.433	75.44
248.666	70.44
248.899	87.44
249.133	71.44
249.366	90.44
249.599	82.44
249.832	84.44
250.066	77.44
250.299	89.44
250.532	84.44
250.765	83.44
250.998	89.44
251.231	78.44
251.465	89.44
251.698	93.44
251.931	92.44
252.164	75.44
252.397	70.44
252.63	76.44
252.863	66.44
253.096	80.44
253.329	90.44
253.562	80.44
253.795	81.44
254.028	82.44
254.261	93.44
254.494	81.44
254.727	91.44
254.96	69.44
255.193	82.44
255.426	94.44
255.659	90.44
255.892	68.44
256.124	101.44
256.357	78.44
256.59	85.44
256.823	98.44
257.056	70.44
257.289	90.44
257.521	79.44
257.754	80.44
257.987	82.44
258.22	96.44
258.452	78.44
258.685	78.44
258.918	77.44
259.151	88.44
259.383	89.44
259.616	70.44
259.849	88.44
260.081	91.44
260.314	78.44
260.547	86.44
260.779	79.44
261.012	93.44
261.244	86.44
261.477	90.44
261.71	91.44
261.942	117.44
262.175	118.44
262.407	89.44
262.64	91.44
262.872	83.44
263.105	79.44
263.337	84.44
263.57	87.44
263.802	70.44
264.035	86.44
264.267	87.44
264.499	81.44
264.732	88.44
264.964	70.44
265.197	95.44
265.429	94.44
265.661	83.44
265.894	78.44
266.126	94.44
266.358	86.44
266.591	80.44
266.823	90.44
267.055	87.44
267.287	79.44
267.52	72.44
267.752	90.44
267.984	88.44
268.216	82.44
268.448	80.44
268.681	82.44
268.913	97.44
269.145	74.44
269.377	66.44
269.609	71.44
269.841	88.44
270.073	90.44
270.306	83.44
270.538	90.44
270.77	87.44
271.002	90.44
271.234	90.44
271.466	83.44
271.698	94.44
271.93	91.44
272.162	93.44
272.394	77.44
272.626	85.44
272.858	80.44
273.09	76.44
273.322	98.44
273.553	80.44
273.785	96.44
274.017	95.44
274.249	85.44
274.481	101.44
274.713	90.44
274.945	87.44
275.176	97.44
275.408	94.44
275.64	90.44
275.872	99.44
276.104	93.44
276.335	82.44
276.567	107.44
276.799	112.44
277.031	93.44
277.262	101.44
277.494	94.44
277.726	95.44
277.957	96.44
278.189	87.44
278.421	81.44
278.652	99.44
278.884	73.44
279.115	78.44
279.347	98.44
279.579	91.44
279.81	85.44
280.042	84.44
280.273	102.44
280.505	100.44
280.736	87.44
280.968	83.44
281.199	94.44
281.431	91.44
281.662	88.44
281.894	86.44
282.125	96.44
282.356	137.44
282.588	147.44
282.819	115.44
283.051	85.44
283.282	72.44
283.513	78.44
283.745	77.44
283.976	87.44
284.207	91.44
284.439	79.44
284.67	106.44
284.901	86.44
285.132	77.44
285.364	71.44
285.595	87.44
285.826	86.44
286.057	83.44
286.288	105.44
286.52	95.44
286.751	94.44
286.982	88.44
287.213	80.44
287.444	94.44
287.675	90.44
287.906	83.44
288.138	79.44
288.369	84.44
288.6	77.44
288.831	70.44
289.062	89.44
289.293	87.44
289.524	90.44
289.755	103.44
289.986	89.44
290.217	91.44
290.448	75.44
290.679	91.44
290.91	94.44
291.141	85.44
291.371	85.44
291.602	82.44
291.833	86.44
292.064	96.44
292.295	98.44
292.526	84.44
292.757	87.44
292.987	91.44
293.218	91.44
293.449	87.44
293.68	102.44
293.91	92.44
294.141	87.44
294.372	88.44
294.603	111.44
294.833	92.44
295.064	85.44
295.295	80.44
295.525	94.44
295.756	94.44
295.987	127.44
296.217	136.44
296.448	119.44
296.679	85.44
296.909	77.44
297.14	89.44
297.37	101.44
297.601	79.44
297.831	88.44
298.062	98.44
298.292	84.44
298.523	85.44
298.753	85.44
298.984	83.44
299.214	96.44
299.445	84.44
299.675	92.44
299.905	102.44
300.136	98.44
300.366	69.44
300.597	100.44
300.827	87.44
301.057	106.44
301.288	110.44
301.518	97.44
301.748	88.44
301.979	113.44
302.209	96.44
302.439	96.44
302.669	101.44
302.9	77.44
303.13	86.44
303.36	101.44
303.59	87.44
303.82	116.44
304.051	103.44
304.281	100.44
304.511	87.44
304.741	85.44
304.971	92.44
305.201	89.44
305.431	81.44
305.661	106.44
305.891	94.44
306.121	91.44
306.352	95.44
306.582	97.44
306.812	102.44
307.042	85.44
307.272	92.44
307.502	101.44
307.731	95.44
307.961	99.44
308.191	93.44
308.421	95.44
308.651	106.44
308.881	100.44
309.111	81.44
309.341	90.44
309.571	95.44
309.8	101.44
310.03	92.44
310.26	97.44
310.49	88.44
310.72	105.44
310.949	111.44
311.179	100.44
311.409	102.44
311.639	103.44
311.868	112.44
312.098	90.44
312.328	95.44
312.557	93.44
312.787	107.44
313.017	132.44
313.246	93.44
313.476	94.44
313.706	97.44
313.935	85.44
314.165	95.44
314.394	101.44
314.624	99.44
314.853	109.44
315.083	103.44
315.312	95.44
315.542	86.44
315.771	91.44
316.001	92.44
316.23	82.44
316.46	84.44
316.689	93.44
316.919	102.44
317.148	97.44
317.377	95.44
317.607	106.44
317.836	100.44
318.065	91.44
318.295	86.44
318.524	85.44
318.753	90.44
318.983	90.44
319.212	101.44
319.441	111.44
319.67	103.44
319.9	93.44
320.129	99.44
320.358	107.44
320.587	95.44
320.816	108.44
321.046	109.44
321.275	105.44
321.504	98.44
321.733	90.44
321.962	88.44
322.191	111.44
322.42	103.44
322.649	94.44
322.878	117.44
323.108	110.44
323.337	114.44
323.566	114.44
323.795	144.44
324.024	200.44
324.253	369.44
324.482	770.44
324.71	1556.44
324.939	2088.44
325.168	770.44
325.397	249.44
325.626	153.44
325.855	138.44
326.084	116.44
326.313	140.44
326.542	168.44
326.77	244.44
326.999	431.44
327.228	896.44
327.457	1546.44
327.686	1278.44
327.914	351.44
328.143	208.44
328.372	170.44
328.6	151.44
328.829	110.44
329.058	126.44
329.287	148.44
329.515	108.44
329.744	109.44
329.972	130.44
330.201	157.44
330.43	197.44
330.658	145.44
330.887	144.44
331.115	142.44
331.344	123.44
331.572	112.44
331.801	109.44
332.03	103.44
332.258	100.44
332.486	100.44
332.715	105.44
332.943	104.44
333.172	107.44
333.4	103.44
333.629	116.44
333.857	116.44
334.085	131.44
334.314	166.44
334.542	230.44
334.771	243.44
334.999	120.44
335.227	99.44
335.455	107.44
335.684	101.44
335.912	88.44
336.14	104.44
336.369	95.44
336.597	102.44
336.825	100.44
337.053	105.44
337.281	77.44
337.51	83.44
337.738	102.44
337.966	82.44
338.194	96.44
338.422	98.44
338.65	107.44
338.878	88.44
339.106	101.44
339.334	87.44
339.562	78.44
339.79	98.44
340.018	93.44
340.246	83.44
340.474	106.44
340.702	101.44
340.93	96.44
341.158	112.44
341.386	96.44
341.614	97.44
341.842	101.44
342.07	89.44
342.298	93.44
342.526	94.44
342.754	93.44
342.981	96.44
343.209	91.44
343.437	97.44
343.665	80.44
343.893	87.44
344.12	94.44
344.348	86.44
344.576	91.44
344.804	100.44
345.031	94.44
345.259	99.44
345.487	97.44
345.714	90.44
345.942	92.44
346.17	83.44
346.397	85.44
346.625	100.44
346.853	88.44
347.08	86.44
347.308	97.44
347.535	89.44
347.763	97.44
347.99	104.44
348.218	96.44
348.445	101.44
348.673	104.44
348.9	98.44
349.128	94.44
349.355	98.44
349.583	92.44
349.81	84.44
350.037	96.44
350.265	80.44
350.492	94.44
350.72	91.44
350.947	100.44
351.174	103.44
351.402	115.44
351.629	122.44
351.856	100.44
352.083	101.44
352.311	105.44
352.538	128.44
352.765	100.44
352.992	105.44
353.22	121.44
353.447	114.44
353.674	99.44
353.901	93.44
354.128	100.44
354.355	102.44
354.583	107.44
354.81	97.44
355.037	110.44
355.264	95.44
355.491	100.44
355.718	91.44
355.945	102.44
356.172	91.44
356.399	88.44
356.626	102.44
356.853	91.44
357.08	92.44
357.307	98.44
357.534	74.44
357.761	105.44
357.988	88.44
358.215	109.44
358.441	98.44
358.668	105.44
358.895	77.44
359.122	78.44
359.349	90.44
359.576	92.44
359.802	92.44
360.029	111.44
360.256	124.44
360.483	98.44
360.709	85.44
360.936	90.44
361.163	100.44
361.39	83.44
361.616	90.44
361.843	88.44
362.07	86.44
362.296	98.44
362.523	96.44
362.749	101.44
362.976	99.44
363.203	75.44
363.429	96.44
363.656	94.44
363.882	86.44
364.109	102.44
364.335	92.44
364.562	87.44
364.788	97.44
365.015	96.44
365.241	98.44
365.468	108.44
365.694	106.44
365.92	95.44
366.147	100.44
366.373	87.44
366.599	94.44
366.826	96.44
367.052	91.44
367.278	98.44
367.505	90.44
367.731	92.44
367.957	102.44
368.184	86.44
368.41	108.44
368.636	111.44
368.862	109.44
369.089	107.44
369.315	92.44
369.541	95.44
369.767	101.44
369.993	95.44
370.219	93.44
370.445	86.44
370.672	66.44
370.898	89.44
371.124	101.44
371.35	94.44
371.576	94.44
371.802	85.44
372.028	96.44
372.254	77.44
372.48	98.44
372.706	96.44
372.932	90.44
373.158	90.44
373.384	98.44
373.61	88.44
373.835	94.44
374.061	75.44
374.287	87.44
374.513	91.44
374.739	100.44
374.965	79.44
375.191	95.44
375.416	99.44
375.642	80.44
375.868	90.44
376.094	85.44
376.319	91.44
376.545	88.44
376.771	96.44
376.997	102.44
377.222	92.44
377.448	98.44
377.674	87.44
377.899	94.44
378.125	89.44
378.35	100.44
378.576	102.44
378.802	75.44
379.027	87.44
379.253	86.44
379.478	97.44
379.704	98.44
379.929	88.44
380.155	88.44
380.38	89.44
380.606	104.44
380.831	102.44
381.057	86.44
381.282	108.44
381.507	92.44
381.733	95.44
381.958	87.44
382.184	107.44
382.409	87.44
382.634	88.44
382.86	90.44
383.085	92.44
383.31	98.44
383.535	104.44
383.761	95.44
383.986	109.44
384.211	93.44
384.436	98.44
384.662	95.44
384.887	108.44
385.112	95.44
385.337	98.44
385.562	116.44
385.787	95.44
386.013	102.44
386.238	100.44
386.463	109.44
386.688	107.44
386.913	102.44
387.138	111.44
387.363	102.44
387.588	112.44
387.813	97.44
388.038	103.44
388.263	78.44
388.488	100.44
388.713	90.44
388.938	92.44
389.163	87.44
389.387	100.44
389.612	78.44
389.837	95.44
390.062	92.44
390.287	92.44
390.512	85.44
390.736	84.44
390.961	88.44
391.186	80.44
391.411	90.44
391.636	86.44
391.86	92.44
392.085	80.44
392.31	78.44
392.534	88.44
392.759	89.44
392.984	100.44
393.208	79.44
393.433	90.44
393.658	89.44
393.882	90.44
394.107	87.44
394.331	83.44
394.556	92.44
394.78	96.44
395.005	96.44
395.229	89.44
395.454	89.44
395.678	79.44
395.903	98.44
396.127	98.44
396.352	81.44
396.576	83.44
396.801	78.44
397.025	95.44
397.249	95.44
397.474	107.44
397.698	83.44
397.922	92.44
398.147	81.44
398.371	92.44
398.595	99.44
398.82	79.44
399.044	84.44
399.268	85.44
399.492	78.44
399.717	86.44
399.941	80.44
400.165	91.44
400.389	100.44
400.613	82.44
400.837	92.44
401.062	76.44
401.286	96.44
401.51	79.44
401.734	91.44
401.958	92.44
402.182	128.44
402.406	172.44
402.63	123.44
402.854	94.44
403.078	82.44
403.302	82.44
403.526	94.44
403.75	79.44
403.974	77.44
404.198	92.44
404.422	98.44
404.645	92.44
404.869	92.44
405.093	95.44
405.317	109.44
405.541	104.44
405.765	106.44
405.988	127.44
406.212	180.44
406.436	233.44
406.66	148.44
406.883	101.44
407.107	81.44
407.331	92.44
407.555	100.44
407.778	96.44
408.002	101.44
408.226	86.44
408.449	76.44
408.673	95.44
408.896	84.44
409.12	97.44
409.344	94.44
409.567	75.44
409.791	82.44
410.014	90.44
410.238	91.44
410.461	95.44
410.685	110.44
410.908	91.44
411.132	101.44
411.355	102.44
411.578	91.44
411.802	87.44
412.025	87.44
412.249	95.44
412.472	85.44
412.695	111.44
412.919	98.44
413.142	80.44
413.365	93.44
413.589	102.44
413.812	100.44
414.035	92.44
414.258	85.44
414.482	96.44
414.705	104.44
414.928	95.44
415.151	92.44
415.374	101.44
415.597	93.44
415.821	81.44
416.044	93.44
416.267	88.44
416.49	84.44
416.713	86.44
416.936	85.44
417.159	82.44
417.382	87.44
417.605	83.44
417.828	98.44
418.051	102.44
418.274	76.44
418.497	74.44
418.72	89.44
418.943	85.44
419.166	95.44
419.389	82.44
419.611	91.44
419.834	93.44
420.057	82.44
420.28	85.44
420.503	80.44
420.726	96.44
420.948	99.44
421.171	100.44
421.394	93.44
421.617	95.44
421.839	84.44
422.062	86.44
422.285	100.44
422.507	102.44
422.73	101.44
422.953	92.44
423.175	88.44
423.398	98.44
423.621	84.44
423.843	85.44
424.066	72.44
424.288	89.44
424.511	81.44
424.733	89.44
424.956	100.44
425.178	102.44
425.401	95.44
425.623	107.44
425.846	78.44
426.068	83.44
426.291	84.44
426.513	91.44
426.735	85.44
426.958	73.44
427.18	114.44
427.402	147.44
427.625	155.44
427.847	128.44
428.069	114.44
428.292	87.44
428.514	93.44
428.736	92.44
428.958	85.44
429.181	93.44
429.403	89.44
429.625	83.44
429.847	99.44
430.069	96.44
430.292	89.44
430.514	99.44
430.736	97.44
430.958	82.44
431.18	79.44
431.402	85.44
431.624	84.44
431.846	88.44
432.068	91.44
432.29	75.44
432.512	98.44
432.734	93.44
432.956	98.44
433.178	86.44
433.4	97.44
433.622	82.44
433.844	106.44
434.066	85.44
434.287	91.44
434.509	92.44
434.731	84.44
434.953	82.44
435.175	77.44
435.397	98.44
435.618	87.44
435.84	111.44
436.062	132.44
436.284	112.44
436.505	101.44
436.727	87.44
436.949	88.44
437.17	85.44
437.392	79.44
437.614	94.44
437.835	103.44
438.057	120.44
438.278	91.44
438.5	98.44
438.721	113.44
438.943	111.44
439.165	92.44
439.386	91.44
439.608	112.44
439.829	84.44
440.05	130.44
440.272	137.44
440.493	95.44
440.715	94.44
440.936	92.44
441.158	77.44
441.379	93.44
441.6	70.44
441.822	85.44
442.043	95.44
442.264	103.44
442.486	103.44
442.707	99.44
442.928	110.44
443.149	116.44
443.371	134.44
443.592	104.44
443.813	118.44
444.034	104.44
444.255	98.44
444.476	72.44
444.698	75.44
444.919	87.44
445.14	149.44
445.361	137.44
445.582	108.44
445.803	138.44
446.024	135.44
446.245	130.44
446.466	100.44
446.687	86.44
446.908	90.44
447.129	95.44
447.35	110.44
447.571	108.44
447.792	85.44
448.013	98.44
448.234	117.44
448.455	91.44
448.675	101.44
448.896	114.44
449.117	98.44
449.338	92.44
449.559	117.44
449.779	126.44
450	82.44
450.221	96.44
450.442	93.44
450.662	72.44
450.883	86.44
451.104	110.44
451.324	94.44
451.545	88.44
451.766	78.44
451.986	90.44
452.207	80.44
452.428	100.44
452.648	99.44
452.869	92.44
453.089	100.44
453.31	114.44
453.53	102.44
453.751	97.44
453.971	103.44
454.192	98.44
454.412	87.44
454.633	74.44
454.853	84.44
455.073	74.44
455.294	75.44
455.514	86.44
455.734	92.44
455.955	80.44
456.175	89.44
456.395	89.44
456.616	86.44
456.836	81.44
457.056	77.44
457.276	86.44
457.497	83.44
457.717	89.44
457.937	88.44
458.157	77.44
458.377	101.44
458.598	106.44
458.818	151.44
459.038	165.44
459.258	115.44
459.478	98.44
459.698	95.44
459.918	92.44
460.138	91.44
460.358	78.44
460.578	83.44
460.798	82.44
461.018	94.44
461.238	81.44
461.458	76.44
461.678	86.44
461.898	98.44
462.118	101.44
462.338	93.44
462.558	79.44
462.777	90.44
462.997	97.44
463.217	86.44
463.437	80.44
463.657	75.44
463.876	92.44
464.096	99.44
464.316	91.44
464.536	100.44
464.755	106.44
464.975	116.44
465.195	173.44
465.414	164.44
465.634	100.44
465.854	88.44
466.073	101.44
466.293	95.44
466.512	95.44
466.732	94.44
466.951	79.44
467.171	84.44
467.391	102.44
467.61	95.44
467.829	107.44
468.049	126.44
468.268	146.44
468.488	91.44
468.707	83.44
468.927	94.44
469.146	97.44
469.365	90.44
469.585	88.44
469.804	97.44
470.023	95.44
470.243	101.44
470.462	99.44
470.681	100.44
470.901	98.44
471.12	77.44
471.339	96.44
471.558	92.44
471.777	88.44
471.997	121.44
472.216	168.44
472.435	318.44
472.654	132.44
472.873	94.44
473.092	73.44
473.311	88.44
473.53	101.44
473.749	99.44
473.968	91.44
474.187	94.44
474.406	95.44
474.625	93.44
474.844	95.44
475.063	100.44
475.282	81.44
475.501	102.44
475.72	81.44
475.939	89.44
476.158	92.44
476.377	89.44
476.596	100.44
476.814	88.44
477.033	93.44
477.252	85.44
477.471	100.44
477.69	76.44
477.908	96.44
478.127	89.44
478.346	89.44
478.564	94.44
478.783	88.44
479.002	101.44
479.22	112.44
479.439	107.44
479.658	95.44
479.876	107.44
480.095	95.44
480.313	96.44
480.532	91.44
480.751	125.44
480.969	188.44
481.188	498.44
481.406	337.44
481.624	120.44
481.843	92.44
482.061	83.44
482.28	80.44
482.498	101.44
482.717	102.44
482.935	75.44
483.153	88.44
483.372	96.44
483.59	101.44
483.808	94.44
484.027	103.44
484.245	96.44
484.463	94.44
484.681	93.44
484.9	97.44
485.118	102.44
485.336	91.44
485.554	96.44
485.772	99.44
485.99	93.44
486.209	96.44
486.427	97.44
486.645	99.44
486.863	93.44
487.081	88.44
487.299	113.44
487.517	101.44
487.735	97.44
487.953	91.44
488.171	101.44
488.389	94.44
488.607	104.44
488.825	98.44
489.043	91.44
489.261	100.44
489.479	86.44
489.696	93.44
489.914	92.44
490.132	78.44
490.35	82.44
490.568	91.44
490.786	89.44
491.003	97.44
491.221	87.44
491.439	90.44
491.657	93.44
491.874	102.44
492.092	77.44
492.31	86.44
492.527	86.44
492.745	88.44
492.963	93.44
493.18	91.44
493.398	107.44
493.615	107.44
493.833	96.44
494.05	77.44
494.268	100.44
494.485	81.44
494.703	89.44
494.92	95.44
495.138	92.44
495.355	98.44
495.573	89.44
495.79	85.44
496.008	90.44
496.225	91.44
496.442	94.44
496.66	95.44
496.877	88.44
497.094	99.44
497.312	101.44
497.529	88.44
497.746	86.44
497.963	90.44
498.181	104.44
498.398	93.44
498.615	94.44
498.832	98.44
499.049	90.44
499.267	109.44
499.484	94.44
499.701	93.44
499.918	86.44
500.135	96.44
500.352	98.44
500.569	106.44
500.786	92.44
501.003	103.44
501.22	107.44
501.437	78.44
501.654	101.44
501.871	93.44
502.088	95.44
502.305	95.44
502.522	97.44
502.739	94.44
502.956	84.44
503.172	112.44
503.389	98.44
503.606	104.44
503.823	91.44
504.04	88.44
504.256	90.44
504.473	95.44
504.69	80.44
504.907	80.44
505.123	80.44
505.34	107.44
505.557	91.44
505.773	105.44
505.99	95.44
506.207	94.44
506.423	84.44
506.64	82.44
506.856	100.44
507.073	89.44
507.289	92.44
507.506	105.44
507.722	107.44
507.939	99.44
508.155	96.44
508.372	90.44
508.588	83.44
508.805	86.44
509.021	87.44
509.238	99.44
509.454	107.44
509.67	108.44
509.887	125.44
510.103	138.44
510.319	221.44
510.536	719.44
510.752	2461.44
510.968	704.44
511.184	152.44
511.401	122.44
511.617	102.44
511.833	93.44
512.049	93.44
512.265	89.44
512.481	94.44
512.698	89.44
512.914	100.44
513.13	83.44
513.346	85.44
513.562	92.44
513.778	96.44
513.994	89.44
514.21	116.44
514.426	116.44
514.642	154.44
514.858	132.44
515.074	190.44
