Data from Circ_2014_H10_HRD10591_00081.txt Node
Date: Wed Jan 03 10:02:25 EST 2024
User: Yrep
Spectrometer: HR+D1059
Trigger mode: 1
Integration Time (sec): 1.000000E-1
Scans to average: 1
Electric dark correction enabled: true
Nonlinearity correction enabled: false
Boxcar width: 0
XAxis mode: Wavelengths
Number of Pixels in Spectrum: 2048
>>>>>Begin Spectral Data<<<<<
223.165	-25.31
223.4	-25.31
223.635	-25.31
223.869	-28.31
224.104	-14.31
224.338	-16.31
224.573	-7.31
224.808	-2.31
225.042	-13.31
225.277	-5.31
225.511	-3.31
225.746	10.69
225.98	-0.31
226.215	14.69
226.449	13.69
226.683	21.69
226.918	25.69
227.152	29.69
227.387	29.69
227.621	48.69
227.856	38.69
228.09	49.69
228.324	38.69
228.559	61.69
228.793	47.69
229.027	66.69
229.262	72.69
229.496	51.69
229.73	74.69
229.964	69.69
230.199	75.69
230.433	66.69
230.667	73.69
230.901	72.69
231.136	77.69
231.37	76.69
231.604	81.69
231.838	71.69
232.072	73.69
232.306	83.69
232.541	68.69
232.775	75.69
233.009	68.69
233.243	91.69
233.477	85.69
233.711	74.69
233.945	73.69
234.179	71.69
234.413	88.69
234.647	71.69
234.881	67.69
235.115	73.69
235.349	73.69
235.583	73.69
235.817	80.69
236.051	77.69
236.285	78.69
236.519	69.69
236.753	89.69
236.987	90.69
237.221	87.69
237.455	73.69
237.689	79.69
237.922	79.69
238.156	60.69
238.39	64.69
238.624	80.69
238.858	84.69
239.091	75.69
239.325	63.69
239.559	81.69
239.793	66.69
240.027	75.69
240.26	64.69
240.494	82.69
240.728	57.69
240.961	68.69
241.195	81.69
241.429	68.69
241.662	77.69
241.896	76.69
242.13	77.69
242.363	82.69
242.597	81.69
242.83	86.69
243.064	79.69
243.298	83.69
243.531	78.69
243.765	80.69
243.998	69.69
244.232	79.69
244.465	79.69
244.699	64.69
244.932	75.69
245.166	88.69
245.399	88.69
245.633	70.69
245.866	66.69
246.099	84.69
246.333	76.69
246.566	73.69
246.8	89.69
247.033	79.69
247.266	67.69
247.5	79.69
247.733	72.69
247.966	89.69
248.2	68.69
248.433	70.69
248.666	68.69
248.899	63.69
249.133	81.69
249.366	85.69
249.599	89.69
249.832	81.69
250.066	81.69
250.299	76.69
250.532	89.69
250.765	86.69
250.998	76.69
251.231	86.69
251.465	84.69
251.698	84.69
251.931	70.69
252.164	73.69
252.397	76.69
252.63	81.69
252.863	91.69
253.096	78.69
253.329	72.69
253.562	70.69
253.795	76.69
254.028	80.69
254.261	68.69
254.494	85.69
254.727	80.69
254.96	72.69
255.193	85.69
255.426	81.69
255.659	84.69
255.892	82.69
256.124	75.69
256.357	88.69
256.59	79.69
256.823	90.69
257.056	84.69
257.289	75.69
257.521	69.69
257.754	79.69
257.987	70.69
258.22	73.69
258.452	81.69
258.685	87.69
258.918	78.69
259.151	79.69
259.383	81.69
259.616	76.69
259.849	77.69
260.081	76.69
260.314	79.69
260.547	91.69
260.779	71.69
261.012	72.69
261.244	67.69
261.477	85.69
261.71	106.69
261.942	125.69
262.175	102.69
262.407	85.69
262.64	83.69
262.872	78.69
263.105	87.69
263.337	85.69
263.57	84.69
263.802	80.69
264.035	78.69
264.267	80.69
264.499	87.69
264.732	91.69
264.964	88.69
265.197	80.69
265.429	86.69
265.661	88.69
265.894	67.69
266.126	85.69
266.358	79.69
266.591	77.69
266.823	79.69
267.055	72.69
267.287	89.69
267.52	88.69
267.752	86.69
267.984	72.69
268.216	84.69
268.448	102.69
268.681	74.69
268.913	90.69
269.145	93.69
269.377	88.69
269.609	80.69
269.841	92.69
270.073	88.69
270.306	85.69
270.538	80.69
270.77	70.69
271.002	87.69
271.234	97.69
271.466	104.69
271.698	86.69
271.93	79.69
272.162	73.69
272.394	78.69
272.626	85.69
272.858	77.69
273.09	88.69
273.322	75.69
273.553	74.69
273.785	81.69
274.017	85.69
274.249	79.69
274.481	66.69
274.713	76.69
274.945	92.69
275.176	96.69
275.408	91.69
275.64	67.69
275.872	92.69
276.104	97.69
276.335	92.69
276.567	98.69
276.799	127.69
277.031	92.69
277.262	83.69
277.494	89.69
277.726	97.69
277.957	83.69
278.189	81.69
278.421	85.69
278.652	89.69
278.884	92.69
279.115	89.69
279.347	87.69
279.579	87.69
279.81	102.69
280.042	84.69
280.273	94.69
280.505	85.69
280.736	82.69
280.968	86.69
281.199	87.69
281.431	95.69
281.662	86.69
281.894	83.69
282.125	89.69
282.356	117.69
282.588	151.69
282.819	103.69
283.051	91.69
283.282	75.69
283.513	88.69
283.745	86.69
283.976	89.69
284.207	84.69
284.439	85.69
284.67	84.69
284.901	89.69
285.132	83.69
285.364	87.69
285.595	87.69
285.826	73.69
286.057	83.69
286.288	82.69
286.52	87.69
286.751	82.69
286.982	84.69
287.213	75.69
287.444	89.69
287.675	98.69
287.906	81.69
288.138	77.69
288.369	87.69
288.6	67.69
288.831	87.69
289.062	93.69
289.293	86.69
289.524	73.69
289.755	80.69
289.986	86.69
290.217	91.69
290.448	87.69
290.679	80.69
290.91	72.69
291.141	91.69
291.371	92.69
291.602	89.69
291.833	79.69
292.064	82.69
292.295	87.69
292.526	96.69
292.757	101.69
292.987	95.69
293.218	90.69
293.449	95.69
293.68	83.69
293.91	89.69
294.141	85.69
294.372	101.69
294.603	83.69
294.833	104.69
295.064	89.69
295.295	99.69
295.525	100.69
295.756	88.69
295.987	121.69
296.217	142.69
296.448	124.69
296.679	95.69
296.909	89.69
297.14	92.69
297.37	91.69
297.601	85.69
297.831	84.69
298.062	85.69
298.292	98.69
298.523	90.69
298.753	77.69
298.984	87.69
299.214	76.69
299.445	88.69
299.675	88.69
299.905	95.69
300.136	88.69
300.366	94.69
300.597	84.69
300.827	83.69
301.057	102.69
301.288	111.69
301.518	76.69
301.748	82.69
301.979	95.69
302.209	101.69
302.439	85.69
302.669	93.69
302.9	86.69
303.13	95.69
303.36	100.69
303.59	98.69
303.82	96.69
304.051	104.69
304.281	99.69
304.511	80.69
304.741	91.69
304.971	96.69
305.201	99.69
305.431	78.69
305.661	87.69
305.891	85.69
306.121	88.69
306.352	99.69
306.582	100.69
306.812	94.69
307.042	88.69
307.272	87.69
307.502	97.69
307.731	90.69
307.961	86.69
308.191	92.69
308.421	94.69
308.651	97.69
308.881	106.69
309.111	96.69
309.341	91.69
309.571	108.69
309.8	91.69
310.03	99.69
310.26	94.69
310.49	86.69
310.72	87.69
310.949	96.69
311.179	85.69
311.409	101.69
311.639	98.69
311.868	92.69
312.098	92.69
312.328	93.69
312.557	91.69
312.787	97.69
313.017	102.69
313.246	98.69
313.476	78.69
313.706	92.69
313.935	84.69
314.165	97.69
314.394	106.69
314.624	93.69
314.853	97.69
315.083	84.69
315.312	74.69
315.542	92.69
315.771	85.69
316.001	84.69
316.23	85.69
316.46	82.69
316.689	88.69
316.919	84.69
317.148	88.69
317.377	102.69
317.607	90.69
317.836	88.69
318.065	93.69
318.295	91.69
318.524	93.69
318.753	96.69
318.983	100.69
319.212	99.69
319.441	106.69
319.67	101.69
319.9	79.69
320.129	86.69
320.358	98.69
320.587	95.69
320.816	106.69
321.046	95.69
321.275	88.69
321.504	88.69
321.733	100.69
321.962	95.69
322.191	96.69
322.42	119.69
322.649	99.69
322.878	96.69
323.108	124.69
323.337	125.69
323.566	120.69
323.795	134.69
324.024	184.69
324.253	366.69
324.482	736.69
324.71	1515.69
324.939	2008.69
325.168	725.69
325.397	239.69
325.626	134.69
325.855	114.69
326.084	133.69
326.313	131.69
326.542	146.69
326.77	204.69
326.999	408.69
327.228	816.69
327.457	1475.69
327.686	1217.69
327.914	348.69
328.143	209.69
328.372	179.69
328.6	136.69
328.829	118.69
329.058	125.69
329.287	115.69
329.515	92.69
329.744	104.69
329.972	136.69
330.201	176.69
330.43	206.69
330.658	159.69
330.887	146.69
331.115	114.69
331.344	90.69
331.572	99.69
331.801	91.69
332.03	85.69
332.258	95.69
332.486	86.69
332.715	97.69
332.943	83.69
333.172	101.69
333.4	92.69
333.629	107.69
333.857	115.69
334.085	132.69
334.314	170.69
334.542	254.69
334.771	228.69
334.999	129.69
335.227	104.69
335.455	92.69
335.684	95.69
335.912	94.69
336.14	83.69
336.369	96.69
336.597	89.69
336.825	95.69
337.053	103.69
337.281	87.69
337.51	84.69
337.738	81.69
337.966	89.69
338.194	96.69
338.422	94.69
338.65	100.69
338.878	92.69
339.106	96.69
339.334	83.69
339.562	95.69
339.79	101.69
340.018	87.69
340.246	93.69
340.474	95.69
340.702	95.69
340.93	85.69
341.158	93.69
341.386	92.69
341.614	90.69
341.842	97.69
342.07	92.69
342.298	92.69
342.526	82.69
342.754	94.69
342.981	81.69
343.209	89.69
343.437	92.69
343.665	76.69
343.893	91.69
344.12	104.69
344.348	84.69
344.576	92.69
344.804	91.69
345.031	83.69
345.259	87.69
345.487	77.69
345.714	80.69
345.942	92.69
346.17	84.69
346.397	94.69
346.625	90.69
346.853	92.69
347.08	102.69
347.308	98.69
347.535	85.69
347.763	106.69
347.99	100.69
348.218	92.69
348.445	105.69
348.673	101.69
348.9	94.69
349.128	87.69
349.355	83.69
349.583	72.69
349.81	102.69
350.037	96.69
350.265	106.69
350.492	103.69
350.72	115.69
350.947	89.69
351.174	95.69
351.402	103.69
351.629	111.69
351.856	96.69
352.083	90.69
352.311	93.69
352.538	103.69
352.765	98.69
352.992	101.69
353.22	113.69
353.447	96.69
353.674	104.69
353.901	81.69
354.128	100.69
354.355	88.69
354.583	104.69
354.81	93.69
355.037	96.69
355.264	92.69
355.491	94.69
355.718	80.69
355.945	91.69
356.172	89.69
356.399	102.69
356.626	92.69
356.853	73.69
357.08	85.69
357.307	96.69
357.534	78.69
357.761	89.69
357.988	91.69
358.215	81.69
358.441	83.69
358.668	82.69
358.895	68.69
359.122	68.69
359.349	90.69
359.576	88.69
359.802	111.69
360.029	115.69
360.256	105.69
360.483	101.69
360.709	97.69
360.936	84.69
361.163	97.69
361.39	93.69
361.616	107.69
361.843	84.69
362.07	91.69
362.296	93.69
362.523	98.69
362.749	90.69
362.976	83.69
363.203	84.69
363.429	87.69
363.656	88.69
363.882	82.69
364.109	95.69
364.335	99.69
364.562	75.69
364.788	90.69
365.015	87.69
365.241	100.69
365.468	111.69
365.694	96.69
365.92	96.69
366.147	96.69
366.373	92.69
366.599	96.69
366.826	83.69
367.052	98.69
367.278	99.69
367.505	71.69
367.731	102.69
367.957	93.69
368.184	94.69
368.41	96.69
368.636	117.69
368.862	108.69
369.089	108.69
369.315	87.69
369.541	89.69
369.767	85.69
369.993	83.69
370.219	95.69
370.445	97.69
370.672	74.69
370.898	95.69
371.124	78.69
371.35	85.69
371.576	82.69
371.802	93.69
372.028	91.69
372.254	88.69
372.48	91.69
372.706	82.69
372.932	96.69
373.158	92.69
373.384	88.69
373.61	93.69
373.835	100.69
374.061	97.69
374.287	99.69
374.513	80.69
374.739	98.69
374.965	84.69
375.191	95.69
375.416	88.69
375.642	79.69
375.868	80.69
376.094	89.69
376.319	89.69
376.545	92.69
376.771	88.69
376.997	72.69
377.222	88.69
377.448	97.69
377.674	87.69
377.899	74.69
378.125	84.69
378.35	90.69
378.576	93.69
378.802	85.69
379.027	81.69
379.253	76.69
379.478	91.69
379.704	92.69
379.929	91.69
380.155	89.69
380.38	91.69
380.606	94.69
380.831	98.69
381.057	94.69
381.282	86.69
381.507	96.69
381.733	103.69
381.958	100.69
382.184	96.69
382.409	91.69
382.634	97.69
382.86	97.69
383.085	107.69
383.31	106.69
383.535	91.69
383.761	90.69
383.986	91.69
384.211	111.69
384.436	83.69
384.662	88.69
384.887	102.69
385.112	90.69
385.337	91.69
385.562	105.69
385.787	101.69
386.013	98.69
386.238	116.69
386.463	102.69
386.688	110.69
386.913	86.69
387.138	106.69
387.363	92.69
387.588	95.69
387.813	81.69
388.038	90.69
388.263	99.69
388.488	108.69
388.713	83.69
388.938	91.69
389.163	97.69
389.387	87.69
389.612	81.69
389.837	89.69
390.062	85.69
390.287	87.69
390.512	91.69
390.736	92.69
390.961	95.69
391.186	99.69
391.411	108.69
391.636	89.69
391.86	79.69
392.085	85.69
392.31	74.69
392.534	84.69
392.759	71.69
392.984	80.69
393.208	100.69
393.433	85.69
393.658	82.69
393.882	76.69
394.107	75.69
394.331	82.69
394.556	86.69
394.78	81.69
395.005	81.69
395.229	80.69
395.454	107.69
395.678	85.69
395.903	86.69
396.127	83.69
396.352	92.69
396.576	90.69
396.801	89.69
397.025	95.69
397.249	92.69
397.474	86.69
397.698	83.69
397.922	78.69
398.147	75.69
398.371	75.69
398.595	85.69
398.82	88.69
399.044	84.69
399.268	88.69
399.492	85.69
399.717	91.69
399.941	100.69
400.165	102.69
400.389	85.69
400.613	82.69
400.837	80.69
401.062	80.69
401.286	71.69
401.51	95.69
401.734	88.69
401.958	97.69
402.182	122.69
402.406	156.69
402.63	100.69
402.854	88.69
403.078	80.69
403.302	71.69
403.526	76.69
403.75	75.69
403.974	70.69
404.198	68.69
404.422	82.69
404.645	96.69
404.869	91.69
405.093	94.69
405.317	114.69
405.541	107.69
405.765	101.69
405.988	103.69
406.212	157.69
406.436	222.69
406.66	156.69
406.883	91.69
407.107	76.69
407.331	98.69
407.555	100.69
407.778	92.69
408.002	98.69
408.226	98.69
408.449	100.69
408.673	62.69
408.896	91.69
409.12	87.69
409.344	76.69
409.567	94.69
409.791	88.69
410.014	94.69
410.238	99.69
410.461	78.69
410.685	93.69
410.908	86.69
411.132	102.69
411.355	84.69
411.578	91.69
411.802	82.69
412.025	84.69
412.249	83.69
412.472	96.69
412.695	108.69
412.919	77.69
413.142	102.69
413.365	77.69
413.589	90.69
413.812	74.69
414.035	92.69
414.258	78.69
414.482	94.69
414.705	86.69
414.928	86.69
415.151	92.69
415.374	87.69
415.597	65.69
415.821	81.69
416.044	83.69
416.267	79.69
416.49	81.69
416.713	87.69
416.936	90.69
417.159	81.69
417.382	83.69
417.605	76.69
417.828	91.69
418.051	105.69
418.274	85.69
418.497	75.69
418.72	87.69
418.943	95.69
419.166	84.69
419.389	90.69
419.611	91.69
419.834	80.69
420.057	96.69
420.28	89.69
420.503	83.69
420.726	92.69
420.948	84.69
421.171	87.69
421.394	88.69
421.617	78.69
421.839	92.69
422.062	72.69
422.285	93.69
422.507	107.69
422.73	90.69
422.953	84.69
423.175	105.69
423.398	113.69
423.621	87.69
423.843	80.69
424.066	78.69
424.288	79.69
424.511	100.69
424.733	92.69
424.956	97.69
425.178	83.69
425.401	84.69
425.623	96.69
425.846	91.69
426.068	98.69
426.291	84.69
426.513	89.69
426.735	93.69
426.958	91.69
427.18	112.69
427.402	124.69
427.625	159.69
427.847	119.69
428.069	116.69
428.292	97.69
428.514	82.69
428.736	84.69
428.958	82.69
429.181	88.69
429.403	84.69
429.625	85.69
429.847	86.69
430.069	102.69
430.292	107.69
430.514	98.69
430.736	88.69
430.958	71.69
431.18	79.69
431.402	79.69
431.624	78.69
431.846	77.69
432.068	81.69
432.29	97.69
432.512	91.69
432.734	88.69
432.956	83.69
433.178	90.69
433.4	90.69
433.622	88.69
433.844	76.69
434.066	84.69
434.287	80.69
434.509	94.69
434.731	95.69
434.953	80.69
435.175	77.69
435.397	93.69
435.618	93.69
435.84	106.69
436.062	84.69
436.284	123.69
436.505	107.69
436.727	108.69
436.949	82.69
437.17	86.69
437.392	79.69
437.614	69.69
437.835	94.69
438.057	108.69
438.278	103.69
438.5	96.69
438.721	119.69
438.943	92.69
439.165	82.69
439.386	77.69
439.608	87.69
439.829	100.69
440.05	133.69
440.272	137.69
440.493	85.69
440.715	75.69
440.936	81.69
441.158	88.69
441.379	93.69
441.6	82.69
441.822	85.69
442.043	87.69
442.264	109.69
442.486	100.69
442.707	84.69
442.928	92.69
443.149	127.69
443.371	137.69
443.592	93.69
443.813	100.69
444.034	117.69
444.255	95.69
444.476	92.69
444.698	87.69
444.919	87.69
445.14	130.69
445.361	123.69
445.582	104.69
445.803	133.69
446.024	132.69
446.245	137.69
446.466	115.69
446.687	97.69
446.908	75.69
447.129	88.69
447.35	82.69
447.571	88.69
447.792	90.69
448.013	86.69
448.234	115.69
448.455	88.69
448.675	111.69
448.896	108.69
449.117	106.69
449.338	90.69
449.559	108.69
449.779	120.69
450	83.69
450.221	87.69
450.442	86.69
450.662	101.69
450.883	87.69
451.104	118.69
451.324	91.69
451.545	83.69
451.766	77.69
451.986	98.69
452.207	98.69
452.428	88.69
452.648	96.69
452.869	98.69
453.089	121.69
453.31	117.69
453.53	93.69
453.751	85.69
453.971	88.69
454.192	124.69
454.412	89.69
454.633	94.69
454.853	84.69
455.073	93.69
455.294	87.69
455.514	101.69
455.734	69.69
455.955	88.69
456.175	80.69
456.395	83.69
456.616	77.69
456.836	77.69
457.056	85.69
457.276	82.69
457.497	77.69
457.717	85.69
457.937	82.69
458.157	108.69
458.377	94.69
458.598	86.69
458.818	138.69
459.038	165.69
459.258	117.69
459.478	99.69
459.698	76.69
459.918	75.69
460.138	79.69
460.358	81.69
460.578	86.69
460.798	82.69
461.018	98.69
461.238	92.69
461.458	97.69
461.678	89.69
461.898	97.69
462.118	83.69
462.338	80.69
462.558	94.69
462.777	74.69
462.997	91.69
463.217	96.69
463.437	82.69
463.657	82.69
463.876	83.69
464.096	82.69
464.316	94.69
464.536	88.69
464.755	94.69
464.975	118.69
465.195	157.69
465.414	156.69
465.634	108.69
465.854	91.69
466.073	77.69
466.293	84.69
466.512	79.69
466.732	97.69
466.951	86.69
467.171	90.69
467.391	89.69
467.61	85.69
467.829	91.69
468.049	131.69
468.268	159.69
468.488	105.69
468.707	84.69
468.927	81.69
469.146	86.69
469.365	97.69
469.585	98.69
469.804	92.69
470.023	97.69
470.243	87.69
470.462	114.69
470.681	117.69
470.901	92.69
471.12	100.69
471.339	83.69
471.558	73.69
471.777	82.69
471.997	96.69
472.216	183.69
472.435	311.69
472.654	135.69
472.873	93.69
473.092	83.69
473.311	91.69
473.53	82.69
473.749	85.69
473.968	108.69
474.187	101.69
474.406	86.69
474.625	85.69
474.844	92.69
475.063	89.69
475.282	80.69
475.501	72.69
475.72	77.69
475.939	88.69
476.158	89.69
476.377	91.69
476.596	101.69
476.814	84.69
477.033	91.69
477.252	71.69
477.471	89.69
477.69	94.69
477.908	107.69
478.127	91.69
478.346	92.69
478.564	74.69
478.783	95.69
479.002	94.69
479.22	104.69
479.439	105.69
479.658	80.69
479.876	85.69
480.095	89.69
480.313	104.69
480.532	98.69
480.751	96.69
480.969	168.69
481.188	508.69
481.406	338.69
481.624	96.69
481.843	95.69
482.061	89.69
482.28	81.69
482.498	88.69
482.717	90.69
482.935	89.69
483.153	86.69
483.372	83.69
483.59	89.69
483.808	78.69
484.027	93.69
484.245	89.69
484.463	84.69
484.681	90.69
484.9	77.69
485.118	97.69
485.336	90.69
485.554	108.69
485.772	101.69
485.99	89.69
486.209	88.69
486.427	98.69
486.645	99.69
486.863	116.69
487.081	98.69
487.299	101.69
487.517	74.69
487.735	99.69
487.953	95.69
488.171	88.69
488.389	85.69
488.607	102.69
488.825	91.69
489.043	87.69
489.261	87.69
489.479	100.69
489.696	82.69
489.914	75.69
490.132	99.69
490.35	88.69
490.568	84.69
490.786	79.69
491.003	84.69
491.221	88.69
491.439	85.69
491.657	87.69
491.874	72.69
492.092	110.69
492.31	84.69
492.527	94.69
492.745	97.69
492.963	96.69
493.18	88.69
493.398	95.69
493.615	78.69
493.833	94.69
494.05	82.69
494.268	81.69
494.485	81.69
494.703	84.69
494.92	82.69
495.138	94.69
495.355	93.69
495.573	81.69
495.79	97.69
496.008	91.69
496.225	89.69
496.442	96.69
496.66	87.69
496.877	93.69
497.094	88.69
497.312	103.69
497.529	81.69
497.746	88.69
497.963	70.69
498.181	97.69
498.398	96.69
498.615	108.69
498.832	103.69
499.049	101.69
499.267	91.69
499.484	90.69
499.701	77.69
499.918	83.69
500.135	97.69
500.352	75.69
500.569	91.69
500.786	94.69
501.003	91.69
501.22	81.69
501.437	92.69
501.654	87.69
501.871	116.69
502.088	101.69
502.305	80.69
502.522	75.69
502.739	100.69
502.956	92.69
503.172	87.69
503.389	95.69
503.606	88.69
503.823	90.69
504.04	113.69
504.256	91.69
504.473	83.69
504.69	99.69
504.907	100.69
505.123	71.69
505.34	81.69
505.557	85.69
505.773	84.69
505.99	85.69
506.207	94.69
506.423	84.69
506.64	86.69
506.856	73.69
507.073	90.69
507.289	98.69
507.506	98.69
507.722	99.69
507.939	125.69
508.155	99.69
508.372	88.69
508.588	91.69
508.805	98.69
509.021	84.69
509.238	86.69
509.454	89.69
509.67	94.69
509.887	101.69
510.103	126.69
510.319	180.69
510.536	730.69
510.752	2445.69
510.968	716.69
511.184	159.69
511.401	116.69
511.617	98.69
511.833	82.69
512.049	89.69
512.265	87.69
512.481	77.69
512.698	90.69
512.914	96.69
513.13	92.69
513.346	97.69
513.562	102.69
513.778	87.69
513.994	89.69
514.21	96.69
514.426	129.69
514.642	127.69
514.858	107.69
515.074	152.69
515.29	459.69
515.506	1574.69
515.721	598.69
515.937	154.69
516.153	100.69
516.369	92.69
