Data from Circ_2014_H10_HRD10591_00037.txt Node
Date: Wed Jan 03 10:02:16 EST 2024
User: Yrep
Spectrometer: HR+D1059
Trigger mode: 1
Integration Time (sec): 1.000000E-1
Scans to average: 1
Electric dark correction enabled: true
Nonlinearity correction enabled: false
Boxcar width: 0
XAxis mode: Wavelengths
Number of Pixels in Spectrum: 2048
>>>>>Begin Spectral Data<<<<<
223.165	-15.25
223.4	-15.25
223.635	-15.25
223.869	-23.25
224.104	-8.25
224.338	-14.25
224.573	-24.25
224.808	-14.25
225.042	-13.25
225.277	-4.25
225.511	-7.25
225.746	5.75
225.98	10.75
226.215	5.75
226.449	31.75
226.683	8.75
226.918	32.75
227.152	28.75
227.387	47.75
227.621	39.75
227.856	50.75
228.09	60.75
228.324	52.75
228.559	53.75
228.793	168.75
229.027	443.75
229.262	498.75
229.496	593.75
229.73	789.75
229.964	797.75
230.199	523.75
230.433	483.75
230.667	490.75
230.901	464.75
231.136	431.75
231.37	442.75
231.604	437.75
231.838	447.75
232.072	435.75
232.306	448.75
232.541	459.75
232.775	460.75
233.009	480.75
233.243	471.75
233.477	475.75
233.711	481.75
233.945	509.75
234.179	507.75
234.413	507.75
234.647	500.75
234.881	497.75
235.115	541.75
235.349	547.75
235.583	549.75
235.817	597.75
236.051	636.75
236.285	614.75
236.519	623.75
236.753	703.75
236.987	905.75
237.221	1356.75
237.455	1479.75
237.689	898.75
237.922	728.75
238.156	707.75
238.39	668.75
238.624	638.75
238.858	636.75
239.091	633.75
239.325	650.75
239.559	679.75
239.793	708.75
240.027	771.75
240.26	877.75
240.494	931.75
240.728	951.75
240.961	902.75
241.195	817.75
241.429	779.75
241.662	789.75
241.896	769.75
242.13	756.75
242.363	755.75
242.597	775.75
242.83	804.75
243.064	834.75
243.298	796.75
243.531	812.75
243.765	835.75
243.998	850.75
244.232	851.75
244.465	898.75
244.699	897.75
244.932	897.75
245.166	881.75
245.399	928.75
245.633	888.75
245.866	918.75
246.099	903.75
246.333	953.75
246.566	991.75
246.8	960.75
247.033	1013.75
247.266	1068.75
247.5	1094.75
247.733	1128.75
247.966	1146.75
248.2	1150.75
248.433	1157.75
248.666	1180.75
248.899	1327.75
249.133	1405.75
249.366	1445.75
249.599	1312.75
249.832	1233.75
250.066	1227.75
250.299	1311.75
250.532	1440.75
250.765	1586.75
250.998	1703.75
251.231	1663.75
251.465	1458.75
251.698	1430.75
251.931	1411.75
252.164	1395.75
252.397	1382.75
252.63	1431.75
252.863	1548.75
253.096	1683.75
253.329	1719.75
253.562	1612.75
253.795	1550.75
254.028	1567.75
254.261	1596.75
254.494	1796.75
254.727	2105.75
254.96	2146.75
255.193	1933.75
255.426	1757.75
255.659	1681.75
255.892	1766.75
256.124	1832.75
256.357	1753.75
256.59	1610.75
256.823	1587.75
257.056	1529.75
257.289	1544.75
257.521	1546.75
257.754	1479.75
257.987	1567.75
258.22	1510.75
258.452	1548.75
258.685	1525.75
258.918	1584.75
259.151	1606.75
259.383	1676.75
259.616	1672.75
259.849	1768.75
260.081	1935.75
260.314	2031.75
260.547	1989.75
260.779	1815.75
261.012	1759.75
261.244	1743.75
261.477	1690.75
261.71	1717.75
261.942	1768.75
262.175	1779.75
262.407	1681.75
262.64	1630.75
262.872	1639.75
263.105	1657.75
263.337	1686.75
263.57	1644.75
263.802	1698.75
264.035	1675.75
264.267	1673.75
264.499	1701.75
264.732	1691.75
264.964	1714.75
265.197	1684.75
265.429	1712.75
265.661	1738.75
265.894	1734.75
266.126	1744.75
266.358	1775.75
266.591	1794.75
266.823	1850.75
267.055	1884.75
267.287	1920.75
267.52	1872.75
267.752	1851.75
267.984	1876.75
268.216	1917.75
268.448	1929.75
268.681	2030.75
268.913	2133.75
269.145	2340.75
269.377	2353.75
269.609	2256.75
269.841	2246.75
270.073	2368.75
270.306	2655.75
270.538	2801.75
270.77	2627.75
271.002	2493.75
271.234	2429.75
271.466	2603.75
271.698	2747.75
271.93	2745.75
272.162	2713.75
272.394	2630.75
272.626	2497.75
272.858	2345.75
273.09	2276.75
273.322	2272.75
273.553	2196.75
273.785	2211.75
274.017	2243.75
274.249	2267.75
274.481	2303.75
274.713	2268.75
274.945	2311.75
275.176	2279.75
275.408	2241.75
275.64	2271.75
275.872	2259.75
276.104	2292.75
276.335	2291.75
276.567	2415.75
276.799	2550.75
277.031	2785.75
277.262	2881.75
277.494	2785.75
277.726	2576.75
277.957	2503.75
278.189	2467.75
278.421	2402.75
278.652	2329.75
278.884	2378.75
279.115	2387.75
279.347	2385.75
279.579	2435.75
279.81	2443.75
280.042	2379.75
280.273	2401.75
280.505	2399.75
280.736	2414.75
280.968	2415.75
281.199	2375.75
281.431	2445.75
281.662	2426.75
281.894	2515.75
282.125	2557.75
282.356	2664.75
282.588	2886.75
282.819	2713.75
283.051	2536.75
283.282	2536.75
283.513	2593.75
283.745	2643.75
283.976	2624.75
284.207	2652.75
284.439	2609.75
284.67	2623.75
284.901	2641.75
285.132	2609.75
285.364	2616.75
285.595	2653.75
285.826	2652.75
286.057	2641.75
286.288	2661.75
286.52	2719.75
286.751	2691.75
286.982	2712.75
287.213	2712.75
287.444	2742.75
287.675	2824.75
287.906	2894.75
288.138	2924.75
288.369	2921.75
288.6	2861.75
288.831	2888.75
289.062	2794.75
289.293	2850.75
289.524	2849.75
289.755	2778.75
289.986	2758.75
290.217	2826.75
290.448	2788.75
290.679	2858.75
290.91	2784.75
291.141	2814.75
291.371	2839.75
291.602	2831.75
291.833	2795.75
292.064	2850.75
292.295	2846.75
292.526	2836.75
292.757	2809.75
292.987	2804.75
293.218	2795.75
293.449	2867.75
293.68	2827.75
293.91	2842.75
294.141	2847.75
294.372	2828.75
294.603	2839.75
294.833	2911.75
295.064	2898.75
295.295	2909.75
295.525	2845.75
295.756	2931.75
295.987	3019.75
296.217	3212.75
296.448	3142.75
296.679	2955.75
296.909	2954.75
297.14	2953.75
297.37	3025.75
297.601	3091.75
297.831	2999.75
298.062	3030.75
298.292	3033.75
298.523	3083.75
298.753	3119.75
298.984	3083.75
299.214	3070.75
299.445	3078.75
299.675	3089.75
299.905	3183.75
300.136	3132.75
300.366	3144.75
300.597	3138.75
300.827	3333.75
301.057	3351.75
301.288	3427.75
301.518	3351.75
301.748	3372.75
301.979	3423.75
302.209	3408.75
302.439	3310.75
302.669	3321.75
302.9	3272.75
303.13	3253.75
303.36	3325.75
303.59	3355.75
303.82	3380.75
304.051	3345.75
304.281	3343.75
304.511	3294.75
304.741	3305.75
304.971	3286.75
305.201	3281.75
305.431	3316.75
305.661	3265.75
305.891	3242.75
306.121	3295.75
306.352	3305.75
306.582	3325.75
306.812	3238.75
307.042	3289.75
307.272	3313.75
307.502	3309.75
307.731	3334.75
307.961	3309.75
308.191	3321.75
308.421	3274.75
308.651	3284.75
308.881	3354.75
309.111	3387.75
309.341	3420.75
309.571	3497.75
309.8	3570.75
310.03	3552.75
310.26	3633.75
310.49	3620.75
310.72	3689.75
310.949	3787.75
311.179	3786.75
311.409	3645.75
311.639	3599.75
311.868	3674.75
312.098	3688.75
312.328	3779.75
312.557	3983.75
312.787	4012.75
313.017	3915.75
313.246	3784.75
313.476	3751.75
313.706	3789.75
313.935	3900.75
314.165	3896.75
314.394	3989.75
314.624	3926.75
314.853	3860.75
315.083	3793.75
315.312	3753.75
315.542	3781.75
315.771	3684.75
316.001	3702.75
316.23	3665.75
316.46	3741.75
316.689	3774.75
316.919	3799.75
317.148	3794.75
317.377	3761.75
317.607	3766.75
317.836	3711.75
318.065	3697.75
318.295	3700.75
318.524	3750.75
318.753	3641.75
318.983	3695.75
319.212	3672.75
319.441	3752.75
319.67	3768.75
319.9	3705.75
320.129	3715.75
320.358	3738.75
320.587	3725.75
320.816	3834.75
321.046	3908.75
321.275	3914.75
321.504	3848.75
321.733	3933.75
321.962	4024.75
322.191	4057.75
322.42	4159.75
322.649	4266.75
322.878	4307.75
323.108	4410.75
323.337	4647.75
323.566	4865.75
323.795	5139.75
324.024	5749.75
324.253	7679.75
324.482	11524.75
324.71	15514.75
324.939	15597.75
325.168	13446.75
325.397	6811.75
325.626	5393.75
325.855	4968.75
326.084	4872.75
326.313	4908.75
326.542	5059.75
326.77	5779.75
326.999	7373.75
327.228	10741.75
327.457	14678.75
327.686	13943.75
327.914	7739.75
328.143	6036.75
328.372	5656.75
328.6	5497.75
328.829	5461.75
329.058	5527.75
329.287	5548.75
329.515	5138.75
329.744	5003.75
329.972	5101.75
330.201	5405.75
330.43	5741.75
330.658	5793.75
330.887	5992.75
331.115	5512.75
331.344	5054.75
331.572	4969.75
331.801	5124.75
332.03	5139.75
332.258	5042.75
332.486	5003.75
332.715	5112.75
332.943	5312.75
333.172	5439.75
333.4	5501.75
333.629	5658.75
333.857	5813.75
334.085	5899.75
334.314	6010.75
334.542	6208.75
334.771	6105.75
334.999	5530.75
335.227	5377.75
335.455	5178.75
335.684	5129.75
335.912	5034.75
336.14	4925.75
336.369	4998.75
336.597	5054.75
336.825	5013.75
337.053	4841.75
337.281	4817.75
337.51	4727.75
337.738	4754.75
337.966	4692.75
338.194	4680.75
338.422	4695.75
338.65	4540.75
338.878	4619.75
339.106	4505.75
339.334	4469.75
339.562	4427.75
339.79	4393.75
340.018	4416.75
340.246	4456.75
340.474	4515.75
340.702	4429.75
340.93	4427.75
341.158	4412.75
341.386	4413.75
341.614	4441.75
341.842	4402.75
342.07	4362.75
342.298	4322.75
342.526	4333.75
342.754	4321.75
342.981	4316.75
343.209	4511.75
343.437	4641.75
343.665	4880.75
343.893	5117.75
344.12	5175.75
344.348	4884.75
344.576	4760.75
344.804	4791.75
345.031	4641.75
345.259	4633.75
345.487	4510.75
345.714	4383.75
345.942	4288.75
346.17	4268.75
346.397	4243.75
346.625	4251.75
346.853	4240.75
347.08	4197.75
347.308	4289.75
347.535	4300.75
347.763	4315.75
347.99	4305.75
348.218	4355.75
348.445	4369.75
348.673	4291.75
348.9	4170.75
349.128	4103.75
349.355	4077.75
349.583	4093.75
349.81	4070.75
350.037	4107.75
350.265	4080.75
350.492	4122.75
350.72	4040.75
350.947	4180.75
351.174	4259.75
351.402	4207.75
351.629	4201.75
351.856	4236.75
352.083	4313.75
352.311	4386.75
352.538	4310.75
352.765	4288.75
352.992	4181.75
353.22	4121.75
353.447	4123.75
353.674	4025.75
353.901	4012.75
354.128	4003.75
354.355	3906.75
354.583	3980.75
354.81	3970.75
355.037	3980.75
355.264	3924.75
355.491	3954.75
355.718	3960.75
355.945	3956.75
356.172	3990.75
356.399	3920.75
356.626	3992.75
356.853	4008.75
357.08	3907.75
357.307	3913.75
357.534	3943.75
357.761	4017.75
357.988	3985.75
358.215	3974.75
358.441	4077.75
358.668	4020.75
358.895	4048.75
359.122	4134.75
359.349	4191.75
359.576	4310.75
359.802	4464.75
360.029	4727.75
360.256	4680.75
360.483	4428.75
360.709	4263.75
360.936	4187.75
361.163	4244.75
361.39	4283.75
361.616	4232.75
361.843	4164.75
362.07	4209.75
362.296	4303.75
362.523	4212.75
362.749	4230.75
362.976	4156.75
363.203	4083.75
363.429	4073.75
363.656	4107.75
363.882	4041.75
364.109	4047.75
364.335	3975.75
364.562	4079.75
364.788	4116.75
365.015	4079.75
365.241	4050.75
365.468	4118.75
365.694	4181.75
365.92	4138.75
366.147	4021.75
366.373	4115.75
366.599	4103.75
366.826	4017.75
367.052	4009.75
367.278	4067.75
367.505	4054.75
367.731	4079.75
367.957	4075.75
368.184	4085.75
368.41	4196.75
368.636	4257.75
368.862	4315.75
369.089	4139.75
369.315	4172.75
369.541	4159.75
369.767	4195.75
369.993	4194.75
370.219	4162.75
370.445	4198.75
370.672	4240.75
370.898	4241.75
371.124	4239.75
371.35	4348.75
371.576	4336.75
371.802	4279.75
372.028	4236.75
372.254	4284.75
372.48	4282.75
372.706	4422.75
372.932	4388.75
373.158	4472.75
373.384	4363.75
373.61	4285.75
373.835	4401.75
374.061	4414.75
374.287	4502.75
374.513	4559.75
374.739	4668.75
374.965	4679.75
375.191	4737.75
375.416	4706.75
375.642	4533.75
375.868	4487.75
376.094	4431.75
376.319	4363.75
376.545	4342.75
376.771	4293.75
376.997	4303.75
377.222	4308.75
377.448	4304.75
377.674	4337.75
377.899	4281.75
378.125	4331.75
378.35	4214.75
378.576	4234.75
378.802	4241.75
379.027	4271.75
379.253	4284.75
379.478	4287.75
379.704	4319.75
379.929	4320.75
380.155	4355.75
380.38	4313.75
380.606	4348.75
380.831	4268.75
381.057	4367.75
381.282	4335.75
381.507	4326.75
381.733	4419.75
381.958	4491.75
382.184	4454.75
382.409	4573.75
382.634	4607.75
382.86	4564.75
383.085	4619.75
383.31	4711.75
383.535	4804.75
383.761	4751.75
383.986	4871.75
384.211	4935.75
384.436	5045.75
384.662	4995.75
384.887	5220.75
385.112	5144.75
385.337	5223.75
385.562	5194.75
385.787	5251.75
386.013	5325.75
386.238	5341.75
386.463	5306.75
386.688	5318.75
386.913	5162.75
387.138	5163.75
387.363	5164.75
387.588	5115.75
387.813	5178.75
388.038	5118.75
388.263	5115.75
388.488	5224.75
388.713	5120.75
388.938	5109.75
389.163	5110.75
389.387	5149.75
389.612	5048.75
389.837	5083.75
390.062	5076.75
390.287	5115.75
390.512	5049.75
390.736	5129.75
390.961	5233.75
391.186	5344.75
391.411	5446.75
391.636	5583.75
391.86	5802.75
392.085	5840.75
392.31	5669.75
392.534	5571.75
392.759	5456.75
392.984	5415.75
393.208	5328.75
393.433	5383.75
393.658	5373.75
393.882	5313.75
394.107	5431.75
394.331	5393.75
394.556	5443.75
394.78	5459.75
395.005	5495.75
395.229	5544.75
395.454	5675.75
395.678	5880.75
395.903	5743.75
396.127	5881.75
396.352	5672.75
396.576	5442.75
396.801	5432.75
397.025	5572.75
397.249	5642.75
397.474	5805.75
397.698	5831.75
397.922	5929.75
398.147	6072.75
398.371	6160.75
398.595	6282.75
398.82	6579.75
399.044	7174.75
399.268	7926.75
399.492	8994.75
399.717	9498.75
399.941	9336.75
400.165	8765.75
400.389	8111.75
400.613	7231.75
400.837	6924.75
401.062	6637.75
401.286	6609.75
401.51	6580.75
401.734	6475.75
401.958	6640.75
402.182	6711.75
402.406	6919.75
402.63	6918.75
402.854	6997.75
403.078	7073.75
403.302	7228.75
403.526	7398.75
403.75	7404.75
403.974	7480.75
404.198	7420.75
404.422	7515.75
404.645	7473.75
404.869	7425.75
405.093	7646.75
405.317	7875.75
405.541	7920.75
405.765	7418.75
405.988	7251.75
406.212	7445.75
406.436	7689.75
406.66	7704.75
406.883	7820.75
407.107	8306.75
407.331	8808.75
407.555	9357.75
407.778	9009.75
408.002	8269.75
408.226	7892.75
408.449	7765.75
408.673	7681.75
408.896	7790.75
409.12	7890.75
409.344	7491.75
409.567	7117.75
409.791	7121.75
410.014	7053.75
410.238	6920.75
410.461	7025.75
410.685	7109.75
410.908	7111.75
411.132	7308.75
411.355	7361.75
411.578	7029.75
411.802	6789.75
412.025	6832.75
412.249	7057.75
412.472	7066.75
412.695	7289.75
412.919	6877.75
413.142	6713.75
413.365	6503.75
413.589	6516.75
413.812	6395.75
414.035	6335.75
414.258	6395.75
414.482	6345.75
414.705	6497.75
414.928	6400.75
415.151	6427.75
415.374	6380.75
415.597	6411.75
415.821	6295.75
416.044	6275.75
416.267	6277.75
416.49	6217.75
416.713	6189.75
416.936	6249.75
417.159	6219.75
417.382	6408.75
417.605	6395.75
417.828	6520.75
418.051	6647.75
418.274	6581.75
418.497	6452.75
418.72	6535.75
418.943	6417.75
419.166	6886.75
419.389	7264.75
419.611	7218.75
419.834	6926.75
420.057	6936.75
420.28	6731.75
420.503	6599.75
420.726	6585.75
420.948	6756.75
421.171	7043.75
421.394	7003.75
421.617	6549.75
421.839	6608.75
422.062	6639.75
422.285	6897.75
422.507	7484.75
422.73	7892.75
422.953	7385.75
423.175	6972.75
423.398	6963.75
423.621	7051.75
423.843	7283.75
424.066	7182.75
424.288	7108.75
424.511	7349.75
424.733	7777.75
424.956	8201.75
425.178	7775.75
425.401	7855.75
425.623	7798.75
425.846	6859.75
426.068	6592.75
426.291	6541.75
426.513	6636.75
426.735	6726.75
426.958	7108.75
427.18	7873.75
427.402	9061.75
427.625	9140.75
427.847	7812.75
428.069	6979.75
428.292	6585.75
428.514	6153.75
428.736	6012.75
428.958	6007.75
429.181	5870.75
429.403	5748.75
429.625	5943.75
429.847	6370.75
430.069	6866.75
430.292	6390.75
430.514	5844.75
430.736	5877.75
430.958	5796.75
431.18	5645.75
431.402	5685.75
431.624	5630.75
431.846	5761.75
432.068	5708.75
432.29	5867.75
432.512	5759.75
432.734	5860.75
432.956	5735.75
433.178	5836.75
433.4	5879.75
433.622	5786.75
433.844	5789.75
434.066	5788.75
434.287	5860.75
434.509	6154.75
434.731	6368.75
434.953	6542.75
435.175	6612.75
435.397	6757.75
435.618	6667.75
435.84	6989.75
436.062	7831.75
436.284	7696.75
436.505	6556.75
436.727	6217.75
436.949	5984.75
437.17	5803.75
437.392	5887.75
437.614	6002.75
437.835	6396.75
438.057	7321.75
438.278	8094.75
438.5	7911.75
438.721	8676.75
438.943	7609.75
439.165	6420.75
439.386	6244.75
439.608	6336.75
439.829	6404.75
440.05	6672.75
440.272	7155.75
440.493	6459.75
440.715	6193.75
440.936	6065.75
441.158	6202.75
441.379	6337.75
441.6	6659.75
441.822	6920.75
442.043	7328.75
442.264	8070.75
442.486	7663.75
442.707	6943.75
442.928	6735.75
443.149	6984.75
443.371	7219.75
443.592	7737.75
443.813	8711.75
444.034	8629.75
444.255	7551.75
444.476	7325.75
444.698	7514.75
444.919	7611.75
445.14	7509.75
445.361	7337.75
445.582	7383.75
445.803	8035.75
446.024	8657.75
446.245	8215.75
446.466	7420.75
446.687	6499.75
446.908	6152.75
447.129	5823.75
447.35	5738.75
447.571	5644.75
447.792	5588.75
448.013	5697.75
448.234	5931.75
448.455	6620.75
448.675	7739.75
448.896	8145.75
449.117	6786.75
449.338	7013.75
449.559	8205.75
449.779	8456.75
450	6468.75
450.221	5790.75
450.442	5518.75
450.662	5501.75
450.883	5608.75
451.104	5740.75
451.324	5551.75
451.545	5382.75
451.766	5318.75
451.986	5167.75
452.207	5137.75
452.428	5105.75
452.648	5148.75
452.869	5207.75
453.089	5186.75
453.31	5330.75
453.53	5177.75
453.751	5088.75
453.971	5167.75
454.192	5220.75
454.412	5035.75
454.633	4970.75
454.853	4884.75
455.073	5028.75
455.294	5369.75
455.514	5835.75
455.734	5355.75
455.955	4820.75
456.175	4715.75
456.395	4632.75
456.616	4699.75
456.836	4638.75
457.056	4690.75
457.276	4586.75
457.497	4747.75
457.717	4725.75
457.937	4833.75
458.157	4839.75
458.377	4987.75
458.598	5296.75
458.818	6068.75
459.038	6928.75
459.258	6672.75
459.478	6007.75
459.698	5883.75
459.918	5946.75
460.138	6100.75
460.358	6291.75
460.578	6275.75
460.798	6419.75
461.018	6393.75
461.238	6229.75
461.458	6276.75
461.678	6222.75
461.898	6303.75
462.118	6452.75
462.338	6751.75
462.558	6899.75
462.777	7132.75
462.997	7693.75
463.217	8099.75
463.437	7978.75
463.657	7360.75
463.876	7185.75
464.096	7286.75
464.316	7249.75
464.536	7266.75
464.755	7021.75
464.975	6987.75
465.195	7166.75
465.414	7250.75
465.634	6365.75
465.854	5883.75
466.073	5699.75
466.293	5481.75
466.512	5382.75
466.732	5307.75
466.951	5224.75
467.171	5226.75
467.391	5343.75
467.61	5435.75
467.829	5385.75
468.049	5315.75
468.268	5201.75
468.488	5073.75
468.707	5004.75
468.927	5082.75
469.146	4980.75
469.365	5169.75
469.585	5094.75
469.804	5352.75
470.023	5482.75
470.243	5465.75
470.462	5580.75
470.681	5733.75
470.901	5619.75
471.12	5414.75
471.339	5387.75
471.558	5331.75
471.777	5247.75
471.997	5136.75
472.216	5271.75
472.435	5504.75
472.654	5284.75
472.873	5021.75
473.092	5043.75
473.311	5043.75
473.53	5088.75
473.749	5156.75
473.968	5701.75
474.187	6709.75
474.406	6251.75
474.625	5314.75
474.844	5117.75
475.063	5013.75
475.282	5035.75
475.501	5146.75
475.72	5235.75
475.939	5174.75
476.158	5235.75
476.377	5204.75
476.596	5206.75
476.814	5308.75
477.033	5386.75
477.252	5505.75
477.471	5557.75
477.69	5734.75
477.908	5812.75
478.127	5909.75
478.346	6008.75
478.564	6142.75
478.783	6211.75
479.002	6245.75
479.22	6383.75
479.439	6421.75
479.658	6512.75
479.876	6681.75
480.095	6852.75
480.313	7311.75
480.532	7085.75
480.751	6987.75
480.969	6987.75
481.188	7424.75
481.406	7168.75
481.624	6599.75
481.843	6282.75
482.061	6162.75
482.28	6015.75
482.498	5975.75
482.717	5920.75
482.935	5883.75
483.153	5969.75
483.372	5916.75
483.59	5950.75
483.808	5816.75
484.027	5896.75
484.245	6010.75
484.463	6020.75
484.681	6080.75
484.9	6167.75
485.118	6127.75
485.336	6195.75
485.554	6234.75
485.772	6249.75
485.99	6280.75
486.209	6314.75
486.427	6395.75
486.645	6408.75
486.863	6515.75
487.081	6500.75
487.299	6459.75
487.517	6391.75
487.735	6336.75
487.953	6303.75
