Data from Circ_2014_H10_HRD10591_00027.txt Node
Date: Wed Jan 03 10:02:14 EST 2024
User: Yrep
Spectrometer: HR+D1059
Trigger mode: 1
Integration Time (sec): 1.000000E-1
Scans to average: 1
Electric dark correction enabled: true
Nonlinearity correction enabled: false
Boxcar width: 0
XAxis mode: Wavelengths
Number of Pixels in Spectrum: 2048
>>>>>Begin Spectral Data<<<<<
223.165	-11.44
223.4	-11.44
223.635	-11.44
223.869	-14.44
224.104	-31.44
224.338	-3.44
224.573	-16.44
224.808	-23.44
225.042	3.56
225.277	-8.44
225.511	-7.44
225.746	8.56
225.98	13.56
226.215	8.56
226.449	19.56
226.683	13.56
226.918	15.56
227.152	33.56
227.387	31.56
227.621	37.56
227.856	45.56
228.09	31.56
228.324	61.56
228.559	63.56
228.793	57.56
229.027	81.56
229.262	58.56
229.496	68.56
229.73	88.56
229.964	79.56
230.199	83.56
230.433	89.56
230.667	80.56
230.901	78.56
231.136	81.56
231.37	90.56
231.604	77.56
231.838	70.56
232.072	97.56
232.306	76.56
232.541	81.56
232.775	78.56
233.009	85.56
233.243	75.56
233.477	82.56
233.711	90.56
233.945	82.56
234.179	75.56
234.413	81.56
234.647	83.56
234.881	76.56
235.115	71.56
235.349	76.56
235.583	79.56
235.817	86.56
236.051	83.56
236.285	68.56
236.519	84.56
236.753	89.56
236.987	90.56
237.221	78.56
237.455	91.56
237.689	74.56
237.922	63.56
238.156	74.56
238.39	84.56
238.624	83.56
238.858	80.56
239.091	77.56
239.325	88.56
239.559	69.56
239.793	78.56
240.027	80.56
240.26	82.56
240.494	80.56
240.728	72.56
240.961	75.56
241.195	75.56
241.429	85.56
241.662	81.56
241.896	77.56
242.13	74.56
242.363	84.56
242.597	67.56
242.83	86.56
243.064	84.56
243.298	79.56
243.531	91.56
243.765	82.56
243.998	70.56
244.232	88.56
244.465	86.56
244.699	82.56
244.932	75.56
245.166	73.56
245.399	89.56
245.633	76.56
245.866	84.56
246.099	91.56
246.333	81.56
246.566	73.56
246.8	85.56
247.033	82.56
247.266	73.56
247.5	79.56
247.733	74.56
247.966	65.56
248.2	74.56
248.433	82.56
248.666	91.56
248.899	81.56
249.133	85.56
249.366	97.56
249.599	105.56
249.832	88.56
250.066	88.56
250.299	70.56
250.532	72.56
250.765	73.56
250.998	87.56
251.231	85.56
251.465	60.56
251.698	93.56
251.931	81.56
252.164	83.56
252.397	78.56
252.63	75.56
252.863	79.56
253.096	76.56
253.329	93.56
253.562	77.56
253.795	91.56
254.028	89.56
254.261	80.56
254.494	92.56
254.727	89.56
254.96	75.56
255.193	75.56
255.426	63.56
255.659	78.56
255.892	76.56
256.124	80.56
256.357	89.56
256.59	62.56
256.823	89.56
257.056	93.56
257.289	89.56
257.521	84.56
257.754	77.56
257.987	76.56
258.22	85.56
258.452	75.56
258.685	85.56
258.918	87.56
259.151	87.56
259.383	80.56
259.616	74.56
259.849	91.56
260.081	82.56
260.314	70.56
260.547	86.56
260.779	89.56
261.012	73.56
261.244	85.56
261.477	93.56
261.71	93.56
261.942	121.56
262.175	119.56
262.407	106.56
262.64	80.56
262.872	88.56
263.105	80.56
263.337	91.56
263.57	66.56
263.802	84.56
264.035	80.56
264.267	75.56
264.499	73.56
264.732	77.56
264.964	79.56
265.197	93.56
265.429	95.56
265.661	78.56
265.894	82.56
266.126	94.56
266.358	88.56
266.591	85.56
266.823	82.56
267.055	67.56
267.287	86.56
267.52	79.56
267.752	86.56
267.984	85.56
268.216	70.56
268.448	76.56
268.681	71.56
268.913	74.56
269.145	83.56
269.377	80.56
269.609	84.56
269.841	78.56
270.073	77.56
270.306	88.56
270.538	77.56
270.77	76.56
271.002	98.56
271.234	96.56
271.466	90.56
271.698	86.56
271.93	82.56
272.162	80.56
272.394	90.56
272.626	84.56
272.858	89.56
273.09	88.56
273.322	79.56
273.553	84.56
273.785	90.56
274.017	77.56
274.249	86.56
274.481	79.56
274.713	77.56
274.945	79.56
275.176	87.56
275.408	91.56
275.64	89.56
275.872	88.56
276.104	93.56
276.335	85.56
276.567	104.56
276.799	111.56
277.031	104.56
277.262	98.56
277.494	84.56
277.726	82.56
277.957	77.56
278.189	83.56
278.421	71.56
278.652	103.56
278.884	86.56
279.115	83.56
279.347	89.56
279.579	83.56
279.81	87.56
280.042	62.56
280.273	74.56
280.505	79.56
280.736	99.56
280.968	81.56
281.199	78.56
281.431	89.56
281.662	98.56
281.894	98.56
282.125	92.56
282.356	126.56
282.588	143.56
282.819	119.56
283.051	87.56
283.282	99.56
283.513	84.56
283.745	84.56
283.976	86.56
284.207	98.56
284.439	93.56
284.67	89.56
284.901	83.56
285.132	86.56
285.364	80.56
285.595	84.56
285.826	79.56
286.057	85.56
286.288	89.56
286.52	83.56
286.751	92.56
286.982	71.56
287.213	85.56
287.444	74.56
287.675	83.56
287.906	89.56
288.138	89.56
288.369	99.56
288.6	93.56
288.831	81.56
289.062	80.56
289.293	103.56
289.524	93.56
289.755	75.56
289.986	90.56
290.217	92.56
290.448	83.56
290.679	91.56
290.91	93.56
291.141	92.56
291.371	89.56
291.602	93.56
291.833	90.56
292.064	84.56
292.295	78.56
292.526	92.56
292.757	93.56
292.987	95.56
293.218	83.56
293.449	83.56
293.68	97.56
293.91	83.56
294.141	95.56
294.372	86.56
294.603	79.56
294.833	94.56
295.064	93.56
295.295	76.56
295.525	87.56
295.756	93.56
295.987	119.56
296.217	147.56
296.448	121.56
296.679	94.56
296.909	85.56
297.14	98.56
297.37	88.56
297.601	82.56
297.831	93.56
298.062	95.56
298.292	79.56
298.523	100.56
298.753	87.56
298.984	74.56
299.214	85.56
299.445	102.56
299.675	101.56
299.905	92.56
300.136	86.56
300.366	92.56
300.597	79.56
300.827	80.56
301.057	89.56
301.288	105.56
301.518	92.56
301.748	99.56
301.979	103.56
302.209	77.56
302.439	85.56
302.669	92.56
302.9	90.56
303.13	92.56
303.36	87.56
303.59	101.56
303.82	93.56
304.051	98.56
304.281	94.56
304.511	92.56
304.741	93.56
304.971	91.56
305.201	84.56
305.431	103.56
305.661	86.56
305.891	94.56
306.121	84.56
306.352	95.56
306.582	108.56
306.812	98.56
307.042	90.56
307.272	96.56
307.502	94.56
307.731	87.56
307.961	95.56
308.191	89.56
308.421	87.56
308.651	98.56
308.881	100.56
309.111	87.56
309.341	92.56
309.571	95.56
309.8	86.56
310.03	102.56
310.26	104.56
310.49	99.56
310.72	95.56
310.949	101.56
311.179	99.56
311.409	86.56
311.639	107.56
311.868	104.56
312.098	95.56
312.328	103.56
312.557	94.56
312.787	117.56
313.017	95.56
313.246	81.56
313.476	87.56
313.706	105.56
313.935	81.56
314.165	89.56
314.394	98.56
314.624	90.56
314.853	97.56
315.083	82.56
315.312	98.56
315.542	94.56
315.771	98.56
316.001	91.56
316.23	90.56
316.46	93.56
316.689	91.56
316.919	88.56
317.148	99.56
317.377	99.56
317.607	95.56
317.836	90.56
318.065	78.56
318.295	90.56
318.524	89.56
318.753	95.56
318.983	97.56
319.212	103.56
319.441	99.56
319.67	115.56
319.9	89.56
320.129	87.56
320.358	88.56
320.587	100.56
320.816	105.56
321.046	93.56
321.275	101.56
321.504	102.56
321.733	89.56
321.962	88.56
322.191	90.56
322.42	97.56
322.649	94.56
322.878	123.56
323.108	124.56
323.337	123.56
323.566	147.56
323.795	171.56
324.024	222.56
324.253	434.56
324.482	948.56
324.71	1887.56
324.939	2536.56
325.168	932.56
325.397	257.56
325.626	158.56
325.855	124.56
326.084	138.56
326.313	134.56
326.542	172.56
326.77	241.56
326.999	516.56
327.228	1043.56
327.457	1911.56
327.686	1503.56
327.914	413.56
328.143	204.56
328.372	168.56
328.6	144.56
328.829	113.56
329.058	132.56
329.287	133.56
329.515	104.56
329.744	116.56
329.972	103.56
330.201	104.56
330.43	122.56
330.658	142.56
330.887	153.56
331.115	126.56
331.344	108.56
331.572	100.56
331.801	95.56
332.03	101.56
332.258	99.56
332.486	97.56
332.715	87.56
332.943	78.56
333.172	79.56
333.4	100.56
333.629	114.56
333.857	102.56
334.085	105.56
334.314	107.56
334.542	99.56
334.771	105.56
334.999	102.56
335.227	100.56
335.455	106.56
335.684	90.56
335.912	102.56
336.14	100.56
336.369	92.56
336.597	116.56
336.825	103.56
337.053	94.56
337.281	86.56
337.51	95.56
337.738	98.56
337.966	75.56
338.194	100.56
338.422	104.56
338.65	87.56
338.878	92.56
339.106	88.56
339.334	88.56
339.562	85.56
339.79	87.56
340.018	86.56
340.246	99.56
340.474	96.56
340.702	90.56
340.93	99.56
341.158	94.56
341.386	89.56
341.614	87.56
341.842	76.56
342.07	91.56
342.298	92.56
342.526	89.56
342.754	84.56
342.981	95.56
343.209	97.56
343.437	89.56
343.665	83.56
343.893	100.56
344.12	94.56
344.348	80.56
344.576	94.56
344.804	99.56
345.031	90.56
345.259	102.56
345.487	97.56
345.714	99.56
345.942	90.56
346.17	98.56
346.397	101.56
346.625	93.56
346.853	87.56
347.08	90.56
347.308	122.56
347.535	106.56
347.763	98.56
347.99	89.56
348.218	95.56
348.445	90.56
348.673	101.56
348.9	82.56
349.128	93.56
349.355	88.56
349.583	80.56
349.81	95.56
350.037	108.56
350.265	86.56
350.492	93.56
350.72	108.56
350.947	103.56
351.174	99.56
351.402	119.56
351.629	113.56
351.856	102.56
352.083	96.56
352.311	104.56
352.538	108.56
352.765	114.56
352.992	102.56
353.22	106.56
353.447	87.56
353.674	106.56
353.901	116.56
354.128	87.56
354.355	97.56
354.583	89.56
354.81	99.56
355.037	102.56
355.264	95.56
355.491	77.56
355.718	101.56
355.945	95.56
356.172	102.56
356.399	90.56
356.626	93.56
356.853	93.56
357.08	87.56
357.307	104.56
357.534	94.56
357.761	84.56
357.988	93.56
358.215	81.56
358.441	100.56
358.668	93.56
358.895	94.56
359.122	91.56
359.349	108.56
359.576	92.56
359.802	114.56
360.029	117.56
360.256	109.56
360.483	101.56
360.709	87.56
360.936	93.56
361.163	99.56
361.39	94.56
361.616	102.56
361.843	94.56
362.07	93.56
362.296	84.56
362.523	89.56
362.749	105.56
362.976	111.56
363.203	91.56
363.429	100.56
363.656	91.56
363.882	81.56
364.109	89.56
364.335	82.56
364.562	101.56
364.788	91.56
365.015	81.56
365.241	104.56
365.468	97.56
365.694	105.56
365.92	98.56
366.147	79.56
366.373	88.56
366.599	95.56
366.826	85.56
367.052	96.56
367.278	95.56
367.505	90.56
367.731	82.56
367.957	89.56
368.184	87.56
368.41	96.56
368.636	110.56
368.862	138.56
369.089	123.56
369.315	95.56
369.541	90.56
369.767	84.56
369.993	99.56
370.219	85.56
370.445	87.56
370.672	90.56
370.898	89.56
371.124	96.56
371.35	90.56
371.576	86.56
371.802	88.56
372.028	86.56
372.254	84.56
372.48	90.56
372.706	103.56
372.932	86.56
373.158	82.56
373.384	90.56
373.61	89.56
373.835	87.56
374.061	94.56
374.287	103.56
374.513	82.56
374.739	101.56
374.965	75.56
375.191	90.56
375.416	85.56
375.642	78.56
375.868	106.56
376.094	69.56
376.319	92.56
376.545	101.56
376.771	105.56
376.997	77.56
377.222	93.56
377.448	94.56
377.674	87.56
377.899	102.56
378.125	79.56
378.35	97.56
378.576	83.56
378.802	102.56
379.027	104.56
379.253	94.56
379.478	87.56
379.704	88.56
379.929	78.56
380.155	115.56
380.38	108.56
380.606	82.56
380.831	105.56
381.057	109.56
381.282	86.56
381.507	93.56
381.733	99.56
381.958	101.56
382.184	99.56
382.409	106.56
382.634	104.56
382.86	99.56
383.085	96.56
383.31	83.56
383.535	90.56
383.761	94.56
383.986	110.56
384.211	101.56
384.436	101.56
384.662	93.56
384.887	106.56
385.112	119.56
385.337	94.56
385.562	99.56
385.787	110.56
386.013	108.56
386.238	127.56
386.463	108.56
386.688	118.56
386.913	108.56
387.138	105.56
387.363	123.56
387.588	101.56
387.813	105.56
388.038	100.56
388.263	112.56
388.488	107.56
388.713	106.56
388.938	90.56
389.163	96.56
389.387	86.56
389.612	85.56
389.837	89.56
390.062	90.56
390.287	82.56
390.512	90.56
390.736	81.56
390.961	86.56
391.186	96.56
391.411	88.56
391.636	99.56
391.86	90.56
392.085	91.56
392.31	101.56
392.534	84.56
392.759	83.56
392.984	63.56
393.208	83.56
393.433	101.56
393.658	93.56
393.882	74.56
394.107	84.56
394.331	75.56
394.556	83.56
394.78	87.56
395.005	74.56
395.229	87.56
395.454	98.56
395.678	87.56
395.903	90.56
396.127	82.56
396.352	101.56
396.576	79.56
396.801	79.56
397.025	85.56
397.249	92.56
397.474	88.56
397.698	95.56
397.922	81.56
398.147	94.56
398.371	78.56
398.595	77.56
398.82	75.56
399.044	84.56
399.268	80.56
399.492	89.56
399.717	80.56
399.941	81.56
400.165	88.56
400.389	77.56
400.613	89.56
400.837	92.56
401.062	98.56
401.286	101.56
401.51	86.56
401.734	87.56
401.958	102.56
402.182	137.56
402.406	171.56
402.63	123.56
402.854	94.56
403.078	98.56
403.302	81.56
403.526	88.56
403.75	94.56
403.974	81.56
404.198	82.56
404.422	98.56
404.645	86.56
404.869	90.56
405.093	105.56
405.317	106.56
405.541	104.56
405.765	92.56
405.988	118.56
406.212	179.56
406.436	278.56
406.66	168.56
406.883	101.56
407.107	81.56
407.331	85.56
407.555	102.56
407.778	106.56
408.002	80.56
408.226	88.56
408.449	94.56
408.673	91.56
408.896	100.56
409.12	85.56
409.344	89.56
409.567	87.56
409.791	96.56
410.014	93.56
410.238	75.56
410.461	89.56
410.685	98.56
410.908	106.56
411.132	88.56
411.355	100.56
411.578	101.56
411.802	82.56
412.025	96.56
412.249	95.56
412.472	79.56
412.695	77.56
412.919	96.56
413.142	90.56
413.365	89.56
413.589	89.56
413.812	85.56
414.035	87.56
414.258	87.56
414.482	95.56
414.705	83.56
414.928	59.56
415.151	93.56
415.374	87.56
415.597	102.56
415.821	101.56
416.044	95.56
416.267	88.56
416.49	91.56
416.713	94.56
416.936	89.56
417.159	80.56
417.382	82.56
417.605	93.56
417.828	81.56
418.051	98.56
418.274	88.56
418.497	84.56
418.72	73.56
418.943	85.56
419.166	88.56
419.389	89.56
419.611	97.56
419.834	94.56
420.057	94.56
420.28	92.56
420.503	104.56
420.726	85.56
420.948	87.56
421.171	100.56
421.394	95.56
421.617	94.56
421.839	100.56
422.062	84.56
422.285	80.56
422.507	90.56
422.73	104.56
422.953	94.56
423.175	84.56
423.398	92.56
423.621	82.56
423.843	88.56
424.066	86.56
424.288	85.56
424.511	100.56
424.733	96.56
424.956	100.56
425.178	104.56
425.401	100.56
425.623	99.56
425.846	78.56
426.068	99.56
426.291	99.56
426.513	86.56
426.735	97.56
426.958	90.56
427.18	112.56
427.402	129.56
427.625	179.56
427.847	135.56
428.069	115.56
428.292	93.56
428.514	89.56
428.736	82.56
428.958	91.56
429.181	86.56
429.403	76.56
429.625	96.56
429.847	77.56
430.069	95.56
430.292	104.56
430.514	81.56
430.736	93.56
430.958	90.56
431.18	77.56
431.402	72.56
431.624	101.56
431.846	88.56
432.068	96.56
432.29	89.56
432.512	89.56
432.734	89.56
432.956	89.56
433.178	108.56
433.4	96.56
433.622	87.56
433.844	89.56
434.066	89.56
434.287	82.56
434.509	92.56
434.731	93.56
434.953	79.56
435.175	89.56
435.397	87.56
435.618	91.56
435.84	93.56
436.062	128.56
436.284	119.56
436.505	112.56
436.727	113.56
436.949	90.56
437.17	96.56
437.392	90.56
437.614	89.56
437.835	117.56
438.057	115.56
438.278	102.56
438.5	110.56
438.721	122.56
438.943	99.56
439.165	90.56
439.386	93.56
439.608	85.56
439.829	105.56
440.05	135.56
440.272	151.56
440.493	108.56
440.715	89.56
440.936	86.56
441.158	79.56
441.379	84.56
441.6	86.56
441.822	97.56
442.043	88.56
442.264	101.56
442.486	92.56
442.707	108.56
442.928	98.56
443.149	139.56
443.371	125.56
443.592	106.56
443.813	105.56
444.034	115.56
444.255	88.56
444.476	97.56
444.698	99.56
444.919	91.56
445.14	121.56
445.361	127.56
445.582	121.56
445.803	151.56
446.024	130.56
446.245	131.56
446.466	104.56
446.687	105.56
446.908	91.56
447.129	92.56
447.35	88.56
447.571	88.56
447.792	87.56
448.013	121.56
448.234	127.56
448.455	100.56
448.675	99.56
448.896	113.56
449.117	99.56
449.338	110.56
449.559	136.56
449.779	133.56
450	95.56
450.221	68.56
450.442	67.56
450.662	97.56
450.883	98.56
451.104	116.56
451.324	118.56
451.545	98.56
451.766	83.56
451.986	90.56
452.207	96.56
452.428	102.56
452.648	99.56
452.869	120.56
453.089	117.56
453.31	127.56
453.53	100.56
453.751	99.56
453.971	106.56
454.192	121.56
454.412	101.56
454.633	81.56
454.853	92.56
455.073	84.56
455.294	100.56
455.514	93.56
455.734	76.56
455.955	82.56
456.175	75.56
456.395	97.56
456.616	86.56
456.836	90.56
457.056	86.56
457.276	91.56
457.497	94.56
457.717	82.56
457.937	85.56
458.157	87.56
458.377	101.56
458.598	104.56
458.818	157.56
459.038	174.56
459.258	101.56
459.478	75.56
459.698	86.56
459.918	83.56
460.138	84.56
460.358	77.56
460.578	103.56
460.798	107.56
461.018	91.56
461.238	83.56
461.458	87.56
461.678	79.56
461.898	97.56
462.118	79.56
462.338	88.56
462.558	94.56
462.777	98.56
462.997	88.56
463.217	86.56
463.437	76.56
463.657	86.56
463.876	96.56
464.096	86.56
464.316	89.56
464.536	90.56
464.755	108.56
464.975	106.56
465.195	174.56
465.414	177.56
465.634	91.56
465.854	86.56
466.073	92.56
466.293	76.56
466.512	83.56
466.732	82.56
466.951	80.56
467.171	100.56
467.391	102.56
467.61	119.56
467.829	112.56
468.049	98.56
468.268	88.56
468.488	89.56
468.707	99.56
468.927	87.56
469.146	78.56
469.365	91.56
469.585	74.56
469.804	95.56
470.023	102.56
470.243	107.56
470.462	104.56
470.681	110.56
470.901	93.56
471.12	88.56
471.339	81.56
471.558	94.56
471.777	85.56
471.997	90.56
472.216	95.56
472.435	121.56
472.654	93.56
472.873	102.56
473.092	100.56
473.311	90.56
473.53	77.56
473.749	93.56
473.968	99.56
474.187	103.56
474.406	107.56
474.625	84.56
474.844	91.56
475.063	90.56
475.282	86.56
475.501	77.56
475.72	94.56
475.939	89.56
476.158	76.56
476.377	86.56
476.596	88.56
476.814	92.56
477.033	102.56
477.252	83.56
477.471	94.56
477.69	92.56
477.908	86.56
478.127	90.56
478.346	95.56
478.564	91.56
478.783	98.56
479.002	88.56
479.22	100.56
479.439	108.56
479.658	98.56
479.876	99.56
480.095	90.56
480.313	98.56
480.532	92.56
480.751	93.56
480.969	104.56
481.188	154.56
481.406	133.56
481.624	73.56
481.843	87.56
482.061	84.56
482.28	86.56
482.498	89.56
482.717	94.56
482.935	78.56
483.153	92.56
483.372	93.56
483.59	67.56
483.808	84.56
484.027	78.56
484.245	89.56
484.463	86.56
484.681	96.56
484.9	95.56
485.118	93.56
485.336	81.56
485.554	86.56
485.772	93.56
485.99	97.56
486.209	92.56
486.427	110.56
486.645	106.56
486.863	129.56
487.081	95.56
487.299	93.56
487.517	99.56
487.735	78.56
487.953	83.56
488.171	93.56
488.389	93.56
488.607	100.56
488.825	102.56
489.043	84.56
489.261	78.56
489.479	101.56
489.696	96.56
489.914	91.56
490.132	94.56
490.35	81.56
490.568	89.56
490.786	81.56
491.003	74.56
491.221	87.56
491.439	93.56
491.657	87.56
491.874	79.56
492.092	83.56
492.31	92.56
492.527	84.56
492.745	78.56
492.963	80.56
493.18	79.56
493.398	94.56
493.615	92.56
493.833	93.56
494.05	95.56
494.268	84.56
494.485	88.56
494.703	105.56
494.92	98.56
495.138	89.56
495.355	87.56
495.573	92.56
495.79	105.56
496.008	85.56
496.225	89.56
496.442	89.56
496.66	82.56
496.877	94.56
497.094	84.56
497.312	101.56
497.529	90.56
497.746	83.56
497.963	86.56
498.181	87.56
498.398	89.56
498.615	121.56
498.832	108.56
499.049	74.56
499.267	71.56
499.484	80.56
499.701	84.56
499.918	84.56
500.135	68.56
500.352	93.56
500.569	91.56
500.786	74.56
501.003	98.56
501.22	89.56
501.437	95.56
501.654	94.56
501.871	118.56
502.088	99.56
502.305	94.56
502.522	102.56
502.739	90.56
502.956	93.56
503.172	89.56
503.389	98.56
503.606	105.56
503.823	87.56
504.04	106.56
504.256	89.56
504.473	93.56
504.69	86.56
504.907	89.56
505.123	90.56
505.34	85.56
505.557	82.56
505.773	88.56
505.99	91.56
506.207	97.56
506.423	85.56
506.64	89.56
506.856	79.56
507.073	85.56
507.289	92.56
507.506	98.56
507.722	110.56
507.939	113.56
508.155	112.56
508.372	101.56
508.588	83.56
508.805	97.56
509.021	105.56
509.238	111.56
509.454	99.56
509.67	104.56
509.887	131.56
510.103	115.56
510.319	211.56
510.536	821.56
510.752	2821.56
510.968	796.56
511.184	187.56
511.401	121.56
511.617	96.56
511.833	89.56
512.049	86.56
512.265	88.56
512.481	93.56
512.698	86.56
512.914	97.56
513.13	86.56
513.346	91.56
513.562	90.56
513.778	104.56
513.994	89.56
514.21	102.56
514.426	118.56
514.642	149.56
514.858	125.56
515.074	170.56
515.29	530.56
515.506	1925.56
