Data from Circ_2014_H10_HRD10591_00022.txt Node
Date: Wed Jan 03 10:02:13 EST 2024
User: Yrep
Spectrometer: HR+D1059
Trigger mode: 1
Integration Time (sec): 1.000000E-1
Scans to average: 1
Electric dark correction enabled: true
Nonlinearity correction enabled: false
Boxcar width: 0
XAxis mode: Wavelengths
Number of Pixels in Spectrum: 2048
>>>>>Begin Spectral Data<<<<<
223.165	-14.69
223.4	-14.69
223.635	-14.69
223.869	-20.69
224.104	-9.69
224.338	-12.69
224.573	-28.69
224.808	-2.69
225.042	-6.69
225.277	2.31
225.511	-8.69
225.746	-0.69
225.98	6.31
226.215	7.31
226.449	12.31
226.683	27.31
226.918	29.31
227.152	20.31
227.387	44.31
227.621	35.31
227.856	47.31
228.09	29.31
228.324	61.31
228.559	58.31
228.793	61.31
229.027	63.31
229.262	76.31
229.496	78.31
229.73	89.31
229.964	92.31
230.199	80.31
230.433	65.31
230.667	80.31
230.901	75.31
231.136	85.31
231.37	70.31
231.604	83.31
231.838	69.31
232.072	88.31
232.306	90.31
232.541	82.31
232.775	67.31
233.009	75.31
233.243	74.31
233.477	75.31
233.711	96.31
233.945	90.31
234.179	86.31
234.413	100.31
234.647	92.31
234.881	75.31
235.115	85.31
235.349	79.31
235.583	80.31
235.817	93.31
236.051	84.31
236.285	73.31
236.519	75.31
236.753	84.31
236.987	76.31
237.221	101.31
237.455	78.31
237.689	82.31
237.922	86.31
238.156	82.31
238.39	82.31
238.624	78.31
238.858	78.31
239.091	79.31
239.325	79.31
239.559	65.31
239.793	71.31
240.027	95.31
240.26	77.31
240.494	77.31
240.728	87.31
240.961	77.31
241.195	84.31
241.429	83.31
241.662	73.31
241.896	77.31
242.13	78.31
242.363	86.31
242.597	77.31
242.83	84.31
243.064	72.31
243.298	64.31
243.531	78.31
243.765	78.31
243.998	73.31
244.232	82.31
244.465	89.31
244.699	82.31
244.932	64.31
245.166	77.31
245.399	76.31
245.633	76.31
245.866	84.31
246.099	77.31
246.333	83.31
246.566	72.31
246.8	77.31
247.033	84.31
247.266	83.31
247.5	87.31
247.733	81.31
247.966	83.31
248.2	71.31
248.433	78.31
248.666	83.31
248.899	91.31
249.133	91.31
249.366	89.31
249.599	84.31
249.832	74.31
250.066	67.31
250.299	79.31
250.532	94.31
250.765	85.31
250.998	67.31
251.231	83.31
251.465	81.31
251.698	70.31
251.931	90.31
252.164	89.31
252.397	76.31
252.63	77.31
252.863	70.31
253.096	77.31
253.329	90.31
253.562	79.31
253.795	72.31
254.028	81.31
254.261	88.31
254.494	78.31
254.727	86.31
254.96	93.31
255.193	90.31
255.426	82.31
255.659	75.31
255.892	95.31
256.124	73.31
256.357	79.31
256.59	92.31
256.823	75.31
257.056	94.31
257.289	80.31
257.521	91.31
257.754	76.31
257.987	88.31
258.22	93.31
258.452	70.31
258.685	90.31
258.918	80.31
259.151	71.31
259.383	99.31
259.616	71.31
259.849	83.31
260.081	86.31
260.314	100.31
260.547	91.31
260.779	79.31
261.012	77.31
261.244	83.31
261.477	100.31
261.71	103.31
261.942	117.31
262.175	117.31
262.407	92.31
262.64	83.31
262.872	83.31
263.105	92.31
263.337	88.31
263.57	93.31
263.802	65.31
264.035	71.31
264.267	76.31
264.499	89.31
264.732	87.31
264.964	68.31
265.197	89.31
265.429	80.31
265.661	102.31
265.894	83.31
266.126	85.31
266.358	86.31
266.591	76.31
266.823	79.31
267.055	81.31
267.287	79.31
267.52	91.31
267.752	98.31
267.984	88.31
268.216	74.31
268.448	79.31
268.681	82.31
268.913	85.31
269.145	79.31
269.377	85.31
269.609	78.31
269.841	77.31
270.073	93.31
270.306	84.31
270.538	73.31
270.77	100.31
271.002	85.31
271.234	93.31
271.466	92.31
271.698	80.31
271.93	82.31
272.162	87.31
272.394	92.31
272.626	95.31
272.858	93.31
273.09	90.31
273.322	73.31
273.553	93.31
273.785	91.31
274.017	93.31
274.249	86.31
274.481	81.31
274.713	85.31
274.945	91.31
275.176	75.31
275.408	95.31
275.64	87.31
275.872	91.31
276.104	86.31
276.335	93.31
276.567	110.31
276.799	102.31
277.031	104.31
277.262	88.31
277.494	80.31
277.726	86.31
277.957	94.31
278.189	84.31
278.421	88.31
278.652	90.31
278.884	84.31
279.115	86.31
279.347	80.31
279.579	82.31
279.81	84.31
280.042	95.31
280.273	96.31
280.505	88.31
280.736	76.31
280.968	86.31
281.199	95.31
281.431	103.31
281.662	98.31
281.894	84.31
282.125	100.31
282.356	124.31
282.588	144.31
282.819	122.31
283.051	98.31
283.282	78.31
283.513	90.31
283.745	94.31
283.976	90.31
284.207	92.31
284.439	82.31
284.67	97.31
284.901	73.31
285.132	89.31
285.364	87.31
285.595	79.31
285.826	85.31
286.057	84.31
286.288	75.31
286.52	94.31
286.751	90.31
286.982	95.31
287.213	79.31
287.444	94.31
287.675	92.31
287.906	90.31
288.138	101.31
288.369	89.31
288.6	105.31
288.831	100.31
289.062	77.31
289.293	85.31
289.524	89.31
289.755	84.31
289.986	73.31
290.217	95.31
290.448	89.31
290.679	89.31
290.91	86.31
291.141	79.31
291.371	93.31
291.602	74.31
291.833	84.31
292.064	88.31
292.295	102.31
292.526	80.31
292.757	88.31
292.987	91.31
293.218	93.31
293.449	82.31
293.68	81.31
293.91	99.31
294.141	98.31
294.372	92.31
294.603	98.31
294.833	90.31
295.064	110.31
295.295	93.31
295.525	96.31
295.756	103.31
295.987	118.31
296.217	136.31
296.448	125.31
296.679	89.31
296.909	102.31
297.14	85.31
297.37	91.31
297.601	83.31
297.831	98.31
298.062	105.31
298.292	83.31
298.523	103.31
298.753	93.31
298.984	68.31
299.214	101.31
299.445	88.31
299.675	91.31
299.905	90.31
300.136	104.31
300.366	83.31
300.597	86.31
300.827	75.31
301.057	100.31
301.288	99.31
301.518	92.31
301.748	93.31
301.979	114.31
302.209	87.31
302.439	100.31
302.669	82.31
302.9	82.31
303.13	93.31
303.36	83.31
303.59	114.31
303.82	103.31
304.051	94.31
304.281	115.31
304.511	92.31
304.741	107.31
304.971	93.31
305.201	83.31
305.431	86.31
305.661	88.31
305.891	82.31
306.121	75.31
306.352	100.31
306.582	115.31
306.812	94.31
307.042	104.31
307.272	84.31
307.502	102.31
307.731	98.31
307.961	94.31
308.191	95.31
308.421	85.31
308.651	91.31
308.881	89.31
309.111	89.31
309.341	91.31
309.571	95.31
309.8	108.31
310.03	94.31
310.26	93.31
310.49	107.31
310.72	82.31
310.949	105.31
311.179	104.31
311.409	114.31
311.639	97.31
311.868	95.31
312.098	109.31
312.328	99.31
312.557	86.31
312.787	106.31
313.017	99.31
313.246	100.31
313.476	105.31
313.706	94.31
313.935	101.31
314.165	97.31
314.394	107.31
314.624	93.31
314.853	95.31
315.083	79.31
315.312	94.31
315.542	95.31
315.771	79.31
316.001	85.31
316.23	100.31
316.46	92.31
316.689	91.31
316.919	98.31
317.148	87.31
317.377	94.31
317.607	100.31
317.836	94.31
318.065	98.31
318.295	93.31
318.524	84.31
318.753	104.31
318.983	89.31
319.212	97.31
319.441	114.31
319.67	99.31
319.9	91.31
320.129	86.31
320.358	91.31
320.587	107.31
320.816	95.31
321.046	102.31
321.275	99.31
321.504	93.31
321.733	92.31
321.962	110.31
322.191	102.31
322.42	97.31
322.649	104.31
322.878	108.31
323.108	108.31
323.337	118.31
323.566	141.31
323.795	167.31
324.024	214.31
324.253	410.31
324.482	865.31
324.71	1738.31
324.939	2326.31
325.168	870.31
325.397	253.31
325.626	165.31
325.855	118.31
326.084	126.31
326.313	133.31
326.542	163.31
326.77	234.31
326.999	463.31
327.228	949.31
327.457	1694.31
327.686	1398.31
327.914	390.31
328.143	190.31
328.372	141.31
328.6	131.31
328.829	131.31
329.058	138.31
329.287	130.31
329.515	123.31
329.744	110.31
329.972	101.31
330.201	105.31
330.43	125.31
330.658	141.31
330.887	153.31
331.115	131.31
331.344	100.31
331.572	103.31
331.801	105.31
332.03	106.31
332.258	110.31
332.486	104.31
332.715	100.31
332.943	102.31
333.172	102.31
333.4	92.31
333.629	92.31
333.857	120.31
334.085	110.31
334.314	96.31
334.542	125.31
334.771	108.31
334.999	110.31
335.227	97.31
335.455	93.31
335.684	99.31
335.912	104.31
336.14	83.31
336.369	96.31
336.597	115.31
336.825	94.31
337.053	86.31
337.281	99.31
337.51	84.31
337.738	80.31
337.966	80.31
338.194	92.31
338.422	94.31
338.65	94.31
338.878	95.31
339.106	90.31
339.334	90.31
339.562	99.31
339.79	95.31
340.018	71.31
340.246	95.31
340.474	104.31
340.702	74.31
340.93	82.31
341.158	88.31
341.386	94.31
341.614	103.31
341.842	93.31
342.07	96.31
342.298	94.31
342.526	105.31
342.754	103.31
342.981	106.31
343.209	87.31
343.437	99.31
343.665	95.31
343.893	87.31
344.12	85.31
344.348	98.31
344.576	85.31
344.804	91.31
345.031	97.31
345.259	108.31
345.487	86.31
345.714	95.31
345.942	83.31
346.17	91.31
346.397	88.31
346.625	94.31
346.853	82.31
347.08	110.31
347.308	97.31
347.535	100.31
347.763	103.31
347.99	110.31
348.218	109.31
348.445	111.31
348.673	99.31
348.9	113.31
349.128	108.31
349.355	97.31
349.583	89.31
349.81	93.31
350.037	94.31
350.265	83.31
350.492	90.31
350.72	94.31
350.947	108.31
351.174	114.31
351.402	106.31
351.629	115.31
351.856	103.31
352.083	108.31
352.311	108.31
352.538	113.31
352.765	113.31
352.992	118.31
353.22	108.31
353.447	101.31
353.674	90.31
353.901	85.31
354.128	104.31
354.355	102.31
354.583	106.31
354.81	99.31
355.037	106.31
355.264	94.31
355.491	100.31
355.718	93.31
355.945	105.31
356.172	83.31
356.399	111.31
356.626	101.31
356.853	93.31
357.08	93.31
357.307	90.31
357.534	85.31
357.761	98.31
357.988	91.31
358.215	99.31
358.441	86.31
358.668	73.31
358.895	81.31
359.122	105.31
359.349	90.31
359.576	90.31
359.802	101.31
360.029	130.31
360.256	118.31
360.483	109.31
360.709	96.31
360.936	99.31
361.163	93.31
361.39	102.31
361.616	95.31
361.843	86.31
362.07	83.31
362.296	86.31
362.523	95.31
362.749	91.31
362.976	99.31
363.203	91.31
363.429	102.31
363.656	75.31
363.882	85.31
364.109	88.31
364.335	100.31
364.562	94.31
364.788	88.31
365.015	97.31
365.241	102.31
365.468	121.31
365.694	116.31
365.92	83.31
366.147	89.31
366.373	99.31
366.599	97.31
366.826	85.31
367.052	88.31
367.278	89.31
367.505	93.31
367.731	83.31
367.957	85.31
368.184	104.31
368.41	105.31
368.636	117.31
368.862	125.31
369.089	111.31
369.315	100.31
369.541	88.31
369.767	85.31
369.993	92.31
370.219	96.31
370.445	86.31
370.672	70.31
370.898	93.31
371.124	100.31
371.35	86.31
371.576	93.31
371.802	90.31
372.028	101.31
372.254	90.31
372.48	96.31
372.706	84.31
372.932	84.31
373.158	97.31
373.384	93.31
373.61	86.31
373.835	86.31
374.061	91.31
374.287	104.31
374.513	92.31
374.739	86.31
374.965	98.31
375.191	80.31
375.416	86.31
375.642	98.31
375.868	95.31
376.094	95.31
376.319	102.31
376.545	99.31
376.771	89.31
376.997	97.31
377.222	89.31
377.448	94.31
377.674	91.31
377.899	91.31
378.125	82.31
378.35	94.31
378.576	98.31
378.802	99.31
379.027	89.31
379.253	100.31
379.478	91.31
379.704	87.31
379.929	94.31
380.155	82.31
380.38	87.31
380.606	116.31
380.831	89.31
381.057	105.31
381.282	84.31
381.507	85.31
381.733	103.31
381.958	98.31
382.184	114.31
382.409	99.31
382.634	106.31
382.86	99.31
383.085	101.31
383.31	109.31
383.535	113.31
383.761	112.31
383.986	96.31
384.211	98.31
384.436	109.31
384.662	99.31
384.887	105.31
385.112	109.31
385.337	117.31
385.562	111.31
385.787	102.31
386.013	113.31
386.238	129.31
386.463	110.31
386.688	103.31
386.913	118.31
387.138	113.31
387.363	99.31
387.588	109.31
387.813	112.31
388.038	117.31
388.263	114.31
388.488	117.31
388.713	84.31
388.938	104.31
389.163	78.31
389.387	90.31
389.612	99.31
389.837	92.31
390.062	87.31
390.287	105.31
390.512	91.31
390.736	76.31
390.961	90.31
391.186	92.31
391.411	89.31
391.636	86.31
391.86	96.31
392.085	93.31
392.31	82.31
392.534	94.31
392.759	82.31
392.984	86.31
393.208	83.31
393.433	94.31
393.658	104.31
393.882	83.31
394.107	97.31
394.331	87.31
394.556	97.31
394.78	85.31
395.005	77.31
395.229	105.31
395.454	92.31
395.678	71.31
395.903	78.31
396.127	95.31
396.352	95.31
396.576	88.31
396.801	78.31
397.025	97.31
397.249	91.31
397.474	82.31
397.698	90.31
397.922	74.31
398.147	86.31
398.371	80.31
398.595	83.31
398.82	80.31
399.044	99.31
399.268	94.31
399.492	85.31
399.717	82.31
399.941	93.31
400.165	91.31
400.389	92.31
400.613	75.31
400.837	72.31
401.062	100.31
401.286	82.31
401.51	88.31
401.734	84.31
401.958	108.31
402.182	141.31
402.406	178.31
402.63	131.31
402.854	105.31
403.078	74.31
403.302	85.31
403.526	94.31
403.75	104.31
403.974	86.31
404.198	87.31
404.422	82.31
404.645	82.31
404.869	98.31
405.093	106.31
405.317	91.31
405.541	101.31
405.765	99.31
405.988	131.31
406.212	193.31
406.436	248.31
406.66	166.31
406.883	98.31
407.107	92.31
407.331	93.31
407.555	105.31
407.778	100.31
408.002	84.31
408.226	90.31
408.449	89.31
408.673	88.31
408.896	97.31
409.12	95.31
409.344	85.31
409.567	89.31
409.791	104.31
410.014	99.31
410.238	104.31
410.461	105.31
410.685	98.31
410.908	90.31
411.132	99.31
411.355	83.31
411.578	87.31
411.802	91.31
412.025	81.31
412.249	89.31
412.472	69.31
412.695	88.31
412.919	89.31
413.142	87.31
413.365	92.31
413.589	89.31
413.812	98.31
414.035	86.31
414.258	84.31
414.482	77.31
414.705	91.31
414.928	93.31
415.151	102.31
415.374	100.31
415.597	78.31
415.821	84.31
416.044	88.31
416.267	93.31
416.49	93.31
416.713	87.31
416.936	91.31
417.159	95.31
417.382	73.31
417.605	78.31
417.828	94.31
418.051	90.31
418.274	88.31
418.497	84.31
418.72	90.31
418.943	72.31
419.166	100.31
419.389	92.31
419.611	101.31
419.834	84.31
420.057	84.31
420.28	79.31
420.503	91.31
420.726	89.31
420.948	78.31
421.171	99.31
421.394	94.31
421.617	82.31
421.839	88.31
422.062	91.31
422.285	83.31
422.507	93.31
422.73	110.31
422.953	97.31
423.175	100.31
423.398	93.31
423.621	103.31
423.843	99.31
424.066	94.31
424.288	89.31
424.511	91.31
424.733	104.31
424.956	101.31
425.178	96.31
425.401	109.31
425.623	92.31
425.846	98.31
426.068	81.31
426.291	103.31
426.513	85.31
426.735	85.31
426.958	87.31
427.18	95.31
427.402	140.31
427.625	173.31
427.847	134.31
428.069	105.31
428.292	88.31
428.514	94.31
428.736	74.31
428.958	82.31
429.181	78.31
429.403	82.31
429.625	83.31
429.847	95.31
430.069	95.31
430.292	93.31
430.514	82.31
430.736	87.31
430.958	95.31
431.18	74.31
431.402	88.31
431.624	86.31
431.846	85.31
432.068	86.31
432.29	102.31
432.512	95.31
432.734	94.31
432.956	90.31
433.178	102.31
433.4	96.31
433.622	81.31
433.844	89.31
434.066	87.31
434.287	90.31
434.509	93.31
434.731	89.31
434.953	80.31
435.175	85.31
435.397	91.31
435.618	84.31
435.84	95.31
436.062	118.31
436.284	110.31
436.505	99.31
436.727	89.31
436.949	87.31
437.17	94.31
437.392	76.31
437.614	91.31
437.835	93.31
438.057	110.31
438.278	114.31
438.5	109.31
438.721	131.31
438.943	106.31
439.165	81.31
439.386	99.31
439.608	90.31
439.829	104.31
440.05	123.31
440.272	131.31
440.493	95.31
440.715	87.31
440.936	100.31
441.158	98.31
441.379	92.31
441.6	97.31
441.822	107.31
442.043	99.31
442.264	99.31
442.486	107.31
442.707	101.31
442.928	110.31
443.149	141.31
443.371	122.31
443.592	116.31
443.813	120.31
444.034	93.31
444.255	106.31
444.476	78.31
444.698	93.31
444.919	82.31
445.14	121.31
445.361	133.31
445.582	105.31
445.803	127.31
446.024	146.31
446.245	133.31
446.466	121.31
446.687	87.31
446.908	103.31
447.129	94.31
447.35	93.31
447.571	92.31
447.792	93.31
448.013	96.31
448.234	105.31
448.455	90.31
448.675	106.31
448.896	109.31
449.117	122.31
449.338	117.31
449.559	136.31
449.779	138.31
450	92.31
450.221	79.31
450.442	93.31
450.662	98.31
450.883	111.31
451.104	120.31
451.324	92.31
451.545	107.31
451.766	83.31
451.986	83.31
452.207	89.31
452.428	86.31
452.648	110.31
452.869	103.31
453.089	118.31
453.31	111.31
453.53	105.31
453.751	94.31
453.971	98.31
454.192	121.31
454.412	95.31
454.633	74.31
454.853	92.31
455.073	90.31
455.294	83.31
455.514	99.31
455.734	86.31
455.955	87.31
456.175	82.31
456.395	76.31
456.616	83.31
456.836	76.31
457.056	88.31
457.276	74.31
457.497	86.31
457.717	79.31
457.937	92.31
458.157	99.31
458.377	97.31
458.598	100.31
458.818	155.31
459.038	183.31
459.258	120.31
459.478	91.31
459.698	78.31
459.918	81.31
460.138	92.31
460.358	81.31
460.578	97.31
460.798	91.31
461.018	86.31
461.238	78.31
461.458	83.31
461.678	94.31
461.898	93.31
462.118	92.31
462.338	94.31
462.558	80.31
462.777	92.31
462.997	82.31
463.217	79.31
463.437	76.31
463.657	84.31
463.876	84.31
464.096	93.31
464.316	97.31
464.536	99.31
464.755	87.31
464.975	116.31
465.195	186.31
465.414	173.31
465.634	97.31
465.854	90.31
466.073	84.31
466.293	88.31
466.512	74.31
466.732	84.31
466.951	76.31
467.171	89.31
467.391	101.31
467.61	111.31
467.829	90.31
468.049	95.31
468.268	95.31
468.488	79.31
468.707	94.31
468.927	76.31
469.146	95.31
469.365	104.31
469.585	85.31
469.804	105.31
470.023	93.31
470.243	100.31
470.462	96.31
470.681	100.31
470.901	94.31
471.12	101.31
471.339	82.31
471.558	94.31
471.777	80.31
471.997	89.31
472.216	86.31
472.435	108.31
472.654	93.31
472.873	90.31
473.092	85.31
473.311	87.31
473.53	79.31
473.749	88.31
473.968	94.31
474.187	103.31
474.406	91.31
474.625	82.31
474.844	77.31
475.063	97.31
475.282	88.31
475.501	79.31
475.72	87.31
475.939	89.31
476.158	76.31
476.377	94.31
476.596	96.31
476.814	92.31
477.033	81.31
477.252	86.31
477.471	79.31
477.69	98.31
477.908	75.31
478.127	82.31
478.346	93.31
478.564	86.31
478.783	100.31
479.002	98.31
479.22	102.31
479.439	95.31
479.658	102.31
479.876	100.31
480.095	86.31
480.313	90.31
480.532	76.31
480.751	85.31
480.969	97.31
481.188	123.31
481.406	110.31
481.624	98.31
481.843	94.31
482.061	99.31
482.28	85.31
482.498	95.31
482.717	87.31
482.935	89.31
483.153	85.31
483.372	77.31
483.59	98.31
483.808	73.31
484.027	88.31
484.245	86.31
484.463	80.31
484.681	78.31
484.9	107.31
485.118	93.31
485.336	87.31
485.554	94.31
485.772	95.31
485.99	91.31
486.209	103.31
486.427	104.31
486.645	115.31
486.863	106.31
487.081	102.31
487.299	93.31
487.517	86.31
487.735	87.31
487.953	105.31
488.171	101.31
488.389	91.31
488.607	99.31
488.825	93.31
489.043	76.31
489.261	92.31
489.479	82.31
489.696	90.31
489.914	94.31
490.132	91.31
490.35	95.31
490.568	94.31
490.786	85.31
491.003	87.31
491.221	82.31
491.439	89.31
491.657	89.31
491.874	86.31
492.092	90.31
492.31	83.31
492.527	100.31
492.745	94.31
492.963	100.31
493.18	97.31
493.398	92.31
493.615	96.31
493.833	99.31
494.05	84.31
494.268	96.31
494.485	86.31
494.703	79.31
494.92	85.31
495.138	82.31
495.355	76.31
495.573	89.31
495.79	93.31
496.008	99.31
496.225	84.31
496.442	84.31
496.66	89.31
496.877	76.31
497.094	89.31
497.312	106.31
497.529	95.31
497.746	90.31
497.963	79.31
498.181	86.31
498.398	96.31
498.615	111.31
498.832	106.31
499.049	90.31
499.267	93.31
499.484	73.31
499.701	91.31
499.918	89.31
500.135	73.31
500.352	82.31
500.569	86.31
500.786	87.31
501.003	94.31
501.22	89.31
501.437	85.31
501.654	88.31
501.871	110.31
502.088	95.31
502.305	88.31
502.522	78.31
502.739	107.31
502.956	89.31
503.172	92.31
503.389	107.31
503.606	125.31
503.823	109.31
504.04	78.31
504.256	78.31
504.473	99.31
504.69	97.31
504.907	93.31
505.123	85.31
505.34	74.31
505.557	80.31
505.773	94.31
505.99	92.31
506.207	98.31
506.423	88.31
506.64	99.31
506.856	109.31
507.073	92.31
507.289	101.31
507.506	98.31
507.722	109.31
507.939	114.31
508.155	91.31
508.372	88.31
508.588	91.31
508.805	91.31
509.021	98.31
509.238	92.31
509.454	106.31
509.67	95.31
509.887	119.31
510.103	131.31
510.319	210.31
510.536	813.31
510.752	2779.31
510.968	806.31
511.184	183.31
511.401	113.31
511.617	87.31
511.833	104.31
512.049	84.31
512.265	91.31
512.481	107.31
512.698	97.31
512.914	94.31
513.13	104.31
513.346	80.31
513.562	79.31
513.778	88.31
513.994	104.31
514.21	103.31
514.426	122.31
514.642	149.31
514.858	154.31
515.074	183.31
515.29	517.31
