Data from Circ_2014_H10_HRD10591_00098.txt Node
Date: Wed Jan 03 10:02:28 EST 2024
User: Yrep
Spectrometer: HR+D1059
Trigger mode: 1
Integration Time (sec): 1.000000E-1
Scans to average: 1
Electric dark correction enabled: true
Nonlinearity correction enabled: false
Boxcar width: 0
XAxis mode: Wavelengths
Number of Pixels in Spectrum: 2048
>>>>>Begin Spectral Data<<<<<
223.165	-22.38
223.4	-22.38
223.635	-22.38
223.869	-15.38
224.104	-12.38
224.338	-10.38
224.573	-19.38
224.808	-12.38
225.042	-8.38
225.277	-11.38
225.511	7.62
225.746	1.62
225.98	-2.38
226.215	31.62
226.449	10.62
226.683	13.62
226.918	21.62
227.152	27.62
227.387	25.62
227.621	36.62
227.856	28.62
228.09	43.62
228.324	55.62
228.559	65.62
228.793	80.62
229.027	70.62
229.262	74.62
229.496	87.62
229.73	100.62
229.964	96.62
230.199	61.62
230.433	72.62
230.667	78.62
230.901	82.62
231.136	76.62
231.37	76.62
231.604	73.62
231.838	86.62
232.072	81.62
232.306	71.62
232.541	77.62
232.775	77.62
233.009	79.62
233.243	86.62
233.477	92.62
233.711	80.62
233.945	78.62
234.179	76.62
234.413	76.62
234.647	66.62
234.881	69.62
235.115	82.62
235.349	65.62
235.583	84.62
235.817	88.62
236.051	67.62
236.285	82.62
236.519	90.62
236.753	74.62
236.987	67.62
237.221	92.62
237.455	93.62
237.689	77.62
237.922	77.62
238.156	70.62
238.39	70.62
238.624	64.62
238.858	72.62
239.091	68.62
239.325	79.62
239.559	91.62
239.793	78.62
240.027	75.62
240.26	82.62
240.494	92.62
240.728	76.62
240.961	67.62
241.195	72.62
241.429	67.62
241.662	69.62
241.896	68.62
242.13	76.62
242.363	77.62
242.597	73.62
242.83	76.62
243.064	67.62
243.298	76.62
243.531	73.62
243.765	78.62
243.998	69.62
244.232	83.62
244.465	70.62
244.699	71.62
244.932	89.62
245.166	88.62
245.399	80.62
245.633	79.62
245.866	82.62
246.099	95.62
246.333	87.62
246.566	85.62
246.8	68.62
247.033	75.62
247.266	84.62
247.5	63.62
247.733	82.62
247.966	78.62
248.2	80.62
248.433	84.62
248.666	80.62
248.899	84.62
249.133	83.62
249.366	106.62
249.599	107.62
249.832	92.62
250.066	83.62
250.299	81.62
250.532	78.62
250.765	82.62
250.998	81.62
251.231	77.62
251.465	81.62
251.698	85.62
251.931	78.62
252.164	78.62
252.397	79.62
252.63	80.62
252.863	94.62
253.096	63.62
253.329	75.62
253.562	73.62
253.795	65.62
254.028	71.62
254.261	67.62
254.494	80.62
254.727	86.62
254.96	90.62
255.193	72.62
255.426	76.62
255.659	85.62
255.892	87.62
256.124	85.62
256.357	84.62
256.59	89.62
256.823	80.62
257.056	86.62
257.289	76.62
257.521	75.62
257.754	82.62
257.987	85.62
258.22	85.62
258.452	82.62
258.685	85.62
258.918	106.62
259.151	84.62
259.383	82.62
259.616	86.62
259.849	82.62
260.081	92.62
260.314	74.62
260.547	88.62
260.779	88.62
261.012	86.62
261.244	113.62
261.477	87.62
261.71	84.62
261.942	103.62
262.175	127.62
262.407	99.62
262.64	84.62
262.872	91.62
263.105	79.62
263.337	75.62
263.57	85.62
263.802	87.62
264.035	86.62
264.267	76.62
264.499	78.62
264.732	86.62
264.964	88.62
265.197	80.62
265.429	92.62
265.661	69.62
265.894	83.62
266.126	93.62
266.358	87.62
266.591	74.62
266.823	72.62
267.055	89.62
267.287	74.62
267.52	81.62
267.752	78.62
267.984	96.62
268.216	74.62
268.448	79.62
268.681	88.62
268.913	86.62
269.145	72.62
269.377	81.62
269.609	76.62
269.841	73.62
270.073	91.62
270.306	100.62
270.538	87.62
270.77	74.62
271.002	88.62
271.234	92.62
271.466	81.62
271.698	84.62
271.93	81.62
272.162	90.62
272.394	98.62
272.626	76.62
272.858	81.62
273.09	92.62
273.322	73.62
273.553	70.62
273.785	94.62
274.017	81.62
274.249	93.62
274.481	94.62
274.713	91.62
274.945	95.62
275.176	89.62
275.408	91.62
275.64	98.62
275.872	85.62
276.104	96.62
276.335	92.62
276.567	95.62
276.799	113.62
277.031	104.62
277.262	128.62
277.494	99.62
277.726	96.62
277.957	93.62
278.189	87.62
278.421	82.62
278.652	87.62
278.884	83.62
279.115	82.62
279.347	84.62
279.579	72.62
279.81	90.62
280.042	124.62
280.273	128.62
280.505	113.62
280.736	103.62
280.968	90.62
281.199	59.62
281.431	81.62
281.662	74.62
281.894	93.62
282.125	107.62
282.356	129.62
282.588	153.62
282.819	130.62
283.051	93.62
283.282	88.62
283.513	92.62
283.745	83.62
283.976	97.62
284.207	84.62
284.439	89.62
284.67	98.62
284.901	86.62
285.132	90.62
285.364	76.62
285.595	88.62
285.826	92.62
286.057	87.62
286.288	92.62
286.52	97.62
286.751	86.62
286.982	82.62
287.213	85.62
287.444	74.62
287.675	84.62
287.906	88.62
288.138	80.62
288.369	87.62
288.6	94.62
288.831	92.62
289.062	96.62
289.293	93.62
289.524	83.62
289.755	81.62
289.986	92.62
290.217	96.62
290.448	85.62
290.679	88.62
290.91	95.62
291.141	83.62
291.371	75.62
291.602	80.62
291.833	76.62
292.064	92.62
292.295	87.62
292.526	89.62
292.757	79.62
292.987	89.62
293.218	81.62
293.449	88.62
293.68	87.62
293.91	80.62
294.141	80.62
294.372	96.62
294.603	86.62
294.833	88.62
295.064	77.62
295.295	92.62
295.525	107.62
295.756	109.62
295.987	136.62
296.217	136.62
296.448	145.62
296.679	91.62
296.909	88.62
297.14	85.62
297.37	92.62
297.601	82.62
297.831	90.62
298.062	89.62
298.292	94.62
298.523	105.62
298.753	97.62
298.984	72.62
299.214	97.62
299.445	91.62
299.675	100.62
299.905	88.62
300.136	98.62
300.366	92.62
300.597	87.62
300.827	102.62
301.057	112.62
301.288	97.62
301.518	101.62
301.748	80.62
301.979	117.62
302.209	93.62
302.439	84.62
302.669	79.62
302.9	86.62
303.13	77.62
303.36	104.62
303.59	96.62
303.82	101.62
304.051	85.62
304.281	83.62
304.511	90.62
304.741	88.62
304.971	99.62
305.201	97.62
305.431	94.62
305.661	101.62
305.891	98.62
306.121	98.62
306.352	102.62
306.582	90.62
306.812	94.62
307.042	87.62
307.272	101.62
307.502	102.62
307.731	104.62
307.961	99.62
308.191	85.62
308.421	82.62
308.651	88.62
308.881	92.62
309.111	103.62
309.341	99.62
309.571	106.62
309.8	100.62
310.03	106.62
310.26	99.62
310.49	89.62
310.72	97.62
310.949	110.62
311.179	106.62
311.409	93.62
311.639	108.62
311.868	95.62
312.098	106.62
312.328	95.62
312.557	106.62
312.787	111.62
313.017	116.62
313.246	103.62
313.476	88.62
313.706	72.62
313.935	86.62
314.165	97.62
314.394	91.62
314.624	89.62
314.853	104.62
315.083	95.62
315.312	92.62
315.542	93.62
315.771	90.62
316.001	75.62
316.23	102.62
316.46	77.62
316.689	67.62
316.919	89.62
317.148	92.62
317.377	84.62
317.607	85.62
317.836	97.62
318.065	91.62
318.295	93.62
318.524	89.62
318.753	89.62
318.983	91.62
319.212	97.62
319.441	106.62
319.67	125.62
319.9	84.62
320.129	101.62
320.358	101.62
320.587	102.62
320.816	100.62
321.046	104.62
321.275	95.62
321.504	95.62
321.733	94.62
321.962	108.62
322.191	107.62
322.42	100.62
322.649	108.62
322.878	127.62
323.108	126.62
323.337	148.62
323.566	143.62
323.795	160.62
324.024	231.62
324.253	443.62
324.482	938.62
324.71	1927.62
324.939	2515.62
325.168	939.62
325.397	266.62
325.626	150.62
325.855	137.62
326.084	127.62
326.313	149.62
326.542	158.62
326.77	249.62
326.999	510.62
327.228	1052.62
327.457	1880.62
327.686	1492.62
327.914	415.62
328.143	273.62
328.372	240.62
328.6	195.62
328.829	131.62
329.058	153.62
329.287	150.62
329.515	133.62
329.744	133.62
329.972	187.62
330.201	294.62
330.43	401.62
330.658	218.62
330.887	185.62
331.115	148.62
331.344	103.62
331.572	115.62
331.801	99.62
332.03	107.62
332.258	94.62
332.486	91.62
332.715	102.62
332.943	111.62
333.172	101.62
333.4	101.62
333.629	127.62
333.857	143.62
334.085	192.62
334.314	295.62
334.542	474.62
334.771	448.62
334.999	178.62
335.227	117.62
335.455	107.62
335.684	103.62
335.912	76.62
336.14	80.62
336.369	100.62
336.597	96.62
336.825	97.62
337.053	90.62
337.281	93.62
337.51	95.62
337.738	81.62
337.966	89.62
338.194	85.62
338.422	92.62
338.65	85.62
338.878	94.62
339.106	77.62
339.334	87.62
339.562	92.62
339.79	92.62
340.018	105.62
340.246	100.62
340.474	90.62
340.702	79.62
340.93	94.62
341.158	84.62
341.386	105.62
341.614	103.62
341.842	84.62
342.07	94.62
342.298	86.62
342.526	83.62
342.754	77.62
342.981	81.62
343.209	90.62
343.437	104.62
343.665	97.62
343.893	91.62
344.12	82.62
344.348	77.62
344.576	88.62
344.804	92.62
345.031	95.62
345.259	101.62
345.487	119.62
345.714	88.62
345.942	88.62
346.17	84.62
346.397	90.62
346.625	101.62
346.853	99.62
347.08	84.62
347.308	125.62
347.535	96.62
347.763	120.62
347.99	100.62
348.218	98.62
348.445	107.62
348.673	98.62
348.9	104.62
349.128	91.62
349.355	92.62
349.583	92.62
349.81	78.62
350.037	95.62
350.265	87.62
350.492	88.62
350.72	86.62
350.947	106.62
351.174	112.62
351.402	116.62
351.629	105.62
351.856	111.62
352.083	110.62
352.311	128.62
352.538	125.62
352.765	124.62
352.992	108.62
353.22	103.62
353.447	111.62
353.674	92.62
353.901	106.62
354.128	86.62
354.355	106.62
354.583	103.62
354.81	100.62
355.037	103.62
355.264	102.62
355.491	91.62
355.718	91.62
355.945	93.62
356.172	98.62
356.399	101.62
356.626	93.62
356.853	98.62
357.08	91.62
357.307	80.62
357.534	98.62
357.761	97.62
357.988	87.62
358.215	87.62
358.441	93.62
358.668	93.62
358.895	99.62
359.122	86.62
359.349	93.62
359.576	96.62
359.802	109.62
360.029	137.62
360.256	119.62
360.483	109.62
360.709	96.62
360.936	91.62
361.163	105.62
361.39	104.62
361.616	102.62
361.843	88.62
362.07	106.62
362.296	113.62
362.523	92.62
362.749	95.62
362.976	84.62
363.203	98.62
363.429	72.62
363.656	87.62
363.882	85.62
364.109	95.62
364.335	88.62
364.562	87.62
364.788	82.62
365.015	83.62
365.241	105.62
365.468	115.62
365.694	113.62
365.92	108.62
366.147	87.62
366.373	83.62
366.599	91.62
366.826	102.62
367.052	81.62
367.278	81.62
367.505	89.62
367.731	101.62
367.957	93.62
368.184	91.62
368.41	116.62
368.636	117.62
368.862	101.62
369.089	117.62
369.315	89.62
369.541	85.62
369.767	87.62
369.993	106.62
370.219	90.62
370.445	93.62
370.672	75.62
370.898	101.62
371.124	81.62
371.35	82.62
371.576	95.62
371.802	74.62
372.028	93.62
372.254	90.62
372.48	95.62
372.706	89.62
372.932	77.62
373.158	77.62
373.384	80.62
373.61	83.62
373.835	85.62
374.061	90.62
374.287	100.62
374.513	92.62
374.739	100.62
374.965	94.62
375.191	101.62
375.416	87.62
375.642	94.62
375.868	90.62
376.094	77.62
376.319	93.62
376.545	73.62
376.771	92.62
376.997	93.62
377.222	72.62
377.448	77.62
377.674	100.62
377.899	103.62
378.125	95.62
378.35	85.62
378.576	89.62
378.802	90.62
379.027	80.62
379.253	96.62
379.478	71.62
379.704	68.62
379.929	100.62
380.155	98.62
380.38	107.62
380.606	91.62
380.831	82.62
381.057	103.62
381.282	81.62
381.507	94.62
381.733	103.62
381.958	93.62
382.184	92.62
382.409	107.62
382.634	97.62
382.86	99.62
383.085	90.62
383.31	103.62
383.535	91.62
383.761	97.62
383.986	92.62
384.211	89.62
384.436	95.62
384.662	100.62
384.887	96.62
385.112	93.62
385.337	112.62
385.562	104.62
385.787	107.62
386.013	108.62
386.238	113.62
386.463	105.62
386.688	100.62
386.913	87.62
387.138	91.62
387.363	105.62
387.588	102.62
387.813	87.62
388.038	83.62
388.263	101.62
388.488	96.62
388.713	90.62
388.938	85.62
389.163	92.62
389.387	75.62
389.612	92.62
389.837	97.62
390.062	103.62
390.287	82.62
390.512	89.62
390.736	77.62
390.961	91.62
391.186	100.62
391.411	91.62
391.636	83.62
391.86	80.62
392.085	85.62
392.31	91.62
392.534	76.62
392.759	92.62
392.984	77.62
393.208	90.62
393.433	81.62
393.658	76.62
393.882	82.62
394.107	86.62
394.331	78.62
394.556	92.62
394.78	81.62
395.005	76.62
395.229	87.62
395.454	89.62
395.678	101.62
395.903	97.62
396.127	85.62
396.352	96.62
396.576	83.62
396.801	68.62
397.025	89.62
397.249	86.62
397.474	83.62
397.698	77.62
397.922	84.62
398.147	100.62
398.371	78.62
398.595	85.62
398.82	82.62
399.044	72.62
399.268	93.62
399.492	86.62
399.717	80.62
399.941	77.62
400.165	84.62
400.389	85.62
400.613	97.62
400.837	79.62
401.062	85.62
401.286	84.62
401.51	91.62
401.734	82.62
401.958	106.62
402.182	129.62
402.406	171.62
402.63	123.62
402.854	91.62
403.078	82.62
403.302	71.62
403.526	91.62
403.75	96.62
403.974	77.62
404.198	98.62
404.422	99.62
404.645	90.62
404.869	91.62
405.093	113.62
405.317	109.62
405.541	107.62
405.765	104.62
405.988	138.62
406.212	194.62
406.436	254.62
406.66	172.62
406.883	111.62
407.107	90.62
407.331	96.62
407.555	113.62
407.778	103.62
408.002	88.62
408.226	91.62
408.449	86.62
408.673	95.62
408.896	83.62
409.12	99.62
409.344	99.62
409.567	93.62
409.791	99.62
410.014	77.62
410.238	96.62
410.461	89.62
410.685	96.62
410.908	88.62
411.132	101.62
411.355	99.62
411.578	86.62
411.802	80.62
412.025	91.62
412.249	99.62
412.472	100.62
412.695	107.62
412.919	103.62
413.142	94.62
413.365	85.62
413.589	81.62
413.812	98.62
414.035	78.62
414.258	73.62
414.482	91.62
414.705	84.62
414.928	84.62
415.151	89.62
415.374	89.62
415.597	84.62
415.821	89.62
416.044	79.62
416.267	81.62
416.49	90.62
416.713	101.62
416.936	85.62
417.159	92.62
417.382	98.62
417.605	88.62
417.828	101.62
418.051	96.62
418.274	84.62
418.497	81.62
418.72	72.62
418.943	77.62
419.166	97.62
419.389	100.62
419.611	71.62
419.834	84.62
420.057	91.62
420.28	87.62
420.503	86.62
420.726	88.62
420.948	75.62
421.171	104.62
421.394	76.62
421.617	84.62
421.839	103.62
422.062	79.62
422.285	74.62
422.507	92.62
422.73	113.62
422.953	105.62
423.175	88.62
423.398	82.62
423.621	93.62
423.843	83.62
424.066	88.62
424.288	91.62
424.511	97.62
424.733	96.62
424.956	112.62
425.178	98.62
425.401	105.62
425.623	103.62
425.846	89.62
426.068	94.62
426.291	91.62
426.513	102.62
426.735	94.62
426.958	81.62
427.18	105.62
427.402	169.62
427.625	212.62
427.847	166.62
428.069	141.62
428.292	96.62
428.514	86.62
428.736	86.62
428.958	76.62
429.181	79.62
429.403	82.62
429.625	95.62
429.847	105.62
430.069	114.62
430.292	89.62
430.514	79.62
430.736	84.62
430.958	76.62
431.18	83.62
431.402	83.62
431.624	86.62
431.846	97.62
432.068	100.62
432.29	96.62
432.512	75.62
432.734	86.62
432.956	92.62
433.178	91.62
433.4	95.62
433.622	90.62
433.844	88.62
434.066	105.62
434.287	85.62
434.509	87.62
434.731	92.62
434.953	94.62
435.175	93.62
435.397	99.62
435.618	85.62
435.84	108.62
436.062	134.62
436.284	123.62
436.505	120.62
436.727	102.62
436.949	92.62
437.17	90.62
437.392	89.62
437.614	96.62
437.835	98.62
438.057	135.62
438.278	125.62
438.5	105.62
438.721	120.62
438.943	93.62
439.165	98.62
439.386	82.62
439.608	80.62
439.829	117.62
440.05	141.62
440.272	164.62
440.493	103.62
440.715	78.62
440.936	89.62
441.158	89.62
441.379	87.62
441.6	93.62
441.822	85.62
442.043	91.62
442.264	111.62
442.486	118.62
442.707	92.62
442.928	105.62
443.149	153.62
443.371	152.62
443.592	127.62
443.813	127.62
444.034	105.62
444.255	84.62
444.476	96.62
444.698	93.62
444.919	89.62
445.14	134.62
445.361	133.62
445.582	133.62
445.803	149.62
446.024	153.62
446.245	147.62
446.466	124.62
446.687	111.62
446.908	87.62
447.129	95.62
447.35	98.62
447.571	89.62
447.792	92.62
448.013	116.62
448.234	126.62
448.455	104.62
448.675	126.62
448.896	137.62
449.117	114.62
449.338	117.62
449.559	145.62
449.779	152.62
450	85.62
450.221	83.62
450.442	101.62
450.662	116.62
450.883	107.62
451.104	111.62
451.324	112.62
451.545	90.62
451.766	93.62
451.986	101.62
452.207	82.62
452.428	91.62
452.648	107.62
452.869	125.62
453.089	112.62
453.31	131.62
453.53	94.62
453.751	76.62
453.971	95.62
454.192	121.62
454.412	109.62
454.633	90.62
454.853	77.62
455.073	78.62
455.294	95.62
455.514	120.62
455.734	99.62
455.955	81.62
456.175	77.62
456.395	84.62
456.616	87.62
456.836	85.62
457.056	77.62
457.276	91.62
457.497	78.62
457.717	82.62
457.937	88.62
458.157	88.62
458.377	101.62
458.598	115.62
458.818	173.62
459.038	170.62
459.258	134.62
459.478	98.62
459.698	91.62
459.918	87.62
460.138	96.62
460.358	89.62
460.578	89.62
460.798	92.62
461.018	90.62
461.238	84.62
461.458	80.62
461.678	75.62
461.898	87.62
462.118	61.62
462.338	84.62
462.558	96.62
462.777	84.62
462.997	92.62
463.217	88.62
463.437	89.62
463.657	87.62
463.876	81.62
464.096	78.62
464.316	95.62
464.536	98.62
464.755	90.62
464.975	127.62
465.195	195.62
465.414	204.62
465.634	91.62
465.854	92.62
466.073	90.62
466.293	105.62
466.512	91.62
466.732	81.62
466.951	90.62
467.171	92.62
467.391	94.62
467.61	102.62
467.829	119.62
468.049	177.62
468.268	241.62
468.488	115.62
468.707	79.62
468.927	86.62
469.146	86.62
469.365	90.62
469.585	91.62
469.804	91.62
470.023	111.62
470.243	91.62
470.462	112.62
470.681	122.62
470.901	89.62
471.12	78.62
471.339	82.62
471.558	88.62
471.777	102.62
471.997	128.62
472.216	306.62
472.435	593.62
472.654	200.62
472.873	86.62
473.092	89.62
473.311	78.62
473.53	92.62
473.749	88.62
473.968	111.62
474.187	111.62
474.406	94.62
474.625	99.62
474.844	78.62
475.063	87.62
475.282	78.62
475.501	72.62
475.72	87.62
475.939	91.62
476.158	86.62
476.377	91.62
476.596	99.62
476.814	114.62
477.033	114.62
477.252	91.62
477.471	81.62
477.69	97.62
477.908	88.62
478.127	80.62
478.346	92.62
478.564	87.62
478.783	99.62
479.002	101.62
479.22	86.62
479.439	105.62
479.658	106.62
479.876	100.62
480.095	108.62
480.313	105.62
480.532	107.62
480.751	145.62
480.969	311.62
481.188	981.62
481.406	634.62
481.624	152.62
481.843	103.62
482.061	62.62
482.28	69.62
482.498	90.62
482.717	72.62
482.935	86.62
483.153	96.62
483.372	91.62
483.59	80.62
483.808	75.62
484.027	77.62
484.245	86.62
484.463	99.62
484.681	82.62
484.9	94.62
485.118	92.62
485.336	75.62
485.554	104.62
485.772	85.62
485.99	97.62
486.209	100.62
486.427	87.62
486.645	111.62
486.863	127.62
487.081	102.62
487.299	83.62
487.517	96.62
487.735	85.62
487.953	97.62
488.171	84.62
488.389	90.62
488.607	98.62
488.825	109.62
489.043	82.62
489.261	87.62
489.479	82.62
489.696	83.62
489.914	82.62
490.132	84.62
490.35	89.62
490.568	84.62
490.786	90.62
491.003	71.62
491.221	84.62
491.439	81.62
491.657	90.62
491.874	84.62
492.092	87.62
492.31	94.62
492.527	100.62
492.745	84.62
492.963	92.62
493.18	90.62
493.398	83.62
493.615	84.62
493.833	95.62
494.05	92.62
494.268	82.62
494.485	73.62
494.703	89.62
494.92	84.62
495.138	90.62
495.355	92.62
495.573	91.62
495.79	85.62
496.008	90.62
496.225	76.62
496.442	82.62
496.66	82.62
496.877	69.62
497.094	98.62
497.312	88.62
497.529	79.62
497.746	83.62
497.963	96.62
498.181	80.62
498.398	99.62
498.615	117.62
498.832	111.62
499.049	95.62
499.267	85.62
499.484	87.62
499.701	91.62
499.918	88.62
500.135	84.62
500.352	98.62
500.569	84.62
500.786	96.62
501.003	95.62
501.22	84.62
501.437	95.62
501.654	95.62
501.871	100.62
502.088	93.62
502.305	87.62
502.522	94.62
502.739	93.62
502.956	82.62
503.172	108.62
503.389	97.62
503.606	112.62
503.823	101.62
504.04	101.62
504.256	89.62
504.473	82.62
504.69	76.62
504.907	105.62
505.123	99.62
505.34	86.62
505.557	80.62
505.773	95.62
505.99	93.62
506.207	98.62
506.423	81.62
506.64	86.62
506.856	98.62
507.073	97.62
507.289	108.62
507.506	104.62
507.722	128.62
507.939	120.62
508.155	86.62
508.372	98.62
508.588	77.62
508.805	88.62
509.021	96.62
509.238	100.62
509.454	99.62
509.67	108.62
509.887	113.62
510.103	119.62
510.319	227.62
510.536	852.62
510.752	2905.62
510.968	823.62
511.184	167.62
511.401	122.62
511.617	97.62
511.833	103.62
512.049	78.62
512.265	95.62
512.481	91.62
512.698	90.62
512.914	93.62
513.13	85.62
513.346	81.62
513.562	87.62
513.778	111.62
513.994	99.62
514.21	109.62
514.426	120.62
514.642	158.62
514.858	131.62
