Data from Circ_2014_H10_HRD10591_00031.txt Node
Date: Wed Jan 03 10:02:15 EST 2024
User: Yrep
Spectrometer: HR+D1059
Trigger mode: 1
Integration Time (sec): 1.000000E-1
Scans to average: 1
Electric dark correction enabled: true
Nonlinearity correction enabled: false
Boxcar width: 0
XAxis mode: Wavelengths
Number of Pixels in Spectrum: 2048
>>>>>Begin Spectral Data<<<<<
223.165	-10.81
223.4	-10.81
223.635	-10.81
223.869	-12.81
224.104	-23.81
224.338	-23.81
224.573	-13.81
224.808	-13.81
225.042	-10.81
225.277	-9.81
225.511	-3.81
225.746	9.19
225.98	16.19
226.215	10.19
226.449	18.19
226.683	19.19
226.918	16.19
227.152	34.19
227.387	34.19
227.621	32.19
227.856	28.19
228.09	44.19
228.324	56.19
228.559	58.19
228.793	51.19
229.027	65.19
229.262	56.19
229.496	83.19
229.73	80.19
229.964	96.19
230.199	70.19
230.433	71.19
230.667	79.19
230.901	71.19
231.136	75.19
231.37	70.19
231.604	79.19
231.838	91.19
232.072	85.19
232.306	72.19
232.541	72.19
232.775	79.19
233.009	85.19
233.243	82.19
233.477	96.19
233.711	78.19
233.945	78.19
234.179	77.19
234.413	89.19
234.647	80.19
234.881	67.19
235.115	73.19
235.349	92.19
235.583	76.19
235.817	83.19
236.051	80.19
236.285	87.19
236.519	73.19
236.753	74.19
236.987	80.19
237.221	83.19
237.455	67.19
237.689	72.19
237.922	89.19
238.156	82.19
238.39	71.19
238.624	66.19
238.858	72.19
239.091	72.19
239.325	85.19
239.559	78.19
239.793	83.19
240.027	70.19
240.26	78.19
240.494	70.19
240.728	79.19
240.961	74.19
241.195	70.19
241.429	90.19
241.662	76.19
241.896	76.19
242.13	85.19
242.363	78.19
242.597	78.19
242.83	75.19
243.064	70.19
243.298	78.19
243.531	83.19
243.765	83.19
243.998	70.19
244.232	75.19
244.465	92.19
244.699	102.19
244.932	80.19
245.166	99.19
245.399	68.19
245.633	77.19
245.866	77.19
246.099	91.19
246.333	85.19
246.566	82.19
246.8	66.19
247.033	79.19
247.266	88.19
247.5	78.19
247.733	62.19
247.966	74.19
248.2	81.19
248.433	75.19
248.666	76.19
248.899	86.19
249.133	87.19
249.366	96.19
249.599	103.19
249.832	74.19
250.066	79.19
250.299	95.19
250.532	93.19
250.765	74.19
250.998	85.19
251.231	90.19
251.465	74.19
251.698	82.19
251.931	85.19
252.164	79.19
252.397	98.19
252.63	77.19
252.863	74.19
253.096	74.19
253.329	67.19
253.562	88.19
253.795	78.19
254.028	84.19
254.261	88.19
254.494	91.19
254.727	84.19
254.96	79.19
255.193	73.19
255.426	83.19
255.659	72.19
255.892	76.19
256.124	74.19
256.357	69.19
256.59	99.19
256.823	84.19
257.056	80.19
257.289	74.19
257.521	74.19
257.754	79.19
257.987	87.19
258.22	82.19
258.452	83.19
258.685	67.19
258.918	84.19
259.151	86.19
259.383	78.19
259.616	81.19
259.849	80.19
260.081	81.19
260.314	77.19
260.547	78.19
260.779	95.19
261.012	70.19
261.244	75.19
261.477	98.19
261.71	97.19
261.942	114.19
262.175	122.19
262.407	84.19
262.64	82.19
262.872	85.19
263.105	84.19
263.337	92.19
263.57	73.19
263.802	99.19
264.035	79.19
264.267	73.19
264.499	81.19
264.732	82.19
264.964	83.19
265.197	86.19
265.429	93.19
265.661	97.19
265.894	73.19
266.126	87.19
266.358	79.19
266.591	88.19
266.823	79.19
267.055	83.19
267.287	78.19
267.52	77.19
267.752	78.19
267.984	87.19
268.216	97.19
268.448	84.19
268.681	84.19
268.913	83.19
269.145	76.19
269.377	80.19
269.609	73.19
269.841	86.19
270.073	87.19
270.306	91.19
270.538	77.19
270.77	77.19
271.002	80.19
271.234	88.19
271.466	82.19
271.698	100.19
271.93	83.19
272.162	84.19
272.394	77.19
272.626	84.19
272.858	83.19
273.09	89.19
273.322	92.19
273.553	94.19
273.785	90.19
274.017	88.19
274.249	77.19
274.481	95.19
274.713	79.19
274.945	87.19
275.176	91.19
275.408	89.19
275.64	80.19
275.872	80.19
276.104	85.19
276.335	90.19
276.567	99.19
276.799	108.19
277.031	110.19
277.262	88.19
277.494	91.19
277.726	67.19
277.957	92.19
278.189	94.19
278.421	92.19
278.652	80.19
278.884	78.19
279.115	91.19
279.347	100.19
279.579	91.19
279.81	94.19
280.042	93.19
280.273	81.19
280.505	99.19
280.736	87.19
280.968	95.19
281.199	89.19
281.431	83.19
281.662	83.19
281.894	96.19
282.125	99.19
282.356	134.19
282.588	146.19
282.819	95.19
283.051	86.19
283.282	77.19
283.513	101.19
283.745	85.19
283.976	90.19
284.207	85.19
284.439	88.19
284.67	94.19
284.901	85.19
285.132	84.19
285.364	103.19
285.595	94.19
285.826	87.19
286.057	85.19
286.288	87.19
286.52	82.19
286.751	83.19
286.982	96.19
287.213	83.19
287.444	96.19
287.675	89.19
287.906	91.19
288.138	98.19
288.369	92.19
288.6	92.19
288.831	90.19
289.062	74.19
289.293	84.19
289.524	90.19
289.755	89.19
289.986	92.19
290.217	80.19
290.448	93.19
290.679	81.19
290.91	98.19
291.141	95.19
291.371	78.19
291.602	83.19
291.833	86.19
292.064	96.19
292.295	84.19
292.526	88.19
292.757	80.19
292.987	91.19
293.218	81.19
293.449	100.19
293.68	101.19
293.91	82.19
294.141	79.19
294.372	79.19
294.603	95.19
294.833	89.19
295.064	87.19
295.295	111.19
295.525	103.19
295.756	103.19
295.987	101.19
296.217	133.19
296.448	146.19
296.679	94.19
296.909	88.19
297.14	87.19
297.37	87.19
297.601	84.19
297.831	87.19
298.062	88.19
298.292	80.19
298.523	95.19
298.753	90.19
298.984	80.19
299.214	75.19
299.445	92.19
299.675	103.19
299.905	90.19
300.136	84.19
300.366	99.19
300.597	76.19
300.827	94.19
301.057	98.19
301.288	104.19
301.518	104.19
301.748	88.19
301.979	103.19
302.209	89.19
302.439	86.19
302.669	93.19
302.9	91.19
303.13	91.19
303.36	99.19
303.59	94.19
303.82	109.19
304.051	93.19
304.281	86.19
304.511	91.19
304.741	88.19
304.971	100.19
305.201	93.19
305.431	103.19
305.661	79.19
305.891	93.19
306.121	104.19
306.352	107.19
306.582	109.19
306.812	111.19
307.042	96.19
307.272	94.19
307.502	91.19
307.731	84.19
307.961	93.19
308.191	88.19
308.421	87.19
308.651	77.19
308.881	108.19
309.111	113.19
309.341	89.19
309.571	97.19
309.8	92.19
310.03	95.19
310.26	99.19
310.49	110.19
310.72	105.19
310.949	106.19
311.179	105.19
311.409	97.19
311.639	92.19
311.868	83.19
312.098	96.19
312.328	100.19
312.557	87.19
312.787	102.19
313.017	92.19
313.246	86.19
313.476	80.19
313.706	88.19
313.935	85.19
314.165	94.19
314.394	102.19
314.624	101.19
314.853	90.19
315.083	79.19
315.312	85.19
315.542	105.19
315.771	94.19
316.001	91.19
316.23	93.19
316.46	91.19
316.689	80.19
316.919	95.19
317.148	98.19
317.377	87.19
317.607	92.19
317.836	95.19
318.065	91.19
318.295	98.19
318.524	84.19
318.753	92.19
318.983	88.19
319.212	100.19
319.441	121.19
319.67	98.19
319.9	106.19
320.129	94.19
320.358	88.19
320.587	103.19
320.816	86.19
321.046	105.19
321.275	100.19
321.504	102.19
321.733	82.19
321.962	88.19
322.191	103.19
322.42	107.19
322.649	108.19
322.878	114.19
323.108	120.19
323.337	125.19
323.566	136.19
323.795	164.19
324.024	223.19
324.253	428.19
324.482	876.19
324.71	1796.19
324.939	2338.19
325.168	890.19
325.397	237.19
325.626	170.19
325.855	126.19
326.084	136.19
326.313	133.19
326.542	144.19
326.77	238.19
326.999	475.19
327.228	990.19
327.457	1795.19
327.686	1401.19
327.914	406.19
328.143	202.19
328.372	154.19
328.6	115.19
328.829	136.19
329.058	135.19
329.287	128.19
329.515	112.19
329.744	98.19
329.972	111.19
330.201	102.19
330.43	119.19
330.658	137.19
330.887	161.19
331.115	137.19
331.344	108.19
331.572	106.19
331.801	102.19
332.03	107.19
332.258	104.19
332.486	99.19
332.715	88.19
332.943	101.19
333.172	107.19
333.4	104.19
333.629	110.19
333.857	116.19
334.085	126.19
334.314	104.19
334.542	137.19
334.771	125.19
334.999	108.19
335.227	102.19
335.455	90.19
335.684	95.19
335.912	83.19
336.14	93.19
336.369	93.19
336.597	96.19
336.825	86.19
337.053	90.19
337.281	79.19
337.51	85.19
337.738	91.19
337.966	85.19
338.194	99.19
338.422	105.19
338.65	95.19
338.878	80.19
339.106	89.19
339.334	83.19
339.562	91.19
339.79	87.19
340.018	79.19
340.246	107.19
340.474	87.19
340.702	99.19
340.93	95.19
341.158	99.19
341.386	94.19
341.614	92.19
341.842	117.19
342.07	100.19
342.298	86.19
342.526	88.19
342.754	91.19
342.981	104.19
343.209	88.19
343.437	97.19
343.665	87.19
343.893	87.19
344.12	94.19
344.348	103.19
344.576	88.19
344.804	100.19
345.031	100.19
345.259	87.19
345.487	101.19
345.714	89.19
345.942	88.19
346.17	92.19
346.397	109.19
346.625	96.19
346.853	81.19
347.08	99.19
347.308	92.19
347.535	94.19
347.763	110.19
347.99	109.19
348.218	100.19
348.445	106.19
348.673	104.19
348.9	96.19
349.128	92.19
349.355	97.19
349.583	109.19
349.81	90.19
350.037	106.19
350.265	93.19
350.492	91.19
350.72	105.19
350.947	114.19
351.174	120.19
351.402	105.19
351.629	102.19
351.856	111.19
352.083	99.19
352.311	109.19
352.538	123.19
352.765	132.19
352.992	109.19
353.22	98.19
353.447	82.19
353.674	85.19
353.901	94.19
354.128	86.19
354.355	113.19
354.583	102.19
354.81	93.19
355.037	79.19
355.264	95.19
355.491	80.19
355.718	90.19
355.945	90.19
356.172	95.19
356.399	91.19
356.626	104.19
356.853	96.19
357.08	80.19
357.307	100.19
357.534	85.19
357.761	95.19
357.988	96.19
358.215	81.19
358.441	94.19
358.668	90.19
358.895	74.19
359.122	85.19
359.349	88.19
359.576	104.19
359.802	108.19
360.029	131.19
360.256	108.19
360.483	98.19
360.709	76.19
360.936	107.19
361.163	111.19
361.39	102.19
361.616	91.19
361.843	74.19
362.07	95.19
362.296	98.19
362.523	94.19
362.749	93.19
362.976	102.19
363.203	80.19
363.429	87.19
363.656	69.19
363.882	95.19
364.109	101.19
364.335	99.19
364.562	90.19
364.788	93.19
365.015	89.19
365.241	99.19
365.468	114.19
365.694	104.19
365.92	95.19
366.147	88.19
366.373	86.19
366.599	82.19
366.826	92.19
367.052	90.19
367.278	77.19
367.505	80.19
367.731	82.19
367.957	88.19
368.184	104.19
368.41	97.19
368.636	102.19
368.862	108.19
369.089	114.19
369.315	97.19
369.541	99.19
369.767	88.19
369.993	78.19
370.219	93.19
370.445	82.19
370.672	95.19
370.898	82.19
371.124	86.19
371.35	93.19
371.576	96.19
371.802	100.19
372.028	85.19
372.254	93.19
372.48	83.19
372.706	85.19
372.932	85.19
373.158	86.19
373.384	78.19
373.61	84.19
373.835	93.19
374.061	83.19
374.287	104.19
374.513	86.19
374.739	97.19
374.965	76.19
375.191	85.19
375.416	82.19
375.642	86.19
375.868	98.19
376.094	96.19
376.319	98.19
376.545	92.19
376.771	102.19
376.997	104.19
377.222	99.19
377.448	101.19
377.674	99.19
377.899	91.19
378.125	85.19
378.35	86.19
378.576	82.19
378.802	81.19
379.027	88.19
379.253	98.19
379.478	99.19
379.704	104.19
379.929	88.19
380.155	87.19
380.38	89.19
380.606	99.19
380.831	99.19
381.057	103.19
381.282	82.19
381.507	89.19
381.733	91.19
381.958	98.19
382.184	106.19
382.409	108.19
382.634	100.19
382.86	104.19
383.085	95.19
383.31	104.19
383.535	104.19
383.761	112.19
383.986	114.19
384.211	99.19
384.436	116.19
384.662	103.19
384.887	97.19
385.112	88.19
385.337	119.19
385.562	116.19
385.787	106.19
386.013	120.19
386.238	121.19
386.463	102.19
386.688	109.19
386.913	100.19
387.138	103.19
387.363	95.19
387.588	105.19
387.813	106.19
388.038	106.19
388.263	105.19
388.488	119.19
388.713	97.19
388.938	94.19
389.163	100.19
389.387	93.19
389.612	99.19
389.837	93.19
390.062	89.19
390.287	88.19
390.512	91.19
390.736	87.19
390.961	102.19
391.186	94.19
391.411	94.19
391.636	98.19
391.86	64.19
392.085	78.19
392.31	87.19
392.534	95.19
392.759	83.19
392.984	89.19
393.208	100.19
393.433	96.19
393.658	94.19
393.882	84.19
394.107	88.19
394.331	100.19
394.556	84.19
394.78	98.19
395.005	90.19
395.229	76.19
395.454	86.19
395.678	91.19
395.903	83.19
396.127	76.19
396.352	87.19
396.576	79.19
396.801	88.19
397.025	85.19
397.249	88.19
397.474	83.19
397.698	86.19
397.922	85.19
398.147	81.19
398.371	94.19
398.595	94.19
398.82	81.19
399.044	80.19
399.268	75.19
399.492	77.19
399.717	88.19
399.941	86.19
400.165	82.19
400.389	86.19
400.613	75.19
400.837	75.19
401.062	96.19
401.286	84.19
401.51	86.19
401.734	96.19
401.958	94.19
402.182	134.19
402.406	174.19
402.63	115.19
402.854	91.19
403.078	90.19
403.302	86.19
403.526	90.19
403.75	95.19
403.974	84.19
404.198	86.19
404.422	90.19
404.645	98.19
404.869	88.19
405.093	87.19
405.317	95.19
405.541	95.19
405.765	94.19
405.988	122.19
406.212	190.19
406.436	266.19
406.66	171.19
406.883	106.19
407.107	97.19
407.331	86.19
407.555	91.19
407.778	99.19
408.002	89.19
408.226	95.19
408.449	92.19
408.673	98.19
408.896	85.19
409.12	99.19
409.344	96.19
409.567	94.19
409.791	92.19
410.014	88.19
410.238	91.19
410.461	93.19
410.685	89.19
410.908	98.19
411.132	109.19
411.355	95.19
411.578	85.19
411.802	82.19
412.025	92.19
412.249	89.19
412.472	83.19
412.695	94.19
412.919	90.19
413.142	93.19
413.365	88.19
413.589	90.19
413.812	93.19
414.035	87.19
414.258	98.19
414.482	101.19
414.705	98.19
414.928	82.19
415.151	90.19
415.374	96.19
415.597	87.19
415.821	85.19
416.044	92.19
416.267	89.19
416.49	72.19
416.713	105.19
416.936	88.19
417.159	87.19
417.382	80.19
417.605	71.19
417.828	101.19
418.051	106.19
418.274	90.19
418.497	94.19
418.72	80.19
418.943	88.19
419.166	75.19
419.389	90.19
419.611	94.19
419.834	82.19
420.057	88.19
420.28	101.19
420.503	86.19
420.726	98.19
420.948	83.19
421.171	102.19
421.394	95.19
421.617	91.19
421.839	95.19
422.062	97.19
422.285	106.19
422.507	90.19
422.73	95.19
422.953	86.19
423.175	95.19
423.398	94.19
423.621	98.19
423.843	91.19
424.066	91.19
424.288	107.19
424.511	88.19
424.733	100.19
424.956	106.19
425.178	110.19
425.401	105.19
425.623	92.19
425.846	84.19
426.068	98.19
426.291	89.19
426.513	102.19
426.735	82.19
426.958	110.19
427.18	99.19
427.402	138.19
427.625	177.19
427.847	144.19
428.069	100.19
428.292	110.19
428.514	80.19
428.736	91.19
428.958	76.19
429.181	80.19
429.403	81.19
429.625	79.19
429.847	99.19
430.069	106.19
430.292	100.19
430.514	98.19
430.736	83.19
430.958	75.19
431.18	70.19
431.402	81.19
431.624	98.19
431.846	93.19
432.068	92.19
432.29	84.19
432.512	93.19
432.734	81.19
432.956	90.19
433.178	105.19
433.4	101.19
433.622	105.19
433.844	95.19
434.066	102.19
434.287	71.19
434.509	95.19
434.731	79.19
434.953	109.19
435.175	102.19
435.397	95.19
435.618	95.19
435.84	118.19
436.062	126.19
436.284	98.19
436.505	101.19
436.727	102.19
436.949	100.19
437.17	94.19
437.392	93.19
437.614	102.19
437.835	113.19
438.057	120.19
438.278	112.19
438.5	103.19
438.721	119.19
438.943	99.19
439.165	85.19
439.386	95.19
439.608	85.19
439.829	102.19
440.05	129.19
440.272	138.19
440.493	114.19
440.715	75.19
440.936	96.19
441.158	89.19
441.379	87.19
441.6	97.19
441.822	79.19
442.043	90.19
442.264	106.19
442.486	102.19
442.707	95.19
442.928	119.19
443.149	126.19
443.371	138.19
443.592	105.19
443.813	96.19
444.034	117.19
444.255	98.19
444.476	96.19
444.698	97.19
444.919	91.19
445.14	128.19
445.361	114.19
445.582	114.19
445.803	130.19
446.024	120.19
446.245	125.19
446.466	113.19
446.687	81.19
446.908	101.19
447.129	86.19
447.35	101.19
447.571	100.19
447.792	95.19
448.013	91.19
448.234	112.19
448.455	94.19
448.675	104.19
448.896	123.19
449.117	104.19
449.338	107.19
449.559	126.19
449.779	140.19
450	97.19
450.221	83.19
450.442	100.19
450.662	98.19
450.883	122.19
451.104	120.19
451.324	95.19
451.545	80.19
451.766	83.19
451.986	91.19
452.207	87.19
452.428	88.19
452.648	97.19
452.869	119.19
453.089	117.19
453.31	123.19
453.53	82.19
453.751	102.19
453.971	110.19
454.192	117.19
454.412	115.19
454.633	85.19
454.853	83.19
455.073	79.19
455.294	95.19
455.514	108.19
455.734	74.19
455.955	80.19
456.175	77.19
456.395	83.19
456.616	82.19
456.836	80.19
457.056	78.19
457.276	75.19
457.497	80.19
457.717	82.19
457.937	79.19
458.157	89.19
458.377	95.19
458.598	102.19
458.818	159.19
459.038	178.19
459.258	116.19
459.478	79.19
459.698	101.19
459.918	87.19
460.138	93.19
460.358	71.19
460.578	85.19
460.798	86.19
461.018	94.19
461.238	89.19
461.458	94.19
461.678	86.19
461.898	77.19
462.118	97.19
462.338	82.19
462.558	92.19
462.777	78.19
462.997	93.19
463.217	93.19
463.437	86.19
463.657	80.19
463.876	95.19
464.096	76.19
464.316	88.19
464.536	90.19
464.755	81.19
464.975	102.19
465.195	169.19
465.414	185.19
465.634	107.19
465.854	96.19
466.073	96.19
466.293	88.19
466.512	102.19
466.732	95.19
466.951	91.19
467.171	97.19
467.391	86.19
467.61	86.19
467.829	96.19
468.049	99.19
468.268	103.19
468.488	90.19
468.707	86.19
468.927	88.19
469.146	93.19
469.365	76.19
469.585	94.19
469.804	98.19
470.023	94.19
470.243	99.19
470.462	107.19
470.681	118.19
470.901	98.19
471.12	84.19
471.339	90.19
471.558	79.19
471.777	76.19
471.997	100.19
472.216	107.19
472.435	126.19
472.654	107.19
472.873	96.19
473.092	79.19
473.311	83.19
473.53	84.19
473.749	85.19
473.968	99.19
474.187	104.19
474.406	95.19
474.625	72.19
474.844	78.19
475.063	85.19
475.282	95.19
475.501	88.19
475.72	90.19
475.939	99.19
476.158	87.19
476.377	81.19
476.596	88.19
476.814	90.19
477.033	84.19
477.252	95.19
477.471	99.19
477.69	91.19
477.908	90.19
478.127	86.19
478.346	92.19
478.564	96.19
478.783	101.19
479.002	97.19
479.22	85.19
479.439	87.19
479.658	76.19
479.876	98.19
480.095	81.19
480.313	99.19
480.532	97.19
480.751	79.19
480.969	106.19
481.188	153.19
481.406	126.19
481.624	93.19
481.843	88.19
482.061	87.19
482.28	95.19
482.498	86.19
482.717	73.19
482.935	85.19
483.153	86.19
483.372	85.19
483.59	88.19
483.808	86.19
484.027	88.19
484.245	93.19
484.463	95.19
484.681	110.19
484.9	70.19
485.118	91.19
485.336	88.19
485.554	93.19
485.772	103.19
485.99	103.19
486.209	103.19
486.427	102.19
486.645	114.19
486.863	131.19
487.081	96.19
487.299	101.19
487.517	102.19
487.735	91.19
487.953	90.19
488.171	83.19
488.389	97.19
488.607	104.19
488.825	102.19
489.043	79.19
489.261	82.19
489.479	99.19
489.696	86.19
489.914	102.19
490.132	104.19
490.35	99.19
490.568	87.19
490.786	96.19
491.003	94.19
491.221	86.19
491.439	99.19
491.657	98.19
491.874	91.19
492.092	76.19
492.31	104.19
492.527	83.19
492.745	85.19
492.963	95.19
493.18	103.19
493.398	92.19
493.615	97.19
493.833	90.19
494.05	86.19
494.268	91.19
494.485	82.19
494.703	89.19
494.92	98.19
495.138	87.19
495.355	91.19
495.573	87.19
495.79	94.19
496.008	103.19
496.225	80.19
496.442	80.19
496.66	99.19
496.877	99.19
497.094	89.19
497.312	84.19
497.529	90.19
497.746	94.19
497.963	93.19
498.181	79.19
498.398	90.19
498.615	101.19
498.832	109.19
499.049	85.19
499.267	92.19
499.484	86.19
499.701	88.19
499.918	79.19
500.135	83.19
500.352	79.19
500.569	89.19
500.786	103.19
501.003	96.19
501.22	92.19
501.437	81.19
501.654	102.19
501.871	103.19
502.088	95.19
502.305	94.19
502.522	79.19
502.739	89.19
502.956	106.19
503.172	90.19
503.389	88.19
503.606	112.19
503.823	106.19
504.04	101.19
504.256	79.19
504.473	87.19
504.69	102.19
504.907	82.19
505.123	80.19
505.34	80.19
505.557	86.19
505.773	81.19
505.99	86.19
506.207	82.19
506.423	101.19
506.64	94.19
506.856	105.19
507.073	90.19
507.289	89.19
507.506	100.19
507.722	118.19
507.939	115.19
508.155	101.19
508.372	101.19
508.588	102.19
508.805	88.19
509.021	101.19
509.238	106.19
509.454	98.19
509.67	100.19
509.887	113.19
510.103	147.19
510.319	211.19
510.536	846.19
510.752	2871.19
510.968	810.19
511.184	177.19
511.401	119.19
511.617	116.19
511.833	102.19
512.049	118.19
512.265	91.19
512.481	101.19
512.698	94.19
512.914	80.19
513.13	91.19
513.346	89.19
513.562	99.19
513.778	89.19
513.994	109.19
514.21	106.19
514.426	118.19
514.642	136.19
514.858	141.19
515.074	191.19
