Data from Circ_2014_H10_HRD10591_00041.txt Node
Date: Wed Jan 03 10:02:17 EST 2024
User: Yrep
Spectrometer: HR+D1059
Trigger mode: 1
Integration Time (sec): 1.000000E-1
Scans to average: 1
Electric dark correction enabled: true
Nonlinearity correction enabled: false
Boxcar width: 0
XAxis mode: Wavelengths
Number of Pixels in Spectrum: 2048
>>>>>Begin Spectral Data<<<<<
223.165	-20.31
223.4	-20.31
223.635	-20.31
223.869	-21.31
224.104	-15.31
224.338	-24.31
224.573	-13.31
224.808	1.69
225.042	-1.31
225.277	-2.31
225.511	-14.31
225.746	3.69
225.98	-1.31
226.215	0.69
226.449	17.69
226.683	28.69
226.918	34.69
227.152	26.69
227.387	45.69
227.621	43.69
227.856	39.69
228.09	56.69
228.324	39.69
228.559	43.69
228.793	58.69
229.027	59.69
229.262	78.69
229.496	68.69
229.73	67.69
229.964	74.69
230.199	77.69
230.433	66.69
230.667	82.69
230.901	67.69
231.136	84.69
231.37	78.69
231.604	87.69
231.838	85.69
232.072	65.69
232.306	82.69
232.541	75.69
232.775	86.69
233.009	77.69
233.243	85.69
233.477	81.69
233.711	63.69
233.945	80.69
234.179	78.69
234.413	77.69
234.647	79.69
234.881	72.69
235.115	95.69
235.349	83.69
235.583	81.69
235.817	75.69
236.051	73.69
236.285	72.69
236.519	72.69
236.753	85.69
236.987	83.69
237.221	95.69
237.455	67.69
237.689	68.69
237.922	67.69
238.156	71.69
238.39	79.69
238.624	69.69
238.858	74.69
239.091	73.69
239.325	76.69
239.559	81.69
239.793	85.69
240.027	79.69
240.26	72.69
240.494	70.69
240.728	84.69
240.961	84.69
241.195	90.69
241.429	84.69
241.662	75.69
241.896	85.69
242.13	79.69
242.363	82.69
242.597	68.69
242.83	82.69
243.064	74.69
243.298	77.69
243.531	70.69
243.765	73.69
243.998	74.69
244.232	78.69
244.465	77.69
244.699	81.69
244.932	68.69
245.166	76.69
245.399	83.69
245.633	74.69
245.866	66.69
246.099	74.69
246.333	83.69
246.566	80.69
246.8	72.69
247.033	88.69
247.266	75.69
247.5	72.69
247.733	78.69
247.966	87.69
248.2	85.69
248.433	87.69
248.666	85.69
248.899	83.69
249.133	80.69
249.366	97.69
249.599	97.69
249.832	82.69
250.066	65.69
250.299	81.69
250.532	76.69
250.765	82.69
250.998	82.69
251.231	87.69
251.465	75.69
251.698	69.69
251.931	85.69
252.164	77.69
252.397	68.69
252.63	81.69
252.863	83.69
253.096	73.69
253.329	76.69
253.562	82.69
253.795	92.69
254.028	73.69
254.261	84.69
254.494	83.69
254.727	80.69
254.96	90.69
255.193	71.69
255.426	71.69
255.659	80.69
255.892	76.69
256.124	82.69
256.357	89.69
256.59	86.69
256.823	77.69
257.056	84.69
257.289	71.69
257.521	82.69
257.754	86.69
257.987	84.69
258.22	73.69
258.452	81.69
258.685	84.69
258.918	89.69
259.151	85.69
259.383	85.69
259.616	82.69
259.849	79.69
260.081	69.69
260.314	90.69
260.547	79.69
260.779	76.69
261.012	82.69
261.244	83.69
261.477	96.69
261.71	74.69
261.942	97.69
262.175	119.69
262.407	77.69
262.64	81.69
262.872	79.69
263.105	76.69
263.337	92.69
263.57	87.69
263.802	88.69
264.035	90.69
264.267	84.69
264.499	89.69
264.732	77.69
264.964	89.69
265.197	85.69
265.429	79.69
265.661	79.69
265.894	67.69
266.126	76.69
266.358	81.69
266.591	82.69
266.823	91.69
267.055	74.69
267.287	85.69
267.52	94.69
267.752	87.69
267.984	71.69
268.216	85.69
268.448	79.69
268.681	80.69
268.913	92.69
269.145	87.69
269.377	73.69
269.609	65.69
269.841	73.69
270.073	77.69
270.306	65.69
270.538	85.69
270.77	86.69
271.002	87.69
271.234	86.69
271.466	82.69
271.698	111.69
271.93	81.69
272.162	77.69
272.394	91.69
272.626	85.69
272.858	95.69
273.09	78.69
273.322	75.69
273.553	87.69
273.785	69.69
274.017	82.69
274.249	94.69
274.481	77.69
274.713	85.69
274.945	88.69
275.176	97.69
275.408	89.69
275.64	90.69
275.872	81.69
276.104	77.69
276.335	91.69
276.567	97.69
276.799	101.69
277.031	98.69
277.262	87.69
277.494	98.69
277.726	99.69
277.957	75.69
278.189	89.69
278.421	84.69
278.652	81.69
278.884	88.69
279.115	88.69
279.347	76.69
279.579	84.69
279.81	87.69
280.042	78.69
280.273	81.69
280.505	91.69
280.736	86.69
280.968	74.69
281.199	90.69
281.431	92.69
281.662	88.69
281.894	71.69
282.125	100.69
282.356	102.69
282.588	137.69
282.819	114.69
283.051	80.69
283.282	80.69
283.513	90.69
283.745	84.69
283.976	89.69
284.207	107.69
284.439	82.69
284.67	80.69
284.901	91.69
285.132	78.69
285.364	94.69
285.595	95.69
285.826	82.69
286.057	76.69
286.288	89.69
286.52	78.69
286.751	76.69
286.982	89.69
287.213	73.69
287.444	85.69
287.675	84.69
287.906	84.69
288.138	89.69
288.369	90.69
288.6	77.69
288.831	80.69
289.062	83.69
289.293	86.69
289.524	76.69
289.755	96.69
289.986	83.69
290.217	87.69
290.448	85.69
290.679	95.69
290.91	88.69
291.141	70.69
291.371	87.69
291.602	95.69
291.833	87.69
292.064	85.69
292.295	76.69
292.526	101.69
292.757	70.69
292.987	66.69
293.218	85.69
293.449	102.69
293.68	72.69
293.91	82.69
294.141	92.69
294.372	103.69
294.603	102.69
294.833	103.69
295.064	87.69
295.295	75.69
295.525	76.69
295.756	89.69
295.987	121.69
296.217	134.69
296.448	116.69
296.679	84.69
296.909	95.69
297.14	89.69
297.37	61.69
297.601	97.69
297.831	84.69
298.062	77.69
298.292	93.69
298.523	97.69
298.753	99.69
298.984	84.69
299.214	81.69
299.445	82.69
299.675	100.69
299.905	88.69
300.136	84.69
300.366	87.69
300.597	74.69
300.827	75.69
301.057	89.69
301.288	109.69
301.518	86.69
301.748	91.69
301.979	94.69
302.209	78.69
302.439	93.69
302.669	90.69
302.9	85.69
303.13	90.69
303.36	88.69
303.59	92.69
303.82	99.69
304.051	95.69
304.281	75.69
304.511	80.69
304.741	91.69
304.971	87.69
305.201	81.69
305.431	86.69
305.661	91.69
305.891	90.69
306.121	95.69
306.352	99.69
306.582	91.69
306.812	103.69
307.042	91.69
307.272	83.69
307.502	87.69
307.731	87.69
307.961	93.69
308.191	81.69
308.421	89.69
308.651	81.69
308.881	90.69
309.111	91.69
309.341	88.69
309.571	87.69
309.8	88.69
310.03	91.69
310.26	93.69
310.49	100.69
310.72	108.69
310.949	111.69
311.179	99.69
311.409	69.69
311.639	93.69
311.868	99.69
312.098	106.69
312.328	93.69
312.557	106.69
312.787	100.69
313.017	94.69
313.246	91.69
313.476	105.69
313.706	98.69
313.935	90.69
314.165	85.69
314.394	101.69
314.624	90.69
314.853	85.69
315.083	87.69
315.312	90.69
315.542	75.69
315.771	103.69
316.001	96.69
316.23	100.69
316.46	82.69
316.689	92.69
316.919	88.69
317.148	86.69
317.377	80.69
317.607	83.69
317.836	87.69
318.065	89.69
318.295	80.69
318.524	91.69
318.753	104.69
318.983	103.69
319.212	86.69
319.441	92.69
319.67	91.69
319.9	89.69
320.129	98.69
320.358	92.69
320.587	103.69
320.816	76.69
321.046	105.69
321.275	80.69
321.504	91.69
321.733	94.69
321.962	104.69
322.191	94.69
322.42	102.69
322.649	95.69
322.878	109.69
323.108	99.69
323.337	117.69
323.566	131.69
323.795	162.69
324.024	178.69
324.253	349.69
324.482	717.69
324.71	1397.69
324.939	1862.69
325.168	699.69
325.397	241.69
325.626	145.69
325.855	141.69
326.084	124.69
326.313	117.69
326.542	136.69
326.77	208.69
326.999	383.69
327.228	790.69
327.457	1396.69
327.686	1101.69
327.914	328.69
328.143	183.69
328.372	138.69
328.6	125.69
328.829	124.69
329.058	115.69
329.287	117.69
329.515	104.69
329.744	92.69
329.972	102.69
330.201	120.69
330.43	111.69
330.658	119.69
330.887	132.69
331.115	96.69
331.344	96.69
331.572	104.69
331.801	88.69
332.03	103.69
332.258	88.69
332.486	92.69
332.715	98.69
332.943	87.69
333.172	90.69
333.4	80.69
333.629	88.69
333.857	98.69
334.085	100.69
334.314	118.69
334.542	112.69
334.771	123.69
334.999	100.69
335.227	104.69
335.455	106.69
335.684	92.69
335.912	96.69
336.14	110.69
336.369	107.69
336.597	100.69
336.825	94.69
337.053	77.69
337.281	90.69
337.51	80.69
337.738	97.69
337.966	91.69
338.194	77.69
338.422	87.69
338.65	98.69
338.878	90.69
339.106	85.69
339.334	88.69
339.562	97.69
339.79	89.69
340.018	85.69
340.246	91.69
340.474	84.69
340.702	95.69
340.93	64.69
341.158	88.69
341.386	88.69
341.614	94.69
341.842	83.69
342.07	89.69
342.298	83.69
342.526	84.69
342.754	91.69
342.981	100.69
343.209	91.69
343.437	108.69
343.665	97.69
343.893	89.69
344.12	76.69
344.348	88.69
344.576	93.69
344.804	93.69
345.031	89.69
345.259	80.69
345.487	97.69
345.714	89.69
345.942	83.69
346.17	103.69
346.397	85.69
346.625	86.69
346.853	89.69
347.08	86.69
347.308	81.69
347.535	102.69
347.763	97.69
347.99	98.69
348.218	105.69
348.445	104.69
348.673	96.69
348.9	100.69
349.128	86.69
349.355	97.69
349.583	91.69
349.81	96.69
350.037	100.69
350.265	91.69
350.492	91.69
350.72	92.69
350.947	85.69
351.174	109.69
351.402	95.69
351.629	102.69
351.856	100.69
352.083	93.69
352.311	104.69
352.538	103.69
352.765	105.69
352.992	101.69
353.22	108.69
353.447	101.69
353.674	87.69
353.901	111.69
354.128	89.69
354.355	88.69
354.583	101.69
354.81	88.69
355.037	72.69
355.264	91.69
355.491	102.69
355.718	97.69
355.945	98.69
356.172	101.69
356.399	97.69
356.626	80.69
356.853	89.69
357.08	101.69
357.307	95.69
357.534	90.69
357.761	79.69
357.988	104.69
358.215	97.69
358.441	74.69
358.668	92.69
358.895	98.69
359.122	96.69
359.349	81.69
359.576	82.69
359.802	97.69
360.029	101.69
360.256	107.69
360.483	87.69
360.709	76.69
360.936	99.69
361.163	98.69
361.39	89.69
361.616	94.69
361.843	76.69
362.07	87.69
362.296	89.69
362.523	96.69
362.749	96.69
362.976	77.69
363.203	85.69
363.429	79.69
363.656	91.69
363.882	94.69
364.109	80.69
364.335	96.69
364.562	96.69
364.788	105.69
365.015	98.69
365.241	104.69
365.468	100.69
365.694	85.69
365.92	95.69
366.147	81.69
366.373	93.69
366.599	82.69
366.826	86.69
367.052	81.69
367.278	94.69
367.505	92.69
367.731	87.69
367.957	93.69
368.184	90.69
368.41	98.69
368.636	108.69
368.862	123.69
369.089	92.69
369.315	91.69
369.541	87.69
369.767	91.69
369.993	99.69
370.219	90.69
370.445	83.69
370.672	84.69
370.898	74.69
371.124	79.69
371.35	88.69
371.576	87.69
371.802	90.69
372.028	67.69
372.254	75.69
372.48	89.69
372.706	97.69
372.932	88.69
373.158	92.69
373.384	100.69
373.61	99.69
373.835	82.69
374.061	103.69
374.287	85.69
374.513	95.69
374.739	83.69
374.965	87.69
375.191	103.69
375.416	92.69
375.642	92.69
375.868	72.69
376.094	81.69
376.319	95.69
376.545	87.69
376.771	95.69
376.997	92.69
377.222	107.69
377.448	73.69
377.674	98.69
377.899	86.69
378.125	85.69
378.35	94.69
378.576	87.69
378.802	91.69
379.027	94.69
379.253	93.69
379.478	93.69
379.704	92.69
379.929	106.69
380.155	102.69
380.38	92.69
380.606	100.69
380.831	83.69
381.057	98.69
381.282	102.69
381.507	91.69
381.733	95.69
381.958	90.69
382.184	93.69
382.409	107.69
382.634	98.69
382.86	95.69
383.085	104.69
383.31	101.69
383.535	98.69
383.761	93.69
383.986	103.69
384.211	85.69
384.436	97.69
384.662	88.69
384.887	109.69
385.112	104.69
385.337	105.69
385.562	103.69
385.787	92.69
386.013	100.69
386.238	128.69
386.463	113.69
386.688	115.69
386.913	102.69
387.138	102.69
387.363	104.69
387.588	83.69
387.813	98.69
388.038	107.69
388.263	105.69
388.488	104.69
388.713	102.69
388.938	93.69
389.163	86.69
389.387	104.69
389.612	93.69
389.837	86.69
390.062	84.69
390.287	99.69
390.512	78.69
390.736	89.69
390.961	93.69
391.186	89.69
391.411	95.69
391.636	85.69
391.86	83.69
392.085	86.69
392.31	77.69
392.534	88.69
392.759	87.69
392.984	89.69
393.208	87.69
393.433	91.69
393.658	88.69
393.882	66.69
394.107	88.69
394.331	85.69
394.556	101.69
394.78	80.69
395.005	81.69
395.229	73.69
395.454	86.69
395.678	91.69
395.903	95.69
396.127	84.69
396.352	79.69
396.576	78.69
396.801	87.69
397.025	92.69
397.249	84.69
397.474	81.69
397.698	103.69
397.922	88.69
398.147	77.69
398.371	89.69
398.595	92.69
398.82	83.69
399.044	91.69
399.268	76.69
399.492	95.69
399.717	92.69
399.941	86.69
400.165	95.69
400.389	101.69
400.613	80.69
400.837	84.69
401.062	82.69
401.286	97.69
401.51	100.69
401.734	81.69
401.958	99.69
402.182	104.69
402.406	156.69
402.63	111.69
402.854	69.69
403.078	86.69
403.302	76.69
403.526	81.69
403.75	86.69
403.974	95.69
404.198	99.69
404.422	91.69
404.645	85.69
404.869	78.69
405.093	75.69
405.317	96.69
405.541	96.69
405.765	103.69
405.988	109.69
406.212	164.69
406.436	223.69
406.66	153.69
406.883	98.69
407.107	103.69
407.331	78.69
407.555	96.69
407.778	97.69
408.002	99.69
408.226	84.69
408.449	93.69
408.673	86.69
408.896	85.69
409.12	83.69
409.344	87.69
409.567	94.69
409.791	97.69
410.014	96.69
410.238	106.69
410.461	83.69
410.685	90.69
410.908	96.69
411.132	99.69
411.355	105.69
411.578	95.69
411.802	99.69
412.025	77.69
412.249	82.69
412.472	93.69
412.695	91.69
412.919	88.69
413.142	89.69
413.365	85.69
413.589	75.69
413.812	101.69
414.035	84.69
414.258	90.69
414.482	87.69
414.705	92.69
414.928	86.69
415.151	100.69
415.374	87.69
415.597	81.69
415.821	76.69
416.044	76.69
416.267	88.69
416.49	91.69
416.713	78.69
416.936	86.69
417.159	99.69
417.382	86.69
417.605	87.69
417.828	79.69
418.051	77.69
418.274	92.69
418.497	90.69
418.72	97.69
418.943	92.69
419.166	107.69
419.389	87.69
419.611	94.69
419.834	81.69
420.057	93.69
420.28	95.69
420.503	81.69
420.726	77.69
420.948	86.69
421.171	89.69
421.394	90.69
421.617	86.69
421.839	79.69
422.062	90.69
422.285	79.69
422.507	95.69
422.73	100.69
422.953	96.69
423.175	88.69
423.398	103.69
423.621	95.69
423.843	85.69
424.066	80.69
424.288	72.69
424.511	86.69
424.733	96.69
424.956	92.69
425.178	98.69
425.401	85.69
425.623	95.69
425.846	106.69
426.068	92.69
426.291	82.69
426.513	92.69
426.735	84.69
426.958	97.69
427.18	101.69
427.402	124.69
427.625	150.69
427.847	120.69
428.069	102.69
428.292	82.69
428.514	95.69
428.736	82.69
428.958	93.69
429.181	82.69
429.403	66.69
429.625	88.69
429.847	83.69
430.069	83.69
430.292	74.69
430.514	72.69
430.736	83.69
430.958	75.69
431.18	100.69
431.402	84.69
431.624	83.69
431.846	77.69
432.068	92.69
432.29	76.69
432.512	84.69
432.734	92.69
432.956	83.69
433.178	93.69
433.4	91.69
433.622	82.69
433.844	85.69
434.066	87.69
434.287	82.69
434.509	86.69
434.731	84.69
434.953	92.69
435.175	90.69
435.397	76.69
435.618	87.69
435.84	94.69
436.062	113.69
436.284	97.69
436.505	92.69
436.727	102.69
436.949	92.69
437.17	77.69
437.392	86.69
437.614	99.69
437.835	90.69
438.057	119.69
438.278	99.69
438.5	103.69
438.721	128.69
438.943	104.69
439.165	77.69
439.386	102.69
439.608	92.69
439.829	92.69
440.05	115.69
440.272	130.69
440.493	92.69
440.715	96.69
440.936	74.69
441.158	79.69
441.379	77.69
441.6	83.69
441.822	87.69
442.043	96.69
442.264	90.69
442.486	97.69
442.707	85.69
442.928	98.69
443.149	123.69
443.371	131.69
443.592	92.69
443.813	98.69
444.034	89.69
444.255	90.69
444.476	66.69
444.698	78.69
444.919	82.69
445.14	135.69
445.361	118.69
445.582	118.69
445.803	121.69
446.024	137.69
446.245	122.69
446.466	96.69
446.687	75.69
446.908	89.69
447.129	98.69
447.35	75.69
447.571	83.69
447.792	88.69
448.013	103.69
448.234	104.69
448.455	99.69
448.675	83.69
448.896	114.69
449.117	104.69
449.338	96.69
449.559	97.69
449.779	114.69
450	82.69
450.221	102.69
450.442	93.69
450.662	90.69
450.883	99.69
451.104	112.69
451.324	83.69
451.545	95.69
451.766	90.69
451.986	87.69
452.207	85.69
452.428	86.69
452.648	101.69
452.869	104.69
453.089	104.69
453.31	117.69
453.53	92.69
453.751	78.69
453.971	93.69
454.192	113.69
454.412	84.69
454.633	83.69
454.853	94.69
455.073	92.69
455.294	88.69
455.514	98.69
455.734	97.69
455.955	80.69
456.175	77.69
456.395	88.69
456.616	82.69
456.836	79.69
457.056	85.69
457.276	85.69
457.497	87.69
457.717	73.69
457.937	88.69
458.157	84.69
458.377	96.69
458.598	121.69
458.818	139.69
459.038	162.69
459.258	113.69
459.478	90.69
459.698	78.69
459.918	87.69
460.138	87.69
460.358	84.69
460.578	97.69
460.798	87.69
461.018	71.69
461.238	97.69
461.458	88.69
461.678	70.69
461.898	86.69
462.118	80.69
462.338	76.69
462.558	81.69
462.777	82.69
462.997	92.69
463.217	89.69
463.437	82.69
463.657	76.69
463.876	97.69
464.096	88.69
464.316	83.69
464.536	80.69
464.755	91.69
464.975	93.69
465.195	156.69
465.414	167.69
465.634	84.69
465.854	88.69
466.073	98.69
466.293	81.69
466.512	91.69
466.732	82.69
466.951	78.69
467.171	89.69
467.391	94.69
467.61	99.69
467.829	93.69
468.049	90.69
468.268	91.69
468.488	91.69
468.707	94.69
468.927	94.69
469.146	83.69
469.365	84.69
469.585	86.69
469.804	87.69
470.023	116.69
470.243	90.69
470.462	84.69
470.681	86.69
470.901	91.69
471.12	95.69
471.339	85.69
471.558	81.69
471.777	95.69
471.997	94.69
472.216	110.69
472.435	140.69
472.654	109.69
472.873	82.69
473.092	101.69
473.311	96.69
473.53	80.69
473.749	89.69
473.968	91.69
474.187	94.69
474.406	91.69
474.625	89.69
474.844	87.69
475.063	74.69
475.282	91.69
475.501	87.69
475.72	79.69
475.939	80.69
476.158	71.69
476.377	84.69
476.596	83.69
476.814	95.69
477.033	87.69
477.252	84.69
477.471	94.69
477.69	83.69
477.908	80.69
478.127	111.69
478.346	70.69
478.564	85.69
478.783	96.69
479.002	95.69
479.22	100.69
479.439	91.69
479.658	81.69
479.876	85.69
480.095	86.69
480.313	85.69
480.532	95.69
480.751	88.69
480.969	99.69
481.188	192.69
481.406	148.69
481.624	91.69
481.843	81.69
482.061	90.69
482.28	88.69
482.498	80.69
482.717	83.69
482.935	71.69
483.153	82.69
483.372	79.69
483.59	85.69
483.808	71.69
484.027	81.69
484.245	82.69
484.463	88.69
484.681	87.69
484.9	98.69
485.118	97.69
485.336	98.69
485.554	103.69
485.772	98.69
485.99	90.69
486.209	95.69
486.427	91.69
486.645	106.69
486.863	126.69
487.081	105.69
487.299	89.69
487.517	101.69
487.735	92.69
487.953	97.69
488.171	90.69
488.389	96.69
488.607	87.69
488.825	80.69
489.043	82.69
489.261	84.69
489.479	72.69
489.696	96.69
489.914	85.69
490.132	79.69
490.35	87.69
490.568	90.69
490.786	82.69
491.003	81.69
491.221	82.69
491.439	94.69
491.657	96.69
491.874	82.69
492.092	101.69
492.31	102.69
492.527	86.69
492.745	80.69
492.963	90.69
493.18	94.69
493.398	91.69
493.615	96.69
493.833	83.69
494.05	78.69
494.268	88.69
494.485	87.69
494.703	81.69
494.92	91.69
495.138	93.69
495.355	96.69
495.573	93.69
495.79	84.69
496.008	100.69
496.225	85.69
496.442	96.69
496.66	98.69
496.877	97.69
497.094	92.69
497.312	87.69
497.529	86.69
497.746	87.69
497.963	81.69
498.181	81.69
498.398	102.69
498.615	115.69
498.832	105.69
499.049	96.69
499.267	84.69
499.484	90.69
499.701	88.69
499.918	75.69
500.135	86.69
500.352	102.69
500.569	86.69
500.786	88.69
501.003	82.69
501.22	85.69
501.437	92.69
501.654	93.69
501.871	111.69
502.088	93.69
502.305	87.69
502.522	76.69
502.739	84.69
502.956	96.69
503.172	92.69
503.389	94.69
503.606	91.69
503.823	99.69
504.04	87.69
504.256	87.69
504.473	99.69
504.69	90.69
504.907	95.69
505.123	85.69
505.34	93.69
505.557	93.69
505.773	94.69
505.99	93.69
506.207	98.69
506.423	92.69
506.64	90.69
506.856	91.69
507.073	97.69
507.289	100.69
507.506	106.69
507.722	115.69
507.939	102.69
508.155	86.69
508.372	99.69
508.588	93.69
508.805	92.69
509.021	90.69
509.238	84.69
509.454	96.69
509.67	99.69
509.887	130.69
510.103	127.69
510.319	211.69
510.536	777.69
510.752	2434.69
510.968	708.69
511.184	149.69
511.401	100.69
511.617	101.69
511.833	92.69
512.049	90.69
512.265	93.69
512.481	87.69
512.698	102.69
512.914	90.69
513.13	93.69
513.346	82.69
513.562	96.69
513.778	93.69
513.994	105.69
514.21	100.69
514.426	113.69
514.642	126.69
514.858	105.69
515.074	162.69
515.29	424.69
515.506	1530.69
515.721	543.69
515.937	155.69
516.153	109.69
516.369	104.69
516.585	84.69
