Data from Circ_2014_H10_HRD10591_00013.txt Node
Date: Wed Jan 03 10:02:11 EST 2024
User: Yrep
Spectrometer: HR+D1059
Trigger mode: 1
Integration Time (sec): 1.000000E-1
Scans to average: 1
Electric dark correction enabled: true
Nonlinearity correction enabled: false
Boxcar width: 0
XAxis mode: Wavelengths
Number of Pixels in Spectrum: 2048
>>>>>Begin Spectral Data<<<<<
223.165	-22.12
223.4	-22.12
223.635	-22.12
223.869	-24.12
224.104	-19.12
224.338	-7.12
224.573	-7.12
224.808	-21.12
225.042	-9.12
225.277	-7.12
225.511	5.88
225.746	-12.12
225.98	3.88
226.215	4.88
226.449	17.88
226.683	25.88
226.918	26.88
227.152	43.88
227.387	32.88
227.621	36.88
227.856	55.88
228.09	41.88
228.324	40.88
228.559	61.88
228.793	51.88
229.027	58.88
229.262	79.88
229.496	86.88
229.73	94.88
229.964	90.88
230.199	62.88
230.433	61.88
230.667	86.88
230.901	81.88
231.136	86.88
231.37	71.88
231.604	77.88
231.838	82.88
232.072	78.88
232.306	75.88
232.541	76.88
232.775	95.88
233.009	65.88
233.243	86.88
233.477	70.88
233.711	77.88
233.945	91.88
234.179	87.88
234.413	79.88
234.647	82.88
234.881	88.88
235.115	79.88
235.349	74.88
235.583	83.88
235.817	79.88
236.051	82.88
236.285	58.88
236.519	84.88
236.753	87.88
236.987	78.88
237.221	91.88
237.455	74.88
237.689	76.88
237.922	63.88
238.156	81.88
238.39	78.88
238.624	84.88
238.858	66.88
239.091	76.88
239.325	75.88
239.559	84.88
239.793	87.88
240.027	85.88
240.26	82.88
240.494	67.88
240.728	66.88
240.961	74.88
241.195	70.88
241.429	81.88
241.662	77.88
241.896	75.88
242.13	74.88
242.363	77.88
242.597	90.88
242.83	79.88
243.064	75.88
243.298	74.88
243.531	74.88
243.765	60.88
243.998	65.88
244.232	69.88
244.465	86.88
244.699	79.88
244.932	72.88
245.166	73.88
245.399	94.88
245.633	78.88
245.866	74.88
246.099	66.88
246.333	81.88
246.566	55.88
246.8	70.88
247.033	81.88
247.266	77.88
247.5	85.88
247.733	77.88
247.966	81.88
248.2	80.88
248.433	83.88
248.666	92.88
248.899	76.88
249.133	85.88
249.366	102.88
249.599	114.88
249.832	92.88
250.066	82.88
250.299	71.88
250.532	73.88
250.765	75.88
250.998	82.88
251.231	77.88
251.465	83.88
251.698	84.88
251.931	76.88
252.164	80.88
252.397	70.88
252.63	87.88
252.863	75.88
253.096	83.88
253.329	64.88
253.562	76.88
253.795	85.88
254.028	88.88
254.261	86.88
254.494	96.88
254.727	82.88
254.96	76.88
255.193	82.88
255.426	82.88
255.659	72.88
255.892	86.88
256.124	88.88
256.357	92.88
256.59	71.88
256.823	92.88
257.056	83.88
257.289	72.88
257.521	59.88
257.754	62.88
257.987	63.88
258.22	84.88
258.452	80.88
258.685	92.88
258.918	96.88
259.151	64.88
259.383	73.88
259.616	73.88
259.849	70.88
260.081	71.88
260.314	82.88
260.547	77.88
260.779	87.88
261.012	83.88
261.244	77.88
261.477	86.88
261.71	78.88
261.942	125.88
262.175	143.88
262.407	103.88
262.64	79.88
262.872	95.88
263.105	79.88
263.337	72.88
263.57	86.88
263.802	87.88
264.035	85.88
264.267	88.88
264.499	63.88
264.732	76.88
264.964	90.88
265.197	82.88
265.429	79.88
265.661	81.88
265.894	90.88
266.126	91.88
266.358	80.88
266.591	84.88
266.823	87.88
267.055	83.88
267.287	88.88
267.52	80.88
267.752	97.88
267.984	95.88
268.216	84.88
268.448	90.88
268.681	89.88
268.913	76.88
269.145	70.88
269.377	86.88
269.609	74.88
269.841	76.88
270.073	86.88
270.306	80.88
270.538	83.88
270.77	66.88
271.002	82.88
271.234	88.88
271.466	87.88
271.698	76.88
271.93	91.88
272.162	86.88
272.394	85.88
272.626	91.88
272.858	84.88
273.09	75.88
273.322	58.88
273.553	69.88
273.785	83.88
274.017	86.88
274.249	96.88
274.481	90.88
274.713	74.88
274.945	73.88
275.176	88.88
275.408	84.88
275.64	87.88
275.872	73.88
276.104	83.88
276.335	96.88
276.567	109.88
276.799	125.88
277.031	95.88
277.262	80.88
277.494	86.88
277.726	95.88
277.957	75.88
278.189	71.88
278.421	88.88
278.652	83.88
278.884	75.88
279.115	78.88
279.347	68.88
279.579	85.88
279.81	90.88
280.042	87.88
280.273	89.88
280.505	83.88
280.736	73.88
280.968	82.88
281.199	85.88
281.431	91.88
281.662	84.88
281.894	97.88
282.125	105.88
282.356	142.88
282.588	185.88
282.819	126.88
283.051	106.88
283.282	76.88
283.513	95.88
283.745	85.88
283.976	77.88
284.207	87.88
284.439	89.88
284.67	90.88
284.901	74.88
285.132	88.88
285.364	82.88
285.595	85.88
285.826	93.88
286.057	75.88
286.288	91.88
286.52	83.88
286.751	74.88
286.982	99.88
287.213	74.88
287.444	86.88
287.675	82.88
287.906	78.88
288.138	83.88
288.369	82.88
288.6	90.88
288.831	84.88
289.062	78.88
289.293	75.88
289.524	78.88
289.755	98.88
289.986	94.88
290.217	80.88
290.448	93.88
290.679	99.88
290.91	106.88
291.141	75.88
291.371	91.88
291.602	92.88
291.833	75.88
292.064	76.88
292.295	92.88
292.526	85.88
292.757	101.88
292.987	101.88
293.218	76.88
293.449	80.88
293.68	85.88
293.91	86.88
294.141	97.88
294.372	78.88
294.603	87.88
294.833	96.88
295.064	84.88
295.295	96.88
295.525	88.88
295.756	102.88
295.987	136.88
296.217	159.88
296.448	151.88
296.679	98.88
296.909	102.88
297.14	87.88
297.37	90.88
297.601	92.88
297.831	89.88
298.062	99.88
298.292	90.88
298.523	100.88
298.753	92.88
298.984	102.88
299.214	88.88
299.445	89.88
299.675	92.88
299.905	101.88
300.136	88.88
300.366	90.88
300.597	83.88
300.827	91.88
301.057	107.88
301.288	122.88
301.518	93.88
301.748	97.88
301.979	108.88
302.209	87.88
302.439	93.88
302.669	95.88
302.9	96.88
303.13	85.88
303.36	95.88
303.59	97.88
303.82	108.88
304.051	104.88
304.281	86.88
304.511	88.88
304.741	96.88
304.971	75.88
305.201	93.88
305.431	92.88
305.661	79.88
305.891	95.88
306.121	102.88
306.352	97.88
306.582	111.88
306.812	95.88
307.042	90.88
307.272	89.88
307.502	82.88
307.731	100.88
307.961	88.88
308.191	81.88
308.421	82.88
308.651	74.88
308.881	81.88
309.111	96.88
309.341	101.88
309.571	108.88
309.8	104.88
310.03	108.88
310.26	105.88
310.49	100.88
310.72	109.88
310.949	100.88
311.179	108.88
311.409	100.88
311.639	115.88
311.868	98.88
312.098	99.88
312.328	103.88
312.557	105.88
312.787	106.88
313.017	92.88
313.246	90.88
313.476	96.88
313.706	82.88
313.935	88.88
314.165	105.88
314.394	103.88
314.624	106.88
314.853	95.88
315.083	82.88
315.312	78.88
315.542	92.88
315.771	99.88
316.001	99.88
316.23	88.88
316.46	86.88
316.689	83.88
316.919	83.88
317.148	91.88
317.377	89.88
317.607	100.88
317.836	100.88
318.065	84.88
318.295	82.88
318.524	89.88
318.753	95.88
318.983	90.88
319.212	122.88
319.441	121.88
319.67	105.88
319.9	98.88
320.129	96.88
320.358	96.88
320.587	96.88
320.816	102.88
321.046	91.88
321.275	93.88
321.504	88.88
321.733	103.88
321.962	102.88
322.191	111.88
322.42	114.88
322.649	106.88
322.878	111.88
323.108	133.88
323.337	133.88
323.566	152.88
323.795	169.88
324.024	245.88
324.253	504.88
324.482	1061.88
324.71	2220.88
324.939	2931.88
325.168	1056.88
325.397	303.88
325.626	163.88
325.855	135.88
326.084	127.88
326.313	148.88
326.542	171.88
326.77	279.88
326.999	563.88
327.228	1160.88
327.457	2185.88
327.686	1747.88
327.914	454.88
328.143	226.88
328.372	187.88
328.6	123.88
328.829	117.88
329.058	137.88
329.287	149.88
329.515	114.88
329.744	121.88
329.972	110.88
330.201	124.88
330.43	108.88
330.658	127.88
330.887	181.88
331.115	137.88
331.344	116.88
331.572	115.88
331.801	121.88
332.03	96.88
332.258	111.88
332.486	91.88
332.715	103.88
332.943	90.88
333.172	87.88
333.4	93.88
333.629	113.88
333.857	138.88
334.085	111.88
334.314	84.88
334.542	96.88
334.771	99.88
334.999	108.88
335.227	95.88
335.455	105.88
335.684	104.88
335.912	85.88
336.14	104.88
336.369	93.88
336.597	102.88
336.825	103.88
337.053	93.88
337.281	98.88
337.51	81.88
337.738	92.88
337.966	92.88
338.194	105.88
338.422	87.88
338.65	79.88
338.878	92.88
339.106	91.88
339.334	100.88
339.562	92.88
339.79	90.88
340.018	84.88
340.246	88.88
340.474	77.88
340.702	101.88
340.93	92.88
341.158	95.88
341.386	82.88
341.614	111.88
341.842	102.88
342.07	89.88
342.298	96.88
342.526	104.88
342.754	88.88
342.981	101.88
343.209	85.88
343.437	96.88
343.665	87.88
343.893	86.88
344.12	81.88
344.348	93.88
344.576	88.88
344.804	87.88
345.031	97.88
345.259	103.88
345.487	106.88
345.714	92.88
345.942	76.88
346.17	82.88
346.397	95.88
346.625	77.88
346.853	87.88
347.08	97.88
347.308	98.88
347.535	95.88
347.763	99.88
347.99	93.88
348.218	104.88
348.445	117.88
348.673	101.88
348.9	96.88
349.128	84.88
349.355	88.88
349.583	84.88
349.81	107.88
350.037	102.88
350.265	100.88
350.492	97.88
350.72	84.88
350.947	97.88
351.174	111.88
351.402	115.88
351.629	114.88
351.856	96.88
352.083	109.88
352.311	113.88
352.538	110.88
352.765	115.88
352.992	115.88
353.22	114.88
353.447	103.88
353.674	89.88
353.901	90.88
354.128	90.88
354.355	88.88
354.583	103.88
354.81	93.88
355.037	98.88
355.264	88.88
355.491	85.88
355.718	96.88
355.945	81.88
356.172	83.88
356.399	86.88
356.626	96.88
356.853	87.88
357.08	101.88
357.307	100.88
357.534	86.88
357.761	83.88
357.988	77.88
358.215	100.88
358.441	98.88
358.668	83.88
358.895	83.88
359.122	96.88
359.349	84.88
359.576	94.88
359.802	102.88
360.029	133.88
360.256	127.88
360.483	99.88
360.709	92.88
360.936	103.88
361.163	103.88
361.39	96.88
361.616	94.88
361.843	83.88
362.07	100.88
362.296	90.88
362.523	91.88
362.749	103.88
362.976	88.88
363.203	107.88
363.429	104.88
363.656	78.88
363.882	92.88
364.109	78.88
364.335	95.88
364.562	105.88
364.788	82.88
365.015	92.88
365.241	102.88
365.468	111.88
365.694	93.88
365.92	101.88
366.147	102.88
366.373	78.88
366.599	89.88
366.826	90.88
367.052	80.88
367.278	83.88
367.505	97.88
367.731	89.88
367.957	87.88
368.184	97.88
368.41	105.88
368.636	122.88
368.862	129.88
369.089	107.88
369.315	92.88
369.541	90.88
369.767	83.88
369.993	88.88
370.219	92.88
370.445	80.88
370.672	83.88
370.898	92.88
371.124	102.88
371.35	87.88
371.576	85.88
371.802	86.88
372.028	72.88
372.254	78.88
372.48	75.88
372.706	77.88
372.932	94.88
373.158	103.88
373.384	83.88
373.61	87.88
373.835	77.88
374.061	96.88
374.287	77.88
374.513	87.88
374.739	90.88
374.965	85.88
375.191	78.88
375.416	71.88
375.642	80.88
375.868	92.88
376.094	85.88
376.319	83.88
376.545	88.88
376.771	91.88
376.997	94.88
377.222	91.88
377.448	95.88
377.674	89.88
377.899	85.88
378.125	82.88
378.35	88.88
378.576	85.88
378.802	86.88
379.027	76.88
379.253	95.88
379.478	96.88
379.704	88.88
379.929	100.88
380.155	100.88
380.38	91.88
380.606	101.88
380.831	97.88
381.057	81.88
381.282	94.88
381.507	95.88
381.733	103.88
381.958	93.88
382.184	114.88
382.409	98.88
382.634	112.88
382.86	101.88
383.085	89.88
383.31	106.88
383.535	105.88
383.761	105.88
383.986	90.88
384.211	92.88
384.436	115.88
384.662	96.88
384.887	106.88
385.112	109.88
385.337	104.88
385.562	104.88
385.787	116.88
386.013	109.88
386.238	118.88
386.463	104.88
386.688	114.88
386.913	109.88
387.138	115.88
387.363	99.88
387.588	100.88
387.813	103.88
388.038	110.88
388.263	109.88
388.488	110.88
388.713	93.88
388.938	89.88
389.163	93.88
389.387	99.88
389.612	98.88
389.837	86.88
390.062	86.88
390.287	101.88
390.512	86.88
390.736	92.88
390.961	90.88
391.186	99.88
391.411	82.88
391.636	93.88
391.86	86.88
392.085	89.88
392.31	76.88
392.534	81.88
392.759	77.88
392.984	84.88
393.208	83.88
393.433	93.88
393.658	100.88
393.882	91.88
394.107	80.88
394.331	73.88
394.556	79.88
394.78	105.88
395.005	95.88
395.229	88.88
395.454	82.88
395.678	77.88
395.903	90.88
396.127	101.88
396.352	76.88
396.576	91.88
396.801	69.88
397.025	84.88
397.249	81.88
397.474	88.88
397.698	89.88
397.922	98.88
398.147	90.88
398.371	91.88
398.595	90.88
398.82	71.88
399.044	67.88
399.268	97.88
399.492	86.88
399.717	78.88
399.941	96.88
400.165	102.88
400.389	85.88
400.613	90.88
400.837	83.88
401.062	87.88
401.286	88.88
401.51	88.88
401.734	84.88
401.958	124.88
402.182	141.88
402.406	194.88
402.63	120.88
402.854	88.88
403.078	73.88
403.302	82.88
403.526	93.88
403.75	88.88
403.974	81.88
404.198	96.88
404.422	73.88
404.645	88.88
404.869	97.88
405.093	96.88
405.317	104.88
405.541	109.88
405.765	127.88
405.988	134.88
406.212	213.88
406.436	312.88
406.66	171.88
406.883	113.88
407.107	93.88
407.331	84.88
407.555	99.88
407.778	104.88
408.002	90.88
408.226	87.88
408.449	75.88
408.673	80.88
408.896	73.88
409.12	87.88
409.344	94.88
409.567	84.88
409.791	94.88
410.014	89.88
410.238	87.88
410.461	93.88
410.685	91.88
410.908	114.88
411.132	94.88
411.355	91.88
411.578	84.88
411.802	77.88
412.025	87.88
412.249	78.88
412.472	79.88
412.695	78.88
412.919	79.88
413.142	87.88
413.365	72.88
413.589	89.88
413.812	106.88
414.035	87.88
414.258	80.88
414.482	95.88
414.705	91.88
414.928	82.88
415.151	83.88
415.374	74.88
415.597	90.88
415.821	99.88
416.044	81.88
416.267	100.88
416.49	92.88
416.713	94.88
416.936	104.88
417.159	78.88
417.382	84.88
417.605	87.88
417.828	89.88
418.051	84.88
418.274	92.88
418.497	82.88
418.72	86.88
418.943	85.88
419.166	80.88
419.389	83.88
419.611	74.88
419.834	85.88
420.057	81.88
420.28	89.88
420.503	98.88
420.726	82.88
420.948	87.88
421.171	91.88
421.394	97.88
421.617	75.88
421.839	78.88
422.062	82.88
422.285	94.88
422.507	101.88
422.73	113.88
422.953	84.88
423.175	87.88
423.398	85.88
423.621	85.88
423.843	75.88
424.066	78.88
424.288	97.88
424.511	84.88
424.733	114.88
424.956	108.88
425.178	100.88
425.401	92.88
425.623	89.88
425.846	84.88
426.068	90.88
426.291	91.88
426.513	90.88
426.735	78.88
426.958	85.88
427.18	85.88
427.402	139.88
427.625	192.88
427.847	149.88
428.069	105.88
428.292	89.88
428.514	91.88
428.736	75.88
428.958	83.88
429.181	77.88
429.403	81.88
429.625	87.88
429.847	99.88
430.069	100.88
430.292	98.88
430.514	95.88
430.736	79.88
430.958	80.88
431.18	83.88
431.402	86.88
431.624	80.88
431.846	86.88
432.068	80.88
432.29	91.88
432.512	71.88
432.734	98.88
432.956	106.88
433.178	101.88
433.4	87.88
433.622	97.88
433.844	83.88
434.066	88.88
434.287	93.88
434.509	92.88
434.731	92.88
434.953	91.88
435.175	89.88
435.397	80.88
435.618	92.88
435.84	100.88
436.062	129.88
436.284	112.88
436.505	107.88
436.727	100.88
436.949	92.88
437.17	88.88
437.392	98.88
437.614	94.88
437.835	112.88
438.057	144.88
438.278	117.88
438.5	100.88
438.721	117.88
438.943	101.88
439.165	87.88
439.386	81.88
439.608	90.88
439.829	116.88
440.05	121.88
440.272	159.88
440.493	92.88
440.715	80.88
440.936	78.88
441.158	91.88
441.379	103.88
441.6	93.88
441.822	105.88
442.043	93.88
442.264	91.88
442.486	109.88
442.707	105.88
442.928	122.88
443.149	152.88
443.371	156.88
443.592	125.88
443.813	99.88
444.034	104.88
444.255	91.88
444.476	86.88
444.698	74.88
444.919	76.88
445.14	117.88
445.361	118.88
445.582	118.88
445.803	156.88
446.024	145.88
446.245	144.88
446.466	107.88
446.687	75.88
446.908	90.88
447.129	75.88
447.35	100.88
447.571	85.88
447.792	79.88
448.013	90.88
448.234	104.88
448.455	108.88
448.675	111.88
448.896	119.88
449.117	108.88
449.338	111.88
449.559	119.88
449.779	127.88
450	95.88
450.221	76.88
450.442	83.88
450.662	92.88
450.883	120.88
451.104	129.88
451.324	117.88
451.545	84.88
451.766	85.88
451.986	80.88
452.207	104.88
452.428	97.88
452.648	102.88
452.869	110.88
453.089	127.88
453.31	139.88
453.53	100.88
453.751	87.88
453.971	110.88
454.192	122.88
454.412	89.88
454.633	90.88
454.853	87.88
455.073	89.88
455.294	98.88
455.514	102.88
455.734	85.88
455.955	84.88
456.175	78.88
456.395	83.88
456.616	92.88
456.836	90.88
457.056	91.88
457.276	68.88
457.497	75.88
457.717	77.88
457.937	101.88
458.157	97.88
458.377	84.88
458.598	117.88
458.818	185.88
459.038	201.88
459.258	132.88
459.478	105.88
459.698	74.88
459.918	87.88
460.138	81.88
460.358	96.88
460.578	92.88
460.798	81.88
461.018	90.88
461.238	76.88
461.458	74.88
461.678	82.88
461.898	85.88
462.118	99.88
462.338	91.88
462.558	69.88
462.777	84.88
462.997	89.88
463.217	81.88
463.437	92.88
463.657	77.88
463.876	85.88
464.096	99.88
464.316	93.88
464.536	89.88
464.755	86.88
464.975	113.88
465.195	209.88
465.414	226.88
465.634	106.88
465.854	86.88
466.073	91.88
466.293	87.88
466.512	90.88
466.732	80.88
466.951	99.88
467.171	75.88
467.391	87.88
467.61	104.88
467.829	97.88
468.049	85.88
468.268	90.88
468.488	81.88
468.707	94.88
468.927	93.88
469.146	78.88
469.365	94.88
469.585	99.88
469.804	102.88
470.023	85.88
470.243	96.88
470.462	108.88
470.681	116.88
470.901	89.88
471.12	73.88
471.339	77.88
471.558	83.88
471.777	74.88
471.997	79.88
472.216	97.88
472.435	99.88
472.654	88.88
472.873	92.88
473.092	105.88
473.311	88.88
473.53	87.88
473.749	94.88
473.968	97.88
474.187	99.88
474.406	105.88
474.625	78.88
474.844	81.88
475.063	85.88
475.282	102.88
475.501	77.88
475.72	89.88
475.939	86.88
476.158	78.88
476.377	86.88
476.596	81.88
476.814	104.88
477.033	99.88
477.252	83.88
477.471	87.88
477.69	85.88
477.908	91.88
478.127	84.88
478.346	102.88
478.564	92.88
478.783	110.88
479.002	104.88
479.22	97.88
479.439	98.88
479.658	114.88
479.876	105.88
480.095	89.88
480.313	87.88
480.532	77.88
480.751	105.88
480.969	86.88
481.188	119.88
481.406	98.88
481.624	97.88
481.843	84.88
482.061	106.88
482.28	84.88
482.498	79.88
482.717	89.88
482.935	89.88
483.153	85.88
483.372	78.88
483.59	91.88
483.808	71.88
484.027	75.88
484.245	82.88
484.463	84.88
484.681	101.88
484.9	94.88
485.118	91.88
485.336	86.88
485.554	91.88
485.772	97.88
485.99	83.88
486.209	96.88
486.427	107.88
486.645	112.88
486.863	115.88
487.081	98.88
487.299	100.88
487.517	86.88
487.735	108.88
487.953	82.88
488.171	95.88
488.389	94.88
488.607	96.88
488.825	83.88
489.043	86.88
489.261	83.88
489.479	98.88
489.696	93.88
489.914	67.88
490.132	92.88
490.35	87.88
490.568	93.88
490.786	93.88
491.003	99.88
491.221	87.88
491.439	85.88
491.657	90.88
491.874	94.88
492.092	84.88
492.31	100.88
492.527	91.88
492.745	82.88
492.963	80.88
493.18	98.88
493.398	85.88
493.615	83.88
493.833	91.88
494.05	96.88
494.268	77.88
494.485	97.88
494.703	92.88
494.92	93.88
495.138	67.88
495.355	88.88
495.573	79.88
495.79	88.88
496.008	81.88
496.225	75.88
496.442	84.88
496.66	90.88
496.877	83.88
497.094	106.88
497.312	90.88
497.529	90.88
497.746	86.88
497.963	75.88
498.181	86.88
498.398	99.88
498.615	111.88
498.832	92.88
499.049	79.88
499.267	85.88
499.484	89.88
499.701	73.88
499.918	78.88
500.135	88.88
500.352	84.88
500.569	76.88
500.786	100.88
501.003	81.88
501.22	89.88
501.437	73.88
501.654	86.88
501.871	104.88
502.088	104.88
502.305	86.88
502.522	80.88
502.739	93.88
502.956	84.88
503.172	92.88
503.389	94.88
503.606	108.88
503.823	105.88
504.04	86.88
504.256	81.88
504.473	89.88
504.69	95.88
504.907	91.88
505.123	83.88
505.34	88.88
505.557	89.88
505.773	96.88
505.99	75.88
506.207	91.88
506.423	80.88
506.64	85.88
506.856	86.88
507.073	85.88
507.289	91.88
507.506	95.88
507.722	122.88
507.939	127.88
508.155	108.88
508.372	89.88
508.588	94.88
508.805	98.88
509.021	90.88
509.238	99.88
509.454	92.88
509.67	98.88
509.887	129.88
510.103	146.88
510.319	235.88
510.536	987.88
510.752	3511.88
510.968	966.88
511.184	203.88
511.401	115.88
511.617	105.88
511.833	91.88
512.049	101.88
512.265	89.88
512.481	75.88
512.698	98.88
512.914	87.88
513.13	88.88
513.346	88.88
513.562	85.88
513.778	103.88
513.994	98.88
514.21	121.88
514.426	127.88
514.642	156.88
514.858	144.88
515.074	217.88
515.29	657.88
