Data from Circ_2014_H10_HRD10591_00030.txt Node
Date: Wed Jan 03 10:02:15 EST 2024
User: Yrep
Spectrometer: HR+D1059
Trigger mode: 1
Integration Time (sec): 1.000000E-1
Scans to average: 1
Electric dark correction enabled: true
Nonlinearity correction enabled: false
Boxcar width: 0
XAxis mode: Wavelengths
Number of Pixels in Spectrum: 2048
>>>>>Begin Spectral Data<<<<<
223.165	-2.5
223.4	-2.5
223.635	-2.5
223.869	-26.5
224.104	-22.5
224.338	-12.5
224.573	-4.5
224.808	-18.5
225.042	-11.5
225.277	1.5
225.511	-9.5
225.746	1.5
225.98	-6.5
226.215	25.5
226.449	17.5
226.683	4.5
226.918	31.5
227.152	32.5
227.387	19.5
227.621	31.5
227.856	42.5
228.09	39.5
228.324	42.5
228.559	50.5
228.793	53.5
229.027	63.5
229.262	59.5
229.496	58.5
229.73	95.5
229.964	96.5
230.199	72.5
230.433	79.5
230.667	73.5
230.901	75.5
231.136	63.5
231.37	80.5
231.604	75.5
231.838	73.5
232.072	70.5
232.306	67.5
232.541	81.5
232.775	92.5
233.009	72.5
233.243	80.5
233.477	77.5
233.711	84.5
233.945	61.5
234.179	84.5
234.413	72.5
234.647	66.5
234.881	65.5
235.115	73.5
235.349	73.5
235.583	80.5
235.817	79.5
236.051	83.5
236.285	87.5
236.519	61.5
236.753	78.5
236.987	78.5
237.221	84.5
237.455	84.5
237.689	73.5
237.922	85.5
238.156	87.5
238.39	81.5
238.624	69.5
238.858	74.5
239.091	75.5
239.325	71.5
239.559	82.5
239.793	67.5
240.027	70.5
240.26	73.5
240.494	66.5
240.728	65.5
240.961	54.5
241.195	61.5
241.429	79.5
241.662	63.5
241.896	72.5
242.13	87.5
242.363	71.5
242.597	74.5
242.83	80.5
243.064	71.5
243.298	73.5
243.531	64.5
243.765	64.5
243.998	69.5
244.232	70.5
244.465	79.5
244.699	80.5
244.932	76.5
245.166	75.5
245.399	55.5
245.633	65.5
245.866	72.5
246.099	71.5
246.333	75.5
246.566	90.5
246.8	58.5
247.033	82.5
247.266	79.5
247.5	84.5
247.733	66.5
247.966	82.5
248.2	73.5
248.433	64.5
248.666	78.5
248.899	74.5
249.133	79.5
249.366	94.5
249.599	85.5
249.832	83.5
250.066	90.5
250.299	75.5
250.532	67.5
250.765	73.5
250.998	86.5
251.231	75.5
251.465	92.5
251.698	87.5
251.931	73.5
252.164	68.5
252.397	75.5
252.63	72.5
252.863	72.5
253.096	68.5
253.329	67.5
253.562	73.5
253.795	77.5
254.028	78.5
254.261	78.5
254.494	76.5
254.727	72.5
254.96	63.5
255.193	72.5
255.426	79.5
255.659	80.5
255.892	74.5
256.124	89.5
256.357	72.5
256.59	83.5
256.823	58.5
257.056	62.5
257.289	75.5
257.521	72.5
257.754	81.5
257.987	81.5
258.22	80.5
258.452	75.5
258.685	79.5
258.918	78.5
259.151	74.5
259.383	70.5
259.616	88.5
259.849	82.5
260.081	74.5
260.314	83.5
260.547	80.5
260.779	81.5
261.012	80.5
261.244	75.5
261.477	100.5
261.71	109.5
261.942	121.5
262.175	122.5
262.407	88.5
262.64	84.5
262.872	81.5
263.105	79.5
263.337	86.5
263.57	68.5
263.802	79.5
264.035	78.5
264.267	75.5
264.499	76.5
264.732	81.5
264.964	85.5
265.197	76.5
265.429	86.5
265.661	83.5
265.894	88.5
266.126	81.5
266.358	81.5
266.591	77.5
266.823	67.5
267.055	69.5
267.287	75.5
267.52	94.5
267.752	87.5
267.984	89.5
268.216	79.5
268.448	84.5
268.681	86.5
268.913	83.5
269.145	70.5
269.377	93.5
269.609	76.5
269.841	87.5
270.073	98.5
270.306	76.5
270.538	83.5
270.77	81.5
271.002	93.5
271.234	79.5
271.466	80.5
271.698	76.5
271.93	89.5
272.162	91.5
272.394	84.5
272.626	86.5
272.858	90.5
273.09	83.5
273.322	92.5
273.553	78.5
273.785	98.5
274.017	67.5
274.249	77.5
274.481	77.5
274.713	70.5
274.945	82.5
275.176	86.5
275.408	72.5
275.64	83.5
275.872	97.5
276.104	84.5
276.335	89.5
276.567	98.5
276.799	90.5
277.031	101.5
277.262	81.5
277.494	80.5
277.726	94.5
277.957	92.5
278.189	90.5
278.421	79.5
278.652	94.5
278.884	79.5
279.115	88.5
279.347	82.5
279.579	80.5
279.81	71.5
280.042	77.5
280.273	87.5
280.505	80.5
280.736	74.5
280.968	80.5
281.199	78.5
281.431	83.5
281.662	82.5
281.894	88.5
282.125	92.5
282.356	102.5
282.588	133.5
282.819	129.5
283.051	76.5
283.282	80.5
283.513	87.5
283.745	78.5
283.976	89.5
284.207	85.5
284.439	91.5
284.67	84.5
284.901	88.5
285.132	78.5
285.364	78.5
285.595	87.5
285.826	74.5
286.057	84.5
286.288	76.5
286.52	84.5
286.751	79.5
286.982	70.5
287.213	87.5
287.444	86.5
287.675	102.5
287.906	73.5
288.138	108.5
288.369	88.5
288.6	85.5
288.831	90.5
289.062	73.5
289.293	93.5
289.524	80.5
289.755	85.5
289.986	82.5
290.217	82.5
290.448	84.5
290.679	93.5
290.91	104.5
291.141	83.5
291.371	68.5
291.602	79.5
291.833	86.5
292.064	80.5
292.295	87.5
292.526	69.5
292.757	87.5
292.987	93.5
293.218	74.5
293.449	66.5
293.68	94.5
293.91	73.5
294.141	73.5
294.372	90.5
294.603	82.5
294.833	79.5
295.064	76.5
295.295	92.5
295.525	96.5
295.756	101.5
295.987	109.5
296.217	144.5
296.448	132.5
296.679	99.5
296.909	75.5
297.14	98.5
297.37	90.5
297.601	76.5
297.831	77.5
298.062	89.5
298.292	76.5
298.523	88.5
298.753	71.5
298.984	74.5
299.214	75.5
299.445	88.5
299.675	94.5
299.905	91.5
300.136	82.5
300.366	88.5
300.597	77.5
300.827	90.5
301.057	102.5
301.288	112.5
301.518	107.5
301.748	93.5
301.979	88.5
302.209	95.5
302.439	85.5
302.669	85.5
302.9	78.5
303.13	100.5
303.36	94.5
303.59	104.5
303.82	96.5
304.051	97.5
304.281	87.5
304.511	91.5
304.741	86.5
304.971	82.5
305.201	89.5
305.431	82.5
305.661	87.5
305.891	89.5
306.121	94.5
306.352	103.5
306.582	106.5
306.812	82.5
307.042	87.5
307.272	90.5
307.502	94.5
307.731	85.5
307.961	74.5
308.191	81.5
308.421	85.5
308.651	64.5
308.881	87.5
309.111	96.5
309.341	89.5
309.571	85.5
309.8	90.5
310.03	87.5
310.26	96.5
310.49	86.5
310.72	101.5
310.949	88.5
311.179	87.5
311.409	83.5
311.639	99.5
311.868	82.5
312.098	92.5
312.328	87.5
312.557	109.5
312.787	100.5
313.017	106.5
313.246	93.5
313.476	97.5
313.706	86.5
313.935	92.5
314.165	82.5
314.394	104.5
314.624	96.5
314.853	93.5
315.083	78.5
315.312	98.5
315.542	86.5
315.771	91.5
316.001	86.5
316.23	73.5
316.46	85.5
316.689	83.5
316.919	88.5
317.148	99.5
317.377	94.5
317.607	91.5
317.836	80.5
318.065	67.5
318.295	90.5
318.524	100.5
318.753	100.5
318.983	93.5
319.212	95.5
319.441	94.5
319.67	98.5
319.9	88.5
320.129	86.5
320.358	99.5
320.587	96.5
320.816	94.5
321.046	115.5
321.275	98.5
321.504	95.5
321.733	93.5
321.962	95.5
322.191	105.5
322.42	104.5
322.649	108.5
322.878	89.5
323.108	105.5
323.337	132.5
323.566	143.5
323.795	157.5
324.024	214.5
324.253	416.5
324.482	866.5
324.71	1764.5
324.939	2343.5
325.168	889.5
325.397	251.5
325.626	146.5
325.855	137.5
326.084	120.5
326.313	137.5
326.542	145.5
326.77	232.5
326.999	482.5
327.228	959.5
327.457	1761.5
327.686	1370.5
327.914	389.5
328.143	197.5
328.372	149.5
328.6	128.5
328.829	143.5
329.058	127.5
329.287	124.5
329.515	102.5
329.744	91.5
329.972	87.5
330.201	109.5
330.43	110.5
330.658	111.5
330.887	138.5
331.115	129.5
331.344	105.5
331.572	101.5
331.801	94.5
332.03	100.5
332.258	82.5
332.486	89.5
332.715	74.5
332.943	84.5
333.172	97.5
333.4	86.5
333.629	111.5
333.857	115.5
334.085	106.5
334.314	109.5
334.542	111.5
334.771	112.5
334.999	96.5
335.227	87.5
335.455	94.5
335.684	89.5
335.912	91.5
336.14	93.5
336.369	102.5
336.597	102.5
336.825	86.5
337.053	76.5
337.281	90.5
337.51	93.5
337.738	82.5
337.966	91.5
338.194	87.5
338.422	102.5
338.65	97.5
338.878	93.5
339.106	90.5
339.334	99.5
339.562	72.5
339.79	85.5
340.018	86.5
340.246	86.5
340.474	104.5
340.702	86.5
340.93	79.5
341.158	87.5
341.386	87.5
341.614	94.5
341.842	80.5
342.07	71.5
342.298	90.5
342.526	93.5
342.754	85.5
342.981	92.5
343.209	74.5
343.437	93.5
343.665	90.5
343.893	80.5
344.12	95.5
344.348	88.5
344.576	86.5
344.804	84.5
345.031	105.5
345.259	106.5
345.487	75.5
345.714	88.5
345.942	75.5
346.17	95.5
346.397	89.5
346.625	75.5
346.853	99.5
347.08	84.5
347.308	90.5
347.535	88.5
347.763	97.5
347.99	95.5
348.218	109.5
348.445	103.5
348.673	100.5
348.9	94.5
349.128	86.5
349.355	86.5
349.583	86.5
349.81	86.5
350.037	98.5
350.265	96.5
350.492	78.5
350.72	91.5
350.947	106.5
351.174	121.5
351.402	103.5
351.629	96.5
351.856	99.5
352.083	96.5
352.311	110.5
352.538	112.5
352.765	98.5
352.992	103.5
353.22	97.5
353.447	100.5
353.674	86.5
353.901	90.5
354.128	80.5
354.355	103.5
354.583	88.5
354.81	103.5
355.037	86.5
355.264	91.5
355.491	103.5
355.718	77.5
355.945	103.5
356.172	101.5
356.399	89.5
356.626	85.5
356.853	98.5
357.08	86.5
357.307	89.5
357.534	77.5
357.761	90.5
357.988	72.5
358.215	90.5
358.441	96.5
358.668	85.5
358.895	82.5
359.122	79.5
359.349	75.5
359.576	97.5
359.802	117.5
360.029	106.5
360.256	117.5
360.483	110.5
360.709	101.5
360.936	83.5
361.163	88.5
361.39	97.5
361.616	100.5
361.843	82.5
362.07	81.5
362.296	86.5
362.523	87.5
362.749	74.5
362.976	84.5
363.203	75.5
363.429	76.5
363.656	88.5
363.882	84.5
364.109	89.5
364.335	83.5
364.562	73.5
364.788	90.5
365.015	79.5
365.241	83.5
365.468	96.5
365.694	116.5
365.92	98.5
366.147	88.5
366.373	87.5
366.599	81.5
366.826	69.5
367.052	102.5
367.278	82.5
367.505	85.5
367.731	93.5
367.957	82.5
368.184	98.5
368.41	84.5
368.636	103.5
368.862	124.5
369.089	118.5
369.315	96.5
369.541	72.5
369.767	85.5
369.993	86.5
370.219	98.5
370.445	90.5
370.672	80.5
370.898	95.5
371.124	95.5
371.35	71.5
371.576	87.5
371.802	74.5
372.028	83.5
372.254	89.5
372.48	77.5
372.706	85.5
372.932	89.5
373.158	95.5
373.384	93.5
373.61	88.5
373.835	82.5
374.061	81.5
374.287	86.5
374.513	75.5
374.739	89.5
374.965	87.5
375.191	82.5
375.416	89.5
375.642	83.5
375.868	94.5
376.094	82.5
376.319	81.5
376.545	86.5
376.771	71.5
376.997	85.5
377.222	86.5
377.448	81.5
377.674	66.5
377.899	95.5
378.125	73.5
378.35	75.5
378.576	96.5
378.802	75.5
379.027	84.5
379.253	81.5
379.478	93.5
379.704	94.5
379.929	88.5
380.155	98.5
380.38	88.5
380.606	89.5
380.831	95.5
381.057	98.5
381.282	78.5
381.507	96.5
381.733	101.5
381.958	102.5
382.184	90.5
382.409	89.5
382.634	118.5
382.86	98.5
383.085	99.5
383.31	91.5
383.535	91.5
383.761	87.5
383.986	105.5
384.211	103.5
384.436	90.5
384.662	86.5
384.887	90.5
385.112	90.5
385.337	97.5
385.562	112.5
385.787	98.5
386.013	105.5
386.238	120.5
386.463	87.5
386.688	102.5
386.913	79.5
387.138	103.5
387.363	112.5
387.588	90.5
387.813	99.5
388.038	97.5
388.263	122.5
388.488	99.5
388.713	85.5
388.938	91.5
389.163	93.5
389.387	80.5
389.612	81.5
389.837	77.5
390.062	89.5
390.287	103.5
390.512	95.5
390.736	102.5
390.961	95.5
391.186	104.5
391.411	94.5
391.636	88.5
391.86	82.5
392.085	84.5
392.31	79.5
392.534	90.5
392.759	74.5
392.984	69.5
393.208	88.5
393.433	99.5
393.658	88.5
393.882	79.5
394.107	69.5
394.331	67.5
394.556	86.5
394.78	78.5
395.005	85.5
395.229	77.5
395.454	90.5
395.678	82.5
395.903	71.5
396.127	80.5
396.352	86.5
396.576	90.5
396.801	88.5
397.025	89.5
397.249	84.5
397.474	86.5
397.698	81.5
397.922	79.5
398.147	89.5
398.371	72.5
398.595	79.5
398.82	69.5
399.044	78.5
399.268	77.5
399.492	84.5
399.717	80.5
399.941	83.5
400.165	90.5
400.389	84.5
400.613	70.5
400.837	81.5
401.062	91.5
401.286	97.5
401.51	91.5
401.734	84.5
401.958	102.5
402.182	130.5
402.406	157.5
402.63	115.5
402.854	98.5
403.078	69.5
403.302	89.5
403.526	83.5
403.75	77.5
403.974	87.5
404.198	86.5
404.422	68.5
404.645	77.5
404.869	92.5
405.093	87.5
405.317	103.5
405.541	92.5
405.765	78.5
405.988	115.5
406.212	183.5
406.436	258.5
406.66	163.5
406.883	86.5
407.107	85.5
407.331	96.5
407.555	108.5
407.778	95.5
408.002	83.5
408.226	69.5
408.449	77.5
408.673	79.5
408.896	81.5
409.12	94.5
409.344	89.5
409.567	88.5
409.791	86.5
410.014	82.5
410.238	90.5
410.461	84.5
410.685	91.5
410.908	86.5
411.132	107.5
411.355	108.5
411.578	76.5
411.802	77.5
412.025	79.5
412.249	95.5
412.472	96.5
412.695	88.5
412.919	81.5
413.142	82.5
413.365	84.5
413.589	74.5
413.812	74.5
414.035	86.5
414.258	76.5
414.482	80.5
414.705	82.5
414.928	82.5
415.151	93.5
415.374	86.5
415.597	87.5
415.821	85.5
416.044	90.5
416.267	92.5
416.49	86.5
416.713	71.5
416.936	83.5
417.159	84.5
417.382	90.5
417.605	83.5
417.828	82.5
418.051	89.5
418.274	85.5
418.497	90.5
418.72	86.5
418.943	78.5
419.166	78.5
419.389	74.5
419.611	82.5
419.834	82.5
420.057	79.5
420.28	81.5
420.503	92.5
420.726	85.5
420.948	104.5
421.171	83.5
421.394	91.5
421.617	86.5
421.839	98.5
422.062	91.5
422.285	85.5
422.507	89.5
422.73	83.5
422.953	93.5
423.175	91.5
423.398	76.5
423.621	85.5
423.843	81.5
424.066	77.5
424.288	90.5
424.511	101.5
424.733	90.5
424.956	122.5
425.178	98.5
425.401	102.5
425.623	89.5
425.846	91.5
426.068	95.5
426.291	90.5
426.513	79.5
426.735	78.5
426.958	97.5
427.18	95.5
427.402	131.5
427.625	173.5
427.847	137.5
428.069	101.5
428.292	92.5
428.514	86.5
428.736	82.5
428.958	63.5
429.181	95.5
429.403	84.5
429.625	81.5
429.847	89.5
430.069	97.5
430.292	80.5
430.514	79.5
430.736	72.5
430.958	102.5
431.18	72.5
431.402	91.5
431.624	92.5
431.846	74.5
432.068	85.5
432.29	84.5
432.512	81.5
432.734	101.5
432.956	95.5
433.178	100.5
433.4	94.5
433.622	98.5
433.844	88.5
434.066	84.5
434.287	88.5
434.509	84.5
434.731	79.5
434.953	89.5
435.175	85.5
435.397	69.5
435.618	88.5
435.84	83.5
436.062	96.5
436.284	112.5
436.505	87.5
436.727	88.5
436.949	102.5
437.17	93.5
437.392	78.5
437.614	84.5
437.835	98.5
438.057	127.5
438.278	108.5
438.5	106.5
438.721	127.5
438.943	127.5
439.165	95.5
439.386	93.5
439.608	88.5
439.829	93.5
440.05	130.5
440.272	159.5
440.493	113.5
440.715	102.5
440.936	89.5
441.158	86.5
441.379	79.5
441.6	103.5
441.822	79.5
442.043	82.5
442.264	97.5
442.486	106.5
442.707	90.5
442.928	95.5
443.149	130.5
443.371	131.5
443.592	106.5
443.813	95.5
444.034	94.5
444.255	79.5
444.476	93.5
444.698	81.5
444.919	85.5
445.14	137.5
445.361	122.5
445.582	105.5
445.803	135.5
446.024	129.5
446.245	122.5
446.466	118.5
446.687	92.5
446.908	81.5
447.129	86.5
447.35	74.5
447.571	78.5
447.792	99.5
448.013	96.5
448.234	97.5
448.455	79.5
448.675	91.5
448.896	110.5
449.117	93.5
449.338	104.5
449.559	122.5
449.779	122.5
450	85.5
450.221	82.5
450.442	95.5
450.662	95.5
450.883	92.5
451.104	100.5
451.324	94.5
451.545	87.5
451.766	76.5
451.986	101.5
452.207	95.5
452.428	75.5
452.648	95.5
452.869	100.5
453.089	123.5
453.31	96.5
453.53	94.5
453.751	87.5
453.971	95.5
454.192	105.5
454.412	79.5
454.633	89.5
454.853	79.5
455.073	72.5
455.294	76.5
455.514	113.5
455.734	93.5
455.955	86.5
456.175	75.5
456.395	72.5
456.616	75.5
456.836	90.5
457.056	78.5
457.276	77.5
457.497	78.5
457.717	82.5
457.937	94.5
458.157	104.5
458.377	106.5
458.598	104.5
458.818	158.5
459.038	146.5
459.258	123.5
459.478	91.5
459.698	82.5
459.918	90.5
460.138	85.5
460.358	74.5
460.578	91.5
460.798	77.5
461.018	74.5
461.238	77.5
461.458	86.5
461.678	79.5
461.898	78.5
462.118	90.5
462.338	66.5
462.558	83.5
462.777	72.5
462.997	75.5
463.217	74.5
463.437	74.5
463.657	76.5
463.876	86.5
464.096	95.5
464.316	85.5
464.536	97.5
464.755	93.5
464.975	98.5
465.195	168.5
465.414	173.5
465.634	94.5
465.854	76.5
466.073	97.5
466.293	92.5
466.512	78.5
466.732	89.5
466.951	79.5
467.171	95.5
467.391	85.5
467.61	96.5
467.829	98.5
468.049	87.5
468.268	87.5
468.488	61.5
468.707	81.5
468.927	70.5
469.146	69.5
469.365	75.5
469.585	87.5
469.804	87.5
470.023	89.5
470.243	81.5
470.462	98.5
470.681	106.5
470.901	76.5
471.12	77.5
471.339	84.5
471.558	86.5
471.777	74.5
471.997	98.5
472.216	87.5
472.435	125.5
472.654	85.5
472.873	76.5
473.092	85.5
473.311	74.5
473.53	88.5
473.749	82.5
473.968	95.5
474.187	101.5
474.406	85.5
474.625	76.5
474.844	86.5
475.063	89.5
475.282	83.5
475.501	81.5
475.72	79.5
475.939	91.5
476.158	93.5
476.377	90.5
476.596	71.5
476.814	79.5
477.033	88.5
477.252	87.5
477.471	85.5
477.69	82.5
477.908	79.5
478.127	81.5
478.346	90.5
478.564	89.5
478.783	96.5
479.002	117.5
479.22	75.5
479.439	93.5
479.658	102.5
479.876	86.5
480.095	100.5
480.313	86.5
480.532	88.5
480.751	82.5
480.969	103.5
481.188	150.5
481.406	139.5
481.624	82.5
481.843	79.5
482.061	87.5
482.28	71.5
482.498	98.5
482.717	79.5
482.935	90.5
483.153	80.5
483.372	88.5
483.59	73.5
483.808	84.5
484.027	86.5
484.245	98.5
484.463	97.5
484.681	89.5
484.9	88.5
485.118	93.5
485.336	86.5
485.554	97.5
485.772	89.5
485.99	95.5
486.209	107.5
486.427	112.5
486.645	104.5
486.863	101.5
487.081	95.5
487.299	93.5
487.517	94.5
487.735	88.5
487.953	90.5
488.171	83.5
488.389	102.5
488.607	78.5
488.825	75.5
489.043	103.5
489.261	85.5
489.479	100.5
489.696	95.5
489.914	91.5
490.132	84.5
490.35	87.5
490.568	89.5
490.786	80.5
491.003	86.5
491.221	71.5
491.439	83.5
491.657	85.5
491.874	91.5
492.092	83.5
492.31	90.5
492.527	74.5
492.745	85.5
492.963	82.5
493.18	86.5
493.398	73.5
493.615	89.5
493.833	86.5
494.05	90.5
494.268	85.5
494.485	95.5
494.703	81.5
494.92	75.5
495.138	85.5
495.355	102.5
495.573	87.5
495.79	82.5
496.008	75.5
496.225	87.5
496.442	86.5
496.66	93.5
496.877	81.5
497.094	103.5
497.312	95.5
497.529	88.5
497.746	94.5
497.963	89.5
498.181	95.5
498.398	86.5
498.615	103.5
498.832	101.5
499.049	94.5
499.267	67.5
499.484	86.5
499.701	85.5
499.918	78.5
500.135	83.5
500.352	79.5
500.569	80.5
500.786	78.5
501.003	91.5
501.22	87.5
501.437	91.5
501.654	95.5
501.871	97.5
502.088	84.5
502.305	92.5
502.522	78.5
502.739	83.5
502.956	87.5
503.172	99.5
503.389	91.5
503.606	102.5
503.823	91.5
504.04	70.5
504.256	73.5
504.473	90.5
504.69	81.5
504.907	83.5
505.123	95.5
505.34	89.5
505.557	87.5
505.773	94.5
505.99	81.5
506.207	85.5
506.423	89.5
506.64	89.5
506.856	89.5
507.073	95.5
507.289	93.5
507.506	83.5
507.722	109.5
507.939	100.5
508.155	104.5
508.372	102.5
508.588	94.5
508.805	94.5
509.021	101.5
509.238	81.5
509.454	83.5
509.67	102.5
509.887	114.5
510.103	126.5
510.319	240.5
510.536	843.5
510.752	2914.5
510.968	804.5
511.184	165.5
511.401	115.5
511.617	96.5
511.833	93.5
512.049	80.5
512.265	99.5
512.481	96.5
512.698	86.5
512.914	85.5
513.13	85.5
513.346	91.5
513.562	94.5
513.778	106.5
513.994	94.5
514.21	102.5
514.426	120.5
514.642	135.5
514.858	133.5
515.074	187.5
515.29	493.5
515.506	1859.5
515.721	691.5
515.937	172.5
516.153	115.5
516.369	104.5
516.585	91.5
516.801	79.5
517.016	94.5
517.232	79.5
517.448	91.5
517.664	107.5
517.879	90.5
518.095	78.5
518.311	80.5
518.527	88.5
518.742	89.5
518.958	89.5
519.173	101.5
519.389	97.5
519.605	97.5
519.82	102.5
520.036	116.5
520.251	142.5
520.467	126.5
520.682	99.5
520.898	117.5
521.113	115.5
521.329	154.5
521.544	211.5
521.76	639.5
521.975	3029.5
522.19	1899.5
522.406	378.5
522.621	125.5
522.836	108.5
523.052	94.5
523.267	92.5
523.482	77.5
523.698	124.5
523.913	132.5
524.128	97.5
524.343	83.5
524.559	81.5
524.774	80.5
524.989	90.5
525.204	111.5
525.419	109.5
525.634	90.5
525.849	83.5
526.064	80.5
526.28	98.5
526.495	94.5
526.71	81.5
526.925	83.5
527.14	79.5
527.355	78.5
527.57	88.5
527.785	89.5
527.999	81.5
528.214	88.5
528.429	85.5
528.644	91.5
528.859	78.5
529.074	96.5
529.289	117.5
529.503	201.5
529.718	113.5
529.933	75.5
530.148	87.5
530.363	77.5
530.577	95.5
530.792	88.5
531.007	74.5
531.221	100.5
531.436	82.5
531.651	73.5
531.865	75.5
532.08	75.5
532.295	79.5
532.509	87.5
532.724	92.5
532.938	97.5
533.153	90.5
533.367	82.5
533.582	85.5
533.796	98.5
534.011	94.5
534.225	93.5
534.44	79.5
534.654	89.5
534.868	88.5
535.083	74.5
535.297	81.5
535.511	96.5
535.726	101.5
535.94	87.5
536.154	97.5
536.369	97.5
536.583	94.5
