Data from Circ_2014_H10_HRD10591_00005.txt Node
Date: Wed Jan 03 10:02:10 EST 2024
User: Yrep
Spectrometer: HR+D1059
Trigger mode: 1
Integration Time (sec): 1.000000E-1
Scans to average: 1
Electric dark correction enabled: true
Nonlinearity correction enabled: false
Boxcar width: 0
XAxis mode: Wavelengths
Number of Pixels in Spectrum: 2048
>>>>>Begin Spectral Data<<<<<
223.165	-17.62
223.4	-17.62
223.635	-17.62
223.869	-19.62
224.104	-20.62
224.338	-15.62
224.573	-10.62
224.808	-12.62
225.042	-2.62
225.277	-6.62
225.511	11.38
225.746	1.38
225.98	6.38
226.215	7.38
226.449	6.38
226.683	17.38
226.918	21.38
227.152	34.38
227.387	43.38
227.621	42.38
227.856	39.38
228.09	40.38
228.324	47.38
228.559	44.38
228.793	32.38
229.027	59.38
229.262	46.38
229.496	66.38
229.73	84.38
229.964	73.38
230.199	84.38
230.433	71.38
230.667	81.38
230.901	78.38
231.136	83.38
231.37	76.38
231.604	64.38
231.838	81.38
232.072	84.38
232.306	74.38
232.541	64.38
232.775	81.38
233.009	73.38
233.243	72.38
233.477	77.38
233.711	73.38
233.945	70.38
234.179	65.38
234.413	98.38
234.647	80.38
234.881	68.38
235.115	75.38
235.349	81.38
235.583	75.38
235.817	79.38
236.051	82.38
236.285	89.38
236.519	72.38
236.753	70.38
236.987	75.38
237.221	83.38
237.455	87.38
237.689	84.38
237.922	75.38
238.156	66.38
238.39	76.38
238.624	65.38
238.858	65.38
239.091	76.38
239.325	75.38
239.559	79.38
239.793	70.38
240.027	67.38
240.26	82.38
240.494	79.38
240.728	66.38
240.961	78.38
241.195	74.38
241.429	76.38
241.662	86.38
241.896	67.38
242.13	90.38
242.363	71.38
242.597	78.38
242.83	75.38
243.064	83.38
243.298	86.38
243.531	64.38
243.765	81.38
243.998	95.38
244.232	80.38
244.465	86.38
244.699	72.38
244.932	65.38
245.166	76.38
245.399	90.38
245.633	72.38
245.866	81.38
246.099	73.38
246.333	78.38
246.566	80.38
246.8	66.38
247.033	73.38
247.266	79.38
247.5	78.38
247.733	74.38
247.966	64.38
248.2	74.38
248.433	66.38
248.666	64.38
248.899	85.38
249.133	86.38
249.366	88.38
249.599	96.38
249.832	85.38
250.066	72.38
250.299	87.38
250.532	77.38
250.765	85.38
250.998	94.38
251.231	75.38
251.465	72.38
251.698	73.38
251.931	78.38
252.164	86.38
252.397	79.38
252.63	72.38
252.863	93.38
253.096	84.38
253.329	91.38
253.562	73.38
253.795	90.38
254.028	81.38
254.261	86.38
254.494	67.38
254.727	74.38
254.96	87.38
255.193	79.38
255.426	88.38
255.659	78.38
255.892	79.38
256.124	81.38
256.357	89.38
256.59	72.38
256.823	66.38
257.056	66.38
257.289	81.38
257.521	81.38
257.754	82.38
257.987	81.38
258.22	72.38
258.452	79.38
258.685	71.38
258.918	87.38
259.151	83.38
259.383	74.38
259.616	81.38
259.849	77.38
260.081	75.38
260.314	68.38
260.547	88.38
260.779	69.38
261.012	71.38
261.244	84.38
261.477	97.38
261.71	88.38
261.942	134.38
262.175	133.38
262.407	96.38
262.64	89.38
262.872	78.38
263.105	81.38
263.337	77.38
263.57	76.38
263.802	80.38
264.035	90.38
264.267	72.38
264.499	70.38
264.732	99.38
264.964	94.38
265.197	74.38
265.429	78.38
265.661	75.38
265.894	66.38
266.126	79.38
266.358	89.38
266.591	73.38
266.823	77.38
267.055	86.38
267.287	77.38
267.52	91.38
267.752	74.38
267.984	75.38
268.216	88.38
268.448	87.38
268.681	76.38
268.913	77.38
269.145	78.38
269.377	85.38
269.609	72.38
269.841	84.38
270.073	72.38
270.306	85.38
270.538	87.38
270.77	81.38
271.002	80.38
271.234	87.38
271.466	72.38
271.698	74.38
271.93	66.38
272.162	87.38
272.394	87.38
272.626	76.38
272.858	85.38
273.09	80.38
273.322	82.38
273.553	84.38
273.785	76.38
274.017	76.38
274.249	84.38
274.481	92.38
274.713	72.38
274.945	75.38
275.176	76.38
275.408	89.38
275.64	85.38
275.872	81.38
276.104	84.38
276.335	107.38
276.567	96.38
276.799	106.38
277.031	98.38
277.262	98.38
277.494	82.38
277.726	89.38
277.957	89.38
278.189	78.38
278.421	86.38
278.652	91.38
278.884	86.38
279.115	98.38
279.347	76.38
279.579	87.38
279.81	95.38
280.042	99.38
280.273	79.38
280.505	103.38
280.736	83.38
280.968	86.38
281.199	80.38
281.431	92.38
281.662	74.38
281.894	91.38
282.125	83.38
282.356	127.38
282.588	155.38
282.819	127.38
283.051	96.38
283.282	75.38
283.513	87.38
283.745	84.38
283.976	98.38
284.207	75.38
284.439	76.38
284.67	78.38
284.901	84.38
285.132	95.38
285.364	82.38
285.595	101.38
285.826	77.38
286.057	103.38
286.288	94.38
286.52	77.38
286.751	96.38
286.982	78.38
287.213	82.38
287.444	89.38
287.675	83.38
287.906	94.38
288.138	77.38
288.369	105.38
288.6	87.38
288.831	71.38
289.062	93.38
289.293	89.38
289.524	93.38
289.755	83.38
289.986	69.38
290.217	77.38
290.448	90.38
290.679	85.38
290.91	79.38
291.141	89.38
291.371	99.38
291.602	81.38
291.833	71.38
292.064	78.38
292.295	84.38
292.526	90.38
292.757	74.38
292.987	87.38
293.218	79.38
293.449	75.38
293.68	85.38
293.91	84.38
294.141	84.38
294.372	86.38
294.603	77.38
294.833	83.38
295.064	89.38
295.295	92.38
295.525	89.38
295.756	98.38
295.987	115.38
296.217	158.38
296.448	138.38
296.679	100.38
296.909	94.38
297.14	79.38
297.37	94.38
297.601	80.38
297.831	83.38
298.062	87.38
298.292	81.38
298.523	95.38
298.753	76.38
298.984	86.38
299.214	87.38
299.445	102.38
299.675	84.38
299.905	99.38
300.136	95.38
300.366	91.38
300.597	91.38
300.827	88.38
301.057	102.38
301.288	96.38
301.518	101.38
301.748	78.38
301.979	105.38
302.209	82.38
302.439	96.38
302.669	88.38
302.9	84.38
303.13	86.38
303.36	102.38
303.59	98.38
303.82	112.38
304.051	89.38
304.281	84.38
304.511	98.38
304.741	74.38
304.971	73.38
305.201	91.38
305.431	95.38
305.661	76.38
305.891	87.38
306.121	100.38
306.352	104.38
306.582	95.38
306.812	96.38
307.042	97.38
307.272	88.38
307.502	102.38
307.731	86.38
307.961	94.38
308.191	98.38
308.421	85.38
308.651	98.38
308.881	110.38
309.111	86.38
309.341	93.38
309.571	104.38
309.8	78.38
310.03	94.38
310.26	101.38
310.49	94.38
310.72	90.38
310.949	121.38
311.179	101.38
311.409	92.38
311.639	96.38
311.868	92.38
312.098	79.38
312.328	96.38
312.557	97.38
312.787	103.38
313.017	103.38
313.246	96.38
313.476	95.38
313.706	91.38
313.935	95.38
314.165	102.38
314.394	105.38
314.624	114.38
314.853	101.38
315.083	82.38
315.312	87.38
315.542	89.38
315.771	80.38
316.001	76.38
316.23	106.38
316.46	98.38
316.689	85.38
316.919	102.38
317.148	98.38
317.377	103.38
317.607	95.38
317.836	96.38
318.065	74.38
318.295	106.38
318.524	98.38
318.753	103.38
318.983	96.38
319.212	82.38
319.441	127.38
319.67	116.38
319.9	88.38
320.129	100.38
320.358	101.38
320.587	96.38
320.816	106.38
321.046	104.38
321.275	94.38
321.504	105.38
321.733	88.38
321.962	89.38
322.191	99.38
322.42	101.38
322.649	108.38
322.878	108.38
323.108	130.38
323.337	136.38
323.566	146.38
323.795	170.38
324.024	249.38
324.253	546.38
324.482	1130.38
324.71	2371.38
324.939	3078.38
325.168	1115.38
325.397	310.38
325.626	166.38
325.855	155.38
326.084	138.38
326.313	131.38
326.542	169.38
326.77	276.38
326.999	569.38
327.228	1233.38
327.457	2358.38
327.686	1780.38
327.914	476.38
328.143	222.38
328.372	158.38
328.6	136.38
328.829	126.38
329.058	138.38
329.287	134.38
329.515	122.38
329.744	112.38
329.972	99.38
330.201	102.38
330.43	115.38
330.658	132.38
330.887	169.38
331.115	143.38
331.344	100.38
331.572	104.38
331.801	103.38
332.03	104.38
332.258	112.38
332.486	84.38
332.715	78.38
332.943	81.38
333.172	97.38
333.4	109.38
333.629	101.38
333.857	111.38
334.085	112.38
334.314	95.38
334.542	86.38
334.771	87.38
334.999	98.38
335.227	93.38
335.455	94.38
335.684	101.38
335.912	104.38
336.14	100.38
336.369	96.38
336.597	120.38
336.825	100.38
337.053	92.38
337.281	80.38
337.51	87.38
337.738	77.38
337.966	94.38
338.194	94.38
338.422	97.38
338.65	94.38
338.878	90.38
339.106	92.38
339.334	89.38
339.562	90.38
339.79	103.38
340.018	93.38
340.246	94.38
340.474	88.38
340.702	87.38
340.93	98.38
341.158	90.38
341.386	95.38
341.614	100.38
341.842	89.38
342.07	105.38
342.298	88.38
342.526	92.38
342.754	81.38
342.981	86.38
343.209	75.38
343.437	98.38
343.665	80.38
343.893	85.38
344.12	91.38
344.348	100.38
344.576	79.38
344.804	92.38
345.031	100.38
345.259	99.38
345.487	99.38
345.714	97.38
345.942	80.38
346.17	99.38
346.397	105.38
346.625	91.38
346.853	84.38
347.08	84.38
347.308	89.38
347.535	99.38
347.763	99.38
347.99	93.38
348.218	102.38
348.445	103.38
348.673	113.38
348.9	84.38
349.128	87.38
349.355	93.38
349.583	88.38
349.81	93.38
350.037	92.38
350.265	85.38
350.492	91.38
350.72	91.38
350.947	120.38
351.174	101.38
351.402	118.38
351.629	105.38
351.856	105.38
352.083	101.38
352.311	115.38
352.538	112.38
352.765	102.38
352.992	105.38
353.22	114.38
353.447	112.38
353.674	99.38
353.901	88.38
354.128	106.38
354.355	101.38
354.583	112.38
354.81	98.38
355.037	96.38
355.264	96.38
355.491	94.38
355.718	94.38
355.945	96.38
356.172	94.38
356.399	93.38
356.626	95.38
356.853	100.38
357.08	98.38
357.307	87.38
357.534	95.38
357.761	109.38
357.988	97.38
358.215	90.38
358.441	101.38
358.668	106.38
358.895	91.38
359.122	81.38
359.349	105.38
359.576	104.38
359.802	99.38
360.029	124.38
360.256	117.38
360.483	112.38
360.709	95.38
360.936	99.38
361.163	90.38
361.39	78.38
361.616	117.38
361.843	101.38
362.07	94.38
362.296	99.38
362.523	86.38
362.749	88.38
362.976	94.38
363.203	83.38
363.429	98.38
363.656	104.38
363.882	79.38
364.109	88.38
364.335	94.38
364.562	94.38
364.788	98.38
365.015	99.38
365.241	100.38
365.468	104.38
365.694	95.38
365.92	97.38
366.147	89.38
366.373	81.38
366.599	93.38
366.826	88.38
367.052	83.38
367.278	97.38
367.505	90.38
367.731	94.38
367.957	91.38
368.184	90.38
368.41	109.38
368.636	113.38
368.862	136.38
369.089	110.38
369.315	98.38
369.541	84.38
369.767	79.38
369.993	94.38
370.219	91.38
370.445	82.38
370.672	90.38
370.898	86.38
371.124	89.38
371.35	75.38
371.576	89.38
371.802	95.38
372.028	85.38
372.254	92.38
372.48	103.38
372.706	95.38
372.932	96.38
373.158	100.38
373.384	89.38
373.61	102.38
373.835	85.38
374.061	87.38
374.287	83.38
374.513	87.38
374.739	91.38
374.965	91.38
375.191	86.38
375.416	94.38
375.642	90.38
375.868	91.38
376.094	100.38
376.319	93.38
376.545	98.38
376.771	85.38
376.997	88.38
377.222	88.38
377.448	90.38
377.674	80.38
377.899	87.38
378.125	91.38
378.35	90.38
378.576	91.38
378.802	89.38
379.027	91.38
379.253	81.38
379.478	101.38
379.704	83.38
379.929	92.38
380.155	98.38
380.38	88.38
380.606	112.38
380.831	76.38
381.057	89.38
381.282	91.38
381.507	96.38
381.733	101.38
381.958	101.38
382.184	103.38
382.409	110.38
382.634	99.38
382.86	115.38
383.085	106.38
383.31	120.38
383.535	93.38
383.761	119.38
383.986	118.38
384.211	94.38
384.436	98.38
384.662	105.38
384.887	107.38
385.112	115.38
385.337	120.38
385.562	103.38
385.787	128.38
386.013	129.38
386.238	120.38
386.463	116.38
386.688	116.38
386.913	114.38
387.138	112.38
387.363	134.38
387.588	97.38
387.813	105.38
388.038	117.38
388.263	133.38
388.488	130.38
388.713	100.38
388.938	97.38
389.163	82.38
389.387	89.38
389.612	87.38
389.837	87.38
390.062	82.38
390.287	82.38
390.512	91.38
390.736	99.38
390.961	88.38
391.186	97.38
391.411	89.38
391.636	87.38
391.86	90.38
392.085	73.38
392.31	90.38
392.534	91.38
392.759	80.38
392.984	78.38
393.208	88.38
393.433	97.38
393.658	103.38
393.882	103.38
394.107	82.38
394.331	80.38
394.556	81.38
394.78	89.38
395.005	92.38
395.229	101.38
395.454	88.38
395.678	78.38
395.903	86.38
396.127	87.38
396.352	89.38
396.576	78.38
396.801	76.38
397.025	97.38
397.249	79.38
397.474	83.38
397.698	85.38
397.922	97.38
398.147	97.38
398.371	90.38
398.595	83.38
398.82	81.38
399.044	78.38
399.268	79.38
399.492	70.38
399.717	71.38
399.941	87.38
400.165	95.38
400.389	96.38
400.613	89.38
400.837	87.38
401.062	89.38
401.286	92.38
401.51	83.38
401.734	99.38
401.958	100.38
402.182	151.38
402.406	187.38
402.63	130.38
402.854	89.38
403.078	99.38
403.302	84.38
403.526	87.38
403.75	84.38
403.974	79.38
404.198	82.38
404.422	98.38
404.645	88.38
404.869	80.38
405.093	87.38
405.317	94.38
405.541	97.38
405.765	110.38
405.988	145.38
406.212	198.38
406.436	302.38
406.66	173.38
406.883	116.38
407.107	105.38
407.331	96.38
407.555	104.38
407.778	93.38
408.002	96.38
408.226	91.38
408.449	91.38
408.673	83.38
408.896	98.38
409.12	93.38
409.344	83.38
409.567	86.38
409.791	87.38
410.014	92.38
410.238	83.38
410.461	89.38
410.685	87.38
410.908	87.38
411.132	100.38
411.355	103.38
411.578	89.38
411.802	70.38
412.025	97.38
412.249	84.38
412.472	75.38
412.695	74.38
412.919	101.38
413.142	80.38
413.365	91.38
413.589	96.38
413.812	80.38
414.035	90.38
414.258	92.38
414.482	92.38
414.705	94.38
414.928	88.38
415.151	94.38
415.374	94.38
415.597	89.38
415.821	78.38
416.044	96.38
416.267	74.38
416.49	91.38
416.713	86.38
416.936	97.38
417.159	93.38
417.382	85.38
417.605	93.38
417.828	94.38
418.051	92.38
418.274	94.38
418.497	94.38
418.72	73.38
418.943	93.38
419.166	83.38
419.389	87.38
419.611	84.38
419.834	79.38
420.057	83.38
420.28	80.38
420.503	99.38
420.726	89.38
420.948	92.38
421.171	92.38
421.394	86.38
421.617	88.38
421.839	88.38
422.062	89.38
422.285	89.38
422.507	98.38
422.73	108.38
422.953	97.38
423.175	87.38
423.398	82.38
423.621	86.38
423.843	89.38
424.066	72.38
424.288	81.38
424.511	94.38
424.733	108.38
424.956	114.38
425.178	112.38
425.401	109.38
425.623	102.38
425.846	86.38
426.068	96.38
426.291	87.38
426.513	81.38
426.735	102.38
426.958	75.38
427.18	110.38
427.402	166.38
427.625	198.38
427.847	154.38
428.069	108.38
428.292	97.38
428.514	81.38
428.736	81.38
428.958	88.38
429.181	74.38
429.403	83.38
429.625	94.38
429.847	86.38
430.069	104.38
430.292	85.38
430.514	88.38
430.736	85.38
430.958	78.38
431.18	87.38
431.402	77.38
431.624	91.38
431.846	75.38
432.068	88.38
432.29	80.38
432.512	80.38
432.734	92.38
432.956	84.38
433.178	87.38
433.4	101.38
433.622	90.38
433.844	76.38
434.066	96.38
434.287	88.38
434.509	99.38
434.731	89.38
434.953	90.38
435.175	97.38
435.397	87.38
435.618	95.38
435.84	101.38
436.062	133.38
436.284	118.38
436.505	107.38
436.727	99.38
436.949	86.38
437.17	74.38
437.392	82.38
437.614	88.38
437.835	132.38
438.057	146.38
438.278	113.38
438.5	107.38
438.721	122.38
438.943	99.38
439.165	112.38
439.386	93.38
439.608	86.38
439.829	103.38
440.05	137.38
440.272	172.38
440.493	115.38
440.715	86.38
440.936	87.38
441.158	93.38
441.379	88.38
441.6	84.38
441.822	93.38
442.043	103.38
442.264	103.38
442.486	100.38
442.707	99.38
442.928	117.38
443.149	148.38
443.371	155.38
443.592	115.38
443.813	114.38
444.034	112.38
444.255	81.38
444.476	86.38
444.698	102.38
444.919	86.38
445.14	131.38
445.361	120.38
445.582	134.38
445.803	164.38
446.024	154.38
446.245	160.38
446.466	128.38
446.687	88.38
446.908	81.38
447.129	78.38
447.35	100.38
447.571	104.38
447.792	95.38
448.013	114.38
448.234	130.38
448.455	110.38
448.675	121.38
448.896	115.38
449.117	96.38
449.338	97.38
449.559	134.38
449.779	140.38
450	90.38
450.221	74.38
450.442	84.38
450.662	83.38
450.883	102.38
451.104	118.38
451.324	91.38
451.545	93.38
451.766	88.38
451.986	82.38
452.207	88.38
452.428	97.38
452.648	98.38
452.869	124.38
453.089	110.38
453.31	120.38
453.53	94.38
453.751	86.38
453.971	103.38
454.192	118.38
454.412	94.38
454.633	91.38
454.853	89.38
455.073	90.38
455.294	89.38
455.514	101.38
455.734	99.38
455.955	99.38
456.175	75.38
456.395	78.38
456.616	72.38
456.836	97.38
457.056	78.38
457.276	82.38
457.497	76.38
457.717	75.38
457.937	82.38
458.157	100.38
458.377	102.38
458.598	123.38
458.818	165.38
459.038	192.38
459.258	141.38
459.478	100.38
459.698	84.38
459.918	98.38
460.138	81.38
460.358	93.38
460.578	77.38
460.798	82.38
461.018	86.38
461.238	84.38
461.458	82.38
461.678	81.38
461.898	81.38
462.118	88.38
462.338	80.38
462.558	88.38
462.777	78.38
462.997	91.38
463.217	94.38
463.437	94.38
463.657	84.38
463.876	91.38
464.096	90.38
464.316	86.38
464.536	105.38
464.755	111.38
464.975	107.38
465.195	223.38
465.414	212.38
465.634	99.38
465.854	87.38
466.073	91.38
466.293	73.38
466.512	71.38
466.732	89.38
466.951	88.38
467.171	78.38
467.391	90.38
467.61	101.38
467.829	93.38
468.049	79.38
468.268	65.38
468.488	83.38
468.707	90.38
468.927	97.38
469.146	90.38
469.365	87.38
469.585	88.38
469.804	91.38
470.023	75.38
470.243	93.38
470.462	113.38
470.681	123.38
470.901	86.38
471.12	63.38
471.339	84.38
471.558	97.38
471.777	88.38
471.997	87.38
472.216	85.38
472.435	99.38
472.654	80.38
472.873	80.38
473.092	78.38
473.311	76.38
473.53	102.38
473.749	80.38
473.968	105.38
474.187	116.38
474.406	101.38
474.625	76.38
474.844	76.38
475.063	72.38
475.282	79.38
475.501	73.38
475.72	86.38
475.939	72.38
476.158	90.38
476.377	88.38
476.596	89.38
476.814	91.38
477.033	96.38
477.252	94.38
477.471	103.38
477.69	86.38
477.908	98.38
478.127	90.38
478.346	87.38
478.564	84.38
478.783	109.38
479.002	95.38
479.22	96.38
479.439	104.38
479.658	128.38
479.876	88.38
480.095	86.38
480.313	88.38
480.532	84.38
480.751	84.38
480.969	76.38
481.188	91.38
481.406	86.38
481.624	93.38
481.843	85.38
482.061	98.38
482.28	81.38
482.498	66.38
482.717	83.38
482.935	74.38
483.153	83.38
483.372	88.38
483.59	93.38
483.808	88.38
484.027	83.38
484.245	88.38
484.463	80.38
484.681	100.38
484.9	99.38
485.118	75.38
485.336	92.38
485.554	101.38
485.772	99.38
485.99	106.38
486.209	118.38
486.427	101.38
486.645	102.38
486.863	118.38
487.081	108.38
487.299	87.38
487.517	88.38
487.735	83.38
487.953	87.38
488.171	96.38
488.389	101.38
488.607	103.38
488.825	91.38
489.043	95.38
489.261	98.38
489.479	91.38
489.696	87.38
489.914	94.38
490.132	100.38
490.35	100.38
490.568	84.38
490.786	90.38
491.003	92.38
491.221	96.38
491.439	92.38
491.657	93.38
491.874	88.38
492.092	94.38
492.31	88.38
492.527	90.38
492.745	83.38
492.963	96.38
493.18	89.38
493.398	89.38
493.615	86.38
493.833	81.38
494.05	88.38
494.268	94.38
494.485	75.38
494.703	75.38
494.92	98.38
495.138	88.38
495.355	89.38
495.573	95.38
495.79	90.38
496.008	90.38
496.225	90.38
496.442	89.38
496.66	92.38
496.877	87.38
497.094	84.38
497.312	85.38
497.529	84.38
497.746	90.38
497.963	98.38
498.181	90.38
498.398	98.38
498.615	109.38
498.832	104.38
499.049	82.38
499.267	89.38
499.484	88.38
499.701	91.38
499.918	84.38
500.135	83.38
500.352	99.38
500.569	80.38
500.786	80.38
501.003	92.38
501.22	90.38
501.437	78.38
501.654	102.38
501.871	115.38
502.088	94.38
502.305	90.38
502.522	93.38
502.739	88.38
502.956	79.38
503.172	102.38
503.389	100.38
503.606	99.38
503.823	91.38
504.04	91.38
504.256	82.38
504.473	94.38
504.69	77.38
504.907	98.38
505.123	79.38
505.34	85.38
505.557	95.38
505.773	87.38
505.99	90.38
506.207	96.38
506.423	94.38
506.64	86.38
506.856	88.38
507.073	101.38
507.289	107.38
507.506	95.38
507.722	129.38
507.939	139.38
508.155	103.38
508.372	87.38
508.588	82.38
508.805	86.38
509.021	86.38
509.238	94.38
509.454	107.38
509.67	126.38
509.887	109.38
510.103	147.38
510.319	248.38
510.536	975.38
510.752	3383.38
510.968	918.38
511.184	196.38
511.401	121.38
511.617	116.38
511.833	86.38
512.049	90.38
512.265	100.38
512.481	94.38
512.698	95.38
512.914	84.38
513.13	84.38
513.346	85.38
513.562	82.38
513.778	92.38
513.994	97.38
514.21	123.38
514.426	135.38
514.642	163.38
514.858	140.38
515.074	196.38
515.29	639.38
515.506	2308.38
