Data from Circ_2014_H10_HRD10591_00093.txt Node
Date: Wed Jan 03 10:02:27 EST 2024
User: Yrep
Spectrometer: HR+D1059
Trigger mode: 1
Integration Time (sec): 1.000000E-1
Scans to average: 1
Electric dark correction enabled: true
Nonlinearity correction enabled: false
Boxcar width: 0
XAxis mode: Wavelengths
Number of Pixels in Spectrum: 2048
>>>>>Begin Spectral Data<<<<<
223.165	-26.62
223.4	-26.62
223.635	-26.62
223.869	-11.62
224.104	-22.62
224.338	-23.62
224.573	-14.62
224.808	-23.62
225.042	0.38
225.277	0.38
225.511	-0.62
225.746	-0.62
225.98	-7.62
226.215	14.38
226.449	17.38
226.683	22.38
226.918	33.38
227.152	43.38
227.387	52.38
227.621	26.38
227.856	55.38
228.09	46.38
228.324	56.38
228.559	62.38
228.793	59.38
229.027	63.38
229.262	60.38
229.496	64.38
229.73	76.38
229.964	88.38
230.199	82.38
230.433	78.38
230.667	82.38
230.901	71.38
231.136	86.38
231.37	75.38
231.604	76.38
231.838	81.38
232.072	68.38
232.306	75.38
232.541	94.38
232.775	83.38
233.009	79.38
233.243	93.38
233.477	75.38
233.711	73.38
233.945	88.38
234.179	89.38
234.413	76.38
234.647	83.38
234.881	84.38
235.115	76.38
235.349	81.38
235.583	81.38
235.817	70.38
236.051	90.38
236.285	80.38
236.519	71.38
236.753	78.38
236.987	89.38
237.221	73.38
237.455	77.38
237.689	77.38
237.922	65.38
238.156	74.38
238.39	72.38
238.624	73.38
238.858	84.38
239.091	89.38
239.325	72.38
239.559	84.38
239.793	72.38
240.027	72.38
240.26	82.38
240.494	81.38
240.728	78.38
240.961	75.38
241.195	82.38
241.429	77.38
241.662	74.38
241.896	71.38
242.13	68.38
242.363	79.38
242.597	73.38
242.83	76.38
243.064	89.38
243.298	76.38
243.531	72.38
243.765	61.38
243.998	77.38
244.232	78.38
244.465	94.38
244.699	80.38
244.932	72.38
245.166	78.38
245.399	77.38
245.633	81.38
245.866	84.38
246.099	82.38
246.333	78.38
246.566	73.38
246.8	72.38
247.033	90.38
247.266	89.38
247.5	86.38
247.733	74.38
247.966	72.38
248.2	86.38
248.433	69.38
248.666	77.38
248.899	80.38
249.133	73.38
249.366	101.38
249.599	93.38
249.832	80.38
250.066	77.38
250.299	89.38
250.532	70.38
250.765	76.38
250.998	89.38
251.231	76.38
251.465	82.38
251.698	76.38
251.931	82.38
252.164	71.38
252.397	83.38
252.63	79.38
252.863	83.38
253.096	75.38
253.329	77.38
253.562	74.38
253.795	85.38
254.028	93.38
254.261	90.38
254.494	82.38
254.727	78.38
254.96	89.38
255.193	80.38
255.426	75.38
255.659	77.38
255.892	73.38
256.124	76.38
256.357	74.38
256.59	81.38
256.823	78.38
257.056	88.38
257.289	89.38
257.521	83.38
257.754	84.38
257.987	86.38
258.22	84.38
258.452	85.38
258.685	78.38
258.918	86.38
259.151	77.38
259.383	73.38
259.616	88.38
259.849	89.38
260.081	84.38
260.314	92.38
260.547	86.38
260.779	90.38
261.012	79.38
261.244	97.38
261.477	79.38
261.71	79.38
261.942	118.38
262.175	109.38
262.407	85.38
262.64	67.38
262.872	96.38
263.105	76.38
263.337	86.38
263.57	73.38
263.802	96.38
264.035	79.38
264.267	82.38
264.499	93.38
264.732	75.38
264.964	86.38
265.197	74.38
265.429	92.38
265.661	78.38
265.894	86.38
266.126	89.38
266.358	58.38
266.591	81.38
266.823	82.38
267.055	84.38
267.287	86.38
267.52	89.38
267.752	87.38
267.984	83.38
268.216	83.38
268.448	84.38
268.681	80.38
268.913	83.38
269.145	90.38
269.377	90.38
269.609	82.38
269.841	89.38
270.073	75.38
270.306	74.38
270.538	74.38
270.77	82.38
271.002	86.38
271.234	79.38
271.466	78.38
271.698	78.38
271.93	95.38
272.162	84.38
272.394	89.38
272.626	95.38
272.858	73.38
273.09	76.38
273.322	88.38
273.553	102.38
273.785	83.38
274.017	74.38
274.249	75.38
274.481	88.38
274.713	84.38
274.945	74.38
275.176	78.38
275.408	81.38
275.64	77.38
275.872	88.38
276.104	88.38
276.335	85.38
276.567	106.38
276.799	113.38
277.031	101.38
277.262	100.38
277.494	72.38
277.726	93.38
277.957	75.38
278.189	86.38
278.421	85.38
278.652	76.38
278.884	87.38
279.115	83.38
279.347	79.38
279.579	86.38
279.81	71.38
280.042	90.38
280.273	102.38
280.505	96.38
280.736	70.38
280.968	87.38
281.199	84.38
281.431	88.38
281.662	82.38
281.894	92.38
282.125	105.38
282.356	119.38
282.588	152.38
282.819	119.38
283.051	75.38
283.282	77.38
283.513	81.38
283.745	85.38
283.976	74.38
284.207	72.38
284.439	96.38
284.67	85.38
284.901	88.38
285.132	72.38
285.364	77.38
285.595	85.38
285.826	93.38
286.057	78.38
286.288	81.38
286.52	85.38
286.751	87.38
286.982	78.38
287.213	85.38
287.444	70.38
287.675	86.38
287.906	91.38
288.138	92.38
288.369	88.38
288.6	82.38
288.831	77.38
289.062	82.38
289.293	78.38
289.524	88.38
289.755	87.38
289.986	86.38
290.217	103.38
290.448	100.38
290.679	84.38
290.91	72.38
291.141	73.38
291.371	87.38
291.602	84.38
291.833	88.38
292.064	98.38
292.295	78.38
292.526	75.38
292.757	84.38
292.987	81.38
293.218	83.38
293.449	87.38
293.68	89.38
293.91	81.38
294.141	91.38
294.372	86.38
294.603	90.38
294.833	89.38
295.064	74.38
295.295	85.38
295.525	87.38
295.756	117.38
295.987	120.38
296.217	131.38
296.448	126.38
296.679	98.38
296.909	84.38
297.14	87.38
297.37	68.38
297.601	86.38
297.831	76.38
298.062	87.38
298.292	96.38
298.523	90.38
298.753	97.38
298.984	88.38
299.214	82.38
299.445	77.38
299.675	91.38
299.905	86.38
300.136	83.38
300.366	85.38
300.597	87.38
300.827	92.38
301.057	85.38
301.288	103.38
301.518	91.38
301.748	85.38
301.979	86.38
302.209	77.38
302.439	83.38
302.669	91.38
302.9	78.38
303.13	92.38
303.36	86.38
303.59	95.38
303.82	111.38
304.051	103.38
304.281	96.38
304.511	77.38
304.741	84.38
304.971	84.38
305.201	85.38
305.431	88.38
305.661	75.38
305.891	93.38
306.121	76.38
306.352	87.38
306.582	101.38
306.812	101.38
307.042	91.38
307.272	82.38
307.502	110.38
307.731	100.38
307.961	92.38
308.191	83.38
308.421	88.38
308.651	78.38
308.881	101.38
309.111	79.38
309.341	97.38
309.571	103.38
309.8	92.38
310.03	97.38
310.26	94.38
310.49	94.38
310.72	93.38
310.949	101.38
311.179	101.38
311.409	92.38
311.639	86.38
311.868	102.38
312.098	91.38
312.328	78.38
312.557	101.38
312.787	96.38
313.017	92.38
313.246	108.38
313.476	100.38
313.706	86.38
313.935	90.38
314.165	86.38
314.394	100.38
314.624	91.38
314.853	84.38
315.083	93.38
315.312	95.38
315.542	88.38
315.771	93.38
316.001	105.38
316.23	92.38
316.46	89.38
316.689	98.38
316.919	94.38
317.148	91.38
317.377	92.38
317.607	84.38
317.836	82.38
318.065	90.38
318.295	78.38
318.524	78.38
318.753	80.38
318.983	102.38
319.212	112.38
319.441	116.38
319.67	104.38
319.9	97.38
320.129	109.38
320.358	93.38
320.587	85.38
320.816	91.38
321.046	85.38
321.275	87.38
321.504	89.38
321.733	92.38
321.962	76.38
322.191	112.38
322.42	111.38
322.649	97.38
322.878	93.38
323.108	115.38
323.337	124.38
323.566	125.38
323.795	129.38
324.024	188.38
324.253	345.38
324.482	710.38
324.71	1444.38
324.939	1889.38
325.168	701.38
325.397	213.38
325.626	146.38
325.855	123.38
326.084	117.38
326.313	112.38
326.542	144.38
326.77	194.38
326.999	406.38
327.228	808.38
327.457	1446.38
327.686	1134.38
327.914	344.38
328.143	197.38
328.372	187.38
328.6	141.38
328.829	123.38
329.058	131.38
329.287	134.38
329.515	103.38
329.744	117.38
329.972	131.38
330.201	203.38
330.43	227.38
330.658	156.38
330.887	147.38
331.115	107.38
331.344	115.38
331.572	97.38
331.801	98.38
332.03	113.38
332.258	95.38
332.486	90.38
332.715	97.38
332.943	92.38
333.172	105.38
333.4	100.38
333.629	109.38
333.857	116.38
334.085	149.38
334.314	193.38
334.542	291.38
334.771	267.38
334.999	132.38
335.227	106.38
335.455	85.38
335.684	90.38
335.912	94.38
336.14	86.38
336.369	97.38
336.597	110.38
336.825	100.38
337.053	96.38
337.281	92.38
337.51	93.38
337.738	97.38
337.966	94.38
338.194	100.38
338.422	86.38
338.65	98.38
338.878	89.38
339.106	76.38
339.334	90.38
339.562	106.38
339.79	84.38
340.018	98.38
340.246	85.38
340.474	94.38
340.702	86.38
340.93	96.38
341.158	91.38
341.386	84.38
341.614	87.38
341.842	98.38
342.07	85.38
342.298	100.38
342.526	79.38
342.754	73.38
342.981	97.38
343.209	88.38
343.437	97.38
343.665	93.38
343.893	92.38
344.12	88.38
344.348	87.38
344.576	84.38
344.804	87.38
345.031	87.38
345.259	98.38
345.487	106.38
345.714	99.38
345.942	76.38
346.17	94.38
346.397	90.38
346.625	92.38
346.853	91.38
347.08	89.38
347.308	91.38
347.535	91.38
347.763	102.38
347.99	92.38
348.218	100.38
348.445	96.38
348.673	81.38
348.9	83.38
349.128	85.38
349.355	95.38
349.583	86.38
349.81	103.38
350.037	72.38
350.265	85.38
350.492	85.38
350.72	89.38
350.947	99.38
351.174	101.38
351.402	120.38
351.629	100.38
351.856	107.38
352.083	101.38
352.311	113.38
352.538	97.38
352.765	119.38
352.992	103.38
353.22	112.38
353.447	99.38
353.674	85.38
353.901	82.38
354.128	84.38
354.355	77.38
354.583	92.38
354.81	109.38
355.037	97.38
355.264	90.38
355.491	92.38
355.718	91.38
355.945	96.38
356.172	97.38
356.399	89.38
356.626	95.38
356.853	94.38
357.08	97.38
357.307	83.38
357.534	86.38
357.761	98.38
357.988	98.38
358.215	106.38
358.441	89.38
358.668	80.38
358.895	88.38
359.122	84.38
359.349	84.38
359.576	86.38
359.802	82.38
360.029	111.38
360.256	97.38
360.483	103.38
360.709	95.38
360.936	84.38
361.163	83.38
361.39	82.38
361.616	86.38
361.843	89.38
362.07	86.38
362.296	76.38
362.523	81.38
362.749	99.38
362.976	78.38
363.203	79.38
363.429	86.38
363.656	92.38
363.882	82.38
364.109	93.38
364.335	91.38
364.562	88.38
364.788	81.38
365.015	89.38
365.241	97.38
365.468	113.38
365.694	97.38
365.92	101.38
366.147	82.38
366.373	76.38
366.599	67.38
366.826	81.38
367.052	86.38
367.278	90.38
367.505	82.38
367.731	91.38
367.957	79.38
368.184	104.38
368.41	101.38
368.636	97.38
368.862	110.38
369.089	92.38
369.315	108.38
369.541	83.38
369.767	94.38
369.993	85.38
370.219	78.38
370.445	86.38
370.672	92.38
370.898	87.38
371.124	85.38
371.35	74.38
371.576	95.38
371.802	81.38
372.028	76.38
372.254	88.38
372.48	82.38
372.706	97.38
372.932	80.38
373.158	89.38
373.384	92.38
373.61	98.38
373.835	92.38
374.061	83.38
374.287	100.38
374.513	92.38
374.739	85.38
374.965	81.38
375.191	72.38
375.416	73.38
375.642	92.38
375.868	85.38
376.094	87.38
376.319	77.38
376.545	94.38
376.771	105.38
376.997	106.38
377.222	87.38
377.448	91.38
377.674	82.38
377.899	88.38
378.125	81.38
378.35	96.38
378.576	90.38
378.802	76.38
379.027	91.38
379.253	75.38
379.478	97.38
379.704	103.38
379.929	97.38
380.155	88.38
380.38	88.38
380.606	83.38
380.831	94.38
381.057	89.38
381.282	87.38
381.507	78.38
381.733	89.38
381.958	83.38
382.184	91.38
382.409	97.38
382.634	106.38
382.86	98.38
383.085	96.38
383.31	86.38
383.535	88.38
383.761	97.38
383.986	99.38
384.211	87.38
384.436	96.38
384.662	113.38
384.887	97.38
385.112	107.38
385.337	95.38
385.562	108.38
385.787	96.38
386.013	102.38
386.238	106.38
386.463	96.38
386.688	84.38
386.913	98.38
387.138	104.38
387.363	87.38
387.588	92.38
387.813	83.38
388.038	95.38
388.263	114.38
388.488	93.38
388.713	91.38
388.938	100.38
389.163	99.38
389.387	88.38
389.612	84.38
389.837	79.38
390.062	89.38
390.287	88.38
390.512	94.38
390.736	85.38
390.961	85.38
391.186	101.38
391.411	98.38
391.636	87.38
391.86	79.38
392.085	87.38
392.31	96.38
392.534	85.38
392.759	81.38
392.984	97.38
393.208	87.38
393.433	105.38
393.658	84.38
393.882	82.38
394.107	92.38
394.331	100.38
394.556	88.38
394.78	88.38
395.005	85.38
395.229	86.38
395.454	87.38
395.678	80.38
395.903	81.38
396.127	88.38
396.352	79.38
396.576	96.38
396.801	91.38
397.025	71.38
397.249	88.38
397.474	84.38
397.698	83.38
397.922	84.38
398.147	93.38
398.371	88.38
398.595	75.38
398.82	86.38
399.044	70.38
399.268	78.38
399.492	87.38
399.717	92.38
399.941	97.38
400.165	87.38
400.389	87.38
400.613	82.38
400.837	76.38
401.062	87.38
401.286	65.38
401.51	74.38
401.734	98.38
401.958	98.38
402.182	111.38
402.406	161.38
402.63	106.38
402.854	77.38
403.078	95.38
403.302	96.38
403.526	97.38
403.75	89.38
403.974	81.38
404.198	75.38
404.422	93.38
404.645	84.38
404.869	93.38
405.093	91.38
405.317	92.38
405.541	87.38
405.765	105.38
405.988	116.38
406.212	161.38
406.436	229.38
406.66	144.38
406.883	96.38
407.107	93.38
407.331	87.38
407.555	88.38
407.778	87.38
408.002	82.38
408.226	75.38
408.449	78.38
408.673	97.38
408.896	84.38
409.12	92.38
409.344	93.38
409.567	86.38
409.791	72.38
410.014	90.38
410.238	85.38
410.461	89.38
410.685	91.38
410.908	97.38
411.132	100.38
411.355	89.38
411.578	77.38
411.802	93.38
412.025	78.38
412.249	87.38
412.472	88.38
412.695	93.38
412.919	92.38
413.142	89.38
413.365	84.38
413.589	85.38
413.812	85.38
414.035	101.38
414.258	102.38
414.482	98.38
414.705	70.38
414.928	103.38
415.151	91.38
415.374	92.38
415.597	89.38
415.821	94.38
416.044	88.38
416.267	87.38
416.49	83.38
416.713	79.38
416.936	76.38
417.159	94.38
417.382	80.38
417.605	92.38
417.828	89.38
418.051	96.38
418.274	82.38
418.497	77.38
418.72	76.38
418.943	88.38
419.166	88.38
419.389	88.38
419.611	91.38
419.834	78.38
420.057	82.38
420.28	76.38
420.503	94.38
420.726	75.38
420.948	84.38
421.171	102.38
421.394	95.38
421.617	90.38
421.839	93.38
422.062	79.38
422.285	78.38
422.507	97.38
422.73	88.38
422.953	59.38
423.175	78.38
423.398	71.38
423.621	76.38
423.843	90.38
424.066	99.38
424.288	81.38
424.511	80.38
424.733	98.38
424.956	99.38
425.178	87.38
425.401	97.38
425.623	103.38
425.846	95.38
426.068	85.38
426.291	88.38
426.513	93.38
426.735	84.38
426.958	88.38
427.18	109.38
427.402	137.38
427.625	158.38
427.847	125.38
428.069	114.38
428.292	84.38
428.514	88.38
428.736	81.38
428.958	77.38
429.181	80.38
429.403	69.38
429.625	82.38
429.847	97.38
430.069	86.38
430.292	97.38
430.514	89.38
430.736	93.38
430.958	76.38
431.18	87.38
431.402	74.38
431.624	78.38
431.846	70.38
432.068	85.38
432.29	78.38
432.512	87.38
432.734	81.38
432.956	89.38
433.178	83.38
433.4	84.38
433.622	92.38
433.844	87.38
434.066	100.38
434.287	94.38
434.509	72.38
434.731	90.38
434.953	85.38
435.175	86.38
435.397	87.38
435.618	82.38
435.84	105.38
436.062	105.38
436.284	109.38
436.505	88.38
436.727	103.38
436.949	88.38
437.17	83.38
437.392	95.38
437.614	82.38
437.835	103.38
438.057	132.38
438.278	101.38
438.5	86.38
438.721	100.38
438.943	87.38
439.165	70.38
439.386	84.38
439.608	89.38
439.829	87.38
440.05	106.38
440.272	140.38
440.493	98.38
440.715	80.38
440.936	81.38
441.158	87.38
441.379	78.38
441.6	72.38
441.822	84.38
442.043	89.38
442.264	93.38
442.486	105.38
442.707	86.38
442.928	99.38
443.149	142.38
443.371	140.38
443.592	114.38
443.813	107.38
444.034	96.38
444.255	82.38
444.476	77.38
444.698	89.38
444.919	97.38
445.14	128.38
445.361	120.38
445.582	103.38
445.803	138.38
446.024	142.38
446.245	127.38
446.466	106.38
446.687	88.38
446.908	100.38
447.129	92.38
447.35	77.38
447.571	86.38
447.792	76.38
448.013	91.38
448.234	102.38
448.455	102.38
448.675	101.38
448.896	106.38
449.117	92.38
449.338	112.38
449.559	122.38
449.779	141.38
450	92.38
450.221	89.38
450.442	85.38
450.662	94.38
450.883	98.38
451.104	122.38
451.324	83.38
451.545	88.38
451.766	78.38
451.986	85.38
452.207	89.38
452.428	105.38
452.648	88.38
452.869	105.38
453.089	106.38
453.31	128.38
453.53	87.38
453.751	85.38
453.971	91.38
454.192	104.38
454.412	103.38
454.633	86.38
454.853	80.38
455.073	74.38
455.294	94.38
455.514	97.38
455.734	87.38
455.955	87.38
456.175	90.38
456.395	77.38
456.616	80.38
456.836	83.38
457.056	68.38
457.276	73.38
457.497	71.38
457.717	77.38
457.937	79.38
458.157	78.38
458.377	84.38
458.598	109.38
458.818	148.38
459.038	152.38
459.258	103.38
459.478	93.38
459.698	75.38
459.918	96.38
460.138	75.38
460.358	81.38
460.578	84.38
460.798	91.38
461.018	78.38
461.238	83.38
461.458	76.38
461.678	83.38
461.898	74.38
462.118	82.38
462.338	76.38
462.558	78.38
462.777	77.38
462.997	94.38
463.217	87.38
463.437	83.38
463.657	81.38
463.876	83.38
464.096	73.38
464.316	76.38
464.536	98.38
464.755	103.38
464.975	91.38
465.195	159.38
465.414	160.38
465.634	80.38
465.854	70.38
466.073	76.38
466.293	89.38
466.512	87.38
466.732	63.38
466.951	77.38
467.171	78.38
467.391	92.38
467.61	102.38
467.829	100.38
468.049	133.38
468.268	151.38
468.488	100.38
468.707	76.38
468.927	73.38
469.146	80.38
469.365	89.38
469.585	87.38
469.804	90.38
470.023	78.38
470.243	96.38
470.462	110.38
470.681	92.38
470.901	82.38
471.12	86.38
471.339	92.38
471.558	83.38
471.777	76.38
471.997	104.38
472.216	201.38
472.435	356.38
472.654	151.38
472.873	86.38
473.092	70.38
473.311	89.38
473.53	92.38
473.749	83.38
473.968	84.38
474.187	94.38
474.406	105.38
474.625	88.38
474.844	89.38
475.063	89.38
475.282	81.38
475.501	86.38
475.72	84.38
475.939	88.38
476.158	76.38
476.377	94.38
476.596	91.38
476.814	94.38
477.033	83.38
477.252	75.38
477.471	89.38
477.69	70.38
477.908	88.38
478.127	84.38
478.346	84.38
478.564	84.38
478.783	98.38
479.002	99.38
479.22	76.38
479.439	88.38
479.658	100.38
479.876	91.38
480.095	86.38
480.313	91.38
480.532	105.38
480.751	118.38
480.969	212.38
481.188	572.38
481.406	383.38
481.624	119.38
481.843	91.38
482.061	96.38
482.28	92.38
482.498	84.38
482.717	88.38
482.935	85.38
483.153	88.38
483.372	83.38
483.59	80.38
483.808	85.38
484.027	93.38
484.245	96.38
484.463	88.38
484.681	88.38
484.9	87.38
485.118	90.38
485.336	76.38
485.554	74.38
485.772	75.38
485.99	91.38
486.209	95.38
486.427	92.38
486.645	105.38
486.863	99.38
487.081	88.38
487.299	91.38
487.517	95.38
487.735	93.38
487.953	91.38
488.171	85.38
488.389	94.38
488.607	93.38
488.825	98.38
489.043	90.38
489.261	96.38
489.479	87.38
489.696	88.38
489.914	75.38
490.132	96.38
490.35	83.38
490.568	91.38
490.786	102.38
491.003	82.38
491.221	86.38
491.439	93.38
491.657	94.38
491.874	93.38
492.092	86.38
492.31	93.38
492.527	99.38
492.745	86.38
492.963	82.38
493.18	84.38
493.398	73.38
493.615	86.38
493.833	88.38
494.05	91.38
494.268	85.38
494.485	88.38
494.703	103.38
494.92	82.38
495.138	85.38
495.355	73.38
495.573	85.38
495.79	86.38
496.008	94.38
496.225	90.38
496.442	80.38
496.66	88.38
496.877	98.38
497.094	85.38
497.312	90.38
497.529	88.38
497.746	101.38
497.963	95.38
498.181	84.38
498.398	85.38
498.615	113.38
498.832	100.38
499.049	83.38
499.267	83.38
499.484	89.38
499.701	88.38
499.918	85.38
500.135	97.38
500.352	84.38
500.569	69.38
500.786	95.38
501.003	93.38
501.22	85.38
501.437	87.38
501.654	105.38
501.871	96.38
502.088	100.38
502.305	89.38
502.522	85.38
502.739	88.38
502.956	83.38
503.172	80.38
503.389	87.38
503.606	102.38
503.823	112.38
504.04	87.38
504.256	92.38
504.473	81.38
504.69	101.38
504.907	86.38
505.123	82.38
505.34	76.38
505.557	72.38
505.773	77.38
505.99	90.38
506.207	90.38
506.423	77.38
506.64	84.38
506.856	91.38
507.073	84.38
507.289	78.38
507.506	86.38
507.722	115.38
507.939	96.38
508.155	88.38
508.372	91.38
508.588	91.38
508.805	98.38
509.021	99.38
509.238	84.38
509.454	96.38
509.67	92.38
509.887	78.38
510.103	126.38
510.319	216.38
510.536	713.38
510.752	2377.38
510.968	682.38
511.184	146.38
511.401	108.38
511.617	84.38
511.833	101.38
512.049	91.38
512.265	87.38
512.481	93.38
512.698	98.38
512.914	101.38
513.13	92.38
513.346	91.38
513.562	92.38
513.778	81.38
513.994	100.38
514.21	98.38
514.426	112.38
514.642	122.38
514.858	140.38
515.074	165.38
515.29	444.38
515.506	1518.38
515.721	571.38
515.937	140.38
516.153	106.38
516.369	95.38
516.585	97.38
