Data from Circ_2014_H10_HRD10591_00050.txt Node
Date: Wed Jan 03 10:02:19 EST 2024
User: Yrep
Spectrometer: HR+D1059
Trigger mode: 1
Integration Time (sec): 1.000000E-1
Scans to average: 1
Electric dark correction enabled: true
Nonlinearity correction enabled: false
Boxcar width: 0
XAxis mode: Wavelengths
Number of Pixels in Spectrum: 2048
>>>>>Begin Spectral Data<<<<<
223.165	-11.88
223.4	-11.88
223.635	-11.88
223.869	-30.88
224.104	-13.88
224.338	-1.88
224.573	-9.88
224.808	-15.88
225.042	-5.88
225.277	4.12
225.511	-13.88
225.746	7.12
225.98	2.12
226.215	15.12
226.449	15.12
226.683	18.12
226.918	26.12
227.152	16.12
227.387	32.12
227.621	42.12
227.856	46.12
228.09	47.12
228.324	43.12
228.559	54.12
228.793	53.12
229.027	59.12
229.262	73.12
229.496	60.12
229.73	88.12
229.964	75.12
230.199	60.12
230.433	73.12
230.667	76.12
230.901	81.12
231.136	74.12
231.37	75.12
231.604	81.12
231.838	94.12
232.072	76.12
232.306	68.12
232.541	79.12
232.775	77.12
233.009	68.12
233.243	75.12
233.477	86.12
233.711	71.12
233.945	64.12
234.179	77.12
234.413	77.12
234.647	72.12
234.881	72.12
235.115	72.12
235.349	86.12
235.583	86.12
235.817	88.12
236.051	76.12
236.285	80.12
236.519	79.12
236.753	85.12
236.987	86.12
237.221	72.12
237.455	81.12
237.689	71.12
237.922	78.12
238.156	64.12
238.39	76.12
238.624	78.12
238.858	75.12
239.091	81.12
239.325	93.12
239.559	80.12
239.793	83.12
240.027	71.12
240.26	75.12
240.494	89.12
240.728	80.12
240.961	63.12
241.195	75.12
241.429	67.12
241.662	70.12
241.896	66.12
242.13	70.12
242.363	73.12
242.597	69.12
242.83	61.12
243.064	73.12
243.298	66.12
243.531	66.12
243.765	67.12
243.998	77.12
244.232	67.12
244.465	76.12
244.699	84.12
244.932	84.12
245.166	82.12
245.399	91.12
245.633	72.12
245.866	69.12
246.099	71.12
246.333	82.12
246.566	66.12
246.8	75.12
247.033	80.12
247.266	83.12
247.5	71.12
247.733	93.12
247.966	79.12
248.2	73.12
248.433	82.12
248.666	77.12
248.899	83.12
249.133	83.12
249.366	91.12
249.599	102.12
249.832	84.12
250.066	81.12
250.299	66.12
250.532	70.12
250.765	72.12
250.998	77.12
251.231	78.12
251.465	73.12
251.698	75.12
251.931	67.12
252.164	77.12
252.397	70.12
252.63	71.12
252.863	95.12
253.096	91.12
253.329	75.12
253.562	73.12
253.795	81.12
254.028	76.12
254.261	74.12
254.494	80.12
254.727	56.12
254.96	97.12
255.193	76.12
255.426	78.12
255.659	69.12
255.892	89.12
256.124	81.12
256.357	87.12
256.59	90.12
256.823	83.12
257.056	75.12
257.289	77.12
257.521	101.12
257.754	82.12
257.987	86.12
258.22	76.12
258.452	86.12
258.685	65.12
258.918	81.12
259.151	79.12
259.383	82.12
259.616	71.12
259.849	88.12
260.081	77.12
260.314	64.12
260.547	79.12
260.779	78.12
261.012	75.12
261.244	68.12
261.477	82.12
261.71	94.12
261.942	123.12
262.175	118.12
262.407	79.12
262.64	90.12
262.872	89.12
263.105	79.12
263.337	78.12
263.57	87.12
263.802	76.12
264.035	90.12
264.267	88.12
264.499	85.12
264.732	89.12
264.964	71.12
265.197	88.12
265.429	81.12
265.661	81.12
265.894	74.12
266.126	86.12
266.358	103.12
266.591	82.12
266.823	86.12
267.055	87.12
267.287	75.12
267.52	74.12
267.752	65.12
267.984	82.12
268.216	79.12
268.448	75.12
268.681	61.12
268.913	75.12
269.145	83.12
269.377	95.12
269.609	74.12
269.841	78.12
270.073	77.12
270.306	80.12
270.538	86.12
270.77	89.12
271.002	73.12
271.234	96.12
271.466	94.12
271.698	94.12
271.93	83.12
272.162	91.12
272.394	80.12
272.626	79.12
272.858	89.12
273.09	81.12
273.322	70.12
273.553	103.12
273.785	77.12
274.017	82.12
274.249	79.12
274.481	86.12
274.713	82.12
274.945	87.12
275.176	71.12
275.408	78.12
275.64	80.12
275.872	83.12
276.104	99.12
276.335	88.12
276.567	98.12
276.799	104.12
277.031	97.12
277.262	83.12
277.494	82.12
277.726	81.12
277.957	77.12
278.189	67.12
278.421	78.12
278.652	80.12
278.884	89.12
279.115	89.12
279.347	87.12
279.579	81.12
279.81	84.12
280.042	72.12
280.273	74.12
280.505	83.12
280.736	72.12
280.968	73.12
281.199	71.12
281.431	85.12
281.662	80.12
281.894	82.12
282.125	98.12
282.356	125.12
282.588	135.12
282.819	119.12
283.051	83.12
283.282	91.12
283.513	84.12
283.745	96.12
283.976	85.12
284.207	80.12
284.439	104.12
284.67	90.12
284.901	76.12
285.132	75.12
285.364	82.12
285.595	86.12
285.826	90.12
286.057	100.12
286.288	98.12
286.52	88.12
286.751	92.12
286.982	83.12
287.213	67.12
287.444	97.12
287.675	85.12
287.906	90.12
288.138	99.12
288.369	96.12
288.6	80.12
288.831	80.12
289.062	92.12
289.293	78.12
289.524	84.12
289.755	82.12
289.986	79.12
290.217	85.12
290.448	92.12
290.679	80.12
290.91	78.12
291.141	76.12
291.371	82.12
291.602	89.12
291.833	95.12
292.064	77.12
292.295	72.12
292.526	83.12
292.757	78.12
292.987	77.12
293.218	90.12
293.449	82.12
293.68	78.12
293.91	86.12
294.141	88.12
294.372	91.12
294.603	79.12
294.833	78.12
295.064	89.12
295.295	87.12
295.525	98.12
295.756	105.12
295.987	100.12
296.217	145.12
296.448	107.12
296.679	82.12
296.909	86.12
297.14	86.12
297.37	94.12
297.601	77.12
297.831	84.12
298.062	77.12
298.292	81.12
298.523	86.12
298.753	75.12
298.984	88.12
299.214	84.12
299.445	89.12
299.675	89.12
299.905	100.12
300.136	84.12
300.366	88.12
300.597	88.12
300.827	90.12
301.057	102.12
301.288	105.12
301.518	82.12
301.748	74.12
301.979	112.12
302.209	78.12
302.439	79.12
302.669	92.12
302.9	88.12
303.13	92.12
303.36	92.12
303.59	92.12
303.82	94.12
304.051	110.12
304.281	87.12
304.511	98.12
304.741	87.12
304.971	75.12
305.201	78.12
305.431	96.12
305.661	105.12
305.891	104.12
306.121	101.12
306.352	112.12
306.582	91.12
306.812	104.12
307.042	86.12
307.272	97.12
307.502	86.12
307.731	85.12
307.961	97.12
308.191	97.12
308.421	87.12
308.651	99.12
308.881	92.12
309.111	79.12
309.341	91.12
309.571	94.12
309.8	89.12
310.03	81.12
310.26	99.12
310.49	110.12
310.72	107.12
310.949	96.12
311.179	103.12
311.409	83.12
311.639	96.12
311.868	96.12
312.098	99.12
312.328	79.12
312.557	83.12
312.787	107.12
313.017	113.12
313.246	95.12
313.476	84.12
313.706	99.12
313.935	87.12
314.165	98.12
314.394	97.12
314.624	103.12
314.853	94.12
315.083	93.12
315.312	86.12
315.542	87.12
315.771	89.12
316.001	95.12
316.23	89.12
316.46	72.12
316.689	82.12
316.919	91.12
317.148	89.12
317.377	98.12
317.607	90.12
317.836	90.12
318.065	92.12
318.295	88.12
318.524	68.12
318.753	89.12
318.983	99.12
319.212	104.12
319.441	113.12
319.67	99.12
319.9	90.12
320.129	81.12
320.358	74.12
320.587	86.12
320.816	97.12
321.046	91.12
321.275	102.12
321.504	81.12
321.733	83.12
321.962	94.12
322.191	96.12
322.42	94.12
322.649	96.12
322.878	99.12
323.108	106.12
323.337	125.12
323.566	123.12
323.795	145.12
324.024	198.12
324.253	359.12
324.482	791.12
324.71	1576.12
324.939	2048.12
325.168	782.12
325.397	246.12
325.626	147.12
325.855	114.12
326.084	100.12
326.313	117.12
326.542	142.12
326.77	216.12
326.999	433.12
327.228	854.12
327.457	1570.12
327.686	1196.12
327.914	361.12
328.143	186.12
328.372	154.12
328.6	126.12
328.829	108.12
329.058	107.12
329.287	128.12
329.515	101.12
329.744	100.12
329.972	107.12
330.201	143.12
330.43	151.12
330.658	139.12
330.887	131.12
331.115	116.12
331.344	96.12
331.572	92.12
331.801	115.12
332.03	97.12
332.258	106.12
332.486	89.12
332.715	81.12
332.943	92.12
333.172	98.12
333.4	90.12
333.629	111.12
333.857	110.12
334.085	114.12
334.314	113.12
334.542	151.12
334.771	139.12
334.999	96.12
335.227	87.12
335.455	93.12
335.684	96.12
335.912	102.12
336.14	86.12
336.369	88.12
336.597	93.12
336.825	99.12
337.053	93.12
337.281	91.12
337.51	78.12
337.738	89.12
337.966	99.12
338.194	92.12
338.422	80.12
338.65	90.12
338.878	92.12
339.106	74.12
339.334	89.12
339.562	89.12
339.79	87.12
340.018	69.12
340.246	93.12
340.474	85.12
340.702	80.12
340.93	89.12
341.158	90.12
341.386	96.12
341.614	98.12
341.842	83.12
342.07	84.12
342.298	86.12
342.526	95.12
342.754	80.12
342.981	91.12
343.209	92.12
343.437	92.12
343.665	87.12
343.893	104.12
344.12	85.12
344.348	84.12
344.576	88.12
344.804	84.12
345.031	100.12
345.259	102.12
345.487	80.12
345.714	91.12
345.942	106.12
346.17	95.12
346.397	88.12
346.625	110.12
346.853	89.12
347.08	98.12
347.308	92.12
347.535	100.12
347.763	96.12
347.99	100.12
348.218	91.12
348.445	99.12
348.673	111.12
348.9	104.12
349.128	95.12
349.355	84.12
349.583	86.12
349.81	87.12
350.037	83.12
350.265	83.12
350.492	89.12
350.72	90.12
350.947	87.12
351.174	96.12
351.402	105.12
351.629	94.12
351.856	96.12
352.083	84.12
352.311	95.12
352.538	97.12
352.765	112.12
352.992	104.12
353.22	108.12
353.447	114.12
353.674	106.12
353.901	99.12
354.128	100.12
354.355	94.12
354.583	88.12
354.81	105.12
355.037	104.12
355.264	84.12
355.491	75.12
355.718	74.12
355.945	89.12
356.172	91.12
356.399	83.12
356.626	90.12
356.853	102.12
357.08	90.12
357.307	72.12
357.534	98.12
357.761	80.12
357.988	92.12
358.215	88.12
358.441	94.12
358.668	78.12
358.895	88.12
359.122	95.12
359.349	88.12
359.576	98.12
359.802	115.12
360.029	117.12
360.256	103.12
360.483	86.12
360.709	88.12
360.936	106.12
361.163	93.12
361.39	99.12
361.616	98.12
361.843	85.12
362.07	89.12
362.296	80.12
362.523	92.12
362.749	90.12
362.976	103.12
363.203	83.12
363.429	97.12
363.656	95.12
363.882	86.12
364.109	83.12
364.335	76.12
364.562	87.12
364.788	88.12
365.015	105.12
365.241	104.12
365.468	91.12
365.694	101.12
365.92	91.12
366.147	83.12
366.373	71.12
366.599	98.12
366.826	78.12
367.052	95.12
367.278	91.12
367.505	98.12
367.731	99.12
367.957	74.12
368.184	89.12
368.41	92.12
368.636	115.12
368.862	106.12
369.089	102.12
369.315	101.12
369.541	89.12
369.767	87.12
369.993	98.12
370.219	94.12
370.445	72.12
370.672	78.12
370.898	80.12
371.124	73.12
371.35	82.12
371.576	72.12
371.802	69.12
372.028	87.12
372.254	89.12
372.48	82.12
372.706	82.12
372.932	88.12
373.158	75.12
373.384	86.12
373.61	90.12
373.835	103.12
374.061	91.12
374.287	94.12
374.513	95.12
374.739	83.12
374.965	96.12
375.191	98.12
375.416	102.12
375.642	81.12
375.868	90.12
376.094	88.12
376.319	89.12
376.545	83.12
376.771	75.12
376.997	87.12
377.222	85.12
377.448	90.12
377.674	89.12
377.899	94.12
378.125	89.12
378.35	86.12
378.576	86.12
378.802	88.12
379.027	89.12
379.253	93.12
379.478	106.12
379.704	93.12
379.929	89.12
380.155	97.12
380.38	98.12
380.606	95.12
380.831	74.12
381.057	103.12
381.282	101.12
381.507	105.12
381.733	102.12
381.958	98.12
382.184	94.12
382.409	92.12
382.634	106.12
382.86	99.12
383.085	102.12
383.31	82.12
383.535	83.12
383.761	81.12
383.986	103.12
384.211	86.12
384.436	90.12
384.662	92.12
384.887	103.12
385.112	111.12
385.337	103.12
385.562	110.12
385.787	105.12
386.013	108.12
386.238	114.12
386.463	97.12
386.688	112.12
386.913	92.12
387.138	97.12
387.363	97.12
387.588	87.12
387.813	94.12
388.038	110.12
388.263	104.12
388.488	107.12
388.713	100.12
388.938	78.12
389.163	77.12
389.387	91.12
389.612	87.12
389.837	83.12
390.062	106.12
390.287	90.12
390.512	85.12
390.736	93.12
390.961	91.12
391.186	82.12
391.411	88.12
391.636	81.12
391.86	92.12
392.085	89.12
392.31	91.12
392.534	84.12
392.759	79.12
392.984	87.12
393.208	85.12
393.433	83.12
393.658	85.12
393.882	98.12
394.107	79.12
394.331	76.12
394.556	83.12
394.78	89.12
395.005	86.12
395.229	82.12
395.454	87.12
395.678	82.12
395.903	89.12
396.127	78.12
396.352	85.12
396.576	82.12
396.801	79.12
397.025	84.12
397.249	99.12
397.474	81.12
397.698	70.12
397.922	87.12
398.147	83.12
398.371	87.12
398.595	98.12
398.82	77.12
399.044	86.12
399.268	89.12
399.492	90.12
399.717	88.12
399.941	82.12
400.165	85.12
400.389	94.12
400.613	90.12
400.837	81.12
401.062	85.12
401.286	90.12
401.51	76.12
401.734	88.12
401.958	103.12
402.182	131.12
402.406	157.12
402.63	113.12
402.854	91.12
403.078	70.12
403.302	89.12
403.526	95.12
403.75	96.12
403.974	75.12
404.198	97.12
404.422	89.12
404.645	95.12
404.869	97.12
405.093	111.12
405.317	101.12
405.541	100.12
405.765	103.12
405.988	116.12
406.212	166.12
406.436	235.12
406.66	148.12
406.883	108.12
407.107	82.12
407.331	100.12
407.555	92.12
407.778	90.12
408.002	82.12
408.226	76.12
408.449	88.12
408.673	82.12
408.896	83.12
409.12	86.12
409.344	110.12
409.567	89.12
409.791	93.12
410.014	78.12
410.238	94.12
410.461	98.12
410.685	77.12
410.908	107.12
411.132	104.12
411.355	107.12
411.578	87.12
411.802	89.12
412.025	82.12
412.249	87.12
412.472	86.12
412.695	93.12
412.919	87.12
413.142	94.12
413.365	80.12
413.589	86.12
413.812	98.12
414.035	89.12
414.258	99.12
414.482	81.12
414.705	80.12
414.928	88.12
415.151	89.12
415.374	93.12
415.597	84.12
415.821	86.12
416.044	84.12
416.267	88.12
416.49	94.12
416.713	85.12
416.936	84.12
417.159	92.12
417.382	87.12
417.605	91.12
417.828	83.12
418.051	79.12
418.274	79.12
418.497	92.12
418.72	85.12
418.943	90.12
419.166	90.12
419.389	91.12
419.611	96.12
419.834	89.12
420.057	91.12
420.28	92.12
420.503	96.12
420.726	70.12
420.948	91.12
421.171	95.12
421.394	90.12
421.617	90.12
421.839	87.12
422.062	86.12
422.285	75.12
422.507	91.12
422.73	94.12
422.953	86.12
423.175	84.12
423.398	92.12
423.621	83.12
423.843	82.12
424.066	78.12
424.288	83.12
424.511	80.12
424.733	111.12
424.956	82.12
425.178	101.12
425.401	86.12
425.623	87.12
425.846	105.12
426.068	88.12
426.291	80.12
426.513	85.12
426.735	94.12
426.958	88.12
427.18	104.12
427.402	119.12
427.625	183.12
427.847	112.12
428.069	110.12
428.292	80.12
428.514	89.12
428.736	91.12
428.958	71.12
429.181	82.12
429.403	75.12
429.625	86.12
429.847	85.12
430.069	102.12
430.292	92.12
430.514	84.12
430.736	67.12
430.958	91.12
431.18	96.12
431.402	86.12
431.624	86.12
431.846	81.12
432.068	97.12
432.29	76.12
432.512	83.12
432.734	82.12
432.956	79.12
433.178	86.12
433.4	85.12
433.622	86.12
433.844	95.12
434.066	86.12
434.287	86.12
434.509	78.12
434.731	75.12
434.953	89.12
435.175	90.12
435.397	99.12
435.618	96.12
435.84	103.12
436.062	123.12
436.284	114.12
436.505	105.12
436.727	101.12
436.949	95.12
437.17	92.12
437.392	86.12
437.614	92.12
437.835	116.12
438.057	102.12
438.278	112.12
438.5	94.12
438.721	103.12
438.943	98.12
439.165	90.12
439.386	85.12
439.608	91.12
439.829	89.12
440.05	106.12
440.272	144.12
440.493	90.12
440.715	84.12
440.936	78.12
441.158	74.12
441.379	82.12
441.6	97.12
441.822	90.12
442.043	73.12
442.264	98.12
442.486	105.12
442.707	91.12
442.928	104.12
443.149	123.12
443.371	121.12
443.592	111.12
443.813	103.12
444.034	99.12
444.255	89.12
444.476	73.12
444.698	82.12
444.919	99.12
445.14	137.12
445.361	112.12
445.582	92.12
445.803	128.12
446.024	125.12
446.245	116.12
446.466	105.12
446.687	78.12
446.908	81.12
447.129	91.12
447.35	93.12
447.571	92.12
447.792	80.12
448.013	90.12
448.234	91.12
448.455	83.12
448.675	110.12
448.896	130.12
449.117	98.12
449.338	100.12
449.559	122.12
449.779	131.12
450	96.12
450.221	91.12
450.442	78.12
450.662	82.12
450.883	105.12
451.104	113.12
451.324	100.12
451.545	90.12
451.766	89.12
451.986	94.12
452.207	103.12
452.428	86.12
452.648	99.12
452.869	109.12
453.089	110.12
453.31	113.12
453.53	83.12
453.751	80.12
453.971	97.12
454.192	111.12
454.412	100.12
454.633	87.12
454.853	89.12
455.073	81.12
455.294	80.12
455.514	83.12
455.734	85.12
455.955	96.12
456.175	84.12
456.395	78.12
456.616	78.12
456.836	83.12
457.056	86.12
457.276	93.12
457.497	100.12
457.717	73.12
457.937	91.12
458.157	95.12
458.377	82.12
458.598	113.12
458.818	152.12
459.038	148.12
459.258	116.12
459.478	89.12
459.698	91.12
459.918	91.12
460.138	86.12
460.358	75.12
460.578	86.12
460.798	89.12
461.018	104.12
461.238	87.12
461.458	87.12
461.678	88.12
461.898	85.12
462.118	82.12
462.338	81.12
462.558	80.12
462.777	94.12
462.997	86.12
463.217	99.12
463.437	82.12
463.657	92.12
463.876	85.12
464.096	89.12
464.316	71.12
464.536	91.12
464.755	88.12
464.975	102.12
465.195	169.12
465.414	148.12
465.634	93.12
465.854	86.12
466.073	98.12
466.293	91.12
466.512	81.12
466.732	73.12
466.951	78.12
467.171	85.12
467.391	94.12
467.61	104.12
467.829	83.12
468.049	95.12
468.268	105.12
468.488	67.12
468.707	91.12
468.927	98.12
469.146	78.12
469.365	79.12
469.585	78.12
469.804	94.12
470.023	85.12
470.243	87.12
470.462	82.12
470.681	119.12
470.901	98.12
471.12	78.12
471.339	87.12
471.558	98.12
471.777	90.12
471.997	89.12
472.216	114.12
472.435	149.12
472.654	83.12
472.873	91.12
473.092	91.12
473.311	100.12
473.53	74.12
473.749	97.12
473.968	94.12
474.187	100.12
474.406	82.12
474.625	79.12
474.844	90.12
475.063	73.12
475.282	79.12
475.501	87.12
475.72	98.12
475.939	75.12
476.158	78.12
476.377	94.12
476.596	78.12
476.814	98.12
477.033	87.12
477.252	84.12
477.471	100.12
477.69	83.12
477.908	69.12
478.127	85.12
478.346	81.12
478.564	83.12
478.783	87.12
479.002	99.12
479.22	97.12
479.439	99.12
479.658	86.12
479.876	84.12
480.095	82.12
480.313	97.12
480.532	101.12
480.751	78.12
480.969	120.12
481.188	230.12
481.406	166.12
481.624	97.12
481.843	85.12
482.061	100.12
482.28	84.12
482.498	90.12
482.717	90.12
482.935	87.12
483.153	80.12
483.372	80.12
483.59	71.12
483.808	89.12
484.027	79.12
484.245	83.12
484.463	79.12
484.681	96.12
484.9	83.12
485.118	98.12
485.336	83.12
485.554	82.12
485.772	100.12
485.99	84.12
486.209	93.12
486.427	102.12
486.645	110.12
486.863	114.12
487.081	91.12
487.299	94.12
487.517	79.12
487.735	96.12
487.953	87.12
488.171	80.12
488.389	86.12
488.607	89.12
488.825	70.12
489.043	88.12
489.261	81.12
489.479	80.12
489.696	84.12
489.914	90.12
490.132	87.12
490.35	99.12
490.568	88.12
490.786	94.12
491.003	94.12
491.221	83.12
491.439	82.12
491.657	93.12
491.874	89.12
492.092	87.12
492.31	107.12
492.527	82.12
492.745	94.12
492.963	78.12
493.18	75.12
493.398	98.12
493.615	94.12
493.833	98.12
494.05	94.12
494.268	82.12
494.485	82.12
494.703	79.12
494.92	87.12
495.138	88.12
495.355	82.12
495.573	88.12
495.79	83.12
496.008	77.12
496.225	88.12
496.442	83.12
496.66	95.12
496.877	89.12
497.094	92.12
497.312	76.12
497.529	95.12
497.746	84.12
497.963	80.12
498.181	84.12
498.398	94.12
498.615	104.12
498.832	104.12
499.049	76.12
499.267	86.12
499.484	92.12
499.701	88.12
499.918	101.12
500.135	79.12
500.352	80.12
500.569	85.12
500.786	84.12
501.003	84.12
501.22	88.12
501.437	91.12
501.654	100.12
501.871	102.12
502.088	79.12
502.305	84.12
502.522	92.12
502.739	70.12
502.956	74.12
503.172	73.12
503.389	84.12
503.606	95.12
503.823	81.12
504.04	88.12
504.256	92.12
504.473	85.12
504.69	83.12
504.907	100.12
505.123	82.12
505.34	86.12
505.557	92.12
505.773	89.12
505.99	87.12
506.207	76.12
506.423	90.12
506.64	100.12
506.856	84.12
507.073	69.12
507.289	87.12
507.506	98.12
507.722	122.12
507.939	112.12
508.155	103.12
508.372	90.12
508.588	100.12
508.805	86.12
509.021	84.12
509.238	93.12
509.454	93.12
509.67	98.12
509.887	106.12
510.103	121.12
510.319	226.12
510.536	814.12
510.752	2632.12
510.968	753.12
511.184	162.12
511.401	113.12
511.617	90.12
511.833	82.12
512.049	88.12
512.265	84.12
512.481	89.12
512.698	81.12
512.914	89.12
513.13	89.12
513.346	91.12
513.562	88.12
513.778	98.12
513.994	82.12
514.21	101.12
514.426	120.12
514.642	129.12
514.858	115.12
515.074	146.12
515.29	458.12
515.506	1634.12
515.721	626.12
515.937	160.12
516.153	102.12
516.369	106.12
516.585	76.12
