Data from Circ_2014_H10_HRD10591_00084.txt Node
Date: Wed Jan 03 10:02:26 EST 2024
User: Yrep
Spectrometer: HR+D1059
Trigger mode: 1
Integration Time (sec): 1.000000E-1
Scans to average: 1
Electric dark correction enabled: true
Nonlinearity correction enabled: false
Boxcar width: 0
XAxis mode: Wavelengths
Number of Pixels in Spectrum: 2048
>>>>>Begin Spectral Data<<<<<
223.165	-15.31
223.4	-15.31
223.635	-15.31
223.869	-21.31
224.104	-18.31
224.338	-2.31
224.573	-6.31
224.808	-26.31
225.042	-15.31
225.277	-2.31
225.511	-6.31
225.746	7.69
225.98	16.69
226.215	13.69
226.449	10.69
226.683	21.69
226.918	17.69
227.152	25.69
227.387	40.69
227.621	35.69
227.856	47.69
228.09	37.69
228.324	45.69
228.559	49.69
228.793	55.69
229.027	59.69
229.262	56.69
229.496	73.69
229.73	69.69
229.964	79.69
230.199	66.69
230.433	66.69
230.667	77.69
230.901	84.69
231.136	73.69
231.37	82.69
231.604	73.69
231.838	81.69
232.072	71.69
232.306	69.69
232.541	75.69
232.775	75.69
233.009	78.69
233.243	85.69
233.477	81.69
233.711	89.69
233.945	88.69
234.179	68.69
234.413	62.69
234.647	76.69
234.881	88.69
235.115	75.69
235.349	84.69
235.583	64.69
235.817	82.69
236.051	65.69
236.285	77.69
236.519	68.69
236.753	69.69
236.987	73.69
237.221	75.69
237.455	76.69
237.689	73.69
237.922	57.69
238.156	85.69
238.39	87.69
238.624	74.69
238.858	72.69
239.091	70.69
239.325	89.69
239.559	78.69
239.793	63.69
240.027	78.69
240.26	80.69
240.494	77.69
240.728	65.69
240.961	69.69
241.195	72.69
241.429	79.69
241.662	67.69
241.896	74.69
242.13	73.69
242.363	72.69
242.597	71.69
242.83	80.69
243.064	79.69
243.298	69.69
243.531	73.69
243.765	60.69
243.998	74.69
244.232	85.69
244.465	75.69
244.699	89.69
244.932	77.69
245.166	83.69
245.399	84.69
245.633	73.69
245.866	67.69
246.099	70.69
246.333	83.69
246.566	77.69
246.8	74.69
247.033	80.69
247.266	78.69
247.5	85.69
247.733	65.69
247.966	69.69
248.2	68.69
248.433	77.69
248.666	80.69
248.899	78.69
249.133	69.69
249.366	88.69
249.599	104.69
249.832	72.69
250.066	81.69
250.299	88.69
250.532	66.69
250.765	65.69
250.998	79.69
251.231	77.69
251.465	58.69
251.698	84.69
251.931	63.69
252.164	69.69
252.397	70.69
252.63	70.69
252.863	79.69
253.096	80.69
253.329	94.69
253.562	76.69
253.795	74.69
254.028	80.69
254.261	79.69
254.494	78.69
254.727	69.69
254.96	78.69
255.193	80.69
255.426	67.69
255.659	75.69
255.892	92.69
256.124	83.69
256.357	74.69
256.59	61.69
256.823	78.69
257.056	78.69
257.289	90.69
257.521	80.69
257.754	71.69
257.987	74.69
258.22	69.69
258.452	74.69
258.685	79.69
258.918	77.69
259.151	76.69
259.383	77.69
259.616	75.69
259.849	71.69
260.081	78.69
260.314	64.69
260.547	70.69
260.779	71.69
261.012	80.69
261.244	82.69
261.477	92.69
261.71	100.69
261.942	103.69
262.175	125.69
262.407	69.69
262.64	78.69
262.872	90.69
263.105	89.69
263.337	97.69
263.57	64.69
263.802	82.69
264.035	72.69
264.267	71.69
264.499	65.69
264.732	67.69
264.964	77.69
265.197	70.69
265.429	72.69
265.661	79.69
265.894	85.69
266.126	88.69
266.358	75.69
266.591	62.69
266.823	89.69
267.055	91.69
267.287	79.69
267.52	85.69
267.752	81.69
267.984	77.69
268.216	70.69
268.448	77.69
268.681	81.69
268.913	75.69
269.145	71.69
269.377	70.69
269.609	87.69
269.841	78.69
270.073	86.69
270.306	78.69
270.538	86.69
270.77	82.69
271.002	86.69
271.234	83.69
271.466	77.69
271.698	75.69
271.93	96.69
272.162	95.69
272.394	76.69
272.626	71.69
272.858	80.69
273.09	90.69
273.322	86.69
273.553	72.69
273.785	91.69
274.017	87.69
274.249	65.69
274.481	81.69
274.713	79.69
274.945	80.69
275.176	71.69
275.408	83.69
275.64	73.69
275.872	81.69
276.104	75.69
276.335	82.69
276.567	93.69
276.799	108.69
277.031	100.69
277.262	96.69
277.494	97.69
277.726	73.69
277.957	87.69
278.189	90.69
278.421	91.69
278.652	93.69
278.884	74.69
279.115	86.69
279.347	84.69
279.579	84.69
279.81	82.69
280.042	87.69
280.273	85.69
280.505	74.69
280.736	85.69
280.968	85.69
281.199	87.69
281.431	84.69
281.662	80.69
281.894	80.69
282.125	100.69
282.356	111.69
282.588	145.69
282.819	115.69
283.051	83.69
283.282	84.69
283.513	87.69
283.745	86.69
283.976	82.69
284.207	79.69
284.439	89.69
284.67	70.69
284.901	92.69
285.132	83.69
285.364	71.69
285.595	75.69
285.826	64.69
286.057	78.69
286.288	79.69
286.52	83.69
286.751	70.69
286.982	80.69
287.213	90.69
287.444	90.69
287.675	84.69
287.906	74.69
288.138	89.69
288.369	86.69
288.6	79.69
288.831	84.69
289.062	87.69
289.293	83.69
289.524	90.69
289.755	82.69
289.986	84.69
290.217	91.69
290.448	79.69
290.679	89.69
290.91	101.69
291.141	95.69
291.371	85.69
291.602	75.69
291.833	81.69
292.064	80.69
292.295	82.69
292.526	83.69
292.757	72.69
292.987	85.69
293.218	77.69
293.449	82.69
293.68	69.69
293.91	78.69
294.141	79.69
294.372	86.69
294.603	83.69
294.833	80.69
295.064	77.69
295.295	109.69
295.525	99.69
295.756	99.69
295.987	109.69
296.217	121.69
296.448	126.69
296.679	97.69
296.909	95.69
297.14	87.69
297.37	76.69
297.601	79.69
297.831	71.69
298.062	77.69
298.292	85.69
298.523	84.69
298.753	82.69
298.984	86.69
299.214	72.69
299.445	86.69
299.675	83.69
299.905	85.69
300.136	98.69
300.366	85.69
300.597	73.69
300.827	94.69
301.057	96.69
301.288	102.69
301.518	80.69
301.748	87.69
301.979	85.69
302.209	84.69
302.439	83.69
302.669	91.69
302.9	90.69
303.13	87.69
303.36	102.69
303.59	107.69
303.82	102.69
304.051	80.69
304.281	98.69
304.511	83.69
304.741	87.69
304.971	89.69
305.201	99.69
305.431	93.69
305.661	75.69
305.891	77.69
306.121	80.69
306.352	103.69
306.582	105.69
306.812	85.69
307.042	94.69
307.272	97.69
307.502	90.69
307.731	101.69
307.961	78.69
308.191	87.69
308.421	78.69
308.651	74.69
308.881	91.69
309.111	84.69
309.341	87.69
309.571	78.69
309.8	85.69
310.03	98.69
310.26	94.69
310.49	99.69
310.72	90.69
310.949	100.69
311.179	91.69
311.409	95.69
311.639	86.69
311.868	88.69
312.098	103.69
312.328	101.69
312.557	101.69
312.787	97.69
313.017	109.69
313.246	83.69
313.476	91.69
313.706	90.69
313.935	88.69
314.165	96.69
314.394	112.69
314.624	81.69
314.853	88.69
315.083	97.69
315.312	72.69
315.542	83.69
315.771	86.69
316.001	102.69
316.23	94.69
316.46	83.69
316.689	93.69
316.919	98.69
317.148	84.69
317.377	101.69
317.607	89.69
317.836	82.69
318.065	76.69
318.295	64.69
318.524	81.69
318.753	102.69
318.983	83.69
319.212	97.69
319.441	92.69
319.67	99.69
319.9	99.69
320.129	70.69
320.358	83.69
320.587	88.69
320.816	99.69
321.046	93.69
321.275	99.69
321.504	104.69
321.733	101.69
321.962	104.69
322.191	112.69
322.42	98.69
322.649	110.69
322.878	98.69
323.108	115.69
323.337	106.69
323.566	134.69
323.795	152.69
324.024	210.69
324.253	357.69
324.482	746.69
324.71	1497.69
324.939	1991.69
325.168	771.69
325.397	233.69
325.626	138.69
325.855	127.69
326.084	116.69
326.313	125.69
326.542	139.69
326.77	219.69
326.999	413.69
327.228	845.69
327.457	1462.69
327.686	1192.69
327.914	331.69
328.143	199.69
328.372	175.69
328.6	139.69
328.829	112.69
329.058	136.69
329.287	119.69
329.515	94.69
329.744	117.69
329.972	131.69
330.201	161.69
330.43	204.69
330.658	156.69
330.887	139.69
331.115	116.69
331.344	99.69
331.572	109.69
331.801	113.69
332.03	89.69
332.258	104.69
332.486	85.69
332.715	99.69
332.943	95.69
333.172	80.69
333.4	80.69
333.629	106.69
333.857	104.69
334.085	135.69
334.314	157.69
334.542	231.69
334.771	239.69
334.999	114.69
335.227	91.69
335.455	91.69
335.684	85.69
335.912	88.69
336.14	87.69
336.369	96.69
336.597	93.69
336.825	99.69
337.053	98.69
337.281	96.69
337.51	96.69
337.738	105.69
337.966	90.69
338.194	87.69
338.422	83.69
338.65	86.69
338.878	85.69
339.106	88.69
339.334	86.69
339.562	69.69
339.79	89.69
340.018	82.69
340.246	78.69
340.474	78.69
340.702	90.69
340.93	91.69
341.158	93.69
341.386	85.69
341.614	93.69
341.842	95.69
342.07	98.69
342.298	86.69
342.526	88.69
342.754	76.69
342.981	73.69
343.209	83.69
343.437	93.69
343.665	81.69
343.893	95.69
344.12	80.69
344.348	99.69
344.576	85.69
344.804	85.69
345.031	84.69
345.259	96.69
345.487	93.69
345.714	96.69
345.942	84.69
346.17	81.69
346.397	81.69
346.625	89.69
346.853	84.69
347.08	93.69
347.308	93.69
347.535	96.69
347.763	97.69
347.99	95.69
348.218	108.69
348.445	109.69
348.673	91.69
348.9	99.69
349.128	85.69
349.355	72.69
349.583	95.69
349.81	89.69
350.037	104.69
350.265	86.69
350.492	78.69
350.72	94.69
350.947	105.69
351.174	103.69
351.402	90.69
351.629	103.69
351.856	107.69
352.083	88.69
352.311	105.69
352.538	99.69
352.765	83.69
352.992	113.69
353.22	105.69
353.447	111.69
353.674	91.69
353.901	101.69
354.128	93.69
354.355	85.69
354.583	105.69
354.81	90.69
355.037	95.69
355.264	84.69
355.491	97.69
355.718	98.69
355.945	92.69
356.172	93.69
356.399	92.69
356.626	82.69
356.853	86.69
357.08	93.69
357.307	80.69
357.534	94.69
357.761	90.69
357.988	105.69
358.215	83.69
358.441	88.69
358.668	87.69
358.895	94.69
359.122	78.69
359.349	89.69
359.576	82.69
359.802	99.69
360.029	114.69
360.256	117.69
360.483	101.69
360.709	86.69
360.936	103.69
361.163	89.69
361.39	96.69
361.616	96.69
361.843	81.69
362.07	91.69
362.296	87.69
362.523	93.69
362.749	98.69
362.976	93.69
363.203	92.69
363.429	103.69
363.656	92.69
363.882	83.69
364.109	87.69
364.335	106.69
364.562	91.69
364.788	90.69
365.015	96.69
365.241	88.69
365.468	105.69
365.694	104.69
365.92	84.69
366.147	85.69
366.373	86.69
366.599	89.69
366.826	73.69
367.052	88.69
367.278	83.69
367.505	76.69
367.731	94.69
367.957	81.69
368.184	88.69
368.41	104.69
368.636	98.69
368.862	121.69
369.089	103.69
369.315	97.69
369.541	89.69
369.767	95.69
369.993	101.69
370.219	82.69
370.445	77.69
370.672	87.69
370.898	86.69
371.124	87.69
371.35	82.69
371.576	73.69
371.802	85.69
372.028	78.69
372.254	69.69
372.48	93.69
372.706	83.69
372.932	79.69
373.158	92.69
373.384	97.69
373.61	93.69
373.835	83.69
374.061	87.69
374.287	97.69
374.513	84.69
374.739	91.69
374.965	88.69
375.191	92.69
375.416	90.69
375.642	90.69
375.868	89.69
376.094	89.69
376.319	78.69
376.545	82.69
376.771	83.69
376.997	75.69
377.222	89.69
377.448	93.69
377.674	82.69
377.899	83.69
378.125	74.69
378.35	72.69
378.576	89.69
378.802	87.69
379.027	106.69
379.253	97.69
379.478	83.69
379.704	93.69
379.929	88.69
380.155	98.69
380.38	85.69
380.606	70.69
380.831	83.69
381.057	89.69
381.282	81.69
381.507	87.69
381.733	94.69
381.958	81.69
382.184	96.69
382.409	87.69
382.634	87.69
382.86	104.69
383.085	104.69
383.31	96.69
383.535	98.69
383.761	96.69
383.986	95.69
384.211	103.69
384.436	90.69
384.662	96.69
384.887	109.69
385.112	90.69
385.337	104.69
385.562	98.69
385.787	94.69
386.013	104.69
386.238	109.69
386.463	101.69
386.688	117.69
386.913	109.69
387.138	106.69
387.363	85.69
387.588	100.69
387.813	83.69
388.038	102.69
388.263	104.69
388.488	95.69
388.713	102.69
388.938	100.69
389.163	87.69
389.387	93.69
389.612	81.69
389.837	90.69
390.062	71.69
390.287	83.69
390.512	89.69
390.736	90.69
390.961	96.69
391.186	85.69
391.411	94.69
391.636	85.69
391.86	95.69
392.085	90.69
392.31	86.69
392.534	79.69
392.759	82.69
392.984	81.69
393.208	84.69
393.433	83.69
393.658	87.69
393.882	93.69
394.107	81.69
394.331	83.69
394.556	83.69
394.78	88.69
395.005	88.69
395.229	89.69
395.454	78.69
395.678	95.69
395.903	94.69
396.127	103.69
396.352	82.69
396.576	82.69
396.801	83.69
397.025	83.69
397.249	82.69
397.474	77.69
397.698	72.69
397.922	85.69
398.147	75.69
398.371	87.69
398.595	78.69
398.82	85.69
399.044	74.69
399.268	75.69
399.492	90.69
399.717	86.69
399.941	87.69
400.165	93.69
400.389	74.69
400.613	75.69
400.837	76.69
401.062	73.69
401.286	69.69
401.51	73.69
401.734	83.69
401.958	99.69
402.182	137.69
402.406	152.69
402.63	101.69
402.854	66.69
403.078	81.69
403.302	97.69
403.526	100.69
403.75	72.69
403.974	87.69
404.198	88.69
404.422	102.69
404.645	85.69
404.869	80.69
405.093	77.69
405.317	91.69
405.541	103.69
405.765	89.69
405.988	106.69
406.212	166.69
406.436	200.69
406.66	142.69
406.883	94.69
407.107	98.69
407.331	89.69
407.555	102.69
407.778	97.69
408.002	92.69
408.226	89.69
408.449	83.69
408.673	85.69
408.896	85.69
409.12	95.69
409.344	88.69
409.567	89.69
409.791	88.69
410.014	84.69
410.238	89.69
410.461	93.69
410.685	88.69
410.908	81.69
411.132	87.69
411.355	84.69
411.578	99.69
411.802	88.69
412.025	74.69
412.249	83.69
412.472	83.69
412.695	97.69
412.919	99.69
413.142	97.69
413.365	94.69
413.589	83.69
413.812	88.69
414.035	86.69
414.258	77.69
414.482	91.69
414.705	101.69
414.928	83.69
415.151	97.69
415.374	113.69
415.597	83.69
415.821	90.69
416.044	103.69
416.267	89.69
416.49	72.69
416.713	84.69
416.936	82.69
417.159	80.69
417.382	82.69
417.605	89.69
417.828	91.69
418.051	85.69
418.274	75.69
418.497	71.69
418.72	87.69
418.943	89.69
419.166	94.69
419.389	80.69
419.611	88.69
419.834	70.69
420.057	99.69
420.28	75.69
420.503	79.69
420.726	76.69
420.948	83.69
421.171	94.69
421.394	83.69
421.617	90.69
421.839	80.69
422.062	90.69
422.285	98.69
422.507	99.69
422.73	107.69
422.953	98.69
423.175	95.69
423.398	99.69
423.621	89.69
423.843	99.69
424.066	74.69
424.288	82.69
424.511	97.69
424.733	89.69
424.956	95.69
425.178	91.69
425.401	102.69
425.623	99.69
425.846	100.69
426.068	91.69
426.291	79.69
426.513	89.69
426.735	88.69
426.958	87.69
427.18	94.69
427.402	110.69
427.625	159.69
427.847	139.69
428.069	109.69
428.292	93.69
428.514	90.69
428.736	89.69
428.958	74.69
429.181	80.69
429.403	75.69
429.625	94.69
429.847	97.69
430.069	95.69
430.292	90.69
430.514	83.69
430.736	90.69
430.958	83.69
431.18	81.69
431.402	87.69
431.624	76.69
431.846	92.69
432.068	89.69
432.29	90.69
432.512	91.69
432.734	78.69
432.956	85.69
433.178	94.69
433.4	91.69
433.622	90.69
433.844	84.69
434.066	88.69
434.287	82.69
434.509	84.69
434.731	97.69
434.953	93.69
435.175	90.69
435.397	87.69
435.618	67.69
435.84	98.69
436.062	103.69
436.284	102.69
436.505	95.69
436.727	98.69
436.949	84.69
437.17	79.69
437.392	69.69
437.614	92.69
437.835	96.69
438.057	111.69
438.278	111.69
438.5	104.69
438.721	123.69
438.943	99.69
439.165	77.69
439.386	74.69
439.608	89.69
439.829	105.69
440.05	110.69
440.272	132.69
440.493	88.69
440.715	88.69
440.936	75.69
441.158	94.69
441.379	88.69
441.6	79.69
441.822	75.69
442.043	89.69
442.264	91.69
442.486	96.69
442.707	98.69
442.928	111.69
443.149	121.69
443.371	133.69
443.592	97.69
443.813	112.69
444.034	89.69
444.255	99.69
444.476	103.69
444.698	80.69
444.919	90.69
445.14	106.69
445.361	119.69
445.582	108.69
445.803	120.69
446.024	125.69
446.245	108.69
446.466	102.69
446.687	78.69
446.908	78.69
447.129	79.69
447.35	93.69
447.571	93.69
447.792	85.69
448.013	105.69
448.234	104.69
448.455	98.69
448.675	105.69
448.896	114.69
449.117	91.69
449.338	96.69
449.559	121.69
449.779	122.69
450	95.69
450.221	85.69
450.442	79.69
450.662	82.69
450.883	113.69
451.104	98.69
451.324	76.69
451.545	74.69
451.766	79.69
451.986	91.69
452.207	97.69
452.428	96.69
452.648	79.69
452.869	105.69
453.089	111.69
453.31	120.69
453.53	85.69
453.751	93.69
453.971	81.69
454.192	105.69
454.412	98.69
454.633	85.69
454.853	83.69
455.073	78.69
455.294	83.69
455.514	87.69
455.734	96.69
455.955	87.69
456.175	95.69
456.395	87.69
456.616	82.69
456.836	101.69
457.056	86.69
457.276	91.69
457.497	85.69
457.717	76.69
457.937	89.69
458.157	70.69
458.377	97.69
458.598	120.69
458.818	151.69
459.038	144.69
459.258	108.69
459.478	93.69
459.698	81.69
459.918	86.69
460.138	94.69
460.358	86.69
460.578	70.69
460.798	85.69
461.018	64.69
461.238	86.69
461.458	89.69
461.678	88.69
461.898	71.69
462.118	88.69
462.338	88.69
462.558	84.69
462.777	71.69
462.997	74.69
463.217	79.69
463.437	88.69
463.657	81.69
463.876	83.69
464.096	81.69
464.316	77.69
464.536	99.69
464.755	98.69
464.975	93.69
465.195	152.69
465.414	151.69
465.634	87.69
465.854	81.69
466.073	90.69
466.293	74.69
466.512	87.69
466.732	97.69
466.951	89.69
467.171	89.69
467.391	87.69
467.61	106.69
467.829	102.69
468.049	121.69
468.268	131.69
468.488	88.69
468.707	65.69
468.927	92.69
469.146	98.69
469.365	82.69
469.585	82.69
469.804	92.69
470.023	98.69
470.243	89.69
470.462	87.69
470.681	103.69
470.901	94.69
471.12	82.69
471.339	82.69
471.558	84.69
471.777	85.69
471.997	103.69
472.216	168.69
472.435	270.69
472.654	125.69
472.873	102.69
473.092	83.69
473.311	81.69
473.53	88.69
473.749	93.69
473.968	85.69
474.187	92.69
474.406	97.69
474.625	82.69
474.844	77.69
475.063	84.69
475.282	78.69
475.501	104.69
475.72	97.69
475.939	93.69
476.158	75.69
476.377	87.69
476.596	79.69
476.814	95.69
477.033	99.69
477.252	85.69
477.471	84.69
477.69	85.69
477.908	84.69
478.127	82.69
478.346	83.69
478.564	86.69
478.783	92.69
479.002	85.69
479.22	87.69
479.439	86.69
479.658	102.69
479.876	101.69
480.095	89.69
480.313	88.69
480.532	101.69
480.751	96.69
480.969	169.69
481.188	461.69
481.406	296.69
481.624	118.69
481.843	95.69
482.061	93.69
482.28	86.69
482.498	91.69
482.717	96.69
482.935	78.69
483.153	87.69
483.372	89.69
483.59	102.69
483.808	97.69
484.027	81.69
484.245	99.69
484.463	100.69
484.681	95.69
484.9	83.69
485.118	103.69
485.336	85.69
485.554	93.69
485.772	90.69
485.99	100.69
486.209	98.69
486.427	96.69
486.645	97.69
486.863	109.69
487.081	86.69
487.299	88.69
487.517	94.69
487.735	87.69
487.953	90.69
488.171	81.69
488.389	76.69
488.607	92.69
488.825	81.69
489.043	84.69
489.261	79.69
489.479	93.69
489.696	91.69
489.914	88.69
490.132	96.69
490.35	89.69
490.568	92.69
490.786	90.69
491.003	86.69
491.221	91.69
491.439	89.69
491.657	87.69
491.874	76.69
492.092	79.69
492.31	89.69
492.527	86.69
492.745	72.69
492.963	86.69
493.18	90.69
493.398	93.69
493.615	108.69
493.833	88.69
494.05	90.69
494.268	82.69
494.485	93.69
494.703	86.69
494.92	91.69
495.138	91.69
495.355	92.69
495.573	86.69
495.79	85.69
496.008	87.69
496.225	93.69
496.442	85.69
496.66	89.69
496.877	83.69
497.094	84.69
497.312	82.69
497.529	81.69
497.746	97.69
497.963	78.69
498.181	71.69
498.398	91.69
498.615	107.69
498.832	85.69
499.049	93.69
499.267	83.69
499.484	90.69
499.701	75.69
499.918	87.69
500.135	96.69
500.352	83.69
500.569	82.69
500.786	89.69
501.003	85.69
501.22	83.69
501.437	80.69
501.654	86.69
501.871	101.69
502.088	93.69
502.305	91.69
502.522	81.69
502.739	93.69
502.956	82.69
503.172	97.69
503.389	98.69
503.606	95.69
503.823	95.69
504.04	87.69
504.256	98.69
504.473	74.69
504.69	82.69
504.907	92.69
505.123	102.69
505.34	85.69
505.557	88.69
505.773	97.69
505.99	91.69
506.207	79.69
506.423	82.69
506.64	76.69
506.856	88.69
507.073	82.69
507.289	90.69
507.506	88.69
507.722	123.69
507.939	103.69
508.155	93.69
508.372	79.69
508.588	68.69
508.805	82.69
509.021	85.69
509.238	105.69
509.454	85.69
509.67	97.69
509.887	107.69
510.103	133.69
510.319	205.69
510.536	719.69
510.752	2438.69
510.968	707.69
511.184	150.69
511.401	106.69
511.617	104.69
511.833	94.69
512.049	86.69
512.265	81.69
512.481	79.69
512.698	82.69
512.914	93.69
513.13	95.69
513.346	101.69
513.562	99.69
513.778	89.69
513.994	115.69
514.21	96.69
514.426	121.69
514.642	128.69
514.858	122.69
515.074	162.69
515.29	450.69
515.506	1545.69
515.721	591.69
515.937	147.69
516.153	105.69
516.369	99.69
516.585	90.69
516.801	66.69
