Data from Circ_2014_H10_HRD10591_00010.txt Node
Date: Wed Jan 03 10:02:11 EST 2024
User: Yrep
Spectrometer: HR+D1059
Trigger mode: 1
Integration Time (sec): 1.000000E-1
Scans to average: 1
Electric dark correction enabled: true
Nonlinearity correction enabled: false
Boxcar width: 0
XAxis mode: Wavelengths
Number of Pixels in Spectrum: 2048
>>>>>Begin Spectral Data<<<<<
223.165	-20.56
223.4	-20.56
223.635	-20.56
223.869	-16.56
224.104	-15.56
224.338	-17.56
224.573	-17.56
224.808	-26.56
225.042	-8.56
225.277	-5.56
225.511	8.44
225.746	3.44
225.98	6.44
226.215	7.44
226.449	17.44
226.683	21.44
226.918	24.44
227.152	39.44
227.387	31.44
227.621	56.44
227.856	28.44
228.09	49.44
228.324	53.44
228.559	40.44
228.793	57.44
229.027	64.44
229.262	71.44
229.496	72.44
229.73	81.44
229.964	80.44
230.199	73.44
230.433	75.44
230.667	75.44
230.901	69.44
231.136	73.44
231.37	79.44
231.604	75.44
231.838	63.44
232.072	81.44
232.306	89.44
232.541	87.44
232.775	70.44
233.009	82.44
233.243	72.44
233.477	73.44
233.711	97.44
233.945	81.44
234.179	71.44
234.413	89.44
234.647	70.44
234.881	74.44
235.115	64.44
235.349	69.44
235.583	79.44
235.817	69.44
236.051	62.44
236.285	77.44
236.519	80.44
236.753	85.44
236.987	72.44
237.221	71.44
237.455	69.44
237.689	86.44
237.922	74.44
238.156	79.44
238.39	76.44
238.624	71.44
238.858	72.44
239.091	82.44
239.325	67.44
239.559	68.44
239.793	78.44
240.027	83.44
240.26	81.44
240.494	70.44
240.728	70.44
240.961	62.44
241.195	75.44
241.429	77.44
241.662	71.44
241.896	78.44
242.13	73.44
242.363	68.44
242.597	72.44
242.83	58.44
243.064	79.44
243.298	81.44
243.531	78.44
243.765	74.44
243.998	89.44
244.232	88.44
244.465	84.44
244.699	77.44
244.932	61.44
245.166	72.44
245.399	71.44
245.633	66.44
245.866	60.44
246.099	67.44
246.333	74.44
246.566	72.44
246.8	73.44
247.033	70.44
247.266	75.44
247.5	86.44
247.733	75.44
247.966	72.44
248.2	83.44
248.433	69.44
248.666	74.44
248.899	82.44
249.133	92.44
249.366	93.44
249.599	85.44
249.832	74.44
250.066	80.44
250.299	82.44
250.532	74.44
250.765	86.44
250.998	63.44
251.231	68.44
251.465	77.44
251.698	68.44
251.931	83.44
252.164	80.44
252.397	78.44
252.63	74.44
252.863	71.44
253.096	85.44
253.329	101.44
253.562	93.44
253.795	81.44
254.028	83.44
254.261	91.44
254.494	77.44
254.727	81.44
254.96	50.44
255.193	86.44
255.426	91.44
255.659	78.44
255.892	72.44
256.124	75.44
256.357	71.44
256.59	67.44
256.823	82.44
257.056	79.44
257.289	87.44
257.521	88.44
257.754	81.44
257.987	77.44
258.22	79.44
258.452	63.44
258.685	66.44
258.918	68.44
259.151	80.44
259.383	77.44
259.616	70.44
259.849	66.44
260.081	82.44
260.314	73.44
260.547	81.44
260.779	75.44
261.012	75.44
261.244	81.44
261.477	81.44
261.71	99.44
261.942	125.44
262.175	131.44
262.407	95.44
262.64	70.44
262.872	76.44
263.105	86.44
263.337	83.44
263.57	69.44
263.802	87.44
264.035	83.44
264.267	65.44
264.499	78.44
264.732	78.44
264.964	63.44
265.197	72.44
265.429	67.44
265.661	82.44
265.894	69.44
266.126	85.44
266.358	76.44
266.591	94.44
266.823	81.44
267.055	71.44
267.287	78.44
267.52	80.44
267.752	74.44
267.984	75.44
268.216	82.44
268.448	79.44
268.681	91.44
268.913	93.44
269.145	77.44
269.377	80.44
269.609	87.44
269.841	95.44
270.073	93.44
270.306	65.44
270.538	79.44
270.77	67.44
271.002	59.44
271.234	84.44
271.466	75.44
271.698	93.44
271.93	90.44
272.162	84.44
272.394	75.44
272.626	85.44
272.858	89.44
273.09	70.44
273.322	88.44
273.553	66.44
273.785	66.44
274.017	88.44
274.249	77.44
274.481	85.44
274.713	82.44
274.945	77.44
275.176	77.44
275.408	79.44
275.64	78.44
275.872	93.44
276.104	95.44
276.335	94.44
276.567	88.44
276.799	131.44
277.031	94.44
277.262	71.44
277.494	78.44
277.726	108.44
277.957	92.44
278.189	87.44
278.421	82.44
278.652	74.44
278.884	74.44
279.115	83.44
279.347	92.44
279.579	89.44
279.81	81.44
280.042	95.44
280.273	89.44
280.505	75.44
280.736	70.44
280.968	97.44
281.199	92.44
281.431	89.44
281.662	81.44
281.894	91.44
282.125	105.44
282.356	120.44
282.588	154.44
282.819	127.44
283.051	84.44
283.282	85.44
283.513	74.44
283.745	94.44
283.976	83.44
284.207	86.44
284.439	77.44
284.67	84.44
284.901	79.44
285.132	86.44
285.364	75.44
285.595	90.44
285.826	91.44
286.057	79.44
286.288	70.44
286.52	82.44
286.751	94.44
286.982	77.44
287.213	84.44
287.444	87.44
287.675	71.44
287.906	98.44
288.138	88.44
288.369	98.44
288.6	81.44
288.831	93.44
289.062	66.44
289.293	72.44
289.524	94.44
289.755	78.44
289.986	103.44
290.217	101.44
290.448	72.44
290.679	71.44
290.91	92.44
291.141	81.44
291.371	102.44
291.602	87.44
291.833	80.44
292.064	97.44
292.295	78.44
292.526	82.44
292.757	76.44
292.987	85.44
293.218	77.44
293.449	78.44
293.68	81.44
293.91	99.44
294.141	98.44
294.372	85.44
294.603	71.44
294.833	91.44
295.064	84.44
295.295	93.44
295.525	96.44
295.756	87.44
295.987	117.44
296.217	130.44
296.448	143.44
296.679	96.44
296.909	76.44
297.14	91.44
297.37	83.44
297.601	80.44
297.831	72.44
298.062	79.44
298.292	102.44
298.523	81.44
298.753	84.44
298.984	76.44
299.214	90.44
299.445	92.44
299.675	79.44
299.905	103.44
300.136	92.44
300.366	101.44
300.597	81.44
300.827	80.44
301.057	101.44
301.288	107.44
301.518	95.44
301.748	93.44
301.979	102.44
302.209	89.44
302.439	90.44
302.669	86.44
302.9	93.44
303.13	83.44
303.36	85.44
303.59	100.44
303.82	93.44
304.051	95.44
304.281	87.44
304.511	89.44
304.741	88.44
304.971	88.44
305.201	66.44
305.431	91.44
305.661	94.44
305.891	88.44
306.121	89.44
306.352	101.44
306.582	97.44
306.812	85.44
307.042	90.44
307.272	78.44
307.502	90.44
307.731	87.44
307.961	75.44
308.191	75.44
308.421	100.44
308.651	73.44
308.881	92.44
309.111	85.44
309.341	95.44
309.571	96.44
309.8	96.44
310.03	95.44
310.26	96.44
310.49	101.44
310.72	102.44
310.949	116.44
311.179	102.44
311.409	87.44
311.639	102.44
311.868	93.44
312.098	91.44
312.328	84.44
312.557	98.44
312.787	95.44
313.017	96.44
313.246	79.44
313.476	100.44
313.706	93.44
313.935	86.44
314.165	85.44
314.394	98.44
314.624	86.44
314.853	89.44
315.083	81.44
315.312	109.44
315.542	103.44
315.771	95.44
316.001	107.44
316.23	75.44
316.46	87.44
316.689	88.44
316.919	74.44
317.148	97.44
317.377	89.44
317.607	82.44
317.836	102.44
318.065	79.44
318.295	83.44
318.524	81.44
318.753	102.44
318.983	99.44
319.212	96.44
319.441	113.44
319.67	121.44
319.9	102.44
320.129	93.44
320.358	84.44
320.587	95.44
320.816	111.44
321.046	108.44
321.275	100.44
321.504	97.44
321.733	97.44
321.962	98.44
322.191	94.44
322.42	101.44
322.649	103.44
322.878	114.44
323.108	99.44
323.337	129.44
323.566	129.44
323.795	162.44
324.024	219.44
324.253	477.44
324.482	999.44
324.71	2048.44
324.939	2686.44
325.168	994.44
325.397	270.44
325.626	157.44
325.855	143.44
326.084	125.44
326.313	139.44
326.542	169.44
326.77	255.44
326.999	550.44
327.228	1094.44
327.457	1996.44
327.686	1598.44
327.914	418.44
328.143	224.44
328.372	141.44
328.6	137.44
328.829	133.44
329.058	145.44
329.287	141.44
329.515	103.44
329.744	99.44
329.972	98.44
330.201	111.44
330.43	110.44
330.658	130.44
330.887	162.44
331.115	139.44
331.344	112.44
331.572	102.44
331.801	98.44
332.03	115.44
332.258	95.44
332.486	82.44
332.715	74.44
332.943	94.44
333.172	96.44
333.4	88.44
333.629	104.44
333.857	115.44
334.085	103.44
334.314	92.44
334.542	102.44
334.771	108.44
334.999	101.44
335.227	88.44
335.455	93.44
335.684	90.44
335.912	105.44
336.14	94.44
336.369	98.44
336.597	100.44
336.825	98.44
337.053	94.44
337.281	79.44
337.51	90.44
337.738	91.44
337.966	94.44
338.194	94.44
338.422	93.44
338.65	70.44
338.878	90.44
339.106	103.44
339.334	82.44
339.562	96.44
339.79	98.44
340.018	95.44
340.246	96.44
340.474	85.44
340.702	86.44
340.93	93.44
341.158	97.44
341.386	100.44
341.614	110.44
341.842	82.44
342.07	80.44
342.298	89.44
342.526	86.44
342.754	83.44
342.981	76.44
343.209	88.44
343.437	88.44
343.665	87.44
343.893	86.44
344.12	84.44
344.348	73.44
344.576	75.44
344.804	91.44
345.031	98.44
345.259	99.44
345.487	98.44
345.714	94.44
345.942	95.44
346.17	93.44
346.397	92.44
346.625	81.44
346.853	99.44
347.08	98.44
347.308	93.44
347.535	95.44
347.763	111.44
347.99	78.44
348.218	97.44
348.445	114.44
348.673	98.44
348.9	105.44
349.128	81.44
349.355	84.44
349.583	83.44
349.81	90.44
350.037	84.44
350.265	81.44
350.492	85.44
350.72	102.44
350.947	84.44
351.174	109.44
351.402	106.44
351.629	89.44
351.856	100.44
352.083	106.44
352.311	105.44
352.538	111.44
352.765	106.44
352.992	121.44
353.22	112.44
353.447	109.44
353.674	100.44
353.901	89.44
354.128	95.44
354.355	107.44
354.583	99.44
354.81	102.44
355.037	90.44
355.264	73.44
355.491	74.44
355.718	93.44
355.945	94.44
356.172	90.44
356.399	97.44
356.626	83.44
356.853	80.44
357.08	88.44
357.307	100.44
357.534	79.44
357.761	91.44
357.988	101.44
358.215	98.44
358.441	91.44
358.668	96.44
358.895	71.44
359.122	88.44
359.349	76.44
359.576	94.44
359.802	98.44
360.029	111.44
360.256	119.44
360.483	90.44
360.709	87.44
360.936	90.44
361.163	96.44
361.39	93.44
361.616	93.44
361.843	99.44
362.07	110.44
362.296	83.44
362.523	101.44
362.749	91.44
362.976	95.44
363.203	96.44
363.429	89.44
363.656	84.44
363.882	74.44
364.109	84.44
364.335	81.44
364.562	81.44
364.788	102.44
365.015	104.44
365.241	89.44
365.468	109.44
365.694	114.44
365.92	98.44
366.147	100.44
366.373	90.44
366.599	80.44
366.826	90.44
367.052	88.44
367.278	88.44
367.505	72.44
367.731	90.44
367.957	110.44
368.184	98.44
368.41	101.44
368.636	111.44
368.862	108.44
369.089	95.44
369.315	97.44
369.541	91.44
369.767	84.44
369.993	82.44
370.219	80.44
370.445	87.44
370.672	72.44
370.898	81.44
371.124	87.44
371.35	108.44
371.576	87.44
371.802	92.44
372.028	82.44
372.254	84.44
372.48	83.44
372.706	88.44
372.932	98.44
373.158	69.44
373.384	91.44
373.61	87.44
373.835	93.44
374.061	97.44
374.287	90.44
374.513	86.44
374.739	73.44
374.965	74.44
375.191	84.44
375.416	80.44
375.642	76.44
375.868	87.44
376.094	92.44
376.319	93.44
376.545	74.44
376.771	85.44
376.997	89.44
377.222	87.44
377.448	87.44
377.674	82.44
377.899	93.44
378.125	94.44
378.35	82.44
378.576	94.44
378.802	92.44
379.027	81.44
379.253	99.44
379.478	98.44
379.704	88.44
379.929	92.44
380.155	98.44
380.38	103.44
380.606	97.44
380.831	91.44
381.057	97.44
381.282	104.44
381.507	90.44
381.733	95.44
381.958	92.44
382.184	96.44
382.409	98.44
382.634	108.44
382.86	104.44
383.085	105.44
383.31	95.44
383.535	104.44
383.761	103.44
383.986	118.44
384.211	89.44
384.436	99.44
384.662	92.44
384.887	97.44
385.112	114.44
385.337	111.44
385.562	114.44
385.787	119.44
386.013	115.44
386.238	124.44
386.463	114.44
386.688	104.44
386.913	98.44
387.138	125.44
387.363	107.44
387.588	97.44
387.813	95.44
388.038	110.44
388.263	106.44
388.488	98.44
388.713	91.44
388.938	96.44
389.163	93.44
389.387	94.44
389.612	98.44
389.837	93.44
390.062	77.44
390.287	91.44
390.512	90.44
390.736	86.44
390.961	97.44
391.186	91.44
391.411	85.44
391.636	83.44
391.86	81.44
392.085	72.44
392.31	86.44
392.534	91.44
392.759	98.44
392.984	87.44
393.208	82.44
393.433	110.44
393.658	89.44
393.882	77.44
394.107	86.44
394.331	83.44
394.556	81.44
394.78	88.44
395.005	87.44
395.229	65.44
395.454	66.44
395.678	82.44
395.903	101.44
396.127	86.44
396.352	77.44
396.576	88.44
396.801	94.44
397.025	92.44
397.249	89.44
397.474	103.44
397.698	89.44
397.922	80.44
398.147	84.44
398.371	76.44
398.595	81.44
398.82	94.44
399.044	78.44
399.268	80.44
399.492	99.44
399.717	90.44
399.941	79.44
400.165	90.44
400.389	93.44
400.613	94.44
400.837	76.44
401.062	82.44
401.286	89.44
401.51	89.44
401.734	94.44
401.958	86.44
402.182	126.44
402.406	175.44
402.63	143.44
402.854	88.44
403.078	84.44
403.302	75.44
403.526	94.44
403.75	93.44
403.974	96.44
404.198	86.44
404.422	69.44
404.645	95.44
404.869	97.44
405.093	86.44
405.317	94.44
405.541	98.44
405.765	102.44
405.988	109.44
406.212	196.44
406.436	281.44
406.66	177.44
406.883	102.44
407.107	97.44
407.331	96.44
407.555	92.44
407.778	98.44
408.002	92.44
408.226	84.44
408.449	78.44
408.673	72.44
408.896	96.44
409.12	104.44
409.344	102.44
409.567	77.44
409.791	95.44
410.014	78.44
410.238	87.44
410.461	83.44
410.685	101.44
410.908	108.44
411.132	104.44
411.355	94.44
411.578	84.44
411.802	82.44
412.025	75.44
412.249	81.44
412.472	89.44
412.695	83.44
412.919	92.44
413.142	79.44
413.365	79.44
413.589	93.44
413.812	93.44
414.035	94.44
414.258	83.44
414.482	84.44
414.705	97.44
414.928	81.44
415.151	87.44
415.374	102.44
415.597	84.44
415.821	84.44
416.044	77.44
416.267	75.44
416.49	77.44
416.713	102.44
416.936	92.44
417.159	78.44
417.382	81.44
417.605	86.44
417.828	93.44
418.051	82.44
418.274	84.44
418.497	87.44
418.72	84.44
418.943	82.44
419.166	83.44
419.389	92.44
419.611	79.44
419.834	73.44
420.057	78.44
420.28	79.44
420.503	78.44
420.726	88.44
420.948	79.44
421.171	83.44
421.394	97.44
421.617	87.44
421.839	87.44
422.062	90.44
422.285	80.44
422.507	91.44
422.73	88.44
422.953	82.44
423.175	88.44
423.398	68.44
423.621	69.44
423.843	91.44
424.066	82.44
424.288	88.44
424.511	88.44
424.733	93.44
424.956	120.44
425.178	93.44
425.401	94.44
425.623	89.44
425.846	90.44
426.068	91.44
426.291	79.44
426.513	83.44
426.735	103.44
426.958	82.44
427.18	99.44
427.402	148.44
427.625	197.44
427.847	157.44
428.069	111.44
428.292	89.44
428.514	101.44
428.736	70.44
428.958	95.44
429.181	79.44
429.403	85.44
429.625	90.44
429.847	90.44
430.069	100.44
430.292	89.44
430.514	91.44
430.736	84.44
430.958	73.44
431.18	88.44
431.402	76.44
431.624	82.44
431.846	77.44
432.068	64.44
432.29	83.44
432.512	77.44
432.734	66.44
432.956	85.44
433.178	82.44
433.4	100.44
433.622	90.44
433.844	75.44
434.066	75.44
434.287	87.44
434.509	83.44
434.731	72.44
434.953	91.44
435.175	87.44
435.397	93.44
435.618	80.44
435.84	106.44
436.062	136.44
436.284	123.44
436.505	94.44
436.727	101.44
436.949	76.44
437.17	74.44
437.392	81.44
437.614	91.44
437.835	123.44
438.057	133.44
438.278	97.44
438.5	109.44
438.721	126.44
438.943	95.44
439.165	82.44
439.386	78.44
439.608	77.44
439.829	101.44
440.05	128.44
440.272	151.44
440.493	102.44
440.715	83.44
440.936	86.44
441.158	92.44
441.379	76.44
441.6	100.44
441.822	93.44
442.043	104.44
442.264	110.44
442.486	103.44
442.707	88.44
442.928	105.44
443.149	134.44
443.371	137.44
443.592	111.44
443.813	111.44
444.034	105.44
444.255	95.44
444.476	89.44
444.698	86.44
444.919	92.44
445.14	123.44
445.361	129.44
445.582	126.44
445.803	160.44
446.024	143.44
446.245	147.44
446.466	118.44
446.687	87.44
446.908	91.44
447.129	98.44
447.35	76.44
447.571	89.44
447.792	75.44
448.013	85.44
448.234	112.44
448.455	104.44
448.675	120.44
448.896	112.44
449.117	103.44
449.338	98.44
449.559	133.44
449.779	136.44
450	88.44
450.221	93.44
450.442	82.44
450.662	86.44
450.883	120.44
451.104	136.44
451.324	105.44
451.545	92.44
451.766	79.44
451.986	88.44
452.207	105.44
452.428	85.44
452.648	96.44
452.869	115.44
453.089	115.44
453.31	116.44
453.53	81.44
453.751	86.44
453.971	114.44
454.192	118.44
454.412	105.44
454.633	91.44
454.853	79.44
455.073	85.44
455.294	86.44
455.514	98.44
455.734	97.44
455.955	72.44
456.175	93.44
456.395	75.44
456.616	75.44
456.836	93.44
457.056	80.44
457.276	66.44
457.497	83.44
457.717	73.44
457.937	92.44
458.157	88.44
458.377	83.44
458.598	112.44
458.818	181.44
459.038	175.44
459.258	118.44
459.478	82.44
459.698	93.44
459.918	83.44
460.138	79.44
460.358	69.44
460.578	82.44
460.798	63.44
461.018	91.44
461.238	78.44
461.458	74.44
461.678	90.44
461.898	88.44
462.118	87.44
462.338	81.44
462.558	85.44
462.777	87.44
462.997	73.44
463.217	65.44
463.437	90.44
463.657	72.44
463.876	85.44
464.096	86.44
464.316	90.44
464.536	85.44
464.755	87.44
464.975	107.44
465.195	203.44
465.414	194.44
465.634	98.44
465.854	87.44
466.073	94.44
466.293	89.44
466.512	86.44
466.732	87.44
466.951	80.44
467.171	78.44
467.391	99.44
467.61	120.44
467.829	88.44
468.049	89.44
468.268	84.44
468.488	97.44
468.707	79.44
468.927	84.44
469.146	87.44
469.365	88.44
469.585	88.44
469.804	115.44
470.023	86.44
470.243	83.44
470.462	85.44
470.681	111.44
470.901	88.44
471.12	83.44
471.339	81.44
471.558	79.44
471.777	87.44
471.997	89.44
472.216	85.44
472.435	89.44
472.654	81.44
472.873	80.44
473.092	85.44
473.311	75.44
473.53	86.44
473.749	83.44
473.968	100.44
474.187	89.44
474.406	96.44
474.625	95.44
474.844	86.44
475.063	80.44
475.282	87.44
475.501	83.44
475.72	94.44
475.939	79.44
476.158	88.44
476.377	83.44
476.596	102.44
476.814	92.44
477.033	102.44
477.252	90.44
477.471	81.44
477.69	97.44
477.908	91.44
478.127	89.44
478.346	98.44
478.564	101.44
478.783	117.44
479.002	96.44
479.22	86.44
479.439	95.44
479.658	102.44
479.876	86.44
480.095	92.44
480.313	89.44
480.532	106.44
480.751	83.44
480.969	88.44
481.188	120.44
481.406	94.44
481.624	82.44
481.843	93.44
482.061	88.44
482.28	91.44
482.498	89.44
482.717	81.44
482.935	79.44
483.153	98.44
483.372	87.44
483.59	77.44
483.808	86.44
484.027	96.44
484.245	98.44
484.463	70.44
484.681	95.44
484.9	93.44
485.118	82.44
485.336	82.44
485.554	88.44
485.772	110.44
485.99	92.44
486.209	109.44
486.427	113.44
486.645	115.44
486.863	110.44
487.081	94.44
487.299	85.44
487.517	80.44
487.735	98.44
487.953	96.44
488.171	106.44
488.389	77.44
488.607	108.44
488.825	90.44
489.043	82.44
489.261	89.44
489.479	84.44
489.696	83.44
489.914	87.44
490.132	81.44
490.35	87.44
490.568	89.44
490.786	83.44
491.003	74.44
491.221	79.44
491.439	82.44
491.657	75.44
491.874	94.44
492.092	78.44
492.31	98.44
492.527	80.44
492.745	91.44
492.963	85.44
493.18	87.44
493.398	93.44
493.615	87.44
493.833	80.44
494.05	91.44
494.268	83.44
494.485	79.44
494.703	84.44
494.92	88.44
495.138	85.44
495.355	98.44
495.573	104.44
495.79	91.44
496.008	86.44
496.225	76.44
496.442	74.44
496.66	87.44
496.877	77.44
497.094	85.44
497.312	79.44
497.529	84.44
497.746	92.44
497.963	86.44
498.181	91.44
498.398	84.44
498.615	101.44
498.832	109.44
499.049	98.44
499.267	90.44
499.484	88.44
499.701	85.44
499.918	79.44
500.135	85.44
500.352	65.44
500.569	83.44
500.786	93.44
501.003	80.44
501.22	72.44
501.437	81.44
501.654	85.44
501.871	111.44
502.088	100.44
502.305	97.44
502.522	77.44
502.739	90.44
502.956	88.44
503.172	83.44
503.389	101.44
503.606	120.44
503.823	102.44
504.04	84.44
504.256	82.44
504.473	84.44
504.69	88.44
504.907	89.44
505.123	88.44
505.34	89.44
505.557	92.44
505.773	78.44
505.99	77.44
506.207	66.44
506.423	95.44
506.64	73.44
506.856	89.44
507.073	82.44
507.289	98.44
507.506	80.44
507.722	104.44
507.939	112.44
508.155	89.44
508.372	91.44
508.588	85.44
508.805	98.44
509.021	72.44
509.238	97.44
509.454	96.44
509.67	102.44
509.887	112.44
510.103	143.44
510.319	218.44
510.536	901.44
510.752	3155.44
510.968	882.44
511.184	173.44
511.401	123.44
511.617	95.44
511.833	85.44
512.049	103.44
512.265	85.44
512.481	79.44
512.698	77.44
512.914	84.44
513.13	88.44
513.346	83.44
513.562	83.44
513.778	88.44
513.994	98.44
514.21	96.44
514.426	123.44
514.642	163.44
514.858	147.44
515.074	208.44
515.29	621.44
515.506	2181.44
515.721	800.44
515.937	185.44
516.153	133.44
