Data from Circ_2014_H10_HRD10591_00085.txt Node
Date: Wed Jan 03 10:02:26 EST 2024
User: Yrep
Spectrometer: HR+D1059
Trigger mode: 1
Integration Time (sec): 1.000000E-1
Scans to average: 1
Electric dark correction enabled: true
Nonlinearity correction enabled: false
Boxcar width: 0
XAxis mode: Wavelengths
Number of Pixels in Spectrum: 2048
>>>>>Begin Spectral Data<<<<<
223.165	-28.06
223.4	-28.06
223.635	-28.06
223.869	-26.06
224.104	-11.06
224.338	-15.06
224.573	-25.06
224.808	2.94
225.042	-11.06
225.277	-7.06
225.511	-6.06
225.746	8.94
225.98	2.94
226.215	12.94
226.449	13.94
226.683	28.94
226.918	21.94
227.152	36.94
227.387	34.94
227.621	39.94
227.856	26.94
228.09	52.94
228.324	41.94
228.559	49.94
228.793	74.94
229.027	65.94
229.262	65.94
229.496	71.94
229.73	82.94
229.964	68.94
230.199	65.94
230.433	76.94
230.667	85.94
230.901	80.94
231.136	84.94
231.37	72.94
231.604	79.94
231.838	75.94
232.072	77.94
232.306	74.94
232.541	75.94
232.775	70.94
233.009	69.94
233.243	85.94
233.477	91.94
233.711	92.94
233.945	74.94
234.179	81.94
234.413	84.94
234.647	80.94
234.881	90.94
235.115	88.94
235.349	77.94
235.583	74.94
235.817	81.94
236.051	82.94
236.285	73.94
236.519	79.94
236.753	78.94
236.987	73.94
237.221	84.94
237.455	99.94
237.689	72.94
237.922	76.94
238.156	71.94
238.39	75.94
238.624	72.94
238.858	76.94
239.091	86.94
239.325	80.94
239.559	87.94
239.793	74.94
240.027	67.94
240.26	82.94
240.494	72.94
240.728	83.94
240.961	80.94
241.195	81.94
241.429	78.94
241.662	69.94
241.896	70.94
242.13	83.94
242.363	73.94
242.597	78.94
242.83	83.94
243.064	72.94
243.298	83.94
243.531	81.94
243.765	74.94
243.998	70.94
244.232	77.94
244.465	93.94
244.699	81.94
244.932	81.94
245.166	73.94
245.399	73.94
245.633	75.94
245.866	78.94
246.099	71.94
246.333	76.94
246.566	83.94
246.8	76.94
247.033	62.94
247.266	84.94
247.5	64.94
247.733	72.94
247.966	67.94
248.2	89.94
248.433	87.94
248.666	79.94
248.899	71.94
249.133	87.94
249.366	103.94
249.599	93.94
249.832	74.94
250.066	84.94
250.299	73.94
250.532	80.94
250.765	77.94
250.998	89.94
251.231	78.94
251.465	97.94
251.698	87.94
251.931	84.94
252.164	90.94
252.397	76.94
252.63	86.94
252.863	91.94
253.096	83.94
253.329	88.94
253.562	97.94
253.795	83.94
254.028	78.94
254.261	76.94
254.494	81.94
254.727	78.94
254.96	80.94
255.193	94.94
255.426	91.94
255.659	80.94
255.892	104.94
256.124	65.94
256.357	82.94
256.59	78.94
256.823	77.94
257.056	81.94
257.289	79.94
257.521	67.94
257.754	87.94
257.987	87.94
258.22	83.94
258.452	94.94
258.685	81.94
258.918	73.94
259.151	86.94
259.383	92.94
259.616	86.94
259.849	74.94
260.081	96.94
260.314	74.94
260.547	87.94
260.779	87.94
261.012	78.94
261.244	86.94
261.477	77.94
261.71	99.94
261.942	101.94
262.175	113.94
262.407	94.94
262.64	93.94
262.872	92.94
263.105	86.94
263.337	105.94
263.57	89.94
263.802	73.94
264.035	68.94
264.267	73.94
264.499	72.94
264.732	86.94
264.964	75.94
265.197	78.94
265.429	87.94
265.661	85.94
265.894	80.94
266.126	77.94
266.358	79.94
266.591	98.94
266.823	88.94
267.055	65.94
267.287	77.94
267.52	90.94
267.752	84.94
267.984	78.94
268.216	81.94
268.448	78.94
268.681	68.94
268.913	75.94
269.145	87.94
269.377	85.94
269.609	81.94
269.841	85.94
270.073	84.94
270.306	73.94
270.538	91.94
270.77	85.94
271.002	75.94
271.234	86.94
271.466	94.94
271.698	77.94
271.93	86.94
272.162	80.94
272.394	84.94
272.626	83.94
272.858	82.94
273.09	70.94
273.322	84.94
273.553	97.94
273.785	75.94
274.017	74.94
274.249	82.94
274.481	81.94
274.713	81.94
274.945	84.94
275.176	73.94
275.408	83.94
275.64	107.94
275.872	87.94
276.104	79.94
276.335	87.94
276.567	88.94
276.799	93.94
277.031	97.94
277.262	101.94
277.494	89.94
277.726	77.94
277.957	87.94
278.189	95.94
278.421	81.94
278.652	82.94
278.884	86.94
279.115	84.94
279.347	81.94
279.579	90.94
279.81	83.94
280.042	91.94
280.273	96.94
280.505	89.94
280.736	100.94
280.968	87.94
281.199	82.94
281.431	93.94
281.662	86.94
281.894	80.94
282.125	90.94
282.356	103.94
282.588	143.94
282.819	121.94
283.051	98.94
283.282	81.94
283.513	93.94
283.745	85.94
283.976	72.94
284.207	78.94
284.439	96.94
284.67	74.94
284.901	86.94
285.132	82.94
285.364	77.94
285.595	97.94
285.826	78.94
286.057	90.94
286.288	81.94
286.52	92.94
286.751	78.94
286.982	93.94
287.213	96.94
287.444	96.94
287.675	91.94
287.906	82.94
288.138	80.94
288.369	92.94
288.6	83.94
288.831	86.94
289.062	91.94
289.293	99.94
289.524	80.94
289.755	78.94
289.986	89.94
290.217	92.94
290.448	89.94
290.679	96.94
290.91	92.94
291.141	87.94
291.371	85.94
291.602	85.94
291.833	74.94
292.064	80.94
292.295	85.94
292.526	82.94
292.757	86.94
292.987	87.94
293.218	76.94
293.449	85.94
293.68	93.94
293.91	74.94
294.141	83.94
294.372	90.94
294.603	98.94
294.833	85.94
295.064	81.94
295.295	88.94
295.525	77.94
295.756	92.94
295.987	118.94
296.217	138.94
296.448	120.94
296.679	100.94
296.909	87.94
297.14	85.94
297.37	91.94
297.601	74.94
297.831	103.94
298.062	81.94
298.292	77.94
298.523	75.94
298.753	91.94
298.984	90.94
299.214	88.94
299.445	84.94
299.675	85.94
299.905	89.94
300.136	77.94
300.366	87.94
300.597	112.94
300.827	86.94
301.057	82.94
301.288	90.94
301.518	72.94
301.748	96.94
301.979	96.94
302.209	94.94
302.439	91.94
302.669	85.94
302.9	86.94
303.13	87.94
303.36	90.94
303.59	115.94
303.82	108.94
304.051	81.94
304.281	84.94
304.511	89.94
304.741	91.94
304.971	90.94
305.201	78.94
305.431	93.94
305.661	89.94
305.891	94.94
306.121	89.94
306.352	88.94
306.582	91.94
306.812	90.94
307.042	97.94
307.272	100.94
307.502	99.94
307.731	109.94
307.961	97.94
308.191	82.94
308.421	98.94
308.651	84.94
308.881	86.94
309.111	92.94
309.341	90.94
309.571	90.94
309.8	73.94
310.03	94.94
310.26	92.94
310.49	98.94
310.72	105.94
310.949	107.94
311.179	95.94
311.409	90.94
311.639	100.94
311.868	83.94
312.098	98.94
312.328	79.94
312.557	106.94
312.787	117.94
313.017	115.94
313.246	92.94
313.476	101.94
313.706	91.94
313.935	96.94
314.165	97.94
314.394	103.94
314.624	112.94
314.853	103.94
315.083	81.94
315.312	94.94
315.542	84.94
315.771	80.94
316.001	73.94
316.23	112.94
316.46	85.94
316.689	95.94
316.919	96.94
317.148	96.94
317.377	94.94
317.607	85.94
317.836	100.94
318.065	78.94
318.295	90.94
318.524	101.94
318.753	95.94
318.983	98.94
319.212	98.94
319.441	98.94
319.67	105.94
319.9	101.94
320.129	93.94
320.358	93.94
320.587	97.94
320.816	103.94
321.046	101.94
321.275	97.94
321.504	93.94
321.733	92.94
321.962	84.94
322.191	112.94
322.42	100.94
322.649	115.94
322.878	113.94
323.108	114.94
323.337	117.94
323.566	126.94
323.795	140.94
324.024	210.94
324.253	367.94
324.482	816.94
324.71	1574.94
324.939	2079.94
325.168	774.94
325.397	242.94
325.626	145.94
325.855	116.94
326.084	122.94
326.313	149.94
326.542	138.94
326.77	218.94
326.999	421.94
327.228	887.94
327.457	1616.94
327.686	1316.94
327.914	362.94
328.143	213.94
328.372	186.94
328.6	154.94
328.829	102.94
329.058	132.94
329.287	123.94
329.515	104.94
329.744	105.94
329.972	132.94
330.201	163.94
330.43	204.94
330.658	160.94
330.887	143.94
331.115	110.94
331.344	93.94
331.572	97.94
331.801	105.94
332.03	95.94
332.258	104.94
332.486	103.94
332.715	92.94
332.943	90.94
333.172	98.94
333.4	96.94
333.629	115.94
333.857	116.94
334.085	121.94
334.314	165.94
334.542	258.94
334.771	251.94
334.999	125.94
335.227	113.94
335.455	91.94
335.684	109.94
335.912	91.94
336.14	107.94
336.369	100.94
336.597	105.94
336.825	102.94
337.053	91.94
337.281	91.94
337.51	98.94
337.738	95.94
337.966	90.94
338.194	88.94
338.422	101.94
338.65	102.94
338.878	83.94
339.106	76.94
339.334	78.94
339.562	89.94
339.79	83.94
340.018	94.94
340.246	75.94
340.474	84.94
340.702	83.94
340.93	92.94
341.158	95.94
341.386	104.94
341.614	103.94
341.842	108.94
342.07	91.94
342.298	85.94
342.526	97.94
342.754	81.94
342.981	91.94
343.209	92.94
343.437	106.94
343.665	81.94
343.893	82.94
344.12	84.94
344.348	88.94
344.576	90.94
344.804	95.94
345.031	87.94
345.259	102.94
345.487	97.94
345.714	102.94
345.942	92.94
346.17	97.94
346.397	94.94
346.625	102.94
346.853	90.94
347.08	90.94
347.308	93.94
347.535	101.94
347.763	103.94
347.99	93.94
348.218	94.94
348.445	110.94
348.673	93.94
348.9	96.94
349.128	81.94
349.355	100.94
349.583	102.94
349.81	96.94
350.037	76.94
350.265	81.94
350.492	98.94
350.72	85.94
350.947	91.94
351.174	99.94
351.402	126.94
351.629	95.94
351.856	101.94
352.083	100.94
352.311	104.94
352.538	106.94
352.765	115.94
352.992	110.94
353.22	98.94
353.447	97.94
353.674	100.94
353.901	97.94
354.128	96.94
354.355	99.94
354.583	100.94
354.81	96.94
355.037	93.94
355.264	91.94
355.491	104.94
355.718	86.94
355.945	84.94
356.172	102.94
356.399	100.94
356.626	99.94
356.853	89.94
357.08	92.94
357.307	90.94
357.534	99.94
357.761	89.94
357.988	93.94
358.215	77.94
358.441	85.94
358.668	94.94
358.895	90.94
359.122	96.94
359.349	82.94
359.576	77.94
359.802	100.94
360.029	122.94
360.256	97.94
360.483	97.94
360.709	75.94
360.936	105.94
361.163	102.94
361.39	82.94
361.616	102.94
361.843	94.94
362.07	88.94
362.296	84.94
362.523	90.94
362.749	78.94
362.976	97.94
363.203	82.94
363.429	90.94
363.656	84.94
363.882	89.94
364.109	90.94
364.335	92.94
364.562	94.94
364.788	94.94
365.015	85.94
365.241	87.94
365.468	105.94
365.694	106.94
365.92	92.94
366.147	78.94
366.373	84.94
366.599	96.94
366.826	94.94
367.052	84.94
367.278	93.94
367.505	103.94
367.731	92.94
367.957	94.94
368.184	101.94
368.41	93.94
368.636	108.94
368.862	109.94
369.089	106.94
369.315	85.94
369.541	89.94
369.767	85.94
369.993	95.94
370.219	91.94
370.445	93.94
370.672	72.94
370.898	85.94
371.124	89.94
371.35	86.94
371.576	87.94
371.802	81.94
372.028	78.94
372.254	94.94
372.48	85.94
372.706	75.94
372.932	91.94
373.158	96.94
373.384	84.94
373.61	88.94
373.835	85.94
374.061	80.94
374.287	94.94
374.513	102.94
374.739	90.94
374.965	91.94
375.191	95.94
375.416	90.94
375.642	91.94
375.868	89.94
376.094	91.94
376.319	90.94
376.545	81.94
376.771	92.94
376.997	91.94
377.222	97.94
377.448	94.94
377.674	102.94
377.899	89.94
378.125	90.94
378.35	78.94
378.576	99.94
378.802	87.94
379.027	82.94
379.253	103.94
379.478	91.94
379.704	87.94
379.929	83.94
380.155	80.94
380.38	93.94
380.606	96.94
380.831	90.94
381.057	92.94
381.282	92.94
381.507	95.94
381.733	86.94
381.958	97.94
382.184	98.94
382.409	109.94
382.634	97.94
382.86	97.94
383.085	93.94
383.31	96.94
383.535	101.94
383.761	94.94
383.986	95.94
384.211	99.94
384.436	100.94
384.662	86.94
384.887	98.94
385.112	102.94
385.337	94.94
385.562	106.94
385.787	106.94
386.013	108.94
386.238	116.94
386.463	104.94
386.688	100.94
386.913	99.94
387.138	99.94
387.363	109.94
387.588	105.94
387.813	88.94
388.038	88.94
388.263	104.94
388.488	113.94
388.713	82.94
388.938	82.94
389.163	101.94
389.387	98.94
389.612	95.94
389.837	101.94
390.062	97.94
390.287	90.94
390.512	90.94
390.736	84.94
390.961	99.94
391.186	119.94
391.411	106.94
391.636	92.94
391.86	90.94
392.085	91.94
392.31	70.94
392.534	67.94
392.759	83.94
392.984	86.94
393.208	91.94
393.433	90.94
393.658	96.94
393.882	92.94
394.107	95.94
394.331	87.94
394.556	91.94
394.78	83.94
395.005	89.94
395.229	82.94
395.454	87.94
395.678	81.94
395.903	95.94
396.127	84.94
396.352	78.94
396.576	85.94
396.801	89.94
397.025	101.94
397.249	84.94
397.474	88.94
397.698	90.94
397.922	83.94
398.147	77.94
398.371	73.94
398.595	89.94
398.82	81.94
399.044	82.94
399.268	95.94
399.492	91.94
399.717	79.94
399.941	87.94
400.165	93.94
400.389	93.94
400.613	93.94
400.837	84.94
401.062	94.94
401.286	75.94
401.51	100.94
401.734	89.94
401.958	95.94
402.182	141.94
402.406	158.94
402.63	130.94
402.854	91.94
403.078	97.94
403.302	83.94
403.526	92.94
403.75	84.94
403.974	86.94
404.198	97.94
404.422	93.94
404.645	90.94
404.869	89.94
405.093	99.94
405.317	94.94
405.541	96.94
405.765	101.94
405.988	107.94
406.212	176.94
406.436	219.94
406.66	148.94
406.883	102.94
407.107	97.94
407.331	106.94
407.555	109.94
407.778	88.94
408.002	97.94
408.226	88.94
408.449	88.94
408.673	92.94
408.896	91.94
409.12	95.94
409.344	78.94
409.567	87.94
409.791	90.94
410.014	98.94
410.238	85.94
410.461	94.94
410.685	94.94
410.908	96.94
411.132	92.94
411.355	99.94
411.578	87.94
411.802	97.94
412.025	86.94
412.249	79.94
412.472	91.94
412.695	98.94
412.919	88.94
413.142	75.94
413.365	90.94
413.589	88.94
413.812	78.94
414.035	97.94
414.258	84.94
414.482	82.94
414.705	100.94
414.928	83.94
415.151	85.94
415.374	94.94
415.597	85.94
415.821	85.94
416.044	92.94
416.267	78.94
416.49	85.94
416.713	81.94
416.936	99.94
417.159	101.94
417.382	80.94
417.605	86.94
417.828	79.94
418.051	90.94
418.274	72.94
418.497	96.94
418.72	81.94
418.943	88.94
419.166	85.94
419.389	92.94
419.611	91.94
419.834	93.94
420.057	81.94
420.28	86.94
420.503	76.94
420.726	94.94
420.948	86.94
421.171	87.94
421.394	89.94
421.617	90.94
421.839	96.94
422.062	99.94
422.285	85.94
422.507	107.94
422.73	106.94
422.953	96.94
423.175	107.94
423.398	106.94
423.621	89.94
423.843	97.94
424.066	86.94
424.288	96.94
424.511	86.94
424.733	93.94
424.956	103.94
425.178	93.94
425.401	107.94
425.623	90.94
425.846	90.94
426.068	97.94
426.291	97.94
426.513	89.94
426.735	92.94
426.958	82.94
427.18	109.94
427.402	132.94
427.625	168.94
427.847	135.94
428.069	118.94
428.292	99.94
428.514	84.94
428.736	90.94
428.958	88.94
429.181	84.94
429.403	97.94
429.625	88.94
429.847	85.94
430.069	93.94
430.292	95.94
430.514	81.94
430.736	87.94
430.958	82.94
431.18	93.94
431.402	90.94
431.624	89.94
431.846	88.94
432.068	84.94
432.29	92.94
432.512	90.94
432.734	90.94
432.956	85.94
433.178	86.94
433.4	106.94
433.622	106.94
433.844	95.94
434.066	81.94
434.287	85.94
434.509	100.94
434.731	69.94
434.953	80.94
435.175	83.94
435.397	88.94
435.618	96.94
435.84	108.94
436.062	105.94
436.284	116.94
436.505	98.94
436.727	97.94
436.949	83.94
437.17	76.94
437.392	84.94
437.614	95.94
437.835	77.94
438.057	109.94
438.278	108.94
438.5	107.94
438.721	114.94
438.943	106.94
439.165	70.94
439.386	76.94
439.608	89.94
439.829	88.94
440.05	104.94
440.272	130.94
440.493	100.94
440.715	90.94
440.936	83.94
441.158	89.94
441.379	80.94
441.6	82.94
441.822	87.94
442.043	111.94
442.264	105.94
442.486	94.94
442.707	84.94
442.928	92.94
443.149	124.94
443.371	121.94
443.592	107.94
443.813	112.94
444.034	101.94
444.255	99.94
444.476	96.94
444.698	77.94
444.919	97.94
445.14	137.94
445.361	122.94
445.582	113.94
445.803	145.94
446.024	129.94
446.245	127.94
446.466	87.94
446.687	92.94
446.908	76.94
447.129	79.94
447.35	83.94
447.571	99.94
447.792	83.94
448.013	80.94
448.234	98.94
448.455	96.94
448.675	117.94
448.896	117.94
449.117	109.94
449.338	103.94
449.559	120.94
449.779	107.94
450	96.94
450.221	89.94
450.442	80.94
450.662	100.94
450.883	108.94
451.104	114.94
451.324	103.94
451.545	96.94
451.766	99.94
451.986	80.94
452.207	96.94
452.428	89.94
452.648	93.94
452.869	107.94
453.089	119.94
453.31	102.94
453.53	106.94
453.751	82.94
453.971	94.94
454.192	104.94
454.412	101.94
454.633	98.94
454.853	86.94
455.073	90.94
455.294	89.94
455.514	95.94
455.734	96.94
455.955	99.94
456.175	91.94
456.395	83.94
456.616	82.94
456.836	89.94
457.056	102.94
457.276	93.94
457.497	72.94
457.717	89.94
457.937	91.94
458.157	84.94
458.377	91.94
458.598	97.94
458.818	142.94
459.038	171.94
459.258	100.94
459.478	87.94
459.698	86.94
459.918	78.94
460.138	93.94
460.358	84.94
460.578	92.94
460.798	102.94
461.018	86.94
461.238	82.94
461.458	80.94
461.678	95.94
461.898	88.94
462.118	84.94
462.338	99.94
462.558	93.94
462.777	85.94
462.997	82.94
463.217	88.94
463.437	106.94
463.657	111.94
463.876	79.94
464.096	93.94
464.316	100.94
464.536	102.94
464.755	96.94
464.975	99.94
465.195	163.94
465.414	167.94
465.634	92.94
465.854	88.94
466.073	84.94
466.293	74.94
466.512	86.94
466.732	96.94
466.951	98.94
467.171	78.94
467.391	78.94
467.61	92.94
467.829	95.94
468.049	115.94
468.268	150.94
468.488	91.94
468.707	76.94
468.927	76.94
469.146	97.94
469.365	91.94
469.585	90.94
469.804	97.94
470.023	108.94
470.243	98.94
470.462	95.94
470.681	116.94
470.901	104.94
471.12	66.94
471.339	98.94
471.558	88.94
471.777	93.94
471.997	107.94
472.216	202.94
472.435	311.94
472.654	132.94
472.873	99.94
473.092	80.94
473.311	84.94
473.53	81.94
473.749	99.94
473.968	95.94
474.187	114.94
474.406	88.94
474.625	100.94
474.844	69.94
475.063	85.94
475.282	95.94
475.501	89.94
475.72	94.94
475.939	94.94
476.158	100.94
476.377	90.94
476.596	83.94
476.814	85.94
477.033	83.94
477.252	83.94
477.471	97.94
477.69	81.94
477.908	84.94
478.127	85.94
478.346	101.94
478.564	94.94
478.783	93.94
479.002	94.94
479.22	96.94
479.439	92.94
479.658	111.94
479.876	77.94
480.095	93.94
480.313	98.94
480.532	101.94
480.751	108.94
480.969	186.94
481.188	490.94
481.406	330.94
481.624	118.94
481.843	96.94
482.061	73.94
482.28	89.94
482.498	82.94
482.717	98.94
482.935	94.94
483.153	88.94
483.372	83.94
483.59	84.94
483.808	86.94
484.027	92.94
484.245	90.94
484.463	92.94
484.681	101.94
484.9	98.94
485.118	89.94
485.336	96.94
485.554	95.94
485.772	95.94
485.99	104.94
486.209	106.94
486.427	99.94
486.645	88.94
486.863	106.94
487.081	102.94
487.299	103.94
487.517	103.94
487.735	95.94
487.953	82.94
488.171	87.94
488.389	97.94
488.607	103.94
488.825	84.94
489.043	92.94
489.261	93.94
489.479	80.94
489.696	87.94
489.914	74.94
490.132	91.94
490.35	80.94
490.568	84.94
490.786	80.94
491.003	86.94
491.221	86.94
491.439	89.94
491.657	91.94
491.874	80.94
492.092	96.94
492.31	113.94
492.527	92.94
492.745	90.94
492.963	106.94
493.18	93.94
493.398	83.94
493.615	104.94
493.833	85.94
494.05	91.94
494.268	91.94
494.485	90.94
494.703	94.94
494.92	69.94
495.138	87.94
495.355	91.94
495.573	84.94
495.79	100.94
496.008	92.94
496.225	91.94
496.442	84.94
496.66	97.94
496.877	79.94
497.094	101.94
497.312	83.94
497.529	108.94
497.746	97.94
497.963	101.94
498.181	85.94
498.398	92.94
498.615	105.94
498.832	100.94
499.049	97.94
499.267	81.94
499.484	69.94
499.701	89.94
499.918	96.94
500.135	82.94
500.352	93.94
500.569	77.94
500.786	81.94
501.003	75.94
501.22	95.94
501.437	81.94
501.654	84.94
501.871	101.94
502.088	106.94
502.305	85.94
502.522	103.94
502.739	108.94
502.956	85.94
503.172	100.94
503.389	99.94
503.606	107.94
503.823	97.94
504.04	103.94
504.256	96.94
504.473	93.94
504.69	84.94
504.907	92.94
505.123	85.94
505.34	93.94
505.557	92.94
505.773	84.94
505.99	94.94
506.207	84.94
506.423	84.94
506.64	91.94
506.856	90.94
507.073	99.94
507.289	92.94
507.506	91.94
507.722	101.94
507.939	104.94
508.155	91.94
508.372	87.94
508.588	88.94
508.805	79.94
509.021	93.94
509.238	91.94
509.454	100.94
509.67	96.94
509.887	104.94
510.103	116.94
510.319	216.94
510.536	725.94
510.752	2420.94
510.968	692.94
511.184	149.94
511.401	116.94
511.617	98.94
511.833	110.94
512.049	84.94
512.265	79.94
512.481	96.94
512.698	88.94
512.914	85.94
513.13	85.94
513.346	78.94
513.562	96.94
513.778	101.94
513.994	109.94
514.21	96.94
514.426	107.94
514.642	127.94
514.858	120.94
515.074	161.94
515.29	439.94
515.506	1581.94
515.721	589.94
515.937	152.94
