Data from Circ_2014_H10_HRD10591_00067.txt Node
Date: Wed Jan 03 10:02:22 EST 2024
User: Yrep
Spectrometer: HR+D1059
Trigger mode: 1
Integration Time (sec): 1.000000E-1
Scans to average: 1
Electric dark correction enabled: true
Nonlinearity correction enabled: false
Boxcar width: 0
XAxis mode: Wavelengths
Number of Pixels in Spectrum: 2048
>>>>>Begin Spectral Data<<<<<
223.165	-23.81
223.4	-23.81
223.635	-23.81
223.869	-24.81
224.104	-20.81
224.338	-1.81
224.573	-10.81
224.808	-14.81
225.042	8.19
225.277	8.19
225.511	-9.81
225.746	-4.81
225.98	3.19
226.215	8.19
226.449	6.19
226.683	22.19
226.918	22.19
227.152	33.19
227.387	35.19
227.621	29.19
227.856	55.19
228.09	50.19
228.324	52.19
228.559	56.19
228.793	59.19
229.027	61.19
229.262	66.19
229.496	71.19
229.73	83.19
229.964	67.19
230.199	60.19
230.433	77.19
230.667	92.19
230.901	74.19
231.136	80.19
231.37	79.19
231.604	77.19
231.838	85.19
232.072	82.19
232.306	78.19
232.541	97.19
232.775	90.19
233.009	76.19
233.243	83.19
233.477	71.19
233.711	80.19
233.945	84.19
234.179	73.19
234.413	81.19
234.647	70.19
234.881	90.19
235.115	98.19
235.349	79.19
235.583	86.19
235.817	86.19
236.051	67.19
236.285	83.19
236.519	81.19
236.753	67.19
236.987	74.19
237.221	76.19
237.455	91.19
237.689	79.19
237.922	75.19
238.156	74.19
238.39	77.19
238.624	73.19
238.858	68.19
239.091	82.19
239.325	70.19
239.559	77.19
239.793	85.19
240.027	90.19
240.26	80.19
240.494	80.19
240.728	76.19
240.961	70.19
241.195	85.19
241.429	68.19
241.662	78.19
241.896	69.19
242.13	84.19
242.363	81.19
242.597	79.19
242.83	71.19
243.064	78.19
243.298	87.19
243.531	76.19
243.765	90.19
243.998	78.19
244.232	96.19
244.465	83.19
244.699	79.19
244.932	82.19
245.166	72.19
245.399	74.19
245.633	73.19
245.866	60.19
246.099	78.19
246.333	88.19
246.566	83.19
246.8	74.19
247.033	85.19
247.266	77.19
247.5	68.19
247.733	79.19
247.966	76.19
248.2	86.19
248.433	82.19
248.666	72.19
248.899	82.19
249.133	74.19
249.366	102.19
249.599	94.19
249.832	69.19
250.066	73.19
250.299	72.19
250.532	88.19
250.765	84.19
250.998	75.19
251.231	79.19
251.465	78.19
251.698	72.19
251.931	75.19
252.164	78.19
252.397	98.19
252.63	75.19
252.863	80.19
253.096	64.19
253.329	83.19
253.562	84.19
253.795	83.19
254.028	86.19
254.261	77.19
254.494	76.19
254.727	74.19
254.96	69.19
255.193	74.19
255.426	80.19
255.659	76.19
255.892	88.19
256.124	77.19
256.357	74.19
256.59	86.19
256.823	83.19
257.056	76.19
257.289	86.19
257.521	74.19
257.754	74.19
257.987	89.19
258.22	71.19
258.452	85.19
258.685	76.19
258.918	76.19
259.151	78.19
259.383	90.19
259.616	82.19
259.849	73.19
260.081	82.19
260.314	85.19
260.547	73.19
260.779	73.19
261.012	66.19
261.244	72.19
261.477	99.19
261.71	79.19
261.942	110.19
262.175	120.19
262.407	90.19
262.64	80.19
262.872	92.19
263.105	74.19
263.337	75.19
263.57	85.19
263.802	85.19
264.035	78.19
264.267	83.19
264.499	82.19
264.732	80.19
264.964	73.19
265.197	85.19
265.429	89.19
265.661	86.19
265.894	85.19
266.126	78.19
266.358	82.19
266.591	82.19
266.823	106.19
267.055	88.19
267.287	79.19
267.52	108.19
267.752	78.19
267.984	90.19
268.216	72.19
268.448	88.19
268.681	97.19
268.913	87.19
269.145	90.19
269.377	79.19
269.609	76.19
269.841	74.19
270.073	89.19
270.306	93.19
270.538	86.19
270.77	101.19
271.002	70.19
271.234	78.19
271.466	68.19
271.698	79.19
271.93	78.19
272.162	93.19
272.394	73.19
272.626	74.19
272.858	86.19
273.09	90.19
273.322	86.19
273.553	95.19
273.785	102.19
274.017	93.19
274.249	80.19
274.481	81.19
274.713	84.19
274.945	86.19
275.176	86.19
275.408	85.19
275.64	82.19
275.872	94.19
276.104	92.19
276.335	82.19
276.567	103.19
276.799	112.19
277.031	101.19
277.262	86.19
277.494	87.19
277.726	91.19
277.957	89.19
278.189	77.19
278.421	82.19
278.652	95.19
278.884	92.19
279.115	89.19
279.347	89.19
279.579	86.19
279.81	81.19
280.042	97.19
280.273	90.19
280.505	88.19
280.736	84.19
280.968	78.19
281.199	82.19
281.431	80.19
281.662	87.19
281.894	73.19
282.125	101.19
282.356	97.19
282.588	128.19
282.819	128.19
283.051	97.19
283.282	82.19
283.513	92.19
283.745	81.19
283.976	82.19
284.207	90.19
284.439	82.19
284.67	86.19
284.901	82.19
285.132	80.19
285.364	90.19
285.595	81.19
285.826	75.19
286.057	69.19
286.288	76.19
286.52	103.19
286.751	91.19
286.982	98.19
287.213	84.19
287.444	97.19
287.675	84.19
287.906	85.19
288.138	89.19
288.369	93.19
288.6	88.19
288.831	82.19
289.062	80.19
289.293	86.19
289.524	78.19
289.755	78.19
289.986	79.19
290.217	88.19
290.448	93.19
290.679	76.19
290.91	81.19
291.141	77.19
291.371	100.19
291.602	66.19
291.833	75.19
292.064	94.19
292.295	76.19
292.526	82.19
292.757	89.19
292.987	93.19
293.218	89.19
293.449	83.19
293.68	83.19
293.91	94.19
294.141	93.19
294.372	74.19
294.603	73.19
294.833	88.19
295.064	100.19
295.295	85.19
295.525	86.19
295.756	100.19
295.987	95.19
296.217	128.19
296.448	127.19
296.679	95.19
296.909	83.19
297.14	99.19
297.37	89.19
297.601	82.19
297.831	85.19
298.062	97.19
298.292	97.19
298.523	96.19
298.753	82.19
298.984	85.19
299.214	99.19
299.445	90.19
299.675	76.19
299.905	88.19
300.136	87.19
300.366	92.19
300.597	86.19
300.827	100.19
301.057	106.19
301.288	86.19
301.518	97.19
301.748	82.19
301.979	100.19
302.209	84.19
302.439	87.19
302.669	86.19
302.9	82.19
303.13	90.19
303.36	94.19
303.59	107.19
303.82	117.19
304.051	96.19
304.281	93.19
304.511	85.19
304.741	86.19
304.971	95.19
305.201	88.19
305.431	89.19
305.661	75.19
305.891	81.19
306.121	87.19
306.352	102.19
306.582	112.19
306.812	86.19
307.042	86.19
307.272	90.19
307.502	88.19
307.731	94.19
307.961	88.19
308.191	88.19
308.421	83.19
308.651	84.19
308.881	101.19
309.111	88.19
309.341	97.19
309.571	97.19
309.8	89.19
310.03	89.19
310.26	102.19
310.49	98.19
310.72	101.19
310.949	97.19
311.179	108.19
311.409	88.19
311.639	94.19
311.868	76.19
312.098	88.19
312.328	78.19
312.557	93.19
312.787	102.19
313.017	88.19
313.246	90.19
313.476	73.19
313.706	100.19
313.935	101.19
314.165	89.19
314.394	96.19
314.624	98.19
314.853	97.19
315.083	89.19
315.312	82.19
315.542	85.19
315.771	79.19
316.001	84.19
316.23	94.19
316.46	87.19
316.689	82.19
316.919	90.19
317.148	97.19
317.377	91.19
317.607	95.19
317.836	75.19
318.065	78.19
318.295	103.19
318.524	81.19
318.753	94.19
318.983	98.19
319.212	107.19
319.441	99.19
319.67	96.19
319.9	84.19
320.129	94.19
320.358	98.19
320.587	99.19
320.816	90.19
321.046	98.19
321.275	90.19
321.504	86.19
321.733	82.19
321.962	91.19
322.191	106.19
322.42	94.19
322.649	99.19
322.878	98.19
323.108	105.19
323.337	125.19
323.566	144.19
323.795	160.19
324.024	197.19
324.253	368.19
324.482	733.19
324.71	1474.19
324.939	1921.19
325.168	748.19
325.397	239.19
325.626	150.19
325.855	128.19
326.084	120.19
326.313	116.19
326.542	146.19
326.77	223.19
326.999	423.19
327.228	802.19
327.457	1483.19
327.686	1196.19
327.914	346.19
328.143	202.19
328.372	173.19
328.6	135.19
328.829	113.19
329.058	129.19
329.287	131.19
329.515	129.19
329.744	114.19
329.972	119.19
330.201	154.19
330.43	193.19
330.658	145.19
330.887	150.19
331.115	141.19
331.344	89.19
331.572	96.19
331.801	116.19
332.03	104.19
332.258	91.19
332.486	93.19
332.715	85.19
332.943	102.19
333.172	90.19
333.4	89.19
333.629	116.19
333.857	132.19
334.085	115.19
334.314	141.19
334.542	202.19
334.771	184.19
334.999	121.19
335.227	100.19
335.455	89.19
335.684	77.19
335.912	96.19
336.14	90.19
336.369	101.19
336.597	93.19
336.825	93.19
337.053	92.19
337.281	77.19
337.51	94.19
337.738	96.19
337.966	86.19
338.194	85.19
338.422	91.19
338.65	98.19
338.878	105.19
339.106	116.19
339.334	101.19
339.562	82.19
339.79	90.19
340.018	82.19
340.246	92.19
340.474	91.19
340.702	93.19
340.93	90.19
341.158	85.19
341.386	90.19
341.614	96.19
341.842	88.19
342.07	101.19
342.298	106.19
342.526	77.19
342.754	93.19
342.981	90.19
343.209	81.19
343.437	106.19
343.665	85.19
343.893	92.19
344.12	86.19
344.348	87.19
344.576	94.19
344.804	84.19
345.031	98.19
345.259	99.19
345.487	99.19
345.714	94.19
345.942	91.19
346.17	86.19
346.397	84.19
346.625	88.19
346.853	90.19
347.08	98.19
347.308	96.19
347.535	79.19
347.763	94.19
347.99	90.19
348.218	97.19
348.445	94.19
348.673	84.19
348.9	89.19
349.128	91.19
349.355	86.19
349.583	81.19
349.81	93.19
350.037	91.19
350.265	90.19
350.492	92.19
350.72	92.19
350.947	96.19
351.174	104.19
351.402	120.19
351.629	101.19
351.856	94.19
352.083	95.19
352.311	99.19
352.538	105.19
352.765	114.19
352.992	104.19
353.22	102.19
353.447	88.19
353.674	77.19
353.901	109.19
354.128	100.19
354.355	104.19
354.583	105.19
354.81	120.19
355.037	100.19
355.264	114.19
355.491	94.19
355.718	102.19
355.945	85.19
356.172	91.19
356.399	101.19
356.626	96.19
356.853	89.19
357.08	103.19
357.307	97.19
357.534	105.19
357.761	92.19
357.988	88.19
358.215	105.19
358.441	99.19
358.668	81.19
358.895	72.19
359.122	85.19
359.349	89.19
359.576	76.19
359.802	102.19
360.029	110.19
360.256	114.19
360.483	97.19
360.709	85.19
360.936	91.19
361.163	85.19
361.39	78.19
361.616	88.19
361.843	76.19
362.07	90.19
362.296	94.19
362.523	84.19
362.749	93.19
362.976	102.19
363.203	91.19
363.429	94.19
363.656	102.19
363.882	91.19
364.109	93.19
364.335	93.19
364.562	87.19
364.788	82.19
365.015	95.19
365.241	87.19
365.468	105.19
365.694	99.19
365.92	86.19
366.147	95.19
366.373	91.19
366.599	89.19
366.826	78.19
367.052	89.19
367.278	82.19
367.505	98.19
367.731	87.19
367.957	78.19
368.184	106.19
368.41	95.19
368.636	105.19
368.862	116.19
369.089	100.19
369.315	95.19
369.541	99.19
369.767	95.19
369.993	98.19
370.219	86.19
370.445	86.19
370.672	74.19
370.898	89.19
371.124	93.19
371.35	100.19
371.576	91.19
371.802	79.19
372.028	101.19
372.254	88.19
372.48	78.19
372.706	87.19
372.932	86.19
373.158	93.19
373.384	85.19
373.61	84.19
373.835	88.19
374.061	88.19
374.287	88.19
374.513	77.19
374.739	80.19
374.965	85.19
375.191	73.19
375.416	89.19
375.642	86.19
375.868	84.19
376.094	89.19
376.319	78.19
376.545	96.19
376.771	70.19
376.997	92.19
377.222	72.19
377.448	85.19
377.674	73.19
377.899	81.19
378.125	77.19
378.35	71.19
378.576	75.19
378.802	86.19
379.027	90.19
379.253	95.19
379.478	106.19
379.704	101.19
379.929	84.19
380.155	83.19
380.38	77.19
380.606	88.19
380.831	72.19
381.057	91.19
381.282	100.19
381.507	95.19
381.733	89.19
381.958	102.19
382.184	88.19
382.409	93.19
382.634	93.19
382.86	104.19
383.085	95.19
383.31	99.19
383.535	81.19
383.761	89.19
383.986	107.19
384.211	108.19
384.436	87.19
384.662	112.19
384.887	101.19
385.112	92.19
385.337	107.19
385.562	84.19
385.787	95.19
386.013	116.19
386.238	124.19
386.463	100.19
386.688	108.19
386.913	95.19
387.138	101.19
387.363	91.19
387.588	98.19
387.813	87.19
388.038	102.19
388.263	117.19
388.488	105.19
388.713	94.19
388.938	89.19
389.163	91.19
389.387	86.19
389.612	86.19
389.837	85.19
390.062	95.19
390.287	79.19
390.512	90.19
390.736	96.19
390.961	91.19
391.186	84.19
391.411	102.19
391.636	87.19
391.86	81.19
392.085	81.19
392.31	81.19
392.534	92.19
392.759	94.19
392.984	96.19
393.208	79.19
393.433	92.19
393.658	91.19
393.882	79.19
394.107	86.19
394.331	73.19
394.556	93.19
394.78	91.19
395.005	82.19
395.229	61.19
395.454	91.19
395.678	87.19
395.903	87.19
396.127	77.19
396.352	86.19
396.576	82.19
396.801	73.19
397.025	74.19
397.249	91.19
397.474	91.19
397.698	81.19
397.922	101.19
398.147	77.19
398.371	91.19
398.595	86.19
398.82	77.19
399.044	81.19
399.268	84.19
399.492	85.19
399.717	89.19
399.941	90.19
400.165	93.19
400.389	81.19
400.613	93.19
400.837	75.19
401.062	92.19
401.286	94.19
401.51	91.19
401.734	81.19
401.958	110.19
402.182	123.19
402.406	156.19
402.63	135.19
402.854	101.19
403.078	88.19
403.302	95.19
403.526	94.19
403.75	94.19
403.974	90.19
404.198	83.19
404.422	86.19
404.645	93.19
404.869	87.19
405.093	92.19
405.317	100.19
405.541	91.19
405.765	93.19
405.988	108.19
406.212	181.19
406.436	234.19
406.66	154.19
406.883	100.19
407.107	97.19
407.331	93.19
407.555	84.19
407.778	90.19
408.002	83.19
408.226	75.19
408.449	84.19
408.673	93.19
408.896	98.19
409.12	89.19
409.344	87.19
409.567	94.19
409.791	84.19
410.014	79.19
410.238	79.19
410.461	78.19
410.685	89.19
410.908	97.19
411.132	93.19
411.355	101.19
411.578	98.19
411.802	85.19
412.025	96.19
412.249	92.19
412.472	92.19
412.695	86.19
412.919	81.19
413.142	86.19
413.365	83.19
413.589	93.19
413.812	83.19
414.035	80.19
414.258	87.19
414.482	87.19
414.705	85.19
414.928	84.19
415.151	101.19
415.374	82.19
415.597	81.19
415.821	85.19
416.044	86.19
416.267	95.19
416.49	78.19
416.713	89.19
416.936	85.19
417.159	96.19
417.382	84.19
417.605	80.19
417.828	78.19
418.051	97.19
418.274	75.19
418.497	84.19
418.72	90.19
418.943	80.19
419.166	89.19
419.389	87.19
419.611	83.19
419.834	90.19
420.057	103.19
420.28	76.19
420.503	83.19
420.726	95.19
420.948	72.19
421.171	86.19
421.394	88.19
421.617	86.19
421.839	74.19
422.062	86.19
422.285	85.19
422.507	91.19
422.73	86.19
422.953	85.19
423.175	86.19
423.398	90.19
423.621	75.19
423.843	72.19
424.066	88.19
424.288	85.19
424.511	85.19
424.733	94.19
424.956	88.19
425.178	102.19
425.401	107.19
425.623	98.19
425.846	86.19
426.068	97.19
426.291	91.19
426.513	90.19
426.735	74.19
426.958	111.19
427.18	122.19
427.402	129.19
427.625	166.19
427.847	132.19
428.069	109.19
428.292	83.19
428.514	101.19
428.736	82.19
428.958	71.19
429.181	83.19
429.403	86.19
429.625	88.19
429.847	74.19
430.069	87.19
430.292	82.19
430.514	81.19
430.736	82.19
430.958	81.19
431.18	75.19
431.402	85.19
431.624	99.19
431.846	92.19
432.068	79.19
432.29	91.19
432.512	91.19
432.734	98.19
432.956	81.19
433.178	90.19
433.4	85.19
433.622	103.19
433.844	73.19
434.066	83.19
434.287	78.19
434.509	88.19
434.731	84.19
434.953	85.19
435.175	74.19
435.397	100.19
435.618	88.19
435.84	94.19
436.062	99.19
436.284	107.19
436.505	94.19
436.727	105.19
436.949	90.19
437.17	89.19
437.392	77.19
437.614	86.19
437.835	100.19
438.057	114.19
438.278	107.19
438.5	109.19
438.721	126.19
438.943	98.19
439.165	82.19
439.386	76.19
439.608	81.19
439.829	94.19
440.05	99.19
440.272	129.19
440.493	101.19
440.715	85.19
440.936	81.19
441.158	83.19
441.379	78.19
441.6	88.19
441.822	96.19
442.043	93.19
442.264	87.19
442.486	97.19
442.707	85.19
442.928	89.19
443.149	142.19
443.371	116.19
443.592	117.19
443.813	112.19
444.034	99.19
444.255	97.19
444.476	81.19
444.698	82.19
444.919	86.19
445.14	136.19
445.361	104.19
445.582	116.19
445.803	131.19
446.024	135.19
446.245	124.19
446.466	98.19
446.687	76.19
446.908	99.19
447.129	92.19
447.35	80.19
447.571	92.19
447.792	106.19
448.013	101.19
448.234	113.19
448.455	94.19
448.675	108.19
448.896	96.19
449.117	94.19
449.338	95.19
449.559	119.19
449.779	128.19
450	85.19
450.221	91.19
450.442	70.19
450.662	72.19
450.883	94.19
451.104	104.19
451.324	94.19
451.545	84.19
451.766	91.19
451.986	85.19
452.207	100.19
452.428	85.19
452.648	84.19
452.869	96.19
453.089	97.19
453.31	118.19
453.53	98.19
453.751	90.19
453.971	101.19
454.192	104.19
454.412	93.19
454.633	84.19
454.853	86.19
455.073	76.19
455.294	78.19
455.514	84.19
455.734	76.19
455.955	90.19
456.175	86.19
456.395	76.19
456.616	88.19
456.836	78.19
457.056	70.19
457.276	76.19
457.497	87.19
457.717	89.19
457.937	92.19
458.157	93.19
458.377	89.19
458.598	120.19
458.818	145.19
459.038	170.19
459.258	121.19
459.478	93.19
459.698	78.19
459.918	85.19
460.138	88.19
460.358	85.19
460.578	89.19
460.798	97.19
461.018	90.19
461.238	76.19
461.458	109.19
461.678	78.19
461.898	83.19
462.118	77.19
462.338	90.19
462.558	82.19
462.777	85.19
462.997	74.19
463.217	88.19
463.437	75.19
463.657	93.19
463.876	87.19
464.096	98.19
464.316	84.19
464.536	98.19
464.755	102.19
464.975	104.19
465.195	173.19
465.414	162.19
465.634	91.19
465.854	92.19
466.073	90.19
466.293	81.19
466.512	89.19
466.732	92.19
466.951	94.19
467.171	77.19
467.391	99.19
467.61	122.19
467.829	101.19
468.049	123.19
468.268	135.19
468.488	113.19
468.707	84.19
468.927	90.19
469.146	84.19
469.365	87.19
469.585	78.19
469.804	98.19
470.023	98.19
470.243	100.19
470.462	80.19
470.681	109.19
470.901	84.19
471.12	88.19
471.339	83.19
471.558	90.19
471.777	101.19
471.997	101.19
472.216	149.19
472.435	243.19
472.654	118.19
472.873	103.19
473.092	85.19
473.311	79.19
473.53	90.19
473.749	76.19
473.968	92.19
474.187	98.19
474.406	95.19
474.625	73.19
474.844	86.19
475.063	79.19
475.282	74.19
475.501	88.19
475.72	98.19
475.939	98.19
476.158	84.19
476.377	67.19
476.596	83.19
476.814	90.19
477.033	97.19
477.252	75.19
477.471	77.19
477.69	92.19
477.908	82.19
478.127	93.19
478.346	84.19
478.564	83.19
478.783	93.19
479.002	76.19
479.22	91.19
479.439	112.19
479.658	122.19
479.876	92.19
480.095	85.19
480.313	87.19
480.532	69.19
480.751	98.19
480.969	153.19
481.188	359.19
481.406	256.19
481.624	105.19
481.843	96.19
482.061	87.19
482.28	90.19
482.498	73.19
482.717	84.19
482.935	78.19
483.153	81.19
483.372	87.19
483.59	91.19
483.808	90.19
484.027	95.19
484.245	92.19
484.463	85.19
484.681	94.19
484.9	81.19
485.118	83.19
485.336	92.19
485.554	89.19
485.772	99.19
485.99	93.19
486.209	103.19
486.427	102.19
486.645	103.19
486.863	113.19
487.081	90.19
487.299	105.19
487.517	93.19
487.735	91.19
487.953	96.19
488.171	90.19
488.389	88.19
488.607	92.19
488.825	79.19
489.043	85.19
489.261	81.19
489.479	91.19
489.696	93.19
489.914	93.19
490.132	91.19
490.35	85.19
490.568	87.19
490.786	96.19
491.003	82.19
491.221	86.19
491.439	92.19
491.657	92.19
491.874	83.19
492.092	90.19
492.31	92.19
492.527	85.19
492.745	75.19
492.963	91.19
493.18	92.19
493.398	99.19
493.615	92.19
493.833	90.19
494.05	88.19
494.268	86.19
494.485	87.19
494.703	97.19
494.92	92.19
495.138	88.19
495.355	93.19
495.573	85.19
495.79	90.19
496.008	89.19
496.225	85.19
496.442	85.19
496.66	96.19
496.877	86.19
497.094	85.19
497.312	99.19
497.529	92.19
497.746	89.19
497.963	86.19
498.181	86.19
498.398	105.19
498.615	105.19
498.832	96.19
499.049	96.19
499.267	93.19
499.484	94.19
499.701	97.19
499.918	99.19
500.135	82.19
500.352	96.19
500.569	85.19
500.786	80.19
501.003	106.19
501.22	85.19
501.437	80.19
501.654	82.19
501.871	100.19
502.088	91.19
502.305	84.19
502.522	89.19
502.739	86.19
502.956	81.19
503.172	93.19
503.389	93.19
503.606	112.19
503.823	98.19
504.04	88.19
504.256	93.19
504.473	96.19
504.69	98.19
504.907	86.19
505.123	94.19
505.34	87.19
505.557	88.19
505.773	92.19
505.99	99.19
506.207	92.19
506.423	94.19
506.64	73.19
506.856	80.19
507.073	87.19
507.289	87.19
507.506	90.19
507.722	112.19
507.939	110.19
508.155	103.19
508.372	114.19
508.588	84.19
508.805	95.19
509.021	97.19
509.238	116.19
509.454	114.19
509.67	114.19
509.887	109.19
510.103	139.19
510.319	214.19
510.536	788.19
510.752	2633.19
510.968	756.19
511.184	165.19
511.401	118.19
511.617	98.19
511.833	88.19
512.049	78.19
512.265	76.19
512.481	88.19
512.698	93.19
512.914	99.19
513.13	96.19
513.346	100.19
513.562	82.19
513.778	98.19
513.994	83.19
514.21	97.19
514.426	122.19
514.642	139.19
514.858	134.19
515.074	159.19
515.29	473.19
515.506	1679.19
515.721	636.19
515.937	160.19
516.153	101.19
516.369	98.19
