Data from Circ_2014_H10_HRD10591_00065.txt Node
Date: Wed Jan 03 10:02:22 EST 2024
User: Yrep
Spectrometer: HR+D1059
Trigger mode: 1
Integration Time (sec): 1.000000E-1
Scans to average: 1
Electric dark correction enabled: true
Nonlinearity correction enabled: false
Boxcar width: 0
XAxis mode: Wavelengths
Number of Pixels in Spectrum: 2048
>>>>>Begin Spectral Data<<<<<
223.165	-8.81
223.4	-8.81
223.635	-8.81
223.869	-9.81
224.104	-27.81
224.338	-15.81
224.573	-19.81
224.808	-7.81
225.042	-15.81
225.277	-2.81
225.511	2.19
225.746	1.19
225.98	4.19
226.215	9.19
226.449	16.19
226.683	15.19
226.918	25.19
227.152	35.19
227.387	34.19
227.621	28.19
227.856	38.19
228.09	52.19
228.324	51.19
228.559	54.19
228.793	66.19
229.027	63.19
229.262	67.19
229.496	71.19
229.73	86.19
229.964	71.19
230.199	60.19
230.433	73.19
230.667	73.19
230.901	75.19
231.136	75.19
231.37	74.19
231.604	69.19
231.838	75.19
232.072	77.19
232.306	77.19
232.541	78.19
232.775	73.19
233.009	77.19
233.243	62.19
233.477	75.19
233.711	65.19
233.945	71.19
234.179	79.19
234.413	80.19
234.647	72.19
234.881	67.19
235.115	87.19
235.349	73.19
235.583	63.19
235.817	78.19
236.051	62.19
236.285	53.19
236.519	74.19
236.753	85.19
236.987	93.19
237.221	86.19
237.455	80.19
237.689	71.19
237.922	77.19
238.156	69.19
238.39	84.19
238.624	82.19
238.858	68.19
239.091	81.19
239.325	71.19
239.559	90.19
239.793	78.19
240.027	85.19
240.26	74.19
240.494	77.19
240.728	69.19
240.961	73.19
241.195	82.19
241.429	80.19
241.662	69.19
241.896	81.19
242.13	70.19
242.363	75.19
242.597	71.19
242.83	74.19
243.064	85.19
243.298	85.19
243.531	61.19
243.765	62.19
243.998	72.19
244.232	69.19
244.465	85.19
244.699	78.19
244.932	74.19
245.166	71.19
245.399	74.19
245.633	74.19
245.866	83.19
246.099	69.19
246.333	80.19
246.566	93.19
246.8	83.19
247.033	89.19
247.266	81.19
247.5	91.19
247.733	65.19
247.966	72.19
248.2	74.19
248.433	68.19
248.666	82.19
248.899	86.19
249.133	70.19
249.366	90.19
249.599	92.19
249.832	89.19
250.066	67.19
250.299	74.19
250.532	85.19
250.765	79.19
250.998	76.19
251.231	100.19
251.465	79.19
251.698	74.19
251.931	85.19
252.164	77.19
252.397	70.19
252.63	95.19
252.863	78.19
253.096	85.19
253.329	80.19
253.562	77.19
253.795	70.19
254.028	77.19
254.261	82.19
254.494	82.19
254.727	81.19
254.96	75.19
255.193	78.19
255.426	81.19
255.659	84.19
255.892	80.19
256.124	73.19
256.357	76.19
256.59	75.19
256.823	91.19
257.056	84.19
257.289	75.19
257.521	94.19
257.754	86.19
257.987	74.19
258.22	74.19
258.452	72.19
258.685	85.19
258.918	60.19
259.151	73.19
259.383	84.19
259.616	84.19
259.849	80.19
260.081	81.19
260.314	84.19
260.547	78.19
260.779	81.19
261.012	94.19
261.244	85.19
261.477	88.19
261.71	94.19
261.942	100.19
262.175	127.19
262.407	90.19
262.64	74.19
262.872	76.19
263.105	91.19
263.337	85.19
263.57	89.19
263.802	80.19
264.035	65.19
264.267	74.19
264.499	77.19
264.732	93.19
264.964	87.19
265.197	95.19
265.429	83.19
265.661	87.19
265.894	77.19
266.126	81.19
266.358	80.19
266.591	94.19
266.823	90.19
267.055	78.19
267.287	91.19
267.52	79.19
267.752	89.19
267.984	81.19
268.216	82.19
268.448	88.19
268.681	86.19
268.913	92.19
269.145	82.19
269.377	76.19
269.609	85.19
269.841	94.19
270.073	88.19
270.306	87.19
270.538	88.19
270.77	84.19
271.002	73.19
271.234	77.19
271.466	82.19
271.698	89.19
271.93	89.19
272.162	81.19
272.394	89.19
272.626	100.19
272.858	74.19
273.09	72.19
273.322	77.19
273.553	76.19
273.785	68.19
274.017	89.19
274.249	78.19
274.481	89.19
274.713	84.19
274.945	82.19
275.176	82.19
275.408	85.19
275.64	89.19
275.872	86.19
276.104	94.19
276.335	97.19
276.567	105.19
276.799	119.19
277.031	103.19
277.262	96.19
277.494	81.19
277.726	94.19
277.957	78.19
278.189	99.19
278.421	83.19
278.652	89.19
278.884	84.19
279.115	90.19
279.347	82.19
279.579	76.19
279.81	98.19
280.042	88.19
280.273	93.19
280.505	92.19
280.736	76.19
280.968	89.19
281.199	83.19
281.431	76.19
281.662	92.19
281.894	91.19
282.125	95.19
282.356	131.19
282.588	144.19
282.819	111.19
283.051	83.19
283.282	87.19
283.513	81.19
283.745	82.19
283.976	81.19
284.207	93.19
284.439	77.19
284.67	86.19
284.901	71.19
285.132	74.19
285.364	78.19
285.595	82.19
285.826	89.19
286.057	76.19
286.288	92.19
286.52	88.19
286.751	81.19
286.982	100.19
287.213	76.19
287.444	88.19
287.675	89.19
287.906	103.19
288.138	89.19
288.369	89.19
288.6	87.19
288.831	99.19
289.062	70.19
289.293	90.19
289.524	92.19
289.755	91.19
289.986	89.19
290.217	96.19
290.448	74.19
290.679	97.19
290.91	92.19
291.141	103.19
291.371	93.19
291.602	92.19
291.833	85.19
292.064	89.19
292.295	89.19
292.526	85.19
292.757	80.19
292.987	91.19
293.218	82.19
293.449	79.19
293.68	79.19
293.91	89.19
294.141	97.19
294.372	91.19
294.603	83.19
294.833	81.19
295.064	90.19
295.295	88.19
295.525	87.19
295.756	99.19
295.987	122.19
296.217	146.19
296.448	123.19
296.679	89.19
296.909	86.19
297.14	97.19
297.37	87.19
297.601	95.19
297.831	89.19
298.062	111.19
298.292	99.19
298.523	103.19
298.753	76.19
298.984	78.19
299.214	99.19
299.445	93.19
299.675	95.19
299.905	92.19
300.136	91.19
300.366	92.19
300.597	87.19
300.827	89.19
301.057	105.19
301.288	102.19
301.518	92.19
301.748	89.19
301.979	88.19
302.209	89.19
302.439	85.19
302.669	83.19
302.9	89.19
303.13	91.19
303.36	89.19
303.59	94.19
303.82	120.19
304.051	113.19
304.281	97.19
304.511	86.19
304.741	93.19
304.971	93.19
305.201	80.19
305.431	98.19
305.661	89.19
305.891	102.19
306.121	96.19
306.352	103.19
306.582	94.19
306.812	96.19
307.042	76.19
307.272	102.19
307.502	93.19
307.731	97.19
307.961	91.19
308.191	97.19
308.421	86.19
308.651	92.19
308.881	85.19
309.111	84.19
309.341	107.19
309.571	110.19
309.8	88.19
310.03	86.19
310.26	93.19
310.49	108.19
310.72	107.19
310.949	110.19
311.179	104.19
311.409	93.19
311.639	98.19
311.868	99.19
312.098	94.19
312.328	87.19
312.557	90.19
312.787	101.19
313.017	99.19
313.246	85.19
313.476	94.19
313.706	94.19
313.935	100.19
314.165	109.19
314.394	114.19
314.624	92.19
314.853	90.19
315.083	91.19
315.312	85.19
315.542	91.19
315.771	84.19
316.001	85.19
316.23	96.19
316.46	92.19
316.689	84.19
316.919	95.19
317.148	89.19
317.377	95.19
317.607	96.19
317.836	91.19
318.065	90.19
318.295	81.19
318.524	95.19
318.753	86.19
318.983	105.19
319.212	91.19
319.441	110.19
319.67	116.19
319.9	97.19
320.129	83.19
320.358	94.19
320.587	87.19
320.816	89.19
321.046	92.19
321.275	105.19
321.504	103.19
321.733	73.19
321.962	107.19
322.191	99.19
322.42	97.19
322.649	119.19
322.878	120.19
323.108	112.19
323.337	128.19
323.566	140.19
323.795	153.19
324.024	222.19
324.253	411.19
324.482	841.19
324.71	1710.19
324.939	2298.19
325.168	891.19
325.397	250.19
325.626	149.19
325.855	137.19
326.084	116.19
326.313	124.19
326.542	165.19
326.77	219.19
326.999	458.19
327.228	910.19
327.457	1677.19
327.686	1374.19
327.914	384.19
328.143	220.19
328.372	184.19
328.6	157.19
328.829	118.19
329.058	141.19
329.287	140.19
329.515	117.19
329.744	115.19
329.972	133.19
330.201	170.19
330.43	207.19
330.658	158.19
330.887	157.19
331.115	141.19
331.344	110.19
331.572	107.19
331.801	94.19
332.03	118.19
332.258	107.19
332.486	92.19
332.715	105.19
332.943	88.19
333.172	108.19
333.4	104.19
333.629	100.19
333.857	126.19
334.085	136.19
334.314	158.19
334.542	232.19
334.771	213.19
334.999	128.19
335.227	102.19
335.455	96.19
335.684	103.19
335.912	89.19
336.14	92.19
336.369	113.19
336.597	108.19
336.825	98.19
337.053	112.19
337.281	102.19
337.51	101.19
337.738	109.19
337.966	96.19
338.194	90.19
338.422	84.19
338.65	94.19
338.878	80.19
339.106	84.19
339.334	103.19
339.562	89.19
339.79	113.19
340.018	87.19
340.246	89.19
340.474	91.19
340.702	98.19
340.93	92.19
341.158	84.19
341.386	88.19
341.614	99.19
341.842	87.19
342.07	92.19
342.298	93.19
342.526	91.19
342.754	96.19
342.981	93.19
343.209	86.19
343.437	100.19
343.665	83.19
343.893	82.19
344.12	96.19
344.348	90.19
344.576	94.19
344.804	98.19
345.031	102.19
345.259	83.19
345.487	81.19
345.714	84.19
345.942	90.19
346.17	84.19
346.397	91.19
346.625	93.19
346.853	97.19
347.08	98.19
347.308	111.19
347.535	88.19
347.763	96.19
347.99	92.19
348.218	101.19
348.445	93.19
348.673	100.19
348.9	101.19
349.128	100.19
349.355	94.19
349.583	100.19
349.81	94.19
350.037	100.19
350.265	86.19
350.492	105.19
350.72	90.19
350.947	103.19
351.174	112.19
351.402	106.19
351.629	112.19
351.856	106.19
352.083	107.19
352.311	103.19
352.538	116.19
352.765	114.19
352.992	121.19
353.22	120.19
353.447	101.19
353.674	90.19
353.901	96.19
354.128	102.19
354.355	74.19
354.583	90.19
354.81	94.19
355.037	96.19
355.264	81.19
355.491	92.19
355.718	90.19
355.945	91.19
356.172	93.19
356.399	89.19
356.626	99.19
356.853	101.19
357.08	93.19
357.307	95.19
357.534	103.19
357.761	96.19
357.988	86.19
358.215	93.19
358.441	75.19
358.668	96.19
358.895	87.19
359.122	93.19
359.349	82.19
359.576	88.19
359.802	101.19
360.029	114.19
360.256	127.19
360.483	107.19
360.709	96.19
360.936	88.19
361.163	93.19
361.39	98.19
361.616	92.19
361.843	98.19
362.07	87.19
362.296	95.19
362.523	100.19
362.749	94.19
362.976	76.19
363.203	102.19
363.429	95.19
363.656	93.19
363.882	89.19
364.109	86.19
364.335	101.19
364.562	93.19
364.788	98.19
365.015	86.19
365.241	94.19
365.468	105.19
365.694	101.19
365.92	100.19
366.147	95.19
366.373	90.19
366.599	95.19
366.826	91.19
367.052	84.19
367.278	83.19
367.505	105.19
367.731	84.19
367.957	95.19
368.184	86.19
368.41	103.19
368.636	132.19
368.862	134.19
369.089	118.19
369.315	96.19
369.541	77.19
369.767	86.19
369.993	86.19
370.219	99.19
370.445	87.19
370.672	93.19
370.898	78.19
371.124	85.19
371.35	90.19
371.576	82.19
371.802	87.19
372.028	87.19
372.254	84.19
372.48	80.19
372.706	91.19
372.932	84.19
373.158	91.19
373.384	100.19
373.61	88.19
373.835	98.19
374.061	77.19
374.287	97.19
374.513	92.19
374.739	84.19
374.965	89.19
375.191	72.19
375.416	78.19
375.642	93.19
375.868	99.19
376.094	78.19
376.319	88.19
376.545	79.19
376.771	76.19
376.997	97.19
377.222	92.19
377.448	91.19
377.674	88.19
377.899	74.19
378.125	99.19
378.35	92.19
378.576	90.19
378.802	93.19
379.027	91.19
379.253	98.19
379.478	97.19
379.704	89.19
379.929	89.19
380.155	85.19
380.38	89.19
380.606	68.19
380.831	89.19
381.057	97.19
381.282	91.19
381.507	88.19
381.733	107.19
381.958	98.19
382.184	101.19
382.409	92.19
382.634	109.19
382.86	94.19
383.085	84.19
383.31	99.19
383.535	109.19
383.761	95.19
383.986	98.19
384.211	88.19
384.436	100.19
384.662	96.19
384.887	105.19
385.112	101.19
385.337	88.19
385.562	110.19
385.787	110.19
386.013	104.19
386.238	107.19
386.463	118.19
386.688	111.19
386.913	112.19
387.138	93.19
387.363	91.19
387.588	86.19
387.813	103.19
388.038	105.19
388.263	100.19
388.488	101.19
388.713	96.19
388.938	90.19
389.163	83.19
389.387	104.19
389.612	82.19
389.837	90.19
390.062	80.19
390.287	85.19
390.512	97.19
390.736	93.19
390.961	107.19
391.186	95.19
391.411	91.19
391.636	88.19
391.86	93.19
392.085	96.19
392.31	85.19
392.534	84.19
392.759	85.19
392.984	85.19
393.208	76.19
393.433	92.19
393.658	89.19
393.882	82.19
394.107	92.19
394.331	81.19
394.556	95.19
394.78	92.19
395.005	86.19
395.229	84.19
395.454	76.19
395.678	87.19
395.903	96.19
396.127	93.19
396.352	90.19
396.576	82.19
396.801	86.19
397.025	92.19
397.249	83.19
397.474	78.19
397.698	96.19
397.922	88.19
398.147	81.19
398.371	97.19
398.595	83.19
398.82	83.19
399.044	80.19
399.268	76.19
399.492	82.19
399.717	70.19
399.941	102.19
400.165	93.19
400.389	86.19
400.613	83.19
400.837	101.19
401.062	82.19
401.286	92.19
401.51	103.19
401.734	88.19
401.958	105.19
402.182	132.19
402.406	179.19
402.63	143.19
402.854	93.19
403.078	93.19
403.302	78.19
403.526	87.19
403.75	77.19
403.974	91.19
404.198	82.19
404.422	94.19
404.645	83.19
404.869	91.19
405.093	85.19
405.317	108.19
405.541	99.19
405.765	109.19
405.988	136.19
406.212	185.19
406.436	251.19
406.66	178.19
406.883	98.19
407.107	88.19
407.331	113.19
407.555	97.19
407.778	97.19
408.002	93.19
408.226	96.19
408.449	93.19
408.673	94.19
408.896	85.19
409.12	93.19
409.344	77.19
409.567	79.19
409.791	101.19
410.014	91.19
410.238	82.19
410.461	89.19
410.685	92.19
410.908	88.19
411.132	93.19
411.355	106.19
411.578	90.19
411.802	85.19
412.025	85.19
412.249	96.19
412.472	101.19
412.695	98.19
412.919	90.19
413.142	87.19
413.365	96.19
413.589	86.19
413.812	91.19
414.035	89.19
414.258	85.19
414.482	89.19
414.705	75.19
414.928	78.19
415.151	94.19
415.374	99.19
415.597	91.19
415.821	86.19
416.044	89.19
416.267	75.19
416.49	97.19
416.713	78.19
416.936	99.19
417.159	105.19
417.382	77.19
417.605	92.19
417.828	91.19
418.051	89.19
418.274	87.19
418.497	84.19
418.72	89.19
418.943	88.19
419.166	89.19
419.389	88.19
419.611	89.19
419.834	88.19
420.057	80.19
420.28	80.19
420.503	76.19
420.726	92.19
420.948	97.19
421.171	100.19
421.394	96.19
421.617	93.19
421.839	92.19
422.062	92.19
422.285	86.19
422.507	96.19
422.73	97.19
422.953	97.19
423.175	82.19
423.398	82.19
423.621	84.19
423.843	85.19
424.066	78.19
424.288	80.19
424.511	89.19
424.733	98.19
424.956	113.19
425.178	108.19
425.401	102.19
425.623	105.19
425.846	83.19
426.068	96.19
426.291	96.19
426.513	93.19
426.735	83.19
426.958	86.19
427.18	109.19
427.402	140.19
427.625	182.19
427.847	135.19
428.069	105.19
428.292	84.19
428.514	91.19
428.736	77.19
428.958	79.19
429.181	80.19
429.403	87.19
429.625	81.19
429.847	73.19
430.069	81.19
430.292	94.19
430.514	85.19
430.736	92.19
430.958	89.19
431.18	76.19
431.402	90.19
431.624	77.19
431.846	77.19
432.068	90.19
432.29	98.19
432.512	96.19
432.734	87.19
432.956	79.19
433.178	94.19
433.4	99.19
433.622	85.19
433.844	76.19
434.066	91.19
434.287	96.19
434.509	83.19
434.731	84.19
434.953	88.19
435.175	91.19
435.397	86.19
435.618	87.19
435.84	108.19
436.062	128.19
436.284	98.19
436.505	103.19
436.727	89.19
436.949	92.19
437.17	86.19
437.392	85.19
437.614	92.19
437.835	96.19
438.057	129.19
438.278	96.19
438.5	105.19
438.721	103.19
438.943	99.19
439.165	83.19
439.386	93.19
439.608	82.19
439.829	96.19
440.05	135.19
440.272	132.19
440.493	105.19
440.715	92.19
440.936	95.19
441.158	95.19
441.379	81.19
441.6	91.19
441.822	94.19
442.043	87.19
442.264	99.19
442.486	99.19
442.707	87.19
442.928	106.19
443.149	134.19
443.371	120.19
443.592	118.19
443.813	130.19
444.034	108.19
444.255	78.19
444.476	83.19
444.698	88.19
444.919	98.19
445.14	136.19
445.361	128.19
445.582	112.19
445.803	126.19
446.024	149.19
446.245	134.19
446.466	116.19
446.687	84.19
446.908	91.19
447.129	91.19
447.35	89.19
447.571	90.19
447.792	94.19
448.013	98.19
448.234	114.19
448.455	101.19
448.675	112.19
448.896	117.19
449.117	102.19
449.338	120.19
449.559	120.19
449.779	134.19
450	96.19
450.221	73.19
450.442	79.19
450.662	88.19
450.883	104.19
451.104	116.19
451.324	104.19
451.545	94.19
451.766	102.19
451.986	91.19
452.207	86.19
452.428	92.19
452.648	109.19
452.869	112.19
453.089	114.19
453.31	138.19
453.53	95.19
453.751	87.19
453.971	114.19
454.192	116.19
454.412	84.19
454.633	91.19
454.853	85.19
455.073	74.19
455.294	99.19
455.514	91.19
455.734	85.19
455.955	75.19
456.175	83.19
456.395	85.19
456.616	89.19
456.836	89.19
457.056	82.19
457.276	78.19
457.497	92.19
457.717	78.19
457.937	74.19
458.157	89.19
458.377	89.19
458.598	91.19
458.818	172.19
459.038	189.19
459.258	117.19
459.478	74.19
459.698	89.19
459.918	96.19
460.138	75.19
460.358	70.19
460.578	83.19
460.798	98.19
461.018	75.19
461.238	80.19
461.458	88.19
461.678	84.19
461.898	97.19
462.118	79.19
462.338	89.19
462.558	85.19
462.777	77.19
462.997	74.19
463.217	79.19
463.437	80.19
463.657	84.19
463.876	88.19
464.096	80.19
464.316	82.19
464.536	101.19
464.755	86.19
464.975	119.19
465.195	179.19
465.414	184.19
465.634	122.19
465.854	88.19
466.073	91.19
466.293	90.19
466.512	101.19
466.732	86.19
466.951	95.19
467.171	108.19
467.391	98.19
467.61	108.19
467.829	106.19
468.049	116.19
468.268	145.19
468.488	95.19
468.707	70.19
468.927	80.19
469.146	79.19
469.365	84.19
469.585	89.19
469.804	83.19
470.023	85.19
470.243	105.19
470.462	105.19
470.681	91.19
470.901	83.19
471.12	93.19
471.339	95.19
471.558	100.19
471.777	80.19
471.997	88.19
472.216	155.19
472.435	278.19
472.654	127.19
472.873	88.19
473.092	89.19
473.311	86.19
473.53	83.19
473.749	72.19
473.968	98.19
474.187	97.19
474.406	95.19
474.625	74.19
474.844	88.19
475.063	78.19
475.282	78.19
475.501	90.19
475.72	96.19
475.939	76.19
476.158	78.19
476.377	85.19
476.596	80.19
476.814	96.19
477.033	77.19
477.252	89.19
477.471	85.19
477.69	87.19
477.908	92.19
478.127	85.19
478.346	88.19
478.564	84.19
478.783	102.19
479.002	104.19
479.22	86.19
479.439	109.19
479.658	106.19
479.876	90.19
480.095	77.19
480.313	91.19
480.532	103.19
480.751	117.19
480.969	164.19
481.188	464.19
481.406	319.19
481.624	104.19
481.843	91.19
482.061	89.19
482.28	71.19
482.498	89.19
482.717	84.19
482.935	85.19
483.153	77.19
483.372	82.19
483.59	92.19
483.808	90.19
484.027	85.19
484.245	82.19
484.463	93.19
484.681	105.19
484.9	83.19
485.118	93.19
485.336	85.19
485.554	90.19
485.772	93.19
485.99	100.19
486.209	100.19
486.427	92.19
486.645	104.19
486.863	111.19
487.081	103.19
487.299	102.19
487.517	92.19
487.735	87.19
487.953	89.19
488.171	98.19
488.389	81.19
488.607	87.19
488.825	94.19
489.043	83.19
489.261	89.19
489.479	92.19
489.696	74.19
489.914	89.19
490.132	85.19
490.35	99.19
490.568	86.19
490.786	82.19
491.003	91.19
491.221	93.19
491.439	88.19
491.657	81.19
491.874	89.19
492.092	92.19
492.31	83.19
492.527	89.19
492.745	90.19
492.963	93.19
493.18	76.19
493.398	101.19
493.615	92.19
493.833	89.19
494.05	82.19
494.268	91.19
494.485	85.19
494.703	90.19
494.92	86.19
495.138	99.19
495.355	108.19
495.573	92.19
495.79	94.19
496.008	81.19
496.225	87.19
496.442	82.19
496.66	93.19
496.877	79.19
497.094	84.19
497.312	78.19
497.529	88.19
497.746	90.19
497.963	86.19
498.181	90.19
498.398	89.19
498.615	104.19
498.832	110.19
499.049	85.19
499.267	101.19
499.484	83.19
499.701	85.19
499.918	102.19
500.135	88.19
500.352	84.19
500.569	86.19
500.786	100.19
501.003	98.19
501.22	86.19
501.437	80.19
501.654	90.19
501.871	108.19
502.088	103.19
502.305	90.19
502.522	77.19
502.739	86.19
502.956	78.19
503.172	74.19
503.389	83.19
503.606	108.19
503.823	99.19
504.04	94.19
504.256	99.19
504.473	80.19
504.69	83.19
504.907	96.19
505.123	91.19
505.34	102.19
505.557	85.19
505.773	91.19
505.99	84.19
506.207	91.19
506.423	97.19
506.64	83.19
506.856	88.19
507.073	98.19
507.289	101.19
507.506	89.19
507.722	119.19
507.939	108.19
508.155	77.19
508.372	98.19
508.588	96.19
508.805	93.19
509.021	101.19
509.238	94.19
509.454	98.19
509.67	94.19
509.887	105.19
510.103	146.19
510.319	224.19
510.536	841.19
510.752	3047.19
510.968	840.19
511.184	174.19
511.401	131.19
511.617	110.19
511.833	94.19
512.049	94.19
512.265	86.19
512.481	91.19
512.698	97.19
512.914	80.19
513.13	109.19
513.346	97.19
513.562	82.19
513.778	104.19
513.994	92.19
514.21	111.19
514.426	136.19
514.642	148.19
514.858	137.19
515.074	182.19
515.29	583.19
515.506	2055.19
515.721	782.19
515.937	180.19
