Data from Circ_2014_H10_HRD10591_00060.txt Node
Date: Wed Jan 03 10:02:21 EST 2024
User: Yrep
Spectrometer: HR+D1059
Trigger mode: 1
Integration Time (sec): 1.000000E-1
Scans to average: 1
Electric dark correction enabled: true
Nonlinearity correction enabled: false
Boxcar width: 0
XAxis mode: Wavelengths
Number of Pixels in Spectrum: 2048
>>>>>Begin Spectral Data<<<<<
223.165	-16.56
223.4	-16.56
223.635	-16.56
223.869	-7.56
224.104	-24.56
224.338	-17.56
224.573	-25.56
224.808	3.44
225.042	-2.56
225.277	-11.56
225.511	-4.56
225.746	13.44
225.98	9.44
226.215	-8.56
226.449	-0.56
226.683	22.44
226.918	37.44
227.152	33.44
227.387	30.44
227.621	44.44
227.856	23.44
228.09	48.44
228.324	54.44
228.559	39.44
228.793	41.44
229.027	58.44
229.262	64.44
229.496	74.44
229.73	79.44
229.964	75.44
230.199	82.44
230.433	70.44
230.667	78.44
230.901	68.44
231.136	71.44
231.37	69.44
231.604	80.44
231.838	80.44
232.072	78.44
232.306	67.44
232.541	68.44
232.775	80.44
233.009	83.44
233.243	83.44
233.477	74.44
233.711	72.44
233.945	73.44
234.179	74.44
234.413	71.44
234.647	79.44
234.881	67.44
235.115	76.44
235.349	77.44
235.583	78.44
235.817	73.44
236.051	68.44
236.285	78.44
236.519	62.44
236.753	87.44
236.987	71.44
237.221	75.44
237.455	76.44
237.689	77.44
237.922	60.44
238.156	61.44
238.39	77.44
238.624	79.44
238.858	69.44
239.091	74.44
239.325	73.44
239.559	66.44
239.793	80.44
240.027	71.44
240.26	79.44
240.494	75.44
240.728	75.44
240.961	73.44
241.195	65.44
241.429	65.44
241.662	49.44
241.896	77.44
242.13	66.44
242.363	68.44
242.597	62.44
242.83	66.44
243.064	66.44
243.298	84.44
243.531	79.44
243.765	78.44
243.998	73.44
244.232	72.44
244.465	77.44
244.699	70.44
244.932	71.44
245.166	77.44
245.399	72.44
245.633	68.44
245.866	69.44
246.099	87.44
246.333	67.44
246.566	73.44
246.8	82.44
247.033	85.44
247.266	73.44
247.5	79.44
247.733	86.44
247.966	73.44
248.2	62.44
248.433	83.44
248.666	70.44
248.899	64.44
249.133	82.44
249.366	70.44
249.599	73.44
249.832	83.44
250.066	83.44
250.299	87.44
250.532	81.44
250.765	72.44
250.998	81.44
251.231	71.44
251.465	61.44
251.698	68.44
251.931	68.44
252.164	69.44
252.397	77.44
252.63	79.44
252.863	55.44
253.096	80.44
253.329	79.44
253.562	72.44
253.795	72.44
254.028	66.44
254.261	72.44
254.494	84.44
254.727	76.44
254.96	73.44
255.193	80.44
255.426	85.44
255.659	82.44
255.892	86.44
256.124	94.44
256.357	83.44
256.59	64.44
256.823	71.44
257.056	68.44
257.289	73.44
257.521	75.44
257.754	77.44
257.987	76.44
258.22	81.44
258.452	88.44
258.685	82.44
258.918	68.44
259.151	75.44
259.383	81.44
259.616	67.44
259.849	87.44
260.081	80.44
260.314	83.44
260.547	79.44
260.779	79.44
261.012	71.44
261.244	81.44
261.477	85.44
261.71	98.44
261.942	100.44
262.175	118.44
262.407	91.44
262.64	66.44
262.872	77.44
263.105	85.44
263.337	77.44
263.57	87.44
263.802	84.44
264.035	77.44
264.267	64.44
264.499	65.44
264.732	65.44
264.964	68.44
265.197	79.44
265.429	83.44
265.661	74.44
265.894	79.44
266.126	84.44
266.358	81.44
266.591	72.44
266.823	76.44
267.055	80.44
267.287	82.44
267.52	82.44
267.752	86.44
267.984	65.44
268.216	73.44
268.448	69.44
268.681	84.44
268.913	83.44
269.145	75.44
269.377	74.44
269.609	67.44
269.841	76.44
270.073	70.44
270.306	79.44
270.538	92.44
270.77	79.44
271.002	75.44
271.234	78.44
271.466	92.44
271.698	66.44
271.93	73.44
272.162	68.44
272.394	81.44
272.626	91.44
272.858	79.44
273.09	81.44
273.322	82.44
273.553	84.44
273.785	80.44
274.017	84.44
274.249	78.44
274.481	80.44
274.713	73.44
274.945	87.44
275.176	83.44
275.408	88.44
275.64	85.44
275.872	70.44
276.104	75.44
276.335	75.44
276.567	78.44
276.799	97.44
277.031	96.44
277.262	96.44
277.494	93.44
277.726	78.44
277.957	85.44
278.189	87.44
278.421	78.44
278.652	79.44
278.884	77.44
279.115	86.44
279.347	70.44
279.579	80.44
279.81	84.44
280.042	85.44
280.273	92.44
280.505	73.44
280.736	70.44
280.968	94.44
281.199	86.44
281.431	87.44
281.662	73.44
281.894	84.44
282.125	108.44
282.356	106.44
282.588	122.44
282.819	123.44
283.051	93.44
283.282	78.44
283.513	78.44
283.745	63.44
283.976	77.44
284.207	86.44
284.439	99.44
284.67	87.44
284.901	96.44
285.132	73.44
285.364	71.44
285.595	87.44
285.826	85.44
286.057	86.44
286.288	78.44
286.52	81.44
286.751	72.44
286.982	72.44
287.213	77.44
287.444	81.44
287.675	73.44
287.906	74.44
288.138	82.44
288.369	72.44
288.6	90.44
288.831	94.44
289.062	80.44
289.293	71.44
289.524	72.44
289.755	96.44
289.986	97.44
290.217	95.44
290.448	83.44
290.679	77.44
290.91	71.44
291.141	70.44
291.371	97.44
291.602	77.44
291.833	84.44
292.064	70.44
292.295	78.44
292.526	92.44
292.757	81.44
292.987	75.44
293.218	79.44
293.449	84.44
293.68	76.44
293.91	99.44
294.141	89.44
294.372	70.44
294.603	91.44
294.833	71.44
295.064	81.44
295.295	73.44
295.525	84.44
295.756	94.44
295.987	112.44
296.217	127.44
296.448	115.44
296.679	78.44
296.909	95.44
297.14	84.44
297.37	70.44
297.601	85.44
297.831	85.44
298.062	77.44
298.292	90.44
298.523	83.44
298.753	82.44
298.984	88.44
299.214	93.44
299.445	91.44
299.675	96.44
299.905	95.44
300.136	82.44
300.366	83.44
300.597	89.44
300.827	82.44
301.057	86.44
301.288	107.44
301.518	92.44
301.748	88.44
301.979	92.44
302.209	93.44
302.439	81.44
302.669	79.44
302.9	81.44
303.13	79.44
303.36	94.44
303.59	88.44
303.82	91.44
304.051	87.44
304.281	91.44
304.511	91.44
304.741	71.44
304.971	97.44
305.201	70.44
305.431	99.44
305.661	79.44
305.891	90.44
306.121	94.44
306.352	92.44
306.582	89.44
306.812	84.44
307.042	87.44
307.272	92.44
307.502	86.44
307.731	86.44
307.961	87.44
308.191	79.44
308.421	79.44
308.651	93.44
308.881	90.44
309.111	86.44
309.341	87.44
309.571	98.44
309.8	88.44
310.03	95.44
310.26	92.44
310.49	74.44
310.72	70.44
310.949	97.44
311.179	88.44
311.409	99.44
311.639	79.44
311.868	95.44
312.098	76.44
312.328	86.44
312.557	84.44
312.787	96.44
313.017	100.44
313.246	92.44
313.476	81.44
313.706	87.44
313.935	103.44
314.165	102.44
314.394	112.44
314.624	75.44
314.853	92.44
315.083	81.44
315.312	95.44
315.542	94.44
315.771	86.44
316.001	86.44
316.23	83.44
316.46	82.44
316.689	82.44
316.919	96.44
317.148	83.44
317.377	93.44
317.607	89.44
317.836	83.44
318.065	85.44
318.295	84.44
318.524	76.44
318.753	97.44
318.983	87.44
319.212	90.44
319.441	97.44
319.67	114.44
319.9	85.44
320.129	92.44
320.358	86.44
320.587	95.44
320.816	82.44
321.046	94.44
321.275	91.44
321.504	77.44
321.733	87.44
321.962	73.44
322.191	84.44
322.42	99.44
322.649	113.44
322.878	100.44
323.108	117.44
323.337	115.44
323.566	126.44
323.795	142.44
324.024	198.44
324.253	344.44
324.482	703.44
324.71	1471.44
324.939	1890.44
325.168	758.44
325.397	220.44
325.626	135.44
325.855	117.44
326.084	108.44
326.313	126.44
326.542	136.44
326.77	223.44
326.999	403.44
327.228	790.44
327.457	1457.44
327.686	1143.44
327.914	315.44
328.143	185.44
328.372	137.44
328.6	120.44
328.829	113.44
329.058	106.44
329.287	127.44
329.515	104.44
329.744	107.44
329.972	93.44
330.201	131.44
330.43	145.44
330.658	120.44
330.887	127.44
331.115	137.44
331.344	107.44
331.572	95.44
331.801	85.44
332.03	92.44
332.258	82.44
332.486	81.44
332.715	91.44
332.943	100.44
333.172	98.44
333.4	87.44
333.629	107.44
333.857	103.44
334.085	102.44
334.314	128.44
334.542	159.44
334.771	150.44
334.999	105.44
335.227	101.44
335.455	81.44
335.684	85.44
335.912	85.44
336.14	92.44
336.369	85.44
336.597	75.44
336.825	88.44
337.053	105.44
337.281	72.44
337.51	71.44
337.738	91.44
337.966	82.44
338.194	97.44
338.422	70.44
338.65	90.44
338.878	90.44
339.106	89.44
339.334	82.44
339.562	86.44
339.79	76.44
340.018	77.44
340.246	78.44
340.474	98.44
340.702	83.44
340.93	88.44
341.158	96.44
341.386	85.44
341.614	82.44
341.842	72.44
342.07	86.44
342.298	85.44
342.526	76.44
342.754	88.44
342.981	97.44
343.209	79.44
343.437	96.44
343.665	77.44
343.893	88.44
344.12	90.44
344.348	72.44
344.576	88.44
344.804	90.44
345.031	79.44
345.259	89.44
345.487	85.44
345.714	71.44
345.942	81.44
346.17	83.44
346.397	79.44
346.625	86.44
346.853	84.44
347.08	70.44
347.308	77.44
347.535	85.44
347.763	103.44
347.99	85.44
348.218	103.44
348.445	89.44
348.673	85.44
348.9	92.44
349.128	78.44
349.355	85.44
349.583	79.44
349.81	77.44
350.037	88.44
350.265	94.44
350.492	95.44
350.72	88.44
350.947	90.44
351.174	99.44
351.402	104.44
351.629	88.44
351.856	87.44
352.083	93.44
352.311	88.44
352.538	102.44
352.765	109.44
352.992	110.44
353.22	96.44
353.447	92.44
353.674	100.44
353.901	108.44
354.128	78.44
354.355	96.44
354.583	100.44
354.81	86.44
355.037	87.44
355.264	93.44
355.491	84.44
355.718	97.44
355.945	100.44
356.172	96.44
356.399	88.44
356.626	94.44
356.853	77.44
357.08	85.44
357.307	89.44
357.534	82.44
357.761	79.44
357.988	80.44
358.215	98.44
358.441	76.44
358.668	95.44
358.895	99.44
359.122	81.44
359.349	81.44
359.576	80.44
359.802	96.44
360.029	105.44
360.256	111.44
360.483	108.44
360.709	73.44
360.936	76.44
361.163	60.44
361.39	99.44
361.616	92.44
361.843	77.44
362.07	83.44
362.296	101.44
362.523	82.44
362.749	84.44
362.976	76.44
363.203	82.44
363.429	79.44
363.656	71.44
363.882	69.44
364.109	96.44
364.335	91.44
364.562	84.44
364.788	81.44
365.015	94.44
365.241	82.44
365.468	98.44
365.694	83.44
365.92	98.44
366.147	83.44
366.373	67.44
366.599	75.44
366.826	84.44
367.052	76.44
367.278	88.44
367.505	85.44
367.731	88.44
367.957	83.44
368.184	83.44
368.41	91.44
368.636	109.44
368.862	102.44
369.089	103.44
369.315	84.44
369.541	88.44
369.767	77.44
369.993	90.44
370.219	87.44
370.445	79.44
370.672	92.44
370.898	76.44
371.124	97.44
371.35	75.44
371.576	82.44
371.802	97.44
372.028	79.44
372.254	75.44
372.48	77.44
372.706	73.44
372.932	89.44
373.158	76.44
373.384	83.44
373.61	87.44
373.835	92.44
374.061	77.44
374.287	86.44
374.513	100.44
374.739	87.44
374.965	76.44
375.191	73.44
375.416	80.44
375.642	81.44
375.868	91.44
376.094	80.44
376.319	76.44
376.545	84.44
376.771	94.44
376.997	76.44
377.222	87.44
377.448	78.44
377.674	70.44
377.899	72.44
378.125	67.44
378.35	88.44
378.576	82.44
378.802	85.44
379.027	77.44
379.253	88.44
379.478	89.44
379.704	82.44
379.929	91.44
380.155	89.44
380.38	96.44
380.606	88.44
380.831	92.44
381.057	92.44
381.282	83.44
381.507	91.44
381.733	93.44
381.958	83.44
382.184	88.44
382.409	91.44
382.634	88.44
382.86	105.44
383.085	79.44
383.31	104.44
383.535	102.44
383.761	84.44
383.986	103.44
384.211	67.44
384.436	88.44
384.662	88.44
384.887	87.44
385.112	99.44
385.337	92.44
385.562	80.44
385.787	91.44
386.013	105.44
386.238	99.44
386.463	101.44
386.688	98.44
386.913	91.44
387.138	101.44
387.363	85.44
387.588	87.44
387.813	96.44
388.038	96.44
388.263	112.44
388.488	112.44
388.713	88.44
388.938	92.44
389.163	79.44
389.387	105.44
389.612	82.44
389.837	76.44
390.062	83.44
390.287	72.44
390.512	92.44
390.736	95.44
390.961	97.44
391.186	104.44
391.411	91.44
391.636	76.44
391.86	102.44
392.085	70.44
392.31	79.44
392.534	89.44
392.759	75.44
392.984	83.44
393.208	82.44
393.433	97.44
393.658	91.44
393.882	86.44
394.107	77.44
394.331	89.44
394.556	71.44
394.78	106.44
395.005	91.44
395.229	95.44
395.454	96.44
395.678	89.44
395.903	75.44
396.127	74.44
396.352	68.44
396.576	80.44
396.801	76.44
397.025	82.44
397.249	75.44
397.474	73.44
397.698	84.44
397.922	76.44
398.147	80.44
398.371	84.44
398.595	90.44
398.82	64.44
399.044	79.44
399.268	84.44
399.492	70.44
399.717	81.44
399.941	98.44
400.165	85.44
400.389	76.44
400.613	72.44
400.837	98.44
401.062	85.44
401.286	80.44
401.51	90.44
401.734	93.44
401.958	94.44
402.182	117.44
402.406	138.44
402.63	106.44
402.854	78.44
403.078	93.44
403.302	86.44
403.526	77.44
403.75	81.44
403.974	86.44
404.198	71.44
404.422	70.44
404.645	65.44
404.869	80.44
405.093	91.44
405.317	103.44
405.541	81.44
405.765	100.44
405.988	115.44
406.212	175.44
406.436	210.44
406.66	152.44
406.883	103.44
407.107	92.44
407.331	91.44
407.555	95.44
407.778	84.44
408.002	89.44
408.226	94.44
408.449	84.44
408.673	82.44
408.896	88.44
409.12	83.44
409.344	85.44
409.567	87.44
409.791	75.44
410.014	87.44
410.238	88.44
410.461	83.44
410.685	78.44
410.908	98.44
411.132	85.44
411.355	84.44
411.578	85.44
411.802	83.44
412.025	83.44
412.249	86.44
412.472	82.44
412.695	84.44
412.919	81.44
413.142	71.44
413.365	71.44
413.589	68.44
413.812	76.44
414.035	94.44
414.258	92.44
414.482	72.44
414.705	85.44
414.928	82.44
415.151	69.44
415.374	75.44
415.597	79.44
415.821	76.44
416.044	79.44
416.267	76.44
416.49	69.44
416.713	79.44
416.936	79.44
417.159	78.44
417.382	84.44
417.605	79.44
417.828	96.44
418.051	70.44
418.274	84.44
418.497	83.44
418.72	83.44
418.943	79.44
419.166	81.44
419.389	79.44
419.611	72.44
419.834	77.44
420.057	91.44
420.28	84.44
420.503	80.44
420.726	80.44
420.948	75.44
421.171	78.44
421.394	80.44
421.617	83.44
421.839	85.44
422.062	83.44
422.285	81.44
422.507	91.44
422.73	100.44
422.953	84.44
423.175	79.44
423.398	87.44
423.621	79.44
423.843	85.44
424.066	77.44
424.288	73.44
424.511	87.44
424.733	65.44
424.956	91.44
425.178	76.44
425.401	101.44
425.623	103.44
425.846	87.44
426.068	78.44
426.291	87.44
426.513	74.44
426.735	94.44
426.958	92.44
427.18	93.44
427.402	116.44
427.625	171.44
427.847	126.44
428.069	101.44
428.292	85.44
428.514	90.44
428.736	71.44
428.958	67.44
429.181	78.44
429.403	85.44
429.625	76.44
429.847	76.44
430.069	85.44
430.292	85.44
430.514	69.44
430.736	71.44
430.958	73.44
431.18	70.44
431.402	67.44
431.624	70.44
431.846	79.44
432.068	73.44
432.29	80.44
432.512	83.44
432.734	88.44
432.956	81.44
433.178	85.44
433.4	101.44
433.622	72.44
433.844	89.44
434.066	77.44
434.287	83.44
434.509	74.44
434.731	75.44
434.953	77.44
435.175	79.44
435.397	80.44
435.618	79.44
435.84	99.44
436.062	106.44
436.284	101.44
436.505	101.44
436.727	100.44
436.949	85.44
437.17	85.44
437.392	64.44
437.614	75.44
437.835	105.44
438.057	123.44
438.278	98.44
438.5	92.44
438.721	100.44
438.943	88.44
439.165	73.44
439.386	95.44
439.608	73.44
439.829	87.44
440.05	105.44
440.272	105.44
440.493	89.44
440.715	71.44
440.936	87.44
441.158	77.44
441.379	87.44
441.6	86.44
441.822	97.44
442.043	94.44
442.264	101.44
442.486	70.44
442.707	89.44
442.928	99.44
443.149	102.44
443.371	112.44
443.592	93.44
443.813	101.44
444.034	91.44
444.255	90.44
444.476	87.44
444.698	91.44
444.919	80.44
445.14	130.44
445.361	109.44
445.582	115.44
445.803	119.44
446.024	117.44
446.245	109.44
446.466	98.44
446.687	85.44
446.908	86.44
447.129	68.44
447.35	83.44
447.571	84.44
447.792	86.44
448.013	90.44
448.234	120.44
448.455	74.44
448.675	100.44
448.896	107.44
449.117	86.44
449.338	67.44
449.559	111.44
449.779	113.44
450	85.44
450.221	78.44
450.442	71.44
450.662	93.44
450.883	82.44
451.104	99.44
451.324	85.44
451.545	75.44
451.766	90.44
451.986	78.44
452.207	80.44
452.428	93.44
452.648	100.44
452.869	101.44
453.089	95.44
453.31	96.44
453.53	89.44
453.751	84.44
453.971	93.44
454.192	95.44
454.412	79.44
454.633	81.44
454.853	81.44
455.073	95.44
455.294	83.44
455.514	82.44
455.734	86.44
455.955	79.44
456.175	79.44
456.395	82.44
456.616	78.44
456.836	68.44
457.056	75.44
457.276	77.44
457.497	82.44
457.717	95.44
457.937	86.44
458.157	95.44
458.377	80.44
458.598	88.44
458.818	133.44
459.038	149.44
459.258	103.44
459.478	83.44
459.698	88.44
459.918	69.44
460.138	86.44
460.358	86.44
460.578	78.44
460.798	79.44
461.018	83.44
461.238	80.44
461.458	83.44
461.678	70.44
461.898	83.44
462.118	81.44
462.338	76.44
462.558	77.44
462.777	68.44
462.997	84.44
463.217	82.44
463.437	67.44
463.657	82.44
463.876	76.44
464.096	80.44
464.316	88.44
464.536	101.44
464.755	104.44
464.975	106.44
465.195	142.44
465.414	149.44
465.634	86.44
465.854	88.44
466.073	90.44
466.293	81.44
466.512	74.44
466.732	72.44
466.951	87.44
467.171	95.44
467.391	87.44
467.61	94.44
467.829	90.44
468.049	104.44
468.268	96.44
468.488	92.44
468.707	82.44
468.927	97.44
469.146	83.44
469.365	89.44
469.585	98.44
469.804	80.44
470.023	84.44
470.243	96.44
470.462	83.44
470.681	103.44
470.901	72.44
471.12	84.44
471.339	73.44
471.558	74.44
471.777	79.44
471.997	92.44
472.216	129.44
472.435	180.44
472.654	92.44
472.873	94.44
473.092	69.44
473.311	72.44
473.53	80.44
473.749	85.44
473.968	86.44
474.187	92.44
474.406	95.44
474.625	97.44
474.844	81.44
475.063	88.44
475.282	94.44
475.501	76.44
475.72	81.44
475.939	74.44
476.158	84.44
476.377	82.44
476.596	85.44
476.814	88.44
477.033	93.44
477.252	85.44
477.471	75.44
477.69	77.44
477.908	82.44
478.127	80.44
478.346	84.44
478.564	83.44
478.783	84.44
479.002	102.44
479.22	102.44
479.439	96.44
479.658	92.44
479.876	95.44
480.095	88.44
480.313	91.44
480.532	83.44
480.751	79.44
480.969	136.44
481.188	283.44
481.406	192.44
481.624	92.44
481.843	72.44
482.061	83.44
482.28	90.44
482.498	90.44
482.717	93.44
482.935	85.44
483.153	77.44
483.372	91.44
483.59	86.44
483.808	81.44
484.027	89.44
484.245	83.44
484.463	81.44
484.681	85.44
484.9	93.44
485.118	94.44
485.336	80.44
485.554	100.44
485.772	88.44
485.99	104.44
486.209	106.44
486.427	89.44
486.645	96.44
486.863	109.44
487.081	98.44
487.299	91.44
487.517	96.44
487.735	98.44
487.953	84.44
488.171	93.44
488.389	94.44
488.607	101.44
488.825	79.44
489.043	85.44
489.261	85.44
489.479	71.44
489.696	92.44
489.914	74.44
490.132	103.44
490.35	80.44
490.568	75.44
490.786	76.44
491.003	64.44
491.221	89.44
491.439	95.44
491.657	78.44
491.874	87.44
492.092	84.44
492.31	81.44
492.527	80.44
492.745	79.44
492.963	80.44
493.18	79.44
493.398	85.44
493.615	83.44
493.833	94.44
494.05	87.44
494.268	74.44
494.485	76.44
494.703	79.44
494.92	92.44
495.138	82.44
495.355	86.44
495.573	86.44
495.79	93.44
496.008	93.44
496.225	92.44
496.442	79.44
496.66	92.44
496.877	85.44
497.094	90.44
497.312	91.44
497.529	95.44
497.746	87.44
497.963	79.44
498.181	85.44
498.398	81.44
498.615	97.44
498.832	110.44
499.049	87.44
499.267	83.44
499.484	84.44
499.701	91.44
499.918	93.44
500.135	87.44
500.352	84.44
500.569	89.44
500.786	96.44
501.003	77.44
501.22	91.44
501.437	92.44
501.654	97.44
501.871	92.44
502.088	86.44
502.305	82.44
502.522	83.44
502.739	65.44
502.956	87.44
503.172	77.44
503.389	92.44
503.606	106.44
503.823	89.44
504.04	105.44
504.256	87.44
504.473	84.44
504.69	70.44
504.907	80.44
505.123	92.44
505.34	85.44
505.557	90.44
505.773	80.44
505.99	77.44
506.207	83.44
506.423	94.44
506.64	87.44
506.856	93.44
507.073	93.44
507.289	102.44
507.506	100.44
507.722	109.44
507.939	109.44
508.155	99.44
508.372	77.44
508.588	77.44
508.805	97.44
509.021	93.44
509.238	87.44
509.454	90.44
509.67	92.44
509.887	99.44
510.103	132.44
510.319	205.44
510.536	719.44
510.752	2437.44
510.968	723.44
511.184	143.44
511.401	115.44
511.617	96.44
511.833	83.44
512.049	73.44
512.265	84.44
512.481	71.44
512.698	87.44
512.914	84.44
513.13	90.44
513.346	100.44
513.562	86.44
513.778	80.44
513.994	88.44
514.21	103.44
514.426	115.44
514.642	110.44
514.858	117.44
515.074	146.44
515.29	435.44
515.506	1465.44
515.721	573.44
515.937	162.44
516.153	101.44
516.369	105.44
516.585	93.44
516.801	106.44
517.016	80.44
517.232	88.44
517.448	83.44
