Data from Circ_2014_H10_HRD10591_00097.txt Node
Date: Wed Jan 03 10:02:28 EST 2024
User: Yrep
Spectrometer: HR+D1059
Trigger mode: 1
Integration Time (sec): 1.000000E-1
Scans to average: 1
Electric dark correction enabled: true
Nonlinearity correction enabled: false
Boxcar width: 0
XAxis mode: Wavelengths
Number of Pixels in Spectrum: 2048
>>>>>Begin Spectral Data<<<<<
223.165	-21.12
223.4	-21.12
223.635	-21.12
223.869	-30.12
224.104	-27.12
224.338	-1.12
224.573	-11.12
224.808	-5.12
225.042	-16.12
225.277	-1.12
225.511	-2.12
225.746	8.88
225.98	13.88
226.215	18.88
226.449	13.88
226.683	25.88
226.918	12.88
227.152	20.88
227.387	31.88
227.621	50.88
227.856	45.88
228.09	55.88
228.324	50.88
228.559	52.88
228.793	60.88
229.027	62.88
229.262	72.88
229.496	78.88
229.73	85.88
229.964	87.88
230.199	75.88
230.433	83.88
230.667	92.88
230.901	75.88
231.136	99.88
231.37	78.88
231.604	97.88
231.838	92.88
232.072	88.88
232.306	75.88
232.541	79.88
232.775	81.88
233.009	72.88
233.243	83.88
233.477	89.88
233.711	98.88
233.945	82.88
234.179	74.88
234.413	86.88
234.647	88.88
234.881	73.88
235.115	67.88
235.349	66.88
235.583	92.88
235.817	65.88
236.051	66.88
236.285	77.88
236.519	72.88
236.753	79.88
236.987	63.88
237.221	91.88
237.455	90.88
237.689	89.88
237.922	76.88
238.156	78.88
238.39	67.88
238.624	60.88
238.858	78.88
239.091	72.88
239.325	86.88
239.559	94.88
239.793	76.88
240.027	87.88
240.26	65.88
240.494	77.88
240.728	71.88
240.961	78.88
241.195	86.88
241.429	91.88
241.662	72.88
241.896	78.88
242.13	70.88
242.363	74.88
242.597	86.88
242.83	83.88
243.064	69.88
243.298	92.88
243.531	74.88
243.765	80.88
243.998	79.88
244.232	85.88
244.465	76.88
244.699	78.88
244.932	84.88
245.166	82.88
245.399	83.88
245.633	75.88
245.866	66.88
246.099	64.88
246.333	106.88
246.566	92.88
246.8	73.88
247.033	75.88
247.266	91.88
247.5	82.88
247.733	82.88
247.966	79.88
248.2	85.88
248.433	94.88
248.666	79.88
248.899	94.88
249.133	94.88
249.366	110.88
249.599	106.88
249.832	77.88
250.066	85.88
250.299	72.88
250.532	80.88
250.765	81.88
250.998	81.88
251.231	80.88
251.465	84.88
251.698	85.88
251.931	76.88
252.164	79.88
252.397	95.88
252.63	86.88
252.863	86.88
253.096	90.88
253.329	101.88
253.562	82.88
253.795	75.88
254.028	79.88
254.261	89.88
254.494	80.88
254.727	88.88
254.96	90.88
255.193	90.88
255.426	93.88
255.659	73.88
255.892	88.88
256.124	93.88
256.357	96.88
256.59	80.88
256.823	87.88
257.056	94.88
257.289	83.88
257.521	86.88
257.754	82.88
257.987	79.88
258.22	88.88
258.452	73.88
258.685	76.88
258.918	78.88
259.151	80.88
259.383	75.88
259.616	69.88
259.849	77.88
260.081	77.88
260.314	73.88
260.547	87.88
260.779	86.88
261.012	84.88
261.244	84.88
261.477	96.88
261.71	94.88
261.942	118.88
262.175	131.88
262.407	82.88
262.64	84.88
262.872	89.88
263.105	78.88
263.337	83.88
263.57	94.88
263.802	80.88
264.035	81.88
264.267	84.88
264.499	74.88
264.732	92.88
264.964	86.88
265.197	72.88
265.429	83.88
265.661	79.88
265.894	87.88
266.126	97.88
266.358	76.88
266.591	81.88
266.823	84.88
267.055	87.88
267.287	76.88
267.52	87.88
267.752	88.88
267.984	78.88
268.216	77.88
268.448	93.88
268.681	98.88
268.913	94.88
269.145	84.88
269.377	84.88
269.609	91.88
269.841	82.88
270.073	78.88
270.306	86.88
270.538	74.88
270.77	92.88
271.002	107.88
271.234	96.88
271.466	91.88
271.698	71.88
271.93	81.88
272.162	79.88
272.394	91.88
272.626	86.88
272.858	103.88
273.09	82.88
273.322	75.88
273.553	92.88
273.785	90.88
274.017	84.88
274.249	85.88
274.481	86.88
274.713	85.88
274.945	85.88
275.176	88.88
275.408	97.88
275.64	85.88
275.872	93.88
276.104	100.88
276.335	92.88
276.567	117.88
276.799	122.88
277.031	110.88
277.262	110.88
277.494	107.88
277.726	81.88
277.957	84.88
278.189	84.88
278.421	80.88
278.652	90.88
278.884	96.88
279.115	95.88
279.347	89.88
279.579	93.88
279.81	96.88
280.042	122.88
280.273	120.88
280.505	99.88
280.736	77.88
280.968	70.88
281.199	76.88
281.431	100.88
281.662	98.88
281.894	95.88
282.125	95.88
282.356	110.88
282.588	154.88
282.819	120.88
283.051	95.88
283.282	94.88
283.513	96.88
283.745	92.88
283.976	85.88
284.207	83.88
284.439	62.88
284.67	78.88
284.901	92.88
285.132	91.88
285.364	88.88
285.595	92.88
285.826	83.88
286.057	93.88
286.288	80.88
286.52	84.88
286.751	77.88
286.982	90.88
287.213	90.88
287.444	98.88
287.675	89.88
287.906	111.88
288.138	94.88
288.369	93.88
288.6	99.88
288.831	85.88
289.062	80.88
289.293	94.88
289.524	87.88
289.755	87.88
289.986	77.88
290.217	97.88
290.448	95.88
290.679	86.88
290.91	84.88
291.141	93.88
291.371	98.88
291.602	74.88
291.833	106.88
292.064	79.88
292.295	84.88
292.526	99.88
292.757	105.88
292.987	88.88
293.218	95.88
293.449	91.88
293.68	91.88
293.91	83.88
294.141	80.88
294.372	83.88
294.603	84.88
294.833	98.88
295.064	87.88
295.295	92.88
295.525	98.88
295.756	95.88
295.987	110.88
296.217	142.88
296.448	138.88
296.679	106.88
296.909	85.88
297.14	85.88
297.37	83.88
297.601	100.88
297.831	96.88
298.062	106.88
298.292	102.88
298.523	91.88
298.753	73.88
298.984	93.88
299.214	82.88
299.445	91.88
299.675	104.88
299.905	109.88
300.136	89.88
300.366	91.88
300.597	84.88
300.827	84.88
301.057	113.88
301.288	109.88
301.518	98.88
301.748	97.88
301.979	99.88
302.209	91.88
302.439	77.88
302.669	89.88
302.9	105.88
303.13	91.88
303.36	99.88
303.59	105.88
303.82	122.88
304.051	97.88
304.281	92.88
304.511	90.88
304.741	87.88
304.971	84.88
305.201	89.88
305.431	94.88
305.661	93.88
305.891	93.88
306.121	105.88
306.352	97.88
306.582	101.88
306.812	107.88
307.042	106.88
307.272	105.88
307.502	106.88
307.731	98.88
307.961	100.88
308.191	87.88
308.421	89.88
308.651	92.88
308.881	96.88
309.111	91.88
309.341	116.88
309.571	106.88
309.8	97.88
310.03	104.88
310.26	107.88
310.49	89.88
310.72	103.88
310.949	116.88
311.179	96.88
311.409	91.88
311.639	90.88
311.868	111.88
312.098	105.88
312.328	93.88
312.557	97.88
312.787	106.88
313.017	100.88
313.246	105.88
313.476	90.88
313.706	95.88
313.935	88.88
314.165	91.88
314.394	115.88
314.624	91.88
314.853	100.88
315.083	94.88
315.312	96.88
315.542	111.88
315.771	92.88
316.001	88.88
316.23	90.88
316.46	97.88
316.689	100.88
316.919	95.88
317.148	93.88
317.377	92.88
317.607	99.88
317.836	99.88
318.065	83.88
318.295	97.88
318.524	93.88
318.753	102.88
318.983	99.88
319.212	109.88
319.441	96.88
319.67	116.88
319.9	86.88
320.129	90.88
320.358	93.88
320.587	94.88
320.816	108.88
321.046	99.88
321.275	98.88
321.504	96.88
321.733	116.88
321.962	101.88
322.191	107.88
322.42	104.88
322.649	102.88
322.878	110.88
323.108	131.88
323.337	124.88
323.566	144.88
323.795	175.88
324.024	221.88
324.253	423.88
324.482	862.88
324.71	1810.88
324.939	2370.88
325.168	917.88
325.397	264.88
325.626	158.88
325.855	122.88
326.084	122.88
326.313	136.88
326.542	154.88
326.77	250.88
326.999	469.88
327.228	1013.88
327.457	1792.88
327.686	1462.88
327.914	403.88
328.143	260.88
328.372	228.88
328.6	178.88
328.829	136.88
329.058	151.88
329.287	163.88
329.515	124.88
329.744	117.88
329.972	158.88
330.201	260.88
330.43	348.88
330.658	221.88
330.887	195.88
331.115	138.88
331.344	95.88
331.572	122.88
331.801	108.88
332.03	109.88
332.258	108.88
332.486	100.88
332.715	98.88
332.943	111.88
333.172	98.88
333.4	113.88
333.629	112.88
333.857	134.88
334.085	182.88
334.314	252.88
334.542	404.88
334.771	401.88
334.999	158.88
335.227	108.88
335.455	107.88
335.684	97.88
335.912	92.88
336.14	106.88
336.369	99.88
336.597	104.88
336.825	76.88
337.053	98.88
337.281	92.88
337.51	99.88
337.738	91.88
337.966	99.88
338.194	99.88
338.422	108.88
338.65	92.88
338.878	104.88
339.106	99.88
339.334	96.88
339.562	61.88
339.79	90.88
340.018	91.88
340.246	97.88
340.474	109.88
340.702	102.88
340.93	100.88
341.158	98.88
341.386	106.88
341.614	106.88
341.842	105.88
342.07	103.88
342.298	112.88
342.526	85.88
342.754	105.88
342.981	103.88
343.209	108.88
343.437	108.88
343.665	76.88
343.893	88.88
344.12	99.88
344.348	108.88
344.576	92.88
344.804	93.88
345.031	80.88
345.259	107.88
345.487	84.88
345.714	95.88
345.942	104.88
346.17	101.88
346.397	96.88
346.625	90.88
346.853	89.88
347.08	88.88
347.308	81.88
347.535	99.88
347.763	108.88
347.99	109.88
348.218	85.88
348.445	118.88
348.673	109.88
348.9	95.88
349.128	88.88
349.355	75.88
349.583	86.88
349.81	91.88
350.037	94.88
350.265	93.88
350.492	94.88
350.72	94.88
350.947	106.88
351.174	110.88
351.402	123.88
351.629	123.88
351.856	104.88
352.083	120.88
352.311	118.88
352.538	114.88
352.765	119.88
352.992	117.88
353.22	125.88
353.447	106.88
353.674	104.88
353.901	91.88
354.128	85.88
354.355	105.88
354.583	111.88
354.81	92.88
355.037	99.88
355.264	88.88
355.491	98.88
355.718	92.88
355.945	101.88
356.172	98.88
356.399	85.88
356.626	102.88
356.853	94.88
357.08	93.88
357.307	96.88
357.534	98.88
357.761	98.88
357.988	98.88
358.215	85.88
358.441	89.88
358.668	86.88
358.895	85.88
359.122	78.88
359.349	84.88
359.576	100.88
359.802	104.88
360.029	142.88
360.256	109.88
360.483	103.88
360.709	78.88
360.936	91.88
361.163	84.88
361.39	99.88
361.616	101.88
361.843	85.88
362.07	86.88
362.296	118.88
362.523	96.88
362.749	87.88
362.976	84.88
363.203	93.88
363.429	85.88
363.656	93.88
363.882	90.88
364.109	90.88
364.335	92.88
364.562	91.88
364.788	88.88
365.015	92.88
365.241	100.88
365.468	104.88
365.694	101.88
365.92	108.88
366.147	77.88
366.373	101.88
366.599	92.88
366.826	80.88
367.052	105.88
367.278	79.88
367.505	111.88
367.731	92.88
367.957	91.88
368.184	84.88
368.41	118.88
368.636	109.88
368.862	117.88
369.089	117.88
369.315	99.88
369.541	114.88
369.767	97.88
369.993	98.88
370.219	88.88
370.445	103.88
370.672	89.88
370.898	84.88
371.124	108.88
371.35	89.88
371.576	100.88
371.802	90.88
372.028	94.88
372.254	87.88
372.48	98.88
372.706	78.88
372.932	79.88
373.158	108.88
373.384	85.88
373.61	90.88
373.835	93.88
374.061	98.88
374.287	94.88
374.513	86.88
374.739	91.88
374.965	91.88
375.191	84.88
375.416	103.88
375.642	102.88
375.868	92.88
376.094	99.88
376.319	98.88
376.545	83.88
376.771	95.88
376.997	83.88
377.222	89.88
377.448	102.88
377.674	74.88
377.899	88.88
378.125	74.88
378.35	80.88
378.576	91.88
378.802	84.88
379.027	85.88
379.253	85.88
379.478	95.88
379.704	106.88
379.929	96.88
380.155	87.88
380.38	92.88
380.606	91.88
380.831	98.88
381.057	90.88
381.282	93.88
381.507	96.88
381.733	96.88
381.958	94.88
382.184	95.88
382.409	98.88
382.634	93.88
382.86	97.88
383.085	101.88
383.31	87.88
383.535	95.88
383.761	102.88
383.986	89.88
384.211	81.88
384.436	91.88
384.662	108.88
384.887	86.88
385.112	89.88
385.337	86.88
385.562	97.88
385.787	102.88
386.013	104.88
386.238	124.88
386.463	98.88
386.688	104.88
386.913	102.88
387.138	101.88
387.363	105.88
387.588	108.88
387.813	107.88
388.038	115.88
388.263	102.88
388.488	96.88
388.713	87.88
388.938	94.88
389.163	92.88
389.387	93.88
389.612	78.88
389.837	88.88
390.062	89.88
390.287	99.88
390.512	92.88
390.736	86.88
390.961	82.88
391.186	79.88
391.411	101.88
391.636	83.88
391.86	83.88
392.085	94.88
392.31	81.88
392.534	78.88
392.759	89.88
392.984	87.88
393.208	80.88
393.433	98.88
393.658	99.88
393.882	76.88
394.107	88.88
394.331	91.88
394.556	76.88
394.78	97.88
395.005	79.88
395.229	91.88
395.454	91.88
395.678	93.88
395.903	75.88
396.127	88.88
396.352	87.88
396.576	86.88
396.801	87.88
397.025	84.88
397.249	85.88
397.474	94.88
397.698	96.88
397.922	108.88
398.147	94.88
398.371	95.88
398.595	89.88
398.82	98.88
399.044	84.88
399.268	84.88
399.492	90.88
399.717	83.88
399.941	90.88
400.165	110.88
400.389	85.88
400.613	85.88
400.837	73.88
401.062	90.88
401.286	86.88
401.51	94.88
401.734	95.88
401.958	106.88
402.182	140.88
402.406	173.88
402.63	126.88
402.854	102.88
403.078	88.88
403.302	93.88
403.526	74.88
403.75	96.88
403.974	84.88
404.198	87.88
404.422	97.88
404.645	88.88
404.869	89.88
405.093	100.88
405.317	104.88
405.541	116.88
405.765	112.88
405.988	126.88
406.212	194.88
406.436	264.88
406.66	176.88
406.883	113.88
407.107	84.88
407.331	95.88
407.555	91.88
407.778	95.88
408.002	104.88
408.226	99.88
408.449	106.88
408.673	101.88
408.896	92.88
409.12	93.88
409.344	103.88
409.567	91.88
409.791	81.88
410.014	86.88
410.238	106.88
410.461	92.88
410.685	78.88
410.908	94.88
411.132	116.88
411.355	100.88
411.578	96.88
411.802	94.88
412.025	98.88
412.249	97.88
412.472	99.88
412.695	112.88
412.919	104.88
413.142	80.88
413.365	97.88
413.589	83.88
413.812	89.88
414.035	104.88
414.258	82.88
414.482	97.88
414.705	96.88
414.928	91.88
415.151	82.88
415.374	86.88
415.597	87.88
415.821	88.88
416.044	96.88
416.267	78.88
416.49	93.88
416.713	77.88
416.936	90.88
417.159	84.88
417.382	90.88
417.605	91.88
417.828	108.88
418.051	103.88
418.274	93.88
418.497	92.88
418.72	96.88
418.943	78.88
419.166	87.88
419.389	108.88
419.611	88.88
419.834	102.88
420.057	88.88
420.28	89.88
420.503	83.88
420.726	81.88
420.948	99.88
421.171	86.88
421.394	88.88
421.617	102.88
421.839	83.88
422.062	95.88
422.285	105.88
422.507	99.88
422.73	96.88
422.953	94.88
423.175	89.88
423.398	90.88
423.621	91.88
423.843	88.88
424.066	89.88
424.288	91.88
424.511	101.88
424.733	100.88
424.956	102.88
425.178	118.88
425.401	112.88
425.623	96.88
425.846	90.88
426.068	94.88
426.291	101.88
426.513	91.88
426.735	90.88
426.958	103.88
427.18	98.88
427.402	141.88
427.625	202.88
427.847	158.88
428.069	144.88
428.292	91.88
428.514	86.88
428.736	78.88
428.958	76.88
429.181	78.88
429.403	102.88
429.625	89.88
429.847	97.88
430.069	105.88
430.292	103.88
430.514	78.88
430.736	88.88
430.958	81.88
431.18	88.88
431.402	100.88
431.624	83.88
431.846	76.88
432.068	102.88
432.29	78.88
432.512	86.88
432.734	77.88
432.956	91.88
433.178	110.88
433.4	105.88
433.622	98.88
433.844	90.88
434.066	102.88
434.287	88.88
434.509	106.88
434.731	87.88
434.953	85.88
435.175	98.88
435.397	108.88
435.618	98.88
435.84	99.88
436.062	110.88
436.284	118.88
436.505	115.88
436.727	98.88
436.949	99.88
437.17	99.88
437.392	91.88
437.614	87.88
437.835	110.88
438.057	142.88
438.278	109.88
438.5	109.88
438.721	142.88
438.943	119.88
439.165	86.88
439.386	92.88
439.608	97.88
439.829	109.88
440.05	138.88
440.272	157.88
440.493	99.88
440.715	92.88
440.936	96.88
441.158	91.88
441.379	93.88
441.6	106.88
441.822	107.88
442.043	85.88
442.264	111.88
442.486	112.88
442.707	88.88
442.928	106.88
443.149	147.88
443.371	149.88
443.592	127.88
443.813	119.88
444.034	119.88
444.255	105.88
444.476	98.88
444.698	79.88
444.919	91.88
445.14	142.88
445.361	116.88
445.582	128.88
445.803	174.88
446.024	132.88
446.245	143.88
446.466	104.88
446.687	95.88
446.908	79.88
447.129	88.88
447.35	87.88
447.571	111.88
447.792	95.88
448.013	114.88
448.234	134.88
448.455	109.88
448.675	109.88
448.896	123.88
449.117	99.88
449.338	109.88
449.559	143.88
449.779	144.88
450	101.88
450.221	72.88
450.442	102.88
450.662	99.88
450.883	113.88
451.104	126.88
451.324	103.88
451.545	86.88
451.766	82.88
451.986	91.88
452.207	68.88
452.428	96.88
452.648	88.88
452.869	109.88
453.089	100.88
453.31	127.88
453.53	87.88
453.751	91.88
453.971	117.88
454.192	121.88
454.412	95.88
454.633	78.88
454.853	93.88
455.073	100.88
455.294	96.88
455.514	112.88
455.734	104.88
455.955	91.88
456.175	100.88
456.395	88.88
456.616	90.88
456.836	69.88
457.056	84.88
457.276	89.88
457.497	88.88
457.717	99.88
457.937	75.88
458.157	86.88
458.377	88.88
458.598	98.88
458.818	168.88
459.038	183.88
459.258	126.88
459.478	86.88
459.698	93.88
459.918	84.88
460.138	77.88
460.358	84.88
460.578	94.88
460.798	76.88
461.018	86.88
461.238	84.88
461.458	85.88
461.678	87.88
461.898	95.88
462.118	86.88
462.338	86.88
462.558	91.88
462.777	83.88
462.997	95.88
463.217	98.88
463.437	92.88
463.657	78.88
463.876	82.88
464.096	95.88
464.316	88.88
464.536	103.88
464.755	92.88
464.975	119.88
465.195	193.88
465.414	190.88
465.634	91.88
465.854	95.88
466.073	83.88
466.293	93.88
466.512	88.88
466.732	70.88
466.951	83.88
467.171	82.88
467.391	104.88
467.61	130.88
467.829	109.88
468.049	176.88
468.268	222.88
468.488	117.88
468.707	92.88
468.927	70.88
469.146	76.88
469.365	98.88
469.585	91.88
469.804	101.88
470.023	109.88
470.243	99.88
470.462	97.88
470.681	138.88
470.901	91.88
471.12	78.88
471.339	85.88
471.558	98.88
471.777	91.88
471.997	126.88
472.216	296.88
472.435	525.88
472.654	179.88
472.873	94.88
473.092	90.88
473.311	95.88
473.53	97.88
473.749	86.88
473.968	114.88
474.187	106.88
474.406	100.88
474.625	88.88
474.844	83.88
475.063	90.88
475.282	106.88
475.501	87.88
475.72	78.88
475.939	86.88
476.158	94.88
476.377	90.88
476.596	91.88
476.814	83.88
477.033	81.88
477.252	80.88
477.471	100.88
477.69	90.88
477.908	100.88
478.127	78.88
478.346	93.88
478.564	89.88
478.783	102.88
479.002	101.88
479.22	97.88
479.439	109.88
479.658	90.88
479.876	86.88
480.095	88.88
480.313	112.88
480.532	103.88
480.751	127.88
480.969	274.88
481.188	869.88
481.406	567.88
481.624	152.88
481.843	98.88
482.061	91.88
482.28	98.88
482.498	88.88
482.717	92.88
482.935	78.88
483.153	77.88
483.372	89.88
483.59	94.88
483.808	88.88
484.027	88.88
484.245	96.88
484.463	101.88
484.681	82.88
484.9	87.88
485.118	80.88
485.336	87.88
485.554	88.88
485.772	102.88
485.99	97.88
486.209	104.88
486.427	94.88
486.645	114.88
486.863	119.88
487.081	100.88
487.299	80.88
487.517	102.88
487.735	106.88
487.953	98.88
488.171	91.88
488.389	78.88
488.607	113.88
488.825	104.88
489.043	93.88
489.261	91.88
489.479	102.88
489.696	91.88
489.914	85.88
490.132	96.88
490.35	88.88
490.568	81.88
490.786	76.88
491.003	90.88
491.221	98.88
491.439	92.88
491.657	101.88
491.874	86.88
492.092	107.88
492.31	101.88
492.527	86.88
492.745	103.88
492.963	102.88
493.18	95.88
493.398	90.88
493.615	103.88
493.833	99.88
494.05	93.88
494.268	79.88
494.485	75.88
494.703	90.88
494.92	99.88
495.138	91.88
495.355	87.88
495.573	101.88
495.79	80.88
496.008	86.88
496.225	79.88
496.442	81.88
496.66	113.88
496.877	84.88
497.094	97.88
497.312	92.88
497.529	92.88
497.746	100.88
497.963	86.88
498.181	100.88
498.398	98.88
498.615	91.88
498.832	128.88
499.049	86.88
499.267	98.88
499.484	82.88
499.701	79.88
499.918	89.88
500.135	93.88
500.352	88.88
500.569	86.88
500.786	78.88
501.003	80.88
501.22	99.88
501.437	110.88
501.654	102.88
501.871	119.88
502.088	98.88
502.305	94.88
502.522	91.88
502.739	87.88
502.956	100.88
503.172	96.88
503.389	94.88
503.606	117.88
503.823	94.88
504.04	104.88
504.256	96.88
504.473	99.88
504.69	82.88
504.907	106.88
505.123	82.88
505.34	84.88
505.557	82.88
505.773	100.88
505.99	92.88
506.207	86.88
506.423	98.88
506.64	89.88
506.856	98.88
507.073	103.88
507.289	96.88
507.506	98.88
507.722	118.88
507.939	128.88
508.155	102.88
508.372	91.88
508.588	87.88
508.805	107.88
509.021	104.88
509.238	110.88
509.454	110.88
509.67	119.88
509.887	115.88
510.103	126.88
510.319	225.88
510.536	807.88
510.752	2798.88
510.968	813.88
511.184	175.88
511.401	115.88
511.617	107.88
511.833	92.88
512.049	102.88
512.265	91.88
512.481	79.88
512.698	94.88
512.914	85.88
513.13	95.88
513.346	103.88
513.562	109.88
513.778	94.88
513.994	97.88
514.21	116.88
514.426	128.88
