Data from Circ_2014_H10_HRD10591_00079.txt Node
Date: Wed Jan 03 10:02:25 EST 2024
User: Yrep
Spectrometer: HR+D1059
Trigger mode: 1
Integration Time (sec): 1.000000E-1
Scans to average: 1
Electric dark correction enabled: true
Nonlinearity correction enabled: false
Boxcar width: 0
XAxis mode: Wavelengths
Number of Pixels in Spectrum: 2048
>>>>>Begin Spectral Data<<<<<
223.165	-30.56
223.4	-30.56
223.635	-30.56
223.869	-20.56
224.104	-8.56
224.338	-8.56
224.573	-27.56
224.808	-9.56
225.042	-3.56
225.277	-6.56
225.511	2.44
225.746	0.44
225.98	0.44
226.215	4.44
226.449	20.44
226.683	24.44
226.918	27.44
227.152	35.44
227.387	28.44
227.621	41.44
227.856	25.44
228.09	32.44
228.324	51.44
228.559	53.44
228.793	55.44
229.027	56.44
229.262	70.44
229.496	84.44
229.73	77.44
229.964	74.44
230.199	74.44
230.433	72.44
230.667	71.44
230.901	84.44
231.136	75.44
231.37	73.44
231.604	77.44
231.838	82.44
232.072	75.44
232.306	54.44
232.541	93.44
232.775	85.44
233.009	90.44
233.243	78.44
233.477	74.44
233.711	76.44
233.945	68.44
234.179	97.44
234.413	75.44
234.647	74.44
234.881	85.44
235.115	89.44
235.349	69.44
235.583	93.44
235.817	73.44
236.051	74.44
236.285	77.44
236.519	86.44
236.753	92.44
236.987	73.44
237.221	70.44
237.455	72.44
237.689	71.44
237.922	69.44
238.156	73.44
238.39	67.44
238.624	65.44
238.858	75.44
239.091	72.44
239.325	73.44
239.559	76.44
239.793	94.44
240.027	80.44
240.26	72.44
240.494	80.44
240.728	62.44
240.961	80.44
241.195	80.44
241.429	92.44
241.662	78.44
241.896	73.44
242.13	79.44
242.363	65.44
242.597	72.44
242.83	58.44
243.064	67.44
243.298	74.44
243.531	85.44
243.765	82.44
243.998	72.44
244.232	75.44
244.465	86.44
244.699	78.44
244.932	70.44
245.166	80.44
245.399	79.44
245.633	84.44
245.866	86.44
246.099	94.44
246.333	76.44
246.566	72.44
246.8	74.44
247.033	74.44
247.266	72.44
247.5	71.44
247.733	81.44
247.966	77.44
248.2	78.44
248.433	84.44
248.666	73.44
248.899	86.44
249.133	73.44
249.366	95.44
249.599	95.44
249.832	70.44
250.066	78.44
250.299	73.44
250.532	85.44
250.765	65.44
250.998	75.44
251.231	85.44
251.465	82.44
251.698	64.44
251.931	85.44
252.164	84.44
252.397	67.44
252.63	71.44
252.863	64.44
253.096	83.44
253.329	85.44
253.562	77.44
253.795	79.44
254.028	87.44
254.261	77.44
254.494	78.44
254.727	75.44
254.96	87.44
255.193	84.44
255.426	76.44
255.659	91.44
255.892	74.44
256.124	72.44
256.357	90.44
256.59	70.44
256.823	82.44
257.056	89.44
257.289	76.44
257.521	92.44
257.754	80.44
257.987	81.44
258.22	79.44
258.452	72.44
258.685	71.44
258.918	70.44
259.151	84.44
259.383	85.44
259.616	81.44
259.849	99.44
260.081	76.44
260.314	83.44
260.547	72.44
260.779	81.44
261.012	89.44
261.244	81.44
261.477	91.44
261.71	87.44
261.942	117.44
262.175	126.44
262.407	83.44
262.64	84.44
262.872	74.44
263.105	89.44
263.337	96.44
263.57	88.44
263.802	66.44
264.035	80.44
264.267	76.44
264.499	84.44
264.732	86.44
264.964	86.44
265.197	73.44
265.429	85.44
265.661	70.44
265.894	88.44
266.126	87.44
266.358	92.44
266.591	89.44
266.823	85.44
267.055	88.44
267.287	83.44
267.52	79.44
267.752	73.44
267.984	84.44
268.216	80.44
268.448	84.44
268.681	86.44
268.913	82.44
269.145	92.44
269.377	94.44
269.609	75.44
269.841	89.44
270.073	85.44
270.306	90.44
270.538	91.44
270.77	80.44
271.002	98.44
271.234	73.44
271.466	91.44
271.698	81.44
271.93	84.44
272.162	89.44
272.394	85.44
272.626	93.44
272.858	84.44
273.09	93.44
273.322	79.44
273.553	80.44
273.785	89.44
274.017	83.44
274.249	77.44
274.481	84.44
274.713	82.44
274.945	94.44
275.176	92.44
275.408	89.44
275.64	96.44
275.872	86.44
276.104	94.44
276.335	100.44
276.567	97.44
276.799	116.44
277.031	103.44
277.262	83.44
277.494	95.44
277.726	97.44
277.957	91.44
278.189	71.44
278.421	77.44
278.652	85.44
278.884	75.44
279.115	82.44
279.347	83.44
279.579	90.44
279.81	108.44
280.042	83.44
280.273	101.44
280.505	85.44
280.736	99.44
280.968	92.44
281.199	89.44
281.431	77.44
281.662	74.44
281.894	85.44
282.125	93.44
282.356	112.44
282.588	132.44
282.819	104.44
283.051	85.44
283.282	77.44
283.513	90.44
283.745	86.44
283.976	83.44
284.207	84.44
284.439	95.44
284.67	82.44
284.901	100.44
285.132	75.44
285.364	89.44
285.595	77.44
285.826	89.44
286.057	82.44
286.288	78.44
286.52	88.44
286.751	88.44
286.982	93.44
287.213	83.44
287.444	80.44
287.675	84.44
287.906	88.44
288.138	85.44
288.369	86.44
288.6	82.44
288.831	84.44
289.062	88.44
289.293	85.44
289.524	80.44
289.755	84.44
289.986	76.44
290.217	78.44
290.448	80.44
290.679	99.44
290.91	76.44
291.141	85.44
291.371	81.44
291.602	93.44
291.833	75.44
292.064	87.44
292.295	89.44
292.526	90.44
292.757	77.44
292.987	91.44
293.218	81.44
293.449	95.44
293.68	86.44
293.91	89.44
294.141	90.44
294.372	92.44
294.603	86.44
294.833	99.44
295.064	83.44
295.295	84.44
295.525	104.44
295.756	87.44
295.987	114.44
296.217	140.44
296.448	130.44
296.679	103.44
296.909	92.44
297.14	97.44
297.37	89.44
297.601	94.44
297.831	96.44
298.062	96.44
298.292	99.44
298.523	92.44
298.753	95.44
298.984	93.44
299.214	90.44
299.445	70.44
299.675	88.44
299.905	105.44
300.136	96.44
300.366	91.44
300.597	100.44
300.827	76.44
301.057	96.44
301.288	96.44
301.518	99.44
301.748	87.44
301.979	110.44
302.209	92.44
302.439	85.44
302.669	103.44
302.9	93.44
303.13	76.44
303.36	96.44
303.59	96.44
303.82	106.44
304.051	92.44
304.281	87.44
304.511	89.44
304.741	86.44
304.971	91.44
305.201	85.44
305.431	88.44
305.661	95.44
305.891	84.44
306.121	95.44
306.352	99.44
306.582	101.44
306.812	81.44
307.042	94.44
307.272	103.44
307.502	82.44
307.731	99.44
307.961	75.44
308.191	92.44
308.421	83.44
308.651	88.44
308.881	91.44
309.111	101.44
309.341	100.44
309.571	105.44
309.8	96.44
310.03	94.44
310.26	94.44
310.49	95.44
310.72	104.44
310.949	89.44
311.179	105.44
311.409	94.44
311.639	94.44
311.868	86.44
312.098	91.44
312.328	104.44
312.557	109.44
312.787	99.44
313.017	92.44
313.246	101.44
313.476	98.44
313.706	84.44
313.935	93.44
314.165	94.44
314.394	101.44
314.624	92.44
314.853	95.44
315.083	87.44
315.312	100.44
315.542	86.44
315.771	96.44
316.001	87.44
316.23	82.44
316.46	105.44
316.689	91.44
316.919	94.44
317.148	79.44
317.377	86.44
317.607	96.44
317.836	92.44
318.065	86.44
318.295	86.44
318.524	70.44
318.753	92.44
318.983	82.44
319.212	102.44
319.441	97.44
319.67	102.44
319.9	86.44
320.129	93.44
320.358	96.44
320.587	91.44
320.816	91.44
321.046	97.44
321.275	96.44
321.504	102.44
321.733	103.44
321.962	102.44
322.191	105.44
322.42	108.44
322.649	101.44
322.878	114.44
323.108	119.44
323.337	116.44
323.566	124.44
323.795	169.44
324.024	194.44
324.253	391.44
324.482	797.44
324.71	1624.44
324.939	2190.44
325.168	797.44
325.397	235.44
325.626	148.44
325.855	111.44
326.084	120.44
326.313	128.44
326.542	142.44
326.77	243.44
326.999	457.44
327.228	896.44
327.457	1624.44
327.686	1244.44
327.914	364.44
328.143	203.44
328.372	169.44
328.6	130.44
328.829	137.44
329.058	117.44
329.287	116.44
329.515	104.44
329.744	110.44
329.972	126.44
330.201	164.44
330.43	183.44
330.658	138.44
330.887	150.44
331.115	119.44
331.344	100.44
331.572	105.44
331.801	100.44
332.03	85.44
332.258	107.44
332.486	90.44
332.715	94.44
332.943	88.44
333.172	104.44
333.4	96.44
333.629	97.44
333.857	117.44
334.085	136.44
334.314	153.44
334.542	209.44
334.771	181.44
334.999	127.44
335.227	95.44
335.455	93.44
335.684	92.44
335.912	93.44
336.14	93.44
336.369	96.44
336.597	99.44
336.825	98.44
337.053	93.44
337.281	93.44
337.51	91.44
337.738	106.44
337.966	90.44
338.194	98.44
338.422	108.44
338.65	88.44
338.878	81.44
339.106	89.44
339.334	84.44
339.562	79.44
339.79	100.44
340.018	84.44
340.246	80.44
340.474	74.44
340.702	95.44
340.93	93.44
341.158	89.44
341.386	97.44
341.614	108.44
341.842	102.44
342.07	88.44
342.298	89.44
342.526	84.44
342.754	81.44
342.981	87.44
343.209	86.44
343.437	99.44
343.665	89.44
343.893	80.44
344.12	94.44
344.348	93.44
344.576	75.44
344.804	72.44
345.031	98.44
345.259	99.44
345.487	93.44
345.714	82.44
345.942	93.44
346.17	99.44
346.397	89.44
346.625	93.44
346.853	88.44
347.08	107.44
347.308	105.44
347.535	101.44
347.763	104.44
347.99	101.44
348.218	114.44
348.445	109.44
348.673	105.44
348.9	83.44
349.128	82.44
349.355	91.44
349.583	91.44
349.81	88.44
350.037	80.44
350.265	87.44
350.492	97.44
350.72	97.44
350.947	102.44
351.174	100.44
351.402	102.44
351.629	109.44
351.856	119.44
352.083	109.44
352.311	98.44
352.538	103.44
352.765	101.44
352.992	106.44
353.22	110.44
353.447	98.44
353.674	102.44
353.901	108.44
354.128	88.44
354.355	98.44
354.583	98.44
354.81	94.44
355.037	103.44
355.264	101.44
355.491	96.44
355.718	90.44
355.945	78.44
356.172	89.44
356.399	88.44
356.626	78.44
356.853	95.44
357.08	93.44
357.307	89.44
357.534	92.44
357.761	83.44
357.988	91.44
358.215	85.44
358.441	87.44
358.668	85.44
358.895	85.44
359.122	82.44
359.349	89.44
359.576	88.44
359.802	100.44
360.029	105.44
360.256	103.44
360.483	84.44
360.709	94.44
360.936	94.44
361.163	97.44
361.39	90.44
361.616	86.44
361.843	81.44
362.07	85.44
362.296	96.44
362.523	84.44
362.749	74.44
362.976	89.44
363.203	91.44
363.429	83.44
363.656	77.44
363.882	94.44
364.109	82.44
364.335	87.44
364.562	78.44
364.788	87.44
365.015	100.44
365.241	102.44
365.468	104.44
365.694	120.44
365.92	99.44
366.147	91.44
366.373	85.44
366.599	89.44
366.826	72.44
367.052	87.44
367.278	90.44
367.505	80.44
367.731	92.44
367.957	94.44
368.184	96.44
368.41	118.44
368.636	98.44
368.862	116.44
369.089	108.44
369.315	100.44
369.541	96.44
369.767	82.44
369.993	96.44
370.219	102.44
370.445	71.44
370.672	86.44
370.898	93.44
371.124	94.44
371.35	86.44
371.576	97.44
371.802	83.44
372.028	77.44
372.254	98.44
372.48	92.44
372.706	85.44
372.932	81.44
373.158	85.44
373.384	100.44
373.61	94.44
373.835	92.44
374.061	78.44
374.287	93.44
374.513	78.44
374.739	86.44
374.965	102.44
375.191	83.44
375.416	82.44
375.642	84.44
375.868	81.44
376.094	94.44
376.319	81.44
376.545	89.44
376.771	91.44
376.997	89.44
377.222	88.44
377.448	84.44
377.674	82.44
377.899	82.44
378.125	90.44
378.35	106.44
378.576	83.44
378.802	84.44
379.027	87.44
379.253	92.44
379.478	75.44
379.704	104.44
379.929	96.44
380.155	78.44
380.38	101.44
380.606	94.44
380.831	96.44
381.057	100.44
381.282	90.44
381.507	95.44
381.733	94.44
381.958	94.44
382.184	82.44
382.409	99.44
382.634	96.44
382.86	89.44
383.085	97.44
383.31	102.44
383.535	84.44
383.761	109.44
383.986	106.44
384.211	98.44
384.436	99.44
384.662	84.44
384.887	108.44
385.112	95.44
385.337	93.44
385.562	112.44
385.787	105.44
386.013	119.44
386.238	114.44
386.463	114.44
386.688	115.44
386.913	91.44
387.138	105.44
387.363	116.44
387.588	110.44
387.813	97.44
388.038	95.44
388.263	101.44
388.488	103.44
388.713	101.44
388.938	89.44
389.163	83.44
389.387	85.44
389.612	102.44
389.837	74.44
390.062	92.44
390.287	85.44
390.512	86.44
390.736	72.44
390.961	84.44
391.186	97.44
391.411	81.44
391.636	102.44
391.86	90.44
392.085	85.44
392.31	83.44
392.534	81.44
392.759	98.44
392.984	79.44
393.208	92.44
393.433	108.44
393.658	75.44
393.882	86.44
394.107	87.44
394.331	95.44
394.556	90.44
394.78	82.44
395.005	84.44
395.229	80.44
395.454	97.44
395.678	72.44
395.903	91.44
396.127	91.44
396.352	102.44
396.576	85.44
396.801	89.44
397.025	87.44
397.249	80.44
397.474	75.44
397.698	75.44
397.922	96.44
398.147	86.44
398.371	86.44
398.595	91.44
398.82	85.44
399.044	90.44
399.268	100.44
399.492	95.44
399.717	88.44
399.941	79.44
400.165	95.44
400.389	76.44
400.613	79.44
400.837	96.44
401.062	94.44
401.286	93.44
401.51	85.44
401.734	93.44
401.958	98.44
402.182	146.44
402.406	169.44
402.63	117.44
402.854	76.44
403.078	87.44
403.302	85.44
403.526	92.44
403.75	93.44
403.974	89.44
404.198	84.44
404.422	82.44
404.645	76.44
404.869	93.44
405.093	93.44
405.317	97.44
405.541	98.44
405.765	85.44
405.988	128.44
406.212	179.44
406.436	248.44
406.66	164.44
406.883	102.44
407.107	82.44
407.331	101.44
407.555	100.44
407.778	102.44
408.002	92.44
408.226	102.44
408.449	95.44
408.673	85.44
408.896	76.44
409.12	94.44
409.344	94.44
409.567	82.44
409.791	95.44
410.014	95.44
410.238	96.44
410.461	107.44
410.685	96.44
410.908	96.44
411.132	89.44
411.355	88.44
411.578	92.44
411.802	91.44
412.025	87.44
412.249	82.44
412.472	81.44
412.695	97.44
412.919	95.44
413.142	92.44
413.365	92.44
413.589	96.44
413.812	83.44
414.035	89.44
414.258	91.44
414.482	101.44
414.705	93.44
414.928	88.44
415.151	87.44
415.374	87.44
415.597	78.44
415.821	81.44
416.044	90.44
416.267	89.44
416.49	82.44
416.713	87.44
416.936	86.44
417.159	82.44
417.382	91.44
417.605	81.44
417.828	84.44
418.051	87.44
418.274	85.44
418.497	99.44
418.72	86.44
418.943	75.44
419.166	77.44
419.389	84.44
419.611	84.44
419.834	88.44
420.057	77.44
420.28	73.44
420.503	80.44
420.726	72.44
420.948	71.44
421.171	83.44
421.394	75.44
421.617	93.44
421.839	99.44
422.062	76.44
422.285	79.44
422.507	91.44
422.73	108.44
422.953	84.44
423.175	83.44
423.398	84.44
423.621	96.44
423.843	86.44
424.066	84.44
424.288	84.44
424.511	98.44
424.733	95.44
424.956	112.44
425.178	100.44
425.401	107.44
425.623	87.44
425.846	86.44
426.068	88.44
426.291	73.44
426.513	70.44
426.735	102.44
426.958	103.44
427.18	91.44
427.402	138.44
427.625	170.44
427.847	124.44
428.069	132.44
428.292	85.44
428.514	90.44
428.736	78.44
428.958	78.44
429.181	83.44
429.403	92.44
429.625	90.44
429.847	90.44
430.069	99.44
430.292	85.44
430.514	73.44
430.736	86.44
430.958	89.44
431.18	84.44
431.402	85.44
431.624	74.44
431.846	76.44
432.068	89.44
432.29	84.44
432.512	82.44
432.734	97.44
432.956	82.44
433.178	100.44
433.4	106.44
433.622	100.44
433.844	93.44
434.066	94.44
434.287	83.44
434.509	92.44
434.731	91.44
434.953	84.44
435.175	92.44
435.397	81.44
435.618	97.44
435.84	85.44
436.062	126.44
436.284	111.44
436.505	100.44
436.727	113.44
436.949	96.44
437.17	89.44
437.392	93.44
437.614	89.44
437.835	93.44
438.057	123.44
438.278	123.44
438.5	92.44
438.721	118.44
438.943	109.44
439.165	81.44
439.386	88.44
439.608	89.44
439.829	84.44
440.05	124.44
440.272	152.44
440.493	97.44
440.715	91.44
440.936	88.44
441.158	73.44
441.379	87.44
441.6	95.44
441.822	99.44
442.043	101.44
442.264	96.44
442.486	95.44
442.707	98.44
442.928	109.44
443.149	121.44
443.371	124.44
443.592	101.44
443.813	108.44
444.034	100.44
444.255	81.44
444.476	85.44
444.698	84.44
444.919	76.44
445.14	133.44
445.361	110.44
445.582	101.44
445.803	138.44
446.024	142.44
446.245	141.44
446.466	109.44
446.687	96.44
446.908	86.44
447.129	86.44
447.35	88.44
447.571	92.44
447.792	100.44
448.013	106.44
448.234	103.44
448.455	103.44
448.675	105.44
448.896	119.44
449.117	87.44
449.338	100.44
449.559	112.44
449.779	142.44
450	102.44
450.221	84.44
450.442	78.44
450.662	84.44
450.883	105.44
451.104	114.44
451.324	86.44
451.545	76.44
451.766	83.44
451.986	74.44
452.207	83.44
452.428	101.44
452.648	89.44
452.869	121.44
453.089	107.44
453.31	111.44
453.53	76.44
453.751	89.44
453.971	108.44
454.192	113.44
454.412	100.44
454.633	83.44
454.853	86.44
455.073	68.44
455.294	108.44
455.514	98.44
455.734	96.44
455.955	81.44
456.175	88.44
456.395	84.44
456.616	73.44
456.836	85.44
457.056	70.44
457.276	92.44
457.497	94.44
457.717	76.44
457.937	82.44
458.157	98.44
458.377	91.44
458.598	115.44
458.818	162.44
459.038	180.44
459.258	112.44
459.478	96.44
459.698	93.44
459.918	68.44
460.138	76.44
460.358	89.44
460.578	83.44
460.798	86.44
461.018	98.44
461.238	91.44
461.458	80.44
461.678	76.44
461.898	79.44
462.118	82.44
462.338	90.44
462.558	90.44
462.777	91.44
462.997	94.44
463.217	80.44
463.437	93.44
463.657	86.44
463.876	84.44
464.096	96.44
464.316	82.44
464.536	105.44
464.755	83.44
464.975	105.44
465.195	176.44
465.414	173.44
465.634	77.44
465.854	85.44
466.073	78.44
466.293	83.44
466.512	89.44
466.732	86.44
466.951	85.44
467.171	89.44
467.391	89.44
467.61	106.44
467.829	110.44
468.049	122.44
468.268	136.44
468.488	92.44
468.707	84.44
468.927	93.44
469.146	81.44
469.365	83.44
469.585	92.44
469.804	81.44
470.023	89.44
470.243	89.44
470.462	87.44
470.681	111.44
470.901	92.44
471.12	71.44
471.339	89.44
471.558	82.44
471.777	91.44
471.997	106.44
472.216	158.44
472.435	253.44
472.654	120.44
472.873	89.44
473.092	88.44
473.311	83.44
473.53	87.44
473.749	73.44
473.968	95.44
474.187	90.44
474.406	91.44
474.625	89.44
474.844	75.44
475.063	72.44
475.282	84.44
475.501	75.44
475.72	78.44
475.939	90.44
476.158	92.44
476.377	79.44
476.596	88.44
476.814	98.44
477.033	89.44
477.252	88.44
477.471	79.44
477.69	82.44
477.908	80.44
478.127	98.44
478.346	89.44
478.564	98.44
478.783	108.44
479.002	92.44
479.22	81.44
479.439	103.44
479.658	96.44
479.876	82.44
480.095	93.44
480.313	101.44
480.532	87.44
480.751	113.44
480.969	176.44
481.188	436.44
481.406	273.44
481.624	111.44
481.843	90.44
482.061	94.44
482.28	88.44
482.498	88.44
482.717	81.44
482.935	77.44
483.153	86.44
483.372	93.44
483.59	93.44
483.808	85.44
484.027	88.44
484.245	87.44
484.463	85.44
484.681	100.44
484.9	84.44
485.118	98.44
485.336	97.44
485.554	81.44
485.772	94.44
485.99	90.44
486.209	104.44
486.427	90.44
486.645	111.44
486.863	104.44
487.081	106.44
487.299	89.44
487.517	94.44
487.735	81.44
487.953	91.44
488.171	91.44
488.389	93.44
488.607	90.44
488.825	107.44
489.043	77.44
489.261	90.44
489.479	87.44
489.696	91.44
489.914	91.44
490.132	92.44
490.35	89.44
490.568	73.44
490.786	95.44
491.003	96.44
491.221	82.44
491.439	105.44
491.657	77.44
491.874	97.44
492.092	97.44
492.31	96.44
492.527	68.44
492.745	85.44
492.963	81.44
493.18	85.44
493.398	87.44
493.615	85.44
493.833	92.44
494.05	91.44
494.268	81.44
494.485	83.44
494.703	83.44
494.92	83.44
495.138	89.44
495.355	99.44
495.573	90.44
495.79	81.44
496.008	78.44
496.225	96.44
496.442	84.44
496.66	91.44
496.877	97.44
497.094	88.44
497.312	78.44
497.529	91.44
497.746	94.44
497.963	78.44
498.181	83.44
498.398	88.44
498.615	98.44
498.832	106.44
499.049	96.44
499.267	88.44
499.484	96.44
499.701	91.44
499.918	98.44
500.135	86.44
500.352	91.44
500.569	100.44
500.786	98.44
501.003	83.44
501.22	87.44
501.437	82.44
501.654	96.44
501.871	105.44
502.088	88.44
502.305	99.44
502.522	85.44
502.739	84.44
502.956	105.44
503.172	73.44
503.389	94.44
503.606	115.44
503.823	106.44
504.04	99.44
504.256	98.44
504.473	86.44
504.69	78.44
504.907	94.44
505.123	80.44
505.34	77.44
505.557	96.44
505.773	86.44
505.99	86.44
506.207	103.44
506.423	91.44
506.64	101.44
506.856	67.44
507.073	85.44
507.289	96.44
507.506	87.44
507.722	112.44
507.939	123.44
508.155	95.44
508.372	94.44
508.588	89.44
508.805	85.44
509.021	86.44
509.238	99.44
509.454	98.44
509.67	104.44
509.887	104.44
510.103	134.44
510.319	213.44
510.536	808.44
510.752	2648.44
510.968	765.44
511.184	178.44
511.401	110.44
511.617	91.44
511.833	86.44
512.049	101.44
512.265	103.44
512.481	99.44
512.698	72.44
512.914	100.44
513.13	81.44
513.346	107.44
513.562	108.44
513.778	96.44
513.994	101.44
514.21	87.44
514.426	116.44
514.642	146.44
514.858	129.44
515.074	166.44
515.29	476.44
515.506	1664.44
515.721	642.44
515.937	167.44
