Data from Circ_2014_H10_HRD10591_00053.txt Node
Date: Wed Jan 03 10:02:19 EST 2024
User: Yrep
Spectrometer: HR+D1059
Trigger mode: 1
Integration Time (sec): 1.000000E-1
Scans to average: 1
Electric dark correction enabled: true
Nonlinearity correction enabled: false
Boxcar width: 0
XAxis mode: Wavelengths
Number of Pixels in Spectrum: 2048
>>>>>Begin Spectral Data<<<<<
223.165	-11.12
223.4	-11.12
223.635	-11.12
223.869	-13.12
224.104	-32.12
224.338	-20.12
224.573	-19.12
224.808	-8.12
225.042	-12.12
225.277	3.88
225.511	-4.12
225.746	8.88
225.98	9.88
226.215	2.88
226.449	19.88
226.683	17.88
226.918	22.88
227.152	33.88
227.387	34.88
227.621	21.88
227.856	44.88
228.09	43.88
228.324	43.88
228.559	51.88
228.793	54.88
229.027	64.88
229.262	71.88
229.496	73.88
229.73	64.88
229.964	74.88
230.199	68.88
230.433	71.88
230.667	85.88
230.901	83.88
231.136	67.88
231.37	76.88
231.604	82.88
231.838	66.88
232.072	91.88
232.306	75.88
232.541	79.88
232.775	85.88
233.009	86.88
233.243	70.88
233.477	91.88
233.711	78.88
233.945	75.88
234.179	69.88
234.413	72.88
234.647	83.88
234.881	85.88
235.115	74.88
235.349	71.88
235.583	89.88
235.817	78.88
236.051	65.88
236.285	77.88
236.519	82.88
236.753	73.88
236.987	75.88
237.221	85.88
237.455	71.88
237.689	84.88
237.922	83.88
238.156	69.88
238.39	76.88
238.624	53.88
238.858	67.88
239.091	67.88
239.325	89.88
239.559	69.88
239.793	86.88
240.027	66.88
240.26	84.88
240.494	81.88
240.728	74.88
240.961	78.88
241.195	78.88
241.429	82.88
241.662	83.88
241.896	73.88
242.13	69.88
242.363	68.88
242.597	67.88
242.83	80.88
243.064	69.88
243.298	80.88
243.531	79.88
243.765	75.88
243.998	75.88
244.232	91.88
244.465	80.88
244.699	73.88
244.932	56.88
245.166	80.88
245.399	71.88
245.633	79.88
245.866	79.88
246.099	70.88
246.333	81.88
246.566	88.88
246.8	67.88
247.033	80.88
247.266	74.88
247.5	83.88
247.733	87.88
247.966	68.88
248.2	68.88
248.433	76.88
248.666	71.88
248.899	80.88
249.133	67.88
249.366	99.88
249.599	102.88
249.832	82.88
250.066	94.88
250.299	68.88
250.532	79.88
250.765	71.88
250.998	78.88
251.231	68.88
251.465	81.88
251.698	69.88
251.931	84.88
252.164	67.88
252.397	94.88
252.63	80.88
252.863	66.88
253.096	78.88
253.329	78.88
253.562	76.88
253.795	73.88
254.028	68.88
254.261	84.88
254.494	73.88
254.727	72.88
254.96	78.88
255.193	73.88
255.426	77.88
255.659	78.88
255.892	77.88
256.124	80.88
256.357	72.88
256.59	74.88
256.823	72.88
257.056	68.88
257.289	69.88
257.521	80.88
257.754	82.88
257.987	73.88
258.22	78.88
258.452	85.88
258.685	72.88
258.918	88.88
259.151	75.88
259.383	83.88
259.616	80.88
259.849	78.88
260.081	71.88
260.314	69.88
260.547	65.88
260.779	84.88
261.012	70.88
261.244	80.88
261.477	73.88
261.71	106.88
261.942	84.88
262.175	98.88
262.407	76.88
262.64	76.88
262.872	82.88
263.105	88.88
263.337	98.88
263.57	84.88
263.802	77.88
264.035	85.88
264.267	82.88
264.499	73.88
264.732	79.88
264.964	84.88
265.197	80.88
265.429	76.88
265.661	82.88
265.894	73.88
266.126	80.88
266.358	82.88
266.591	86.88
266.823	76.88
267.055	78.88
267.287	73.88
267.52	72.88
267.752	96.88
267.984	78.88
268.216	75.88
268.448	76.88
268.681	90.88
268.913	83.88
269.145	83.88
269.377	77.88
269.609	81.88
269.841	67.88
270.073	72.88
270.306	74.88
270.538	82.88
270.77	73.88
271.002	86.88
271.234	74.88
271.466	78.88
271.698	73.88
271.93	87.88
272.162	85.88
272.394	84.88
272.626	93.88
272.858	80.88
273.09	80.88
273.322	78.88
273.553	79.88
273.785	65.88
274.017	69.88
274.249	75.88
274.481	97.88
274.713	87.88
274.945	85.88
275.176	84.88
275.408	84.88
275.64	76.88
275.872	81.88
276.104	84.88
276.335	98.88
276.567	97.88
276.799	99.88
277.031	91.88
277.262	78.88
277.494	82.88
277.726	89.88
277.957	80.88
278.189	71.88
278.421	81.88
278.652	77.88
278.884	68.88
279.115	70.88
279.347	89.88
279.579	85.88
279.81	81.88
280.042	85.88
280.273	98.88
280.505	80.88
280.736	89.88
280.968	84.88
281.199	70.88
281.431	91.88
281.662	80.88
281.894	94.88
282.125	99.88
282.356	111.88
282.588	129.88
282.819	117.88
283.051	88.88
283.282	85.88
283.513	94.88
283.745	74.88
283.976	71.88
284.207	96.88
284.439	87.88
284.67	75.88
284.901	99.88
285.132	87.88
285.364	74.88
285.595	74.88
285.826	83.88
286.057	74.88
286.288	82.88
286.52	79.88
286.751	79.88
286.982	63.88
287.213	88.88
287.444	86.88
287.675	73.88
287.906	92.88
288.138	94.88
288.369	84.88
288.6	94.88
288.831	80.88
289.062	71.88
289.293	84.88
289.524	69.88
289.755	80.88
289.986	77.88
290.217	75.88
290.448	73.88
290.679	91.88
290.91	100.88
291.141	74.88
291.371	87.88
291.602	85.88
291.833	72.88
292.064	87.88
292.295	83.88
292.526	71.88
292.757	91.88
292.987	99.88
293.218	89.88
293.449	78.88
293.68	89.88
293.91	70.88
294.141	85.88
294.372	85.88
294.603	74.88
294.833	84.88
295.064	77.88
295.295	80.88
295.525	87.88
295.756	91.88
295.987	115.88
296.217	139.88
296.448	98.88
296.679	86.88
296.909	95.88
297.14	82.88
297.37	93.88
297.601	95.88
297.831	71.88
298.062	97.88
298.292	87.88
298.523	74.88
298.753	90.88
298.984	89.88
299.214	81.88
299.445	84.88
299.675	76.88
299.905	95.88
300.136	82.88
300.366	87.88
300.597	97.88
300.827	93.88
301.057	106.88
301.288	115.88
301.518	92.88
301.748	89.88
301.979	100.88
302.209	88.88
302.439	91.88
302.669	102.88
302.9	88.88
303.13	94.88
303.36	84.88
303.59	90.88
303.82	94.88
304.051	103.88
304.281	84.88
304.511	96.88
304.741	93.88
304.971	96.88
305.201	83.88
305.431	86.88
305.661	95.88
305.891	92.88
306.121	83.88
306.352	106.88
306.582	90.88
306.812	88.88
307.042	103.88
307.272	87.88
307.502	101.88
307.731	90.88
307.961	91.88
308.191	85.88
308.421	95.88
308.651	75.88
308.881	85.88
309.111	95.88
309.341	95.88
309.571	99.88
309.8	100.88
310.03	101.88
310.26	87.88
310.49	92.88
310.72	87.88
310.949	103.88
311.179	96.88
311.409	76.88
311.639	81.88
311.868	90.88
312.098	79.88
312.328	94.88
312.557	84.88
312.787	105.88
313.017	94.88
313.246	91.88
313.476	84.88
313.706	94.88
313.935	84.88
314.165	91.88
314.394	100.88
314.624	88.88
314.853	96.88
315.083	85.88
315.312	88.88
315.542	81.88
315.771	83.88
316.001	92.88
316.23	92.88
316.46	82.88
316.689	90.88
316.919	103.88
317.148	88.88
317.377	96.88
317.607	88.88
317.836	87.88
318.065	75.88
318.295	89.88
318.524	83.88
318.753	101.88
318.983	105.88
319.212	86.88
319.441	95.88
319.67	107.88
319.9	86.88
320.129	88.88
320.358	97.88
320.587	97.88
320.816	78.88
321.046	81.88
321.275	97.88
321.504	81.88
321.733	88.88
321.962	84.88
322.191	82.88
322.42	100.88
322.649	102.88
322.878	114.88
323.108	116.88
323.337	116.88
323.566	120.88
323.795	136.88
324.024	183.88
324.253	332.88
324.482	714.88
324.71	1410.88
324.939	1864.88
325.168	705.88
325.397	223.88
325.626	134.88
325.855	110.88
326.084	134.88
326.313	121.88
326.542	154.88
326.77	193.88
326.999	391.88
327.228	801.88
327.457	1430.88
327.686	1154.88
327.914	315.88
328.143	194.88
328.372	158.88
328.6	123.88
328.829	101.88
329.058	118.88
329.287	108.88
329.515	117.88
329.744	91.88
329.972	105.88
330.201	115.88
330.43	135.88
330.658	118.88
330.887	124.88
331.115	107.88
331.344	106.88
331.572	88.88
331.801	103.88
332.03	113.88
332.258	84.88
332.486	97.88
332.715	72.88
332.943	94.88
333.172	90.88
333.4	103.88
333.629	103.88
333.857	116.88
334.085	103.88
334.314	114.88
334.542	131.88
334.771	118.88
334.999	82.88
335.227	90.88
335.455	87.88
335.684	91.88
335.912	76.88
336.14	80.88
336.369	101.88
336.597	89.88
336.825	94.88
337.053	86.88
337.281	89.88
337.51	81.88
337.738	97.88
337.966	80.88
338.194	99.88
338.422	92.88
338.65	80.88
338.878	77.88
339.106	103.88
339.334	88.88
339.562	82.88
339.79	94.88
340.018	89.88
340.246	78.88
340.474	86.88
340.702	78.88
340.93	101.88
341.158	93.88
341.386	75.88
341.614	88.88
341.842	95.88
342.07	80.88
342.298	88.88
342.526	88.88
342.754	82.88
342.981	89.88
343.209	85.88
343.437	88.88
343.665	92.88
343.893	95.88
344.12	85.88
344.348	79.88
344.576	103.88
344.804	75.88
345.031	90.88
345.259	88.88
345.487	89.88
345.714	75.88
345.942	82.88
346.17	92.88
346.397	91.88
346.625	98.88
346.853	83.88
347.08	97.88
347.308	89.88
347.535	97.88
347.763	84.88
347.99	86.88
348.218	105.88
348.445	101.88
348.673	99.88
348.9	64.88
349.128	82.88
349.355	88.88
349.583	83.88
349.81	79.88
350.037	84.88
350.265	102.88
350.492	95.88
350.72	83.88
350.947	84.88
351.174	98.88
351.402	105.88
351.629	82.88
351.856	111.88
352.083	108.88
352.311	101.88
352.538	103.88
352.765	107.88
352.992	105.88
353.22	118.88
353.447	104.88
353.674	96.88
353.901	103.88
354.128	93.88
354.355	104.88
354.583	99.88
354.81	95.88
355.037	88.88
355.264	105.88
355.491	96.88
355.718	75.88
355.945	87.88
356.172	94.88
356.399	89.88
356.626	96.88
356.853	94.88
357.08	88.88
357.307	79.88
357.534	96.88
357.761	89.88
357.988	106.88
358.215	89.88
358.441	95.88
358.668	76.88
358.895	88.88
359.122	89.88
359.349	91.88
359.576	93.88
359.802	93.88
360.029	101.88
360.256	99.88
360.483	96.88
360.709	92.88
360.936	96.88
361.163	87.88
361.39	82.88
361.616	96.88
361.843	80.88
362.07	79.88
362.296	84.88
362.523	97.88
362.749	92.88
362.976	95.88
363.203	88.88
363.429	85.88
363.656	88.88
363.882	107.88
364.109	80.88
364.335	81.88
364.562	96.88
364.788	90.88
365.015	87.88
365.241	109.88
365.468	113.88
365.694	109.88
365.92	85.88
366.147	85.88
366.373	88.88
366.599	76.88
366.826	82.88
367.052	99.88
367.278	97.88
367.505	80.88
367.731	89.88
367.957	76.88
368.184	100.88
368.41	87.88
368.636	108.88
368.862	120.88
369.089	100.88
369.315	87.88
369.541	97.88
369.767	79.88
369.993	90.88
370.219	84.88
370.445	89.88
370.672	81.88
370.898	78.88
371.124	79.88
371.35	89.88
371.576	94.88
371.802	100.88
372.028	87.88
372.254	83.88
372.48	72.88
372.706	98.88
372.932	91.88
373.158	89.88
373.384	87.88
373.61	94.88
373.835	79.88
374.061	85.88
374.287	96.88
374.513	78.88
374.739	82.88
374.965	98.88
375.191	90.88
375.416	78.88
375.642	71.88
375.868	98.88
376.094	80.88
376.319	87.88
376.545	89.88
376.771	76.88
376.997	81.88
377.222	88.88
377.448	86.88
377.674	85.88
377.899	92.88
378.125	110.88
378.35	89.88
378.576	91.88
378.802	89.88
379.027	100.88
379.253	106.88
379.478	86.88
379.704	94.88
379.929	93.88
380.155	77.88
380.38	87.88
380.606	86.88
380.831	80.88
381.057	92.88
381.282	102.88
381.507	81.88
381.733	87.88
381.958	81.88
382.184	81.88
382.409	100.88
382.634	110.88
382.86	91.88
383.085	106.88
383.31	102.88
383.535	114.88
383.761	91.88
383.986	91.88
384.211	95.88
384.436	86.88
384.662	81.88
384.887	93.88
385.112	86.88
385.337	99.88
385.562	107.88
385.787	99.88
386.013	112.88
386.238	97.88
386.463	99.88
386.688	122.88
386.913	85.88
387.138	97.88
387.363	96.88
387.588	78.88
387.813	97.88
388.038	107.88
388.263	105.88
388.488	104.88
388.713	94.88
388.938	88.88
389.163	86.88
389.387	88.88
389.612	88.88
389.837	92.88
390.062	87.88
390.287	102.88
390.512	101.88
390.736	90.88
390.961	99.88
391.186	91.88
391.411	81.88
391.636	83.88
391.86	79.88
392.085	78.88
392.31	90.88
392.534	86.88
392.759	107.88
392.984	79.88
393.208	94.88
393.433	100.88
393.658	91.88
393.882	73.88
394.107	77.88
394.331	73.88
394.556	90.88
394.78	78.88
395.005	88.88
395.229	98.88
395.454	89.88
395.678	82.88
395.903	91.88
396.127	80.88
396.352	102.88
396.576	89.88
396.801	85.88
397.025	94.88
397.249	94.88
397.474	93.88
397.698	86.88
397.922	78.88
398.147	94.88
398.371	76.88
398.595	72.88
398.82	85.88
399.044	77.88
399.268	84.88
399.492	81.88
399.717	98.88
399.941	95.88
400.165	87.88
400.389	97.88
400.613	81.88
400.837	86.88
401.062	88.88
401.286	82.88
401.51	91.88
401.734	86.88
401.958	101.88
402.182	115.88
402.406	142.88
402.63	114.88
402.854	83.88
403.078	93.88
403.302	78.88
403.526	87.88
403.75	105.88
403.974	88.88
404.198	78.88
404.422	78.88
404.645	107.88
404.869	96.88
405.093	89.88
405.317	92.88
405.541	99.88
405.765	91.88
405.988	122.88
406.212	153.88
406.436	203.88
406.66	144.88
406.883	90.88
407.107	89.88
407.331	83.88
407.555	89.88
407.778	86.88
408.002	82.88
408.226	88.88
408.449	87.88
408.673	82.88
408.896	88.88
409.12	93.88
409.344	92.88
409.567	80.88
409.791	95.88
410.014	81.88
410.238	76.88
410.461	86.88
410.685	84.88
410.908	83.88
411.132	96.88
411.355	94.88
411.578	91.88
411.802	78.88
412.025	82.88
412.249	87.88
412.472	77.88
412.695	83.88
412.919	76.88
413.142	81.88
413.365	82.88
413.589	87.88
413.812	87.88
414.035	87.88
414.258	87.88
414.482	83.88
414.705	84.88
414.928	76.88
415.151	87.88
415.374	82.88
415.597	77.88
415.821	89.88
416.044	95.88
416.267	84.88
416.49	86.88
416.713	75.88
416.936	77.88
417.159	97.88
417.382	90.88
417.605	81.88
417.828	85.88
418.051	76.88
418.274	81.88
418.497	82.88
418.72	69.88
418.943	86.88
419.166	79.88
419.389	87.88
419.611	97.88
419.834	96.88
420.057	79.88
420.28	79.88
420.503	96.88
420.726	91.88
420.948	79.88
421.171	78.88
421.394	95.88
421.617	100.88
421.839	90.88
422.062	100.88
422.285	65.88
422.507	82.88
422.73	94.88
422.953	77.88
423.175	83.88
423.398	83.88
423.621	79.88
423.843	77.88
424.066	78.88
424.288	80.88
424.511	94.88
424.733	78.88
424.956	99.88
425.178	92.88
425.401	93.88
425.623	89.88
425.846	74.88
426.068	91.88
426.291	87.88
426.513	75.88
426.735	70.88
426.958	80.88
427.18	97.88
427.402	112.88
427.625	142.88
427.847	115.88
428.069	99.88
428.292	94.88
428.514	81.88
428.736	84.88
428.958	86.88
429.181	89.88
429.403	82.88
429.625	82.88
429.847	85.88
430.069	94.88
430.292	96.88
430.514	85.88
430.736	80.88
430.958	91.88
431.18	79.88
431.402	82.88
431.624	81.88
431.846	84.88
432.068	85.88
432.29	99.88
432.512	90.88
432.734	104.88
432.956	88.88
433.178	90.88
433.4	92.88
433.622	84.88
433.844	91.88
434.066	73.88
434.287	82.88
434.509	86.88
434.731	90.88
434.953	96.88
435.175	104.88
435.397	84.88
435.618	68.88
435.84	91.88
436.062	110.88
436.284	110.88
436.505	102.88
436.727	94.88
436.949	93.88
437.17	91.88
437.392	82.88
437.614	100.88
437.835	90.88
438.057	105.88
438.278	103.88
438.5	87.88
438.721	106.88
438.943	96.88
439.165	84.88
439.386	72.88
439.608	90.88
439.829	72.88
440.05	101.88
440.272	132.88
440.493	95.88
440.715	83.88
440.936	81.88
441.158	79.88
441.379	90.88
441.6	81.88
441.822	82.88
442.043	82.88
442.264	101.88
442.486	100.88
442.707	80.88
442.928	106.88
443.149	122.88
443.371	124.88
443.592	89.88
443.813	115.88
444.034	104.88
444.255	86.88
444.476	82.88
444.698	77.88
444.919	93.88
445.14	143.88
445.361	104.88
445.582	117.88
445.803	134.88
446.024	122.88
446.245	119.88
446.466	94.88
446.687	96.88
446.908	79.88
447.129	88.88
447.35	96.88
447.571	102.88
447.792	91.88
448.013	95.88
448.234	92.88
448.455	94.88
448.675	101.88
448.896	107.88
449.117	98.88
449.338	114.88
449.559	121.88
449.779	124.88
450	92.88
450.221	102.88
450.442	84.88
450.662	90.88
450.883	95.88
451.104	98.88
451.324	88.88
451.545	87.88
451.766	77.88
451.986	101.88
452.207	91.88
452.428	90.88
452.648	100.88
452.869	90.88
453.089	104.88
453.31	108.88
453.53	81.88
453.751	101.88
453.971	94.88
454.192	94.88
454.412	78.88
454.633	88.88
454.853	75.88
455.073	72.88
455.294	76.88
455.514	91.88
455.734	87.88
455.955	89.88
456.175	81.88
456.395	79.88
456.616	78.88
456.836	80.88
457.056	70.88
457.276	85.88
457.497	83.88
457.717	74.88
457.937	75.88
458.157	75.88
458.377	74.88
458.598	96.88
458.818	129.88
459.038	152.88
459.258	113.88
459.478	85.88
459.698	86.88
459.918	80.88
460.138	70.88
460.358	88.88
460.578	79.88
460.798	95.88
461.018	84.88
461.238	86.88
461.458	94.88
461.678	81.88
461.898	82.88
462.118	87.88
462.338	74.88
462.558	78.88
462.777	82.88
462.997	90.88
463.217	84.88
463.437	82.88
463.657	86.88
463.876	86.88
464.096	84.88
464.316	75.88
464.536	83.88
464.755	87.88
464.975	108.88
465.195	156.88
465.414	147.88
465.634	85.88
465.854	89.88
466.073	71.88
466.293	78.88
466.512	90.88
466.732	82.88
466.951	89.88
467.171	69.88
467.391	96.88
467.61	101.88
467.829	99.88
468.049	99.88
468.268	106.88
468.488	92.88
468.707	71.88
468.927	74.88
469.146	78.88
469.365	70.88
469.585	80.88
469.804	91.88
470.023	88.88
470.243	110.88
470.462	91.88
470.681	100.88
470.901	88.88
471.12	93.88
471.339	93.88
471.558	92.88
471.777	70.88
471.997	94.88
472.216	102.88
472.435	170.88
472.654	98.88
472.873	95.88
473.092	84.88
473.311	92.88
473.53	86.88
473.749	76.88
473.968	89.88
474.187	96.88
474.406	100.88
474.625	86.88
474.844	88.88
475.063	81.88
475.282	90.88
475.501	83.88
475.72	91.88
475.939	84.88
476.158	83.88
476.377	82.88
476.596	87.88
476.814	91.88
477.033	81.88
477.252	75.88
477.471	95.88
477.69	89.88
477.908	79.88
478.127	83.88
478.346	87.88
478.564	86.88
478.783	84.88
479.002	99.88
479.22	76.88
479.439	95.88
479.658	103.88
479.876	101.88
480.095	85.88
480.313	82.88
480.532	81.88
480.751	78.88
480.969	117.88
481.188	230.88
481.406	178.88
481.624	88.88
481.843	88.88
482.061	72.88
482.28	84.88
482.498	87.88
482.717	82.88
482.935	90.88
483.153	86.88
483.372	82.88
483.59	85.88
483.808	88.88
484.027	96.88
484.245	78.88
484.463	83.88
484.681	90.88
484.9	104.88
485.118	91.88
485.336	86.88
485.554	92.88
485.772	75.88
485.99	97.88
486.209	84.88
486.427	87.88
486.645	90.88
486.863	93.88
487.081	110.88
487.299	94.88
487.517	83.88
487.735	88.88
487.953	91.88
488.171	80.88
488.389	94.88
488.607	84.88
488.825	93.88
489.043	76.88
489.261	88.88
489.479	90.88
489.696	88.88
489.914	90.88
490.132	75.88
490.35	89.88
490.568	84.88
490.786	77.88
491.003	89.88
491.221	82.88
491.439	75.88
491.657	84.88
491.874	87.88
492.092	90.88
492.31	84.88
492.527	82.88
492.745	87.88
492.963	97.88
493.18	95.88
493.398	87.88
493.615	84.88
493.833	98.88
494.05	90.88
494.268	74.88
494.485	84.88
494.703	75.88
494.92	84.88
495.138	87.88
495.355	91.88
495.573	79.88
495.79	75.88
496.008	79.88
496.225	93.88
496.442	93.88
496.66	75.88
496.877	81.88
497.094	100.88
497.312	89.88
497.529	85.88
497.746	80.88
497.963	79.88
498.181	87.88
498.398	90.88
498.615	110.88
498.832	96.88
499.049	87.88
499.267	83.88
499.484	84.88
499.701	85.88
499.918	83.88
500.135	86.88
500.352	91.88
500.569	87.88
500.786	90.88
501.003	83.88
501.22	79.88
501.437	90.88
501.654	88.88
501.871	88.88
502.088	93.88
502.305	96.88
502.522	85.88
502.739	94.88
502.956	94.88
503.172	88.88
503.389	82.88
503.606	121.88
503.823	94.88
504.04	96.88
504.256	100.88
504.473	101.88
504.69	95.88
504.907	92.88
505.123	80.88
505.34	91.88
505.557	83.88
505.773	84.88
505.99	94.88
506.207	95.88
506.423	105.88
506.64	85.88
506.856	91.88
507.073	83.88
507.289	97.88
507.506	95.88
507.722	117.88
507.939	116.88
508.155	91.88
508.372	91.88
508.588	71.88
508.805	100.88
509.021	90.88
509.238	81.88
509.454	93.88
509.67	87.88
509.887	92.88
510.103	122.88
510.319	199.88
510.536	705.88
510.752	2279.88
510.968	660.88
511.184	150.88
511.401	93.88
511.617	82.88
511.833	88.88
512.049	90.88
512.265	82.88
512.481	87.88
512.698	93.88
512.914	71.88
513.13	80.88
513.346	93.88
513.562	96.88
513.778	82.88
513.994	103.88
514.21	94.88
514.426	104.88
514.642	119.88
514.858	101.88
515.074	154.88
515.29	396.88
515.506	1356.88
515.721	536.88
515.937	150.88
516.153	97.88
516.369	105.88
516.585	92.88
516.801	90.88
517.016	99.88
