Data from Circ_2014_H10_HRD10591_00006.txt Node
Date: Wed Jan 03 10:02:10 EST 2024
User: Yrep
Spectrometer: HR+D1059
Trigger mode: 1
Integration Time (sec): 1.000000E-1
Scans to average: 1
Electric dark correction enabled: true
Nonlinearity correction enabled: false
Boxcar width: 0
XAxis mode: Wavelengths
Number of Pixels in Spectrum: 2048
>>>>>Begin Spectral Data<<<<<
223.165	-20.5
223.4	-20.5
223.635	-20.5
223.869	-26.5
224.104	-5.5
224.338	-5.5
224.573	-7.5
224.808	-8.5
225.042	-7.5
225.277	-3.5
225.511	-15.5
225.746	-4.5
225.98	8.5
226.215	7.5
226.449	12.5
226.683	22.5
226.918	24.5
227.152	29.5
227.387	49.5
227.621	51.5
227.856	53.5
228.09	45.5
228.324	40.5
228.559	50.5
228.793	70.5
229.027	68.5
229.262	61.5
229.496	78.5
229.73	98.5
229.964	102.5
230.199	88.5
230.433	90.5
230.667	75.5
230.901	82.5
231.136	96.5
231.37	84.5
231.604	79.5
231.838	84.5
232.072	108.5
232.306	94.5
232.541	85.5
232.775	95.5
233.009	92.5
233.243	80.5
233.477	80.5
233.711	82.5
233.945	78.5
234.179	92.5
234.413	74.5
234.647	88.5
234.881	74.5
235.115	75.5
235.349	77.5
235.583	79.5
235.817	74.5
236.051	77.5
236.285	75.5
236.519	92.5
236.753	91.5
236.987	105.5
237.221	80.5
237.455	89.5
237.689	99.5
237.922	76.5
238.156	77.5
238.39	86.5
238.624	64.5
238.858	76.5
239.091	86.5
239.325	76.5
239.559	78.5
239.793	81.5
240.027	82.5
240.26	88.5
240.494	72.5
240.728	85.5
240.961	92.5
241.195	84.5
241.429	72.5
241.662	87.5
241.896	91.5
242.13	73.5
242.363	73.5
242.597	79.5
242.83	91.5
243.064	91.5
243.298	92.5
243.531	85.5
243.765	79.5
243.998	77.5
244.232	85.5
244.465	92.5
244.699	91.5
244.932	86.5
245.166	85.5
245.399	92.5
245.633	66.5
245.866	66.5
246.099	77.5
246.333	85.5
246.566	79.5
246.8	91.5
247.033	78.5
247.266	78.5
247.5	87.5
247.733	75.5
247.966	78.5
248.2	90.5
248.433	69.5
248.666	66.5
248.899	91.5
249.133	87.5
249.366	107.5
249.599	108.5
249.832	90.5
250.066	85.5
250.299	87.5
250.532	79.5
250.765	87.5
250.998	94.5
251.231	85.5
251.465	94.5
251.698	77.5
251.931	94.5
252.164	83.5
252.397	86.5
252.63	71.5
252.863	89.5
253.096	71.5
253.329	88.5
253.562	71.5
253.795	82.5
254.028	76.5
254.261	90.5
254.494	75.5
254.727	75.5
254.96	85.5
255.193	82.5
255.426	85.5
255.659	79.5
255.892	92.5
256.124	92.5
256.357	91.5
256.59	106.5
256.823	87.5
257.056	82.5
257.289	91.5
257.521	78.5
257.754	84.5
257.987	85.5
258.22	79.5
258.452	85.5
258.685	80.5
258.918	85.5
259.151	89.5
259.383	91.5
259.616	81.5
259.849	88.5
260.081	77.5
260.314	94.5
260.547	97.5
260.779	97.5
261.012	92.5
261.244	93.5
261.477	86.5
261.71	85.5
261.942	130.5
262.175	122.5
262.407	87.5
262.64	91.5
262.872	81.5
263.105	86.5
263.337	75.5
263.57	62.5
263.802	96.5
264.035	92.5
264.267	87.5
264.499	79.5
264.732	78.5
264.964	79.5
265.197	80.5
265.429	100.5
265.661	92.5
265.894	77.5
266.126	89.5
266.358	80.5
266.591	90.5
266.823	93.5
267.055	89.5
267.287	72.5
267.52	82.5
267.752	79.5
267.984	77.5
268.216	99.5
268.448	89.5
268.681	83.5
268.913	88.5
269.145	90.5
269.377	86.5
269.609	91.5
269.841	75.5
270.073	102.5
270.306	88.5
270.538	103.5
270.77	84.5
271.002	101.5
271.234	87.5
271.466	70.5
271.698	80.5
271.93	79.5
272.162	94.5
272.394	86.5
272.626	92.5
272.858	73.5
273.09	75.5
273.322	80.5
273.553	80.5
273.785	94.5
274.017	91.5
274.249	100.5
274.481	96.5
274.713	103.5
274.945	100.5
275.176	86.5
275.408	73.5
275.64	99.5
275.872	75.5
276.104	83.5
276.335	95.5
276.567	111.5
276.799	147.5
277.031	107.5
277.262	91.5
277.494	92.5
277.726	87.5
277.957	89.5
278.189	87.5
278.421	97.5
278.652	79.5
278.884	81.5
279.115	80.5
279.347	91.5
279.579	88.5
279.81	80.5
280.042	89.5
280.273	97.5
280.505	87.5
280.736	104.5
280.968	77.5
281.199	80.5
281.431	73.5
281.662	92.5
281.894	81.5
282.125	107.5
282.356	143.5
282.588	173.5
282.819	122.5
283.051	75.5
283.282	101.5
283.513	87.5
283.745	96.5
283.976	87.5
284.207	92.5
284.439	97.5
284.67	98.5
284.901	84.5
285.132	99.5
285.364	77.5
285.595	83.5
285.826	94.5
286.057	95.5
286.288	96.5
286.52	75.5
286.751	99.5
286.982	85.5
287.213	86.5
287.444	101.5
287.675	91.5
287.906	100.5
288.138	101.5
288.369	116.5
288.6	88.5
288.831	86.5
289.062	106.5
289.293	89.5
289.524	95.5
289.755	100.5
289.986	85.5
290.217	105.5
290.448	89.5
290.679	95.5
290.91	83.5
291.141	76.5
291.371	76.5
291.602	81.5
291.833	88.5
292.064	102.5
292.295	84.5
292.526	97.5
292.757	87.5
292.987	91.5
293.218	93.5
293.449	100.5
293.68	91.5
293.91	79.5
294.141	94.5
294.372	92.5
294.603	89.5
294.833	88.5
295.064	83.5
295.295	94.5
295.525	93.5
295.756	108.5
295.987	127.5
296.217	161.5
296.448	144.5
296.679	100.5
296.909	98.5
297.14	89.5
297.37	98.5
297.601	84.5
297.831	87.5
298.062	85.5
298.292	94.5
298.523	92.5
298.753	90.5
298.984	91.5
299.214	90.5
299.445	97.5
299.675	85.5
299.905	89.5
300.136	98.5
300.366	98.5
300.597	101.5
300.827	108.5
301.057	85.5
301.288	109.5
301.518	114.5
301.748	95.5
301.979	106.5
302.209	94.5
302.439	93.5
302.669	101.5
302.9	102.5
303.13	87.5
303.36	100.5
303.59	117.5
303.82	118.5
304.051	116.5
304.281	106.5
304.511	107.5
304.741	109.5
304.971	81.5
305.201	82.5
305.431	96.5
305.661	83.5
305.891	88.5
306.121	98.5
306.352	107.5
306.582	123.5
306.812	98.5
307.042	101.5
307.272	103.5
307.502	87.5
307.731	107.5
307.961	108.5
308.191	88.5
308.421	76.5
308.651	95.5
308.881	90.5
309.111	94.5
309.341	95.5
309.571	96.5
309.8	98.5
310.03	98.5
310.26	103.5
310.49	94.5
310.72	111.5
310.949	105.5
311.179	103.5
311.409	105.5
311.639	111.5
311.868	103.5
312.098	105.5
312.328	87.5
312.557	112.5
312.787	122.5
313.017	112.5
313.246	97.5
313.476	80.5
313.706	97.5
313.935	111.5
314.165	103.5
314.394	111.5
314.624	113.5
314.853	97.5
315.083	93.5
315.312	99.5
315.542	95.5
315.771	98.5
316.001	95.5
316.23	104.5
316.46	81.5
316.689	98.5
316.919	116.5
317.148	85.5
317.377	95.5
317.607	104.5
317.836	99.5
318.065	97.5
318.295	95.5
318.524	104.5
318.753	103.5
318.983	94.5
319.212	110.5
319.441	143.5
319.67	110.5
319.9	104.5
320.129	111.5
320.358	89.5
320.587	101.5
320.816	108.5
321.046	109.5
321.275	105.5
321.504	98.5
321.733	109.5
321.962	102.5
322.191	101.5
322.42	117.5
322.649	120.5
322.878	118.5
323.108	128.5
323.337	136.5
323.566	171.5
323.795	182.5
324.024	266.5
324.253	542.5
324.482	1178.5
324.71	2524.5
324.939	3285.5
325.168	1207.5
325.397	331.5
325.626	184.5
325.855	156.5
326.084	157.5
326.313	156.5
326.542	193.5
326.77	300.5
326.999	615.5
327.228	1311.5
327.457	2434.5
327.686	1920.5
327.914	502.5
328.143	259.5
328.372	172.5
328.6	155.5
328.829	143.5
329.058	159.5
329.287	166.5
329.515	133.5
329.744	127.5
329.972	104.5
330.201	106.5
330.43	140.5
330.658	155.5
330.887	189.5
331.115	148.5
331.344	108.5
331.572	105.5
331.801	117.5
332.03	116.5
332.258	114.5
332.486	95.5
332.715	87.5
332.943	99.5
333.172	108.5
333.4	112.5
333.629	116.5
333.857	115.5
334.085	115.5
334.314	110.5
334.542	99.5
334.771	101.5
334.999	111.5
335.227	99.5
335.455	114.5
335.684	102.5
335.912	109.5
336.14	93.5
336.369	99.5
336.597	98.5
336.825	92.5
337.053	79.5
337.281	102.5
337.51	103.5
337.738	94.5
337.966	93.5
338.194	113.5
338.422	122.5
338.65	92.5
338.878	101.5
339.106	91.5
339.334	93.5
339.562	98.5
339.79	100.5
340.018	96.5
340.246	97.5
340.474	119.5
340.702	87.5
340.93	100.5
341.158	100.5
341.386	102.5
341.614	110.5
341.842	107.5
342.07	103.5
342.298	100.5
342.526	93.5
342.754	92.5
342.981	72.5
343.209	78.5
343.437	108.5
343.665	87.5
343.893	94.5
344.12	99.5
344.348	93.5
344.576	98.5
344.804	85.5
345.031	102.5
345.259	109.5
345.487	117.5
345.714	119.5
345.942	89.5
346.17	99.5
346.397	95.5
346.625	111.5
346.853	93.5
347.08	87.5
347.308	95.5
347.535	111.5
347.763	107.5
347.99	108.5
348.218	117.5
348.445	118.5
348.673	108.5
348.9	110.5
349.128	105.5
349.355	85.5
349.583	84.5
349.81	104.5
350.037	91.5
350.265	89.5
350.492	99.5
350.72	88.5
350.947	110.5
351.174	115.5
351.402	123.5
351.629	99.5
351.856	96.5
352.083	103.5
352.311	122.5
352.538	118.5
352.765	106.5
352.992	138.5
353.22	123.5
353.447	95.5
353.674	108.5
353.901	96.5
354.128	97.5
354.355	93.5
354.583	89.5
354.81	99.5
355.037	96.5
355.264	101.5
355.491	101.5
355.718	104.5
355.945	95.5
356.172	85.5
356.399	92.5
356.626	99.5
356.853	100.5
357.08	90.5
357.307	98.5
357.534	86.5
357.761	94.5
357.988	102.5
358.215	87.5
358.441	84.5
358.668	90.5
358.895	96.5
359.122	102.5
359.349	97.5
359.576	103.5
359.802	108.5
360.029	135.5
360.256	132.5
360.483	117.5
360.709	104.5
360.936	99.5
361.163	106.5
361.39	105.5
361.616	109.5
361.843	91.5
362.07	104.5
362.296	100.5
362.523	100.5
362.749	89.5
362.976	110.5
363.203	96.5
363.429	104.5
363.656	92.5
363.882	96.5
364.109	97.5
364.335	82.5
364.562	97.5
364.788	103.5
365.015	86.5
365.241	107.5
365.468	123.5
365.694	104.5
365.92	110.5
366.147	102.5
366.373	92.5
366.599	86.5
366.826	93.5
367.052	98.5
367.278	87.5
367.505	101.5
367.731	111.5
367.957	84.5
368.184	88.5
368.41	113.5
368.636	131.5
368.862	132.5
369.089	137.5
369.315	111.5
369.541	95.5
369.767	100.5
369.993	88.5
370.219	89.5
370.445	94.5
370.672	92.5
370.898	93.5
371.124	84.5
371.35	93.5
371.576	100.5
371.802	87.5
372.028	85.5
372.254	94.5
372.48	98.5
372.706	96.5
372.932	90.5
373.158	86.5
373.384	99.5
373.61	80.5
373.835	86.5
374.061	82.5
374.287	98.5
374.513	88.5
374.739	95.5
374.965	92.5
375.191	90.5
375.416	83.5
375.642	81.5
375.868	99.5
376.094	91.5
376.319	98.5
376.545	104.5
376.771	105.5
376.997	92.5
377.222	94.5
377.448	91.5
377.674	90.5
377.899	89.5
378.125	87.5
378.35	118.5
378.576	95.5
378.802	90.5
379.027	87.5
379.253	85.5
379.478	97.5
379.704	92.5
379.929	92.5
380.155	98.5
380.38	98.5
380.606	92.5
380.831	100.5
381.057	109.5
381.282	104.5
381.507	108.5
381.733	107.5
381.958	104.5
382.184	114.5
382.409	106.5
382.634	104.5
382.86	108.5
383.085	119.5
383.31	103.5
383.535	110.5
383.761	102.5
383.986	116.5
384.211	83.5
384.436	108.5
384.662	112.5
384.887	116.5
385.112	134.5
385.337	110.5
385.562	111.5
385.787	115.5
386.013	142.5
386.238	136.5
386.463	126.5
386.688	115.5
386.913	135.5
387.138	122.5
387.363	118.5
387.588	109.5
387.813	116.5
388.038	138.5
388.263	135.5
388.488	124.5
388.713	100.5
388.938	98.5
389.163	105.5
389.387	90.5
389.612	83.5
389.837	90.5
390.062	85.5
390.287	84.5
390.512	100.5
390.736	93.5
390.961	92.5
391.186	97.5
391.411	118.5
391.636	97.5
391.86	88.5
392.085	86.5
392.31	80.5
392.534	95.5
392.759	101.5
392.984	79.5
393.208	99.5
393.433	99.5
393.658	94.5
393.882	99.5
394.107	92.5
394.331	102.5
394.556	94.5
394.78	98.5
395.005	82.5
395.229	84.5
395.454	97.5
395.678	93.5
395.903	91.5
396.127	85.5
396.352	85.5
396.576	80.5
396.801	98.5
397.025	86.5
397.249	104.5
397.474	94.5
397.698	103.5
397.922	85.5
398.147	87.5
398.371	86.5
398.595	84.5
398.82	88.5
399.044	98.5
399.268	103.5
399.492	100.5
399.717	92.5
399.941	99.5
400.165	94.5
400.389	93.5
400.613	93.5
400.837	83.5
401.062	93.5
401.286	95.5
401.51	107.5
401.734	107.5
401.958	109.5
402.182	154.5
402.406	193.5
402.63	153.5
402.854	122.5
403.078	89.5
403.302	97.5
403.526	89.5
403.75	96.5
403.974	74.5
404.198	75.5
404.422	98.5
404.645	70.5
404.869	87.5
405.093	102.5
405.317	110.5
405.541	111.5
405.765	114.5
405.988	147.5
406.212	225.5
406.436	340.5
406.66	205.5
406.883	123.5
407.107	106.5
407.331	116.5
407.555	110.5
407.778	114.5
408.002	100.5
408.226	110.5
408.449	107.5
408.673	105.5
408.896	105.5
409.12	100.5
409.344	85.5
409.567	82.5
409.791	102.5
410.014	88.5
410.238	92.5
410.461	93.5
410.685	75.5
410.908	94.5
411.132	117.5
411.355	103.5
411.578	91.5
411.802	94.5
412.025	88.5
412.249	99.5
412.472	95.5
412.695	92.5
412.919	81.5
413.142	86.5
413.365	87.5
413.589	102.5
413.812	92.5
414.035	94.5
414.258	83.5
414.482	82.5
414.705	86.5
414.928	91.5
415.151	91.5
415.374	99.5
415.597	91.5
415.821	88.5
416.044	95.5
416.267	94.5
416.49	86.5
416.713	84.5
416.936	84.5
417.159	87.5
417.382	92.5
417.605	103.5
417.828	101.5
418.051	106.5
418.274	105.5
418.497	93.5
418.72	90.5
418.943	91.5
419.166	78.5
419.389	93.5
419.611	81.5
419.834	92.5
420.057	94.5
420.28	80.5
420.503	87.5
420.726	86.5
420.948	106.5
421.171	102.5
421.394	95.5
421.617	82.5
421.839	92.5
422.062	87.5
422.285	84.5
422.507	119.5
422.73	122.5
422.953	100.5
423.175	108.5
423.398	84.5
423.621	89.5
423.843	87.5
424.066	83.5
424.288	95.5
424.511	108.5
424.733	111.5
424.956	126.5
425.178	115.5
425.401	104.5
425.623	116.5
425.846	98.5
426.068	100.5
426.291	87.5
426.513	104.5
426.735	96.5
426.958	95.5
427.18	106.5
427.402	160.5
427.625	223.5
427.847	155.5
428.069	109.5
428.292	98.5
428.514	102.5
428.736	93.5
428.958	90.5
429.181	96.5
429.403	84.5
429.625	85.5
429.847	107.5
430.069	98.5
430.292	96.5
430.514	91.5
430.736	77.5
430.958	90.5
431.18	91.5
431.402	79.5
431.624	83.5
431.846	91.5
432.068	85.5
432.29	86.5
432.512	74.5
432.734	93.5
432.956	97.5
433.178	100.5
433.4	111.5
433.622	110.5
433.844	97.5
434.066	102.5
434.287	108.5
434.509	90.5
434.731	91.5
434.953	89.5
435.175	104.5
435.397	93.5
435.618	86.5
435.84	117.5
436.062	138.5
436.284	126.5
436.505	112.5
436.727	105.5
436.949	92.5
437.17	104.5
437.392	84.5
437.614	95.5
437.835	116.5
438.057	146.5
438.278	131.5
438.5	105.5
438.721	119.5
438.943	108.5
439.165	95.5
439.386	96.5
439.608	99.5
439.829	117.5
440.05	150.5
440.272	175.5
440.493	113.5
440.715	93.5
440.936	87.5
441.158	103.5
441.379	96.5
441.6	102.5
441.822	90.5
442.043	90.5
442.264	117.5
442.486	106.5
442.707	98.5
442.928	122.5
443.149	159.5
443.371	162.5
443.592	132.5
443.813	130.5
444.034	116.5
444.255	98.5
444.476	98.5
444.698	89.5
444.919	94.5
445.14	130.5
445.361	131.5
445.582	145.5
445.803	188.5
446.024	173.5
446.245	157.5
446.466	134.5
446.687	94.5
446.908	103.5
447.129	94.5
447.35	101.5
447.571	109.5
447.792	99.5
448.013	108.5
448.234	114.5
448.455	98.5
448.675	101.5
448.896	130.5
449.117	101.5
449.338	122.5
449.559	151.5
449.779	159.5
450	106.5
450.221	90.5
450.442	104.5
450.662	119.5
450.883	119.5
451.104	140.5
451.324	110.5
451.545	92.5
451.766	87.5
451.986	87.5
452.207	94.5
452.428	109.5
452.648	107.5
452.869	133.5
453.089	152.5
453.31	136.5
453.53	107.5
453.751	96.5
453.971	109.5
454.192	140.5
454.412	97.5
454.633	98.5
454.853	89.5
455.073	93.5
455.294	92.5
455.514	102.5
455.734	104.5
455.955	94.5
456.175	92.5
456.395	81.5
456.616	86.5
456.836	93.5
457.056	103.5
457.276	83.5
457.497	95.5
457.717	88.5
457.937	92.5
458.157	95.5
458.377	97.5
458.598	130.5
458.818	218.5
459.038	230.5
459.258	156.5
459.478	97.5
459.698	83.5
459.918	86.5
460.138	79.5
460.358	96.5
460.578	92.5
460.798	103.5
461.018	90.5
461.238	84.5
461.458	87.5
461.678	86.5
461.898	87.5
462.118	87.5
462.338	92.5
462.558	100.5
462.777	92.5
462.997	88.5
463.217	86.5
463.437	90.5
463.657	101.5
463.876	93.5
464.096	98.5
464.316	86.5
464.536	106.5
464.755	110.5
464.975	137.5
465.195	228.5
465.414	229.5
465.634	104.5
465.854	88.5
466.073	98.5
466.293	78.5
466.512	86.5
466.732	85.5
466.951	86.5
467.171	97.5
467.391	96.5
467.61	122.5
467.829	119.5
468.049	96.5
468.268	108.5
468.488	69.5
468.707	90.5
468.927	86.5
469.146	94.5
469.365	93.5
469.585	94.5
469.804	106.5
470.023	103.5
470.243	108.5
470.462	130.5
470.681	134.5
470.901	94.5
471.12	93.5
471.339	80.5
471.558	92.5
471.777	91.5
471.997	97.5
472.216	98.5
472.435	97.5
472.654	83.5
472.873	88.5
473.092	88.5
473.311	80.5
473.53	84.5
473.749	92.5
473.968	99.5
474.187	110.5
474.406	103.5
474.625	97.5
474.844	100.5
475.063	92.5
475.282	95.5
475.501	75.5
475.72	87.5
475.939	101.5
476.158	76.5
476.377	92.5
476.596	83.5
476.814	92.5
477.033	98.5
477.252	101.5
477.471	102.5
477.69	102.5
477.908	93.5
478.127	91.5
478.346	85.5
478.564	88.5
478.783	114.5
479.002	109.5
479.22	103.5
479.439	122.5
479.658	124.5
479.876	102.5
480.095	90.5
480.313	100.5
480.532	95.5
480.751	89.5
480.969	92.5
481.188	106.5
481.406	110.5
481.624	106.5
481.843	97.5
482.061	88.5
482.28	81.5
482.498	92.5
482.717	94.5
482.935	105.5
483.153	91.5
483.372	89.5
483.59	85.5
483.808	98.5
484.027	96.5
484.245	96.5
484.463	95.5
484.681	106.5
484.9	94.5
485.118	105.5
485.336	91.5
485.554	86.5
485.772	103.5
485.99	109.5
486.209	97.5
486.427	111.5
486.645	120.5
486.863	126.5
487.081	111.5
487.299	107.5
487.517	95.5
487.735	76.5
487.953	103.5
488.171	98.5
488.389	97.5
488.607	92.5
488.825	96.5
489.043	96.5
489.261	92.5
489.479	93.5
489.696	98.5
489.914	96.5
490.132	94.5
490.35	91.5
490.568	89.5
490.786	96.5
491.003	100.5
491.221	87.5
491.439	84.5
491.657	88.5
491.874	79.5
492.092	85.5
492.31	91.5
492.527	94.5
492.745	100.5
492.963	86.5
493.18	100.5
493.398	88.5
493.615	94.5
493.833	98.5
494.05	84.5
494.268	82.5
494.485	87.5
494.703	87.5
494.92	94.5
495.138	89.5
495.355	98.5
495.573	89.5
495.79	88.5
496.008	87.5
496.225	102.5
496.442	90.5
496.66	98.5
496.877	87.5
497.094	99.5
497.312	97.5
497.529	91.5
497.746	75.5
497.963	85.5
498.181	98.5
498.398	113.5
498.615	129.5
498.832	120.5
499.049	99.5
499.267	85.5
499.484	86.5
499.701	107.5
499.918	101.5
500.135	92.5
500.352	92.5
500.569	98.5
500.786	114.5
501.003	85.5
501.22	84.5
501.437	101.5
501.654	109.5
501.871	132.5
502.088	88.5
502.305	80.5
502.522	87.5
502.739	101.5
502.956	94.5
503.172	86.5
503.389	103.5
503.606	114.5
503.823	102.5
504.04	93.5
504.256	106.5
504.473	80.5
504.69	70.5
504.907	102.5
505.123	93.5
505.34	75.5
505.557	98.5
505.773	102.5
505.99	84.5
506.207	95.5
506.423	85.5
506.64	96.5
506.856	85.5
507.073	93.5
507.289	96.5
507.506	100.5
507.722	136.5
507.939	145.5
508.155	111.5
508.372	88.5
508.588	112.5
508.805	105.5
509.021	101.5
509.238	106.5
509.454	114.5
509.67	102.5
509.887	109.5
510.103	171.5
510.319	252.5
510.536	1027.5
510.752	3668.5
510.968	1000.5
511.184	204.5
511.401	131.5
511.617	103.5
511.833	90.5
512.049	80.5
512.265	101.5
512.481	104.5
512.698	95.5
512.914	94.5
513.13	101.5
513.346	100.5
513.562	96.5
513.778	97.5
513.994	94.5
514.21	116.5
514.426	141.5
514.642	194.5
514.858	174.5
515.074	224.5
515.29	704.5
515.506	2615.5
515.721	928.5
515.937	228.5
516.153	128.5
516.369	113.5
516.585	92.5
516.801	92.5
517.016	102.5
517.232	105.5
517.448	95.5
517.664	112.5
517.879	99.5
518.095	114.5
518.311	96.5
518.527	115.5
518.742	105.5
518.958	108.5
519.173	95.5
519.389	95.5
519.605	101.5
519.82	118.5
520.036	118.5
520.251	155.5
520.467	142.5
520.682	121.5
520.898	118.5
521.113	132.5
521.329	188.5
521.544	292.5
521.76	948.5
521.975	4333.5
522.19	2661.5
522.406	507.5
522.621	173.5
522.836	122.5
523.052	108.5
523.267	92.5
523.482	109.5
523.698	121.5
523.913	144.5
524.128	110.5
524.343	107.5
524.559	103.5
524.774	98.5
524.989	99.5
525.204	119.5
525.419	115.5
525.634	97.5
525.849	87.5
526.064	100.5
526.28	98.5
526.495	97.5
526.71	89.5
526.925	83.5
527.14	99.5
527.355	91.5
527.57	73.5
527.785	80.5
527.999	88.5
528.214	97.5
528.429	99.5
528.644	101.5
528.859	88.5
529.074	98.5
529.289	166.5
529.503	268.5
529.718	133.5
529.933	90.5
530.148	82.5
530.363	112.5
530.577	93.5
530.792	94.5
531.007	83.5
531.221	99.5
531.436	108.5
531.651	99.5
531.865	85.5
532.08	101.5
532.295	117.5
