Data from Circ_2014_H10_HRD10591_00016.txt Node
Date: Wed Jan 03 10:02:12 EST 2024
User: Yrep
Spectrometer: HR+D1059
Trigger mode: 1
Integration Time (sec): 1.000000E-1
Scans to average: 1
Electric dark correction enabled: true
Nonlinearity correction enabled: false
Boxcar width: 0
XAxis mode: Wavelengths
Number of Pixels in Spectrum: 2048
>>>>>Begin Spectral Data<<<<<
223.165	-0.88
223.4	-0.88
223.635	-0.88
223.869	-15.88
224.104	-26.88
224.338	-18.88
224.573	-18.88
224.808	-7.88
225.042	-14.88
225.277	-15.88
225.511	6.12
225.746	1.12
225.98	11.12
226.215	4.12
226.449	22.12
226.683	10.12
226.918	30.12
227.152	35.12
227.387	36.12
227.621	34.12
227.856	47.12
228.09	59.12
228.324	66.12
228.559	68.12
228.793	54.12
229.027	69.12
229.262	63.12
229.496	64.12
229.73	85.12
229.964	88.12
230.199	89.12
230.433	87.12
230.667	83.12
230.901	67.12
231.136	84.12
231.37	78.12
231.604	87.12
231.838	78.12
232.072	78.12
232.306	69.12
232.541	80.12
232.775	91.12
233.009	74.12
233.243	72.12
233.477	71.12
233.711	76.12
233.945	79.12
234.179	84.12
234.413	90.12
234.647	64.12
234.881	86.12
235.115	90.12
235.349	82.12
235.583	85.12
235.817	79.12
236.051	82.12
236.285	74.12
236.519	73.12
236.753	80.12
236.987	78.12
237.221	88.12
237.455	99.12
237.689	68.12
237.922	85.12
238.156	78.12
238.39	71.12
238.624	79.12
238.858	91.12
239.091	70.12
239.325	88.12
239.559	92.12
239.793	74.12
240.027	78.12
240.26	76.12
240.494	88.12
240.728	88.12
240.961	91.12
241.195	79.12
241.429	63.12
241.662	81.12
241.896	67.12
242.13	68.12
242.363	85.12
242.597	63.12
242.83	56.12
243.064	74.12
243.298	77.12
243.531	75.12
243.765	86.12
243.998	85.12
244.232	88.12
244.465	86.12
244.699	80.12
244.932	84.12
245.166	75.12
245.399	88.12
245.633	81.12
245.866	73.12
246.099	85.12
246.333	75.12
246.566	96.12
246.8	86.12
247.033	86.12
247.266	84.12
247.5	80.12
247.733	78.12
247.966	75.12
248.2	95.12
248.433	86.12
248.666	79.12
248.899	87.12
249.133	90.12
249.366	105.12
249.599	107.12
249.832	91.12
250.066	85.12
250.299	85.12
250.532	89.12
250.765	76.12
250.998	93.12
251.231	73.12
251.465	68.12
251.698	84.12
251.931	97.12
252.164	89.12
252.397	86.12
252.63	68.12
252.863	84.12
253.096	89.12
253.329	91.12
253.562	79.12
253.795	83.12
254.028	83.12
254.261	86.12
254.494	83.12
254.727	75.12
254.96	79.12
255.193	88.12
255.426	74.12
255.659	85.12
255.892	76.12
256.124	96.12
256.357	95.12
256.59	94.12
256.823	85.12
257.056	89.12
257.289	84.12
257.521	90.12
257.754	75.12
257.987	76.12
258.22	80.12
258.452	86.12
258.685	86.12
258.918	93.12
259.151	74.12
259.383	71.12
259.616	88.12
259.849	83.12
260.081	89.12
260.314	89.12
260.547	81.12
260.779	95.12
261.012	73.12
261.244	77.12
261.477	96.12
261.71	95.12
261.942	146.12
262.175	133.12
262.407	106.12
262.64	78.12
262.872	80.12
263.105	73.12
263.337	85.12
263.57	83.12
263.802	83.12
264.035	101.12
264.267	89.12
264.499	84.12
264.732	68.12
264.964	82.12
265.197	85.12
265.429	84.12
265.661	79.12
265.894	93.12
266.126	84.12
266.358	87.12
266.591	87.12
266.823	86.12
267.055	81.12
267.287	71.12
267.52	87.12
267.752	82.12
267.984	73.12
268.216	79.12
268.448	96.12
268.681	77.12
268.913	88.12
269.145	67.12
269.377	89.12
269.609	76.12
269.841	93.12
270.073	79.12
270.306	79.12
270.538	81.12
270.77	85.12
271.002	90.12
271.234	82.12
271.466	79.12
271.698	79.12
271.93	91.12
272.162	88.12
272.394	94.12
272.626	84.12
272.858	91.12
273.09	85.12
273.322	88.12
273.553	82.12
273.785	88.12
274.017	71.12
274.249	83.12
274.481	101.12
274.713	96.12
274.945	100.12
275.176	92.12
275.408	87.12
275.64	79.12
275.872	86.12
276.104	100.12
276.335	93.12
276.567	111.12
276.799	132.12
277.031	113.12
277.262	98.12
277.494	92.12
277.726	76.12
277.957	95.12
278.189	92.12
278.421	88.12
278.652	94.12
278.884	87.12
279.115	79.12
279.347	91.12
279.579	84.12
279.81	81.12
280.042	83.12
280.273	87.12
280.505	94.12
280.736	98.12
280.968	94.12
281.199	83.12
281.431	104.12
281.662	91.12
281.894	90.12
282.125	92.12
282.356	127.12
282.588	159.12
282.819	128.12
283.051	93.12
283.282	90.12
283.513	89.12
283.745	84.12
283.976	93.12
284.207	88.12
284.439	84.12
284.67	96.12
284.901	85.12
285.132	94.12
285.364	81.12
285.595	83.12
285.826	78.12
286.057	102.12
286.288	72.12
286.52	79.12
286.751	92.12
286.982	87.12
287.213	89.12
287.444	88.12
287.675	89.12
287.906	90.12
288.138	90.12
288.369	107.12
288.6	94.12
288.831	87.12
289.062	94.12
289.293	93.12
289.524	100.12
289.755	107.12
289.986	98.12
290.217	88.12
290.448	84.12
290.679	93.12
290.91	93.12
291.141	89.12
291.371	96.12
291.602	93.12
291.833	96.12
292.064	102.12
292.295	84.12
292.526	96.12
292.757	83.12
292.987	91.12
293.218	87.12
293.449	88.12
293.68	96.12
293.91	96.12
294.141	118.12
294.372	91.12
294.603	87.12
294.833	90.12
295.064	102.12
295.295	101.12
295.525	102.12
295.756	110.12
295.987	120.12
296.217	159.12
296.448	160.12
296.679	91.12
296.909	80.12
297.14	81.12
297.37	90.12
297.601	84.12
297.831	84.12
298.062	95.12
298.292	109.12
298.523	91.12
298.753	89.12
298.984	79.12
299.214	89.12
299.445	95.12
299.675	104.12
299.905	104.12
300.136	94.12
300.366	82.12
300.597	77.12
300.827	97.12
301.057	100.12
301.288	106.12
301.518	108.12
301.748	90.12
301.979	94.12
302.209	94.12
302.439	85.12
302.669	95.12
302.9	90.12
303.13	97.12
303.36	100.12
303.59	109.12
303.82	92.12
304.051	118.12
304.281	80.12
304.511	102.12
304.741	94.12
304.971	102.12
305.201	79.12
305.431	83.12
305.661	90.12
305.891	96.12
306.121	82.12
306.352	102.12
306.582	110.12
306.812	102.12
307.042	96.12
307.272	101.12
307.502	94.12
307.731	99.12
307.961	91.12
308.191	92.12
308.421	89.12
308.651	91.12
308.881	87.12
309.111	87.12
309.341	108.12
309.571	110.12
309.8	97.12
310.03	112.12
310.26	103.12
310.49	102.12
310.72	99.12
310.949	111.12
311.179	104.12
311.409	101.12
311.639	103.12
311.868	92.12
312.098	82.12
312.328	92.12
312.557	107.12
312.787	128.12
313.017	108.12
313.246	98.12
313.476	85.12
313.706	97.12
313.935	100.12
314.165	104.12
314.394	116.12
314.624	90.12
314.853	110.12
315.083	101.12
315.312	102.12
315.542	87.12
315.771	76.12
316.001	106.12
316.23	101.12
316.46	104.12
316.689	101.12
316.919	105.12
317.148	106.12
317.377	105.12
317.607	103.12
317.836	101.12
318.065	82.12
318.295	88.12
318.524	92.12
318.753	100.12
318.983	98.12
319.212	101.12
319.441	121.12
319.67	113.12
319.9	102.12
320.129	94.12
320.358	95.12
320.587	98.12
320.816	105.12
321.046	108.12
321.275	103.12
321.504	94.12
321.733	93.12
321.962	110.12
322.191	121.12
322.42	129.12
322.649	126.12
322.878	117.12
323.108	136.12
323.337	138.12
323.566	147.12
323.795	175.12
324.024	243.12
324.253	463.12
324.482	1023.12
324.71	2103.12
324.939	2777.12
325.168	1011.12
325.397	291.12
325.626	164.12
325.855	146.12
326.084	134.12
326.313	137.12
326.542	166.12
326.77	257.12
326.999	544.12
327.228	1121.12
327.457	2093.12
327.686	1631.12
327.914	447.12
328.143	218.12
328.372	179.12
328.6	140.12
328.829	127.12
329.058	157.12
329.287	156.12
329.515	122.12
329.744	96.12
329.972	102.12
330.201	121.12
330.43	135.12
330.658	136.12
330.887	157.12
331.115	143.12
331.344	98.12
331.572	125.12
331.801	108.12
332.03	112.12
332.258	99.12
332.486	94.12
332.715	89.12
332.943	103.12
333.172	103.12
333.4	97.12
333.629	124.12
333.857	126.12
334.085	121.12
334.314	84.12
334.542	110.12
334.771	125.12
334.999	102.12
335.227	101.12
335.455	90.12
335.684	94.12
335.912	118.12
336.14	105.12
336.369	91.12
336.597	103.12
336.825	97.12
337.053	103.12
337.281	99.12
337.51	111.12
337.738	96.12
337.966	95.12
338.194	97.12
338.422	92.12
338.65	99.12
338.878	104.12
339.106	108.12
339.334	94.12
339.562	102.12
339.79	88.12
340.018	91.12
340.246	104.12
340.474	107.12
340.702	100.12
340.93	95.12
341.158	95.12
341.386	88.12
341.614	98.12
341.842	91.12
342.07	96.12
342.298	78.12
342.526	93.12
342.754	86.12
342.981	93.12
343.209	94.12
343.437	99.12
343.665	94.12
343.893	85.12
344.12	87.12
344.348	90.12
344.576	106.12
344.804	97.12
345.031	120.12
345.259	107.12
345.487	94.12
345.714	96.12
345.942	95.12
346.17	105.12
346.397	103.12
346.625	99.12
346.853	101.12
347.08	87.12
347.308	104.12
347.535	98.12
347.763	105.12
347.99	109.12
348.218	113.12
348.445	125.12
348.673	108.12
348.9	115.12
349.128	100.12
349.355	87.12
349.583	97.12
349.81	100.12
350.037	79.12
350.265	101.12
350.492	103.12
350.72	113.12
350.947	94.12
351.174	123.12
351.402	131.12
351.629	104.12
351.856	106.12
352.083	100.12
352.311	128.12
352.538	120.12
352.765	103.12
352.992	125.12
353.22	121.12
353.447	106.12
353.674	109.12
353.901	101.12
354.128	94.12
354.355	101.12
354.583	105.12
354.81	101.12
355.037	105.12
355.264	100.12
355.491	96.12
355.718	85.12
355.945	108.12
356.172	98.12
356.399	99.12
356.626	111.12
356.853	89.12
357.08	94.12
357.307	87.12
357.534	78.12
357.761	105.12
357.988	88.12
358.215	103.12
358.441	115.12
358.668	106.12
358.895	89.12
359.122	101.12
359.349	85.12
359.576	91.12
359.802	117.12
360.029	127.12
360.256	121.12
360.483	100.12
360.709	76.12
360.936	95.12
361.163	104.12
361.39	78.12
361.616	98.12
361.843	90.12
362.07	89.12
362.296	94.12
362.523	78.12
362.749	110.12
362.976	97.12
363.203	75.12
363.429	91.12
363.656	88.12
363.882	96.12
364.109	100.12
364.335	105.12
364.562	90.12
364.788	105.12
365.015	91.12
365.241	98.12
365.468	110.12
365.694	110.12
365.92	99.12
366.147	111.12
366.373	97.12
366.599	84.12
366.826	89.12
367.052	98.12
367.278	97.12
367.505	107.12
367.731	94.12
367.957	104.12
368.184	115.12
368.41	112.12
368.636	117.12
368.862	125.12
369.089	107.12
369.315	91.12
369.541	89.12
369.767	92.12
369.993	97.12
370.219	105.12
370.445	86.12
370.672	101.12
370.898	92.12
371.124	90.12
371.35	94.12
371.576	95.12
371.802	86.12
372.028	100.12
372.254	89.12
372.48	96.12
372.706	69.12
372.932	91.12
373.158	91.12
373.384	88.12
373.61	99.12
373.835	97.12
374.061	98.12
374.287	88.12
374.513	89.12
374.739	79.12
374.965	90.12
375.191	80.12
375.416	109.12
375.642	87.12
375.868	102.12
376.094	88.12
376.319	99.12
376.545	84.12
376.771	81.12
376.997	107.12
377.222	83.12
377.448	79.12
377.674	99.12
377.899	100.12
378.125	80.12
378.35	90.12
378.576	90.12
378.802	98.12
379.027	99.12
379.253	95.12
379.478	91.12
379.704	111.12
379.929	96.12
380.155	93.12
380.38	101.12
380.606	94.12
380.831	87.12
381.057	104.12
381.282	97.12
381.507	111.12
381.733	104.12
381.958	101.12
382.184	91.12
382.409	112.12
382.634	104.12
382.86	111.12
383.085	96.12
383.31	108.12
383.535	101.12
383.761	101.12
383.986	96.12
384.211	96.12
384.436	106.12
384.662	115.12
384.887	100.12
385.112	115.12
385.337	119.12
385.562	93.12
385.787	115.12
386.013	125.12
386.238	125.12
386.463	112.12
386.688	117.12
386.913	111.12
387.138	121.12
387.363	102.12
387.588	104.12
387.813	108.12
388.038	110.12
388.263	133.12
388.488	103.12
388.713	117.12
388.938	81.12
389.163	99.12
389.387	112.12
389.612	91.12
389.837	97.12
390.062	92.12
390.287	86.12
390.512	86.12
390.736	97.12
390.961	91.12
391.186	94.12
391.411	96.12
391.636	76.12
391.86	77.12
392.085	90.12
392.31	85.12
392.534	78.12
392.759	87.12
392.984	100.12
393.208	120.12
393.433	108.12
393.658	98.12
393.882	101.12
394.107	96.12
394.331	101.12
394.556	80.12
394.78	104.12
395.005	95.12
395.229	79.12
395.454	92.12
395.678	83.12
395.903	112.12
396.127	91.12
396.352	75.12
396.576	92.12
396.801	91.12
397.025	92.12
397.249	90.12
397.474	95.12
397.698	88.12
397.922	81.12
398.147	88.12
398.371	78.12
398.595	100.12
398.82	92.12
399.044	81.12
399.268	89.12
399.492	90.12
399.717	98.12
399.941	98.12
400.165	107.12
400.389	91.12
400.613	95.12
400.837	91.12
401.062	99.12
401.286	91.12
401.51	93.12
401.734	93.12
401.958	104.12
402.182	129.12
402.406	203.12
402.63	133.12
402.854	102.12
403.078	100.12
403.302	87.12
403.526	97.12
403.75	84.12
403.974	85.12
404.198	92.12
404.422	105.12
404.645	90.12
404.869	80.12
405.093	99.12
405.317	99.12
405.541	134.12
405.765	103.12
405.988	131.12
406.212	207.12
406.436	307.12
406.66	197.12
406.883	104.12
407.107	100.12
407.331	103.12
407.555	106.12
407.778	101.12
408.002	83.12
408.226	91.12
408.449	84.12
408.673	86.12
408.896	104.12
409.12	104.12
409.344	93.12
409.567	78.12
409.791	89.12
410.014	95.12
410.238	112.12
410.461	102.12
410.685	102.12
410.908	95.12
411.132	102.12
411.355	86.12
411.578	97.12
411.802	91.12
412.025	93.12
412.249	89.12
412.472	94.12
412.695	93.12
412.919	92.12
413.142	95.12
413.365	92.12
413.589	103.12
413.812	83.12
414.035	90.12
414.258	96.12
414.482	91.12
414.705	99.12
414.928	91.12
415.151	106.12
415.374	92.12
415.597	84.12
415.821	85.12
416.044	87.12
416.267	97.12
416.49	91.12
416.713	83.12
416.936	88.12
417.159	81.12
417.382	81.12
417.605	87.12
417.828	101.12
418.051	103.12
418.274	87.12
418.497	102.12
418.72	91.12
418.943	86.12
419.166	83.12
419.389	89.12
419.611	87.12
419.834	83.12
420.057	90.12
420.28	85.12
420.503	95.12
420.726	95.12
420.948	88.12
421.171	102.12
421.394	96.12
421.617	87.12
421.839	92.12
422.062	95.12
422.285	81.12
422.507	95.12
422.73	104.12
422.953	103.12
423.175	92.12
423.398	85.12
423.621	75.12
423.843	92.12
424.066	99.12
424.288	91.12
424.511	87.12
424.733	94.12
424.956	111.12
425.178	100.12
425.401	108.12
425.623	95.12
425.846	111.12
426.068	101.12
426.291	102.12
426.513	91.12
426.735	89.12
426.958	94.12
427.18	99.12
427.402	150.12
427.625	187.12
427.847	141.12
428.069	120.12
428.292	89.12
428.514	87.12
428.736	84.12
428.958	77.12
429.181	88.12
429.403	95.12
429.625	85.12
429.847	93.12
430.069	97.12
430.292	85.12
430.514	69.12
430.736	89.12
430.958	100.12
431.18	94.12
431.402	85.12
431.624	106.12
431.846	85.12
432.068	84.12
432.29	90.12
432.512	95.12
432.734	78.12
432.956	82.12
433.178	100.12
433.4	98.12
433.622	102.12
433.844	86.12
434.066	87.12
434.287	89.12
434.509	98.12
434.731	97.12
434.953	87.12
435.175	106.12
435.397	89.12
435.618	90.12
435.84	107.12
436.062	108.12
436.284	128.12
436.505	95.12
436.727	103.12
436.949	95.12
437.17	90.12
437.392	87.12
437.614	99.12
437.835	119.12
438.057	113.12
438.278	116.12
438.5	109.12
438.721	127.12
438.943	109.12
439.165	89.12
439.386	90.12
439.608	86.12
439.829	95.12
440.05	122.12
440.272	153.12
440.493	117.12
440.715	93.12
440.936	88.12
441.158	96.12
441.379	107.12
441.6	108.12
441.822	89.12
442.043	105.12
442.264	95.12
442.486	112.12
442.707	101.12
442.928	105.12
443.149	154.12
443.371	173.12
443.592	121.12
443.813	127.12
444.034	119.12
444.255	93.12
444.476	87.12
444.698	84.12
444.919	81.12
445.14	118.12
445.361	135.12
445.582	143.12
445.803	157.12
446.024	160.12
446.245	150.12
446.466	128.12
446.687	92.12
446.908	96.12
447.129	96.12
447.35	90.12
447.571	101.12
447.792	82.12
448.013	96.12
448.234	127.12
448.455	112.12
448.675	141.12
448.896	124.12
449.117	116.12
449.338	118.12
449.559	144.12
449.779	130.12
450	92.12
450.221	93.12
450.442	95.12
450.662	95.12
450.883	122.12
451.104	119.12
451.324	101.12
451.545	99.12
451.766	77.12
451.986	97.12
452.207	84.12
452.428	105.12
452.648	90.12
452.869	136.12
453.089	129.12
453.31	136.12
453.53	97.12
453.751	85.12
453.971	117.12
454.192	122.12
454.412	96.12
454.633	76.12
454.853	91.12
455.073	81.12
455.294	89.12
455.514	104.12
455.734	94.12
455.955	83.12
456.175	72.12
456.395	90.12
456.616	91.12
456.836	86.12
457.056	73.12
457.276	85.12
457.497	73.12
457.717	91.12
457.937	80.12
458.157	92.12
458.377	104.12
458.598	128.12
458.818	182.12
459.038	185.12
459.258	116.12
459.478	89.12
459.698	97.12
459.918	71.12
460.138	83.12
460.358	93.12
460.578	94.12
460.798	94.12
461.018	79.12
461.238	82.12
461.458	85.12
461.678	74.12
461.898	74.12
462.118	87.12
462.338	87.12
462.558	77.12
462.777	94.12
462.997	91.12
463.217	86.12
463.437	85.12
463.657	91.12
463.876	85.12
464.096	93.12
464.316	93.12
464.536	105.12
464.755	100.12
464.975	117.12
465.195	206.12
465.414	184.12
465.634	117.12
465.854	90.12
466.073	89.12
466.293	89.12
466.512	101.12
466.732	75.12
466.951	84.12
467.171	89.12
467.391	92.12
467.61	115.12
467.829	101.12
468.049	90.12
468.268	109.12
468.488	91.12
468.707	88.12
468.927	80.12
469.146	81.12
469.365	86.12
469.585	78.12
469.804	103.12
470.023	100.12
470.243	112.12
470.462	105.12
470.681	116.12
470.901	113.12
471.12	95.12
471.339	84.12
471.558	105.12
471.777	86.12
471.997	89.12
472.216	88.12
472.435	113.12
472.654	80.12
472.873	83.12
473.092	92.12
473.311	101.12
473.53	93.12
473.749	100.12
473.968	108.12
474.187	110.12
474.406	110.12
474.625	91.12
474.844	79.12
475.063	97.12
475.282	90.12
475.501	81.12
475.72	112.12
475.939	97.12
476.158	95.12
476.377	70.12
476.596	99.12
476.814	102.12
477.033	86.12
477.252	93.12
477.471	84.12
477.69	93.12
477.908	84.12
478.127	83.12
478.346	83.12
478.564	88.12
478.783	104.12
479.002	102.12
479.22	100.12
479.439	103.12
479.658	125.12
479.876	115.12
480.095	93.12
480.313	89.12
480.532	85.12
480.751	95.12
480.969	91.12
481.188	124.12
481.406	109.12
481.624	87.12
481.843	86.12
482.061	75.12
482.28	94.12
482.498	85.12
482.717	89.12
482.935	98.12
483.153	102.12
483.372	94.12
483.59	87.12
483.808	87.12
484.027	88.12
484.245	93.12
484.463	99.12
484.681	99.12
484.9	100.12
485.118	89.12
485.336	89.12
485.554	107.12
485.772	101.12
485.99	96.12
486.209	103.12
486.427	107.12
486.645	111.12
486.863	110.12
487.081	118.12
487.299	96.12
487.517	87.12
487.735	91.12
487.953	91.12
488.171	96.12
488.389	93.12
488.607	106.12
488.825	83.12
489.043	96.12
489.261	87.12
489.479	89.12
489.696	92.12
489.914	90.12
490.132	97.12
490.35	113.12
490.568	103.12
490.786	102.12
491.003	85.12
491.221	91.12
491.439	82.12
491.657	96.12
491.874	90.12
492.092	89.12
492.31	89.12
492.527	105.12
492.745	94.12
492.963	100.12
493.18	113.12
493.398	97.12
493.615	102.12
493.833	104.12
494.05	100.12
494.268	95.12
494.485	88.12
494.703	85.12
494.92	83.12
495.138	92.12
495.355	87.12
495.573	105.12
495.79	96.12
496.008	92.12
496.225	81.12
496.442	87.12
496.66	74.12
496.877	103.12
497.094	96.12
497.312	84.12
497.529	81.12
497.746	88.12
497.963	89.12
498.181	98.12
498.398	85.12
498.615	132.12
498.832	119.12
499.049	88.12
499.267	86.12
499.484	82.12
499.701	107.12
499.918	83.12
500.135	77.12
500.352	97.12
500.569	87.12
500.786	95.12
501.003	95.12
501.22	87.12
501.437	91.12
501.654	108.12
501.871	108.12
502.088	88.12
502.305	87.12
502.522	93.12
502.739	87.12
502.956	78.12
503.172	81.12
503.389	91.12
503.606	110.12
503.823	105.12
504.04	98.12
504.256	92.12
504.473	87.12
504.69	89.12
504.907	98.12
505.123	85.12
505.34	101.12
505.557	86.12
505.773	92.12
505.99	99.12
506.207	77.12
506.423	101.12
506.64	92.12
506.856	81.12
507.073	93.12
507.289	106.12
507.506	107.12
507.722	123.12
507.939	122.12
508.155	99.12
508.372	87.12
508.588	104.12
508.805	109.12
509.021	103.12
509.238	101.12
509.454	98.12
509.67	104.12
509.887	116.12
510.103	155.12
510.319	250.12
510.536	925.12
510.752	3232.12
510.968	902.12
511.184	195.12
511.401	125.12
511.617	108.12
511.833	87.12
512.049	87.12
512.265	85.12
512.481	87.12
512.698	89.12
512.914	106.12
513.13	95.12
513.346	106.12
513.562	91.12
513.778	100.12
