Data from Circ_2022_H10_HRD10591_00033.txt Node
Date: Wed Jan 03 09:53:44 EST 2024
User: Yrep
Spectrometer: HR+D1059
Trigger mode: 1
Integration Time (sec): 1.000000E-1
Scans to average: 1
Electric dark correction enabled: true
Nonlinearity correction enabled: false
Boxcar width: 0
XAxis mode: Wavelengths
Number of Pixels in Spectrum: 2048
>>>>>Begin Spectral Data<<<<<
223.165	-24.19
223.4	-24.19
223.635	-24.19
223.869	-20.19
224.104	-9.19
224.338	-28.19
224.573	-9.19
224.808	-17.19
225.042	-9.19
225.277	0.81
225.511	1.81
225.746	5.81
225.98	12.81
226.215	7.81
226.449	3.81
226.683	15.81
226.918	30.81
227.152	37.81
227.387	41.81
227.621	30.81
227.856	35.81
228.09	46.81
228.324	49.81
228.559	59.81
228.793	67.81
229.027	62.81
229.262	58.81
229.496	74.81
229.73	86.81
229.964	86.81
230.199	87.81
230.433	83.81
230.667	73.81
230.901	73.81
231.136	67.81
231.37	73.81
231.604	73.81
231.838	89.81
232.072	75.81
232.306	85.81
232.541	74.81
232.775	74.81
233.009	78.81
233.243	79.81
233.477	65.81
233.711	77.81
233.945	88.81
234.179	70.81
234.413	86.81
234.647	75.81
234.881	80.81
235.115	88.81
235.349	77.81
235.583	80.81
235.817	61.81
236.051	67.81
236.285	71.81
236.519	74.81
236.753	84.81
236.987	82.81
237.221	87.81
237.455	94.81
237.689	99.81
237.922	72.81
238.156	79.81
238.39	90.81
238.624	71.81
238.858	80.81
239.091	79.81
239.325	63.81
239.559	95.81
239.793	90.81
240.027	75.81
240.26	84.81
240.494	85.81
240.728	82.81
240.961	70.81
241.195	71.81
241.429	74.81
241.662	79.81
241.896	88.81
242.13	71.81
242.363	76.81
242.597	87.81
242.83	72.81
243.064	86.81
243.298	79.81
243.531	93.81
243.765	81.81
243.998	84.81
244.232	71.81
244.465	80.81
244.699	86.81
244.932	86.81
245.166	66.81
245.399	81.81
245.633	80.81
245.866	82.81
246.099	75.81
246.333	70.81
246.566	87.81
246.8	80.81
247.033	77.81
247.266	87.81
247.5	94.81
247.733	88.81
247.966	74.81
248.2	81.81
248.433	80.81
248.666	77.81
248.899	73.81
249.133	89.81
249.366	98.81
249.599	92.81
249.832	70.81
250.066	87.81
250.299	82.81
250.532	75.81
250.765	73.81
250.998	67.81
251.231	85.81
251.465	68.81
251.698	81.81
251.931	84.81
252.164	86.81
252.397	80.81
252.63	88.81
252.863	84.81
253.096	88.81
253.329	87.81
253.562	85.81
253.795	64.81
254.028	84.81
254.261	76.81
254.494	60.81
254.727	71.81
254.96	80.81
255.193	68.81
255.426	81.81
255.659	79.81
255.892	85.81
256.124	82.81
256.357	94.81
256.59	88.81
256.823	94.81
257.056	92.81
257.289	73.81
257.521	65.81
257.754	89.81
257.987	87.81
258.22	79.81
258.452	78.81
258.685	79.81
258.918	75.81
259.151	71.81
259.383	87.81
259.616	75.81
259.849	79.81
260.081	81.81
260.314	78.81
260.547	79.81
260.779	88.81
261.012	71.81
261.244	80.81
261.477	85.81
261.71	104.81
261.942	128.81
262.175	127.81
262.407	94.81
262.64	98.81
262.872	80.81
263.105	92.81
263.337	78.81
263.57	81.81
263.802	91.81
264.035	90.81
264.267	66.81
264.499	89.81
264.732	88.81
264.964	78.81
265.197	81.81
265.429	93.81
265.661	79.81
265.894	72.81
266.126	79.81
266.358	74.81
266.591	82.81
266.823	83.81
267.055	90.81
267.287	90.81
267.52	94.81
267.752	93.81
267.984	98.81
268.216	91.81
268.448	77.81
268.681	67.81
268.913	84.81
269.145	88.81
269.377	86.81
269.609	88.81
269.841	75.81
270.073	87.81
270.306	93.81
270.538	78.81
270.77	74.81
271.002	95.81
271.234	90.81
271.466	79.81
271.698	79.81
271.93	79.81
272.162	95.81
272.394	87.81
272.626	77.81
272.858	89.81
273.09	75.81
273.322	88.81
273.553	87.81
273.785	93.81
274.017	76.81
274.249	83.81
274.481	79.81
274.713	100.81
274.945	99.81
275.176	86.81
275.408	89.81
275.64	95.81
275.872	90.81
276.104	88.81
276.335	86.81
276.567	106.81
276.799	111.81
277.031	111.81
277.262	87.81
277.494	102.81
277.726	77.81
277.957	69.81
278.189	91.81
278.421	84.81
278.652	88.81
278.884	94.81
279.115	91.81
279.347	81.81
279.579	92.81
279.81	96.81
280.042	93.81
280.273	98.81
280.505	89.81
280.736	94.81
280.968	91.81
281.199	75.81
281.431	95.81
281.662	84.81
281.894	93.81
282.125	106.81
282.356	136.81
282.588	164.81
282.819	128.81
283.051	91.81
283.282	83.81
283.513	92.81
283.745	90.81
283.976	85.81
284.207	97.81
284.439	87.81
284.67	86.81
284.901	89.81
285.132	94.81
285.364	82.81
285.595	88.81
285.826	82.81
286.057	76.81
286.288	97.81
286.52	81.81
286.751	76.81
286.982	100.81
287.213	79.81
287.444	83.81
287.675	87.81
287.906	84.81
288.138	89.81
288.369	91.81
288.6	99.81
288.831	86.81
289.062	79.81
289.293	95.81
289.524	66.81
289.755	94.81
289.986	95.81
290.217	96.81
290.448	88.81
290.679	78.81
290.91	78.81
291.141	87.81
291.371	73.81
291.602	93.81
291.833	77.81
292.064	87.81
292.295	80.81
292.526	79.81
292.757	98.81
292.987	86.81
293.218	90.81
293.449	107.81
293.68	93.81
293.91	85.81
294.141	89.81
294.372	86.81
294.603	80.81
294.833	85.81
295.064	97.81
295.295	91.81
295.525	86.81
295.756	97.81
295.987	127.81
296.217	158.81
296.448	139.81
296.679	100.81
296.909	83.81
297.14	89.81
297.37	89.81
297.601	89.81
297.831	90.81
298.062	92.81
298.292	90.81
298.523	91.81
298.753	69.81
298.984	105.81
299.214	89.81
299.445	82.81
299.675	92.81
299.905	92.81
300.136	94.81
300.366	93.81
300.597	87.81
300.827	101.81
301.057	102.81
301.288	129.81
301.518	101.81
301.748	89.81
301.979	109.81
302.209	95.81
302.439	99.81
302.669	93.81
302.9	77.81
303.13	91.81
303.36	113.81
303.59	100.81
303.82	106.81
304.051	93.81
304.281	92.81
304.511	96.81
304.741	95.81
304.971	88.81
305.201	97.81
305.431	88.81
305.661	95.81
305.891	96.81
306.121	104.81
306.352	99.81
306.582	105.81
306.812	112.81
307.042	96.81
307.272	99.81
307.502	104.81
307.731	93.81
307.961	83.81
308.191	84.81
308.421	93.81
308.651	82.81
308.881	92.81
309.111	95.81
309.341	86.81
309.571	102.81
309.8	100.81
310.03	93.81
310.26	93.81
310.49	99.81
310.72	110.81
310.949	112.81
311.179	104.81
311.409	104.81
311.639	103.81
311.868	91.81
312.098	85.81
312.328	93.81
312.557	118.81
312.787	113.81
313.017	102.81
313.246	104.81
313.476	90.81
313.706	89.81
313.935	101.81
314.165	103.81
314.394	104.81
314.624	110.81
314.853	85.81
315.083	103.81
315.312	102.81
315.542	84.81
315.771	104.81
316.001	108.81
316.23	90.81
316.46	67.81
316.689	89.81
316.919	86.81
317.148	104.81
317.377	115.81
317.607	90.81
317.836	98.81
318.065	88.81
318.295	92.81
318.524	98.81
318.753	112.81
318.983	97.81
319.212	115.81
319.441	117.81
319.67	117.81
319.9	102.81
320.129	100.81
320.358	103.81
320.587	96.81
320.816	98.81
321.046	98.81
321.275	105.81
321.504	111.81
321.733	98.81
321.962	107.81
322.191	99.81
322.42	103.81
322.649	107.81
322.878	129.81
323.108	114.81
323.337	140.81
323.566	146.81
323.795	174.81
324.024	225.81
324.253	465.81
324.482	1018.81
324.71	2083.81
324.939	2861.81
325.168	1017.81
325.397	283.81
325.626	176.81
325.855	129.81
326.084	128.81
326.313	131.81
326.542	157.81
326.77	266.81
326.999	533.81
327.228	1129.81
327.457	2082.81
327.686	1650.81
327.914	451.81
328.143	239.81
328.372	192.81
328.6	141.81
328.829	145.81
329.058	153.81
329.287	149.81
329.515	129.81
329.744	113.81
329.972	116.81
330.201	137.81
330.43	147.81
330.658	139.81
330.887	166.81
331.115	147.81
331.344	96.81
331.572	103.81
331.801	112.81
332.03	111.81
332.258	96.81
332.486	87.81
332.715	100.81
332.943	93.81
333.172	92.81
333.4	99.81
333.629	126.81
333.857	127.81
334.085	120.81
334.314	125.81
334.542	143.81
334.771	150.81
334.999	111.81
335.227	107.81
335.455	92.81
335.684	80.81
335.912	111.81
336.14	84.81
336.369	100.81
336.597	103.81
336.825	119.81
337.053	93.81
337.281	95.81
337.51	82.81
337.738	100.81
337.966	94.81
338.194	87.81
338.422	110.81
338.65	108.81
338.878	101.81
339.106	81.81
339.334	88.81
339.562	88.81
339.79	99.81
340.018	89.81
340.246	74.81
340.474	89.81
340.702	92.81
340.93	89.81
341.158	98.81
341.386	102.81
341.614	114.81
341.842	84.81
342.07	88.81
342.298	93.81
342.526	96.81
342.754	82.81
342.981	74.81
343.209	90.81
343.437	83.81
343.665	81.81
343.893	74.81
344.12	95.81
344.348	91.81
344.576	92.81
344.804	92.81
345.031	113.81
345.259	105.81
345.487	103.81
345.714	93.81
345.942	97.81
346.17	93.81
346.397	96.81
346.625	99.81
346.853	99.81
347.08	103.81
347.308	95.81
347.535	86.81
347.763	120.81
347.99	108.81
348.218	120.81
348.445	119.81
348.673	116.81
348.9	105.81
349.128	91.81
349.355	93.81
349.583	90.81
349.81	92.81
350.037	98.81
350.265	100.81
350.492	99.81
350.72	97.81
350.947	93.81
351.174	114.81
351.402	119.81
351.629	106.81
351.856	114.81
352.083	114.81
352.311	104.81
352.538	108.81
352.765	105.81
352.992	131.81
353.22	100.81
353.447	102.81
353.674	97.81
353.901	90.81
354.128	111.81
354.355	93.81
354.583	87.81
354.81	103.81
355.037	90.81
355.264	89.81
355.491	93.81
355.718	90.81
355.945	102.81
356.172	94.81
356.399	109.81
356.626	103.81
356.853	80.81
357.08	86.81
357.307	96.81
357.534	92.81
357.761	101.81
357.988	87.81
358.215	98.81
358.441	91.81
358.668	81.81
358.895	86.81
359.122	86.81
359.349	86.81
359.576	95.81
359.802	97.81
360.029	121.81
360.256	127.81
360.483	112.81
360.709	89.81
360.936	86.81
361.163	99.81
361.39	103.81
361.616	115.81
361.843	84.81
362.07	97.81
362.296	108.81
362.523	97.81
362.749	93.81
362.976	90.81
363.203	90.81
363.429	82.81
363.656	91.81
363.882	85.81
364.109	95.81
364.335	89.81
364.562	98.81
364.788	113.81
365.015	96.81
365.241	109.81
365.468	124.81
365.694	119.81
365.92	87.81
366.147	92.81
366.373	88.81
366.599	80.81
366.826	95.81
367.052	83.81
367.278	86.81
367.505	87.81
367.731	96.81
367.957	89.81
368.184	97.81
368.41	104.81
368.636	134.81
368.862	142.81
369.089	128.81
369.315	93.81
369.541	95.81
369.767	107.81
369.993	96.81
370.219	95.81
370.445	82.81
370.672	86.81
370.898	83.81
371.124	83.81
371.35	96.81
371.576	102.81
371.802	75.81
372.028	87.81
372.254	92.81
372.48	76.81
372.706	74.81
372.932	89.81
373.158	74.81
373.384	102.81
373.61	77.81
373.835	99.81
374.061	91.81
374.287	95.81
374.513	91.81
374.739	90.81
374.965	101.81
375.191	99.81
375.416	88.81
375.642	97.81
375.868	85.81
376.094	97.81
376.319	102.81
376.545	87.81
376.771	87.81
376.997	95.81
377.222	75.81
377.448	94.81
377.674	73.81
377.899	98.81
378.125	93.81
378.35	99.81
378.576	85.81
378.802	99.81
379.027	81.81
379.253	97.81
379.478	93.81
379.704	92.81
379.929	64.81
380.155	81.81
380.38	98.81
380.606	91.81
380.831	90.81
381.057	98.81
381.282	90.81
381.507	82.81
381.733	101.81
381.958	97.81
382.184	105.81
382.409	114.81
382.634	88.81
382.86	87.81
383.085	82.81
383.31	98.81
383.535	101.81
383.761	95.81
383.986	98.81
384.211	90.81
384.436	99.81
384.662	94.81
384.887	96.81
385.112	94.81
385.337	100.81
385.562	93.81
385.787	118.81
386.013	109.81
386.238	125.81
386.463	118.81
386.688	106.81
386.913	105.81
387.138	118.81
387.363	93.81
387.588	98.81
387.813	103.81
388.038	92.81
388.263	98.81
388.488	107.81
388.713	109.81
388.938	98.81
389.163	113.81
389.387	97.81
389.612	101.81
389.837	93.81
390.062	93.81
390.287	88.81
390.512	88.81
390.736	110.81
390.961	109.81
391.186	96.81
391.411	99.81
391.636	85.81
391.86	95.81
392.085	66.81
392.31	73.81
392.534	80.81
392.759	82.81
392.984	72.81
393.208	97.81
393.433	84.81
393.658	95.81
393.882	97.81
394.107	95.81
394.331	80.81
394.556	85.81
394.78	86.81
395.005	94.81
395.229	93.81
395.454	93.81
395.678	90.81
395.903	99.81
396.127	85.81
396.352	90.81
396.576	76.81
396.801	99.81
397.025	108.81
397.249	86.81
397.474	85.81
397.698	88.81
397.922	93.81
398.147	85.81
398.371	87.81
398.595	84.81
398.82	89.81
399.044	88.81
399.268	86.81
399.492	81.81
399.717	83.81
399.941	104.81
400.165	88.81
400.389	102.81
400.613	96.81
400.837	85.81
401.062	82.81
401.286	89.81
401.51	93.81
401.734	92.81
401.958	110.81
402.182	146.81
402.406	211.81
402.63	155.81
402.854	91.81
403.078	87.81
403.302	93.81
403.526	102.81
403.75	78.81
403.974	84.81
404.198	90.81
404.422	93.81
404.645	84.81
404.869	86.81
405.093	90.81
405.317	95.81
405.541	109.81
405.765	111.81
405.988	133.81
406.212	214.81
406.436	322.81
406.66	190.81
406.883	127.81
407.107	108.81
407.331	121.81
407.555	103.81
407.778	88.81
408.002	93.81
408.226	88.81
408.449	86.81
408.673	81.81
408.896	91.81
409.12	88.81
409.344	90.81
409.567	88.81
409.791	96.81
410.014	82.81
410.238	101.81
410.461	97.81
410.685	110.81
410.908	102.81
411.132	99.81
411.355	109.81
411.578	93.81
411.802	81.81
412.025	90.81
412.249	98.81
412.472	94.81
412.695	98.81
412.919	104.81
413.142	76.81
413.365	92.81
413.589	91.81
413.812	90.81
414.035	83.81
414.258	86.81
414.482	87.81
414.705	81.81
414.928	75.81
415.151	83.81
415.374	105.81
415.597	92.81
415.821	103.81
416.044	87.81
416.267	93.81
416.49	95.81
416.713	91.81
416.936	94.81
417.159	83.81
417.382	96.81
417.605	96.81
417.828	95.81
418.051	98.81
418.274	88.81
418.497	90.81
418.72	93.81
418.943	84.81
419.166	66.81
419.389	97.81
419.611	81.81
419.834	77.81
420.057	74.81
420.28	86.81
420.503	80.81
420.726	73.81
420.948	83.81
421.171	100.81
421.394	92.81
421.617	103.81
421.839	86.81
422.062	85.81
422.285	88.81
422.507	102.81
422.73	117.81
422.953	93.81
423.175	90.81
423.398	102.81
423.621	100.81
423.843	85.81
424.066	81.81
424.288	89.81
424.511	86.81
424.733	91.81
424.956	113.81
425.178	113.81
425.401	98.81
425.623	97.81
425.846	88.81
426.068	94.81
426.291	111.81
426.513	86.81
426.735	88.81
426.958	94.81
427.18	106.81
427.402	154.81
427.625	205.81
427.847	175.81
428.069	117.81
428.292	83.81
428.514	95.81
428.736	86.81
428.958	88.81
429.181	80.81
429.403	80.81
429.625	90.81
429.847	105.81
430.069	118.81
430.292	89.81
430.514	87.81
430.736	89.81
430.958	81.81
431.18	93.81
431.402	86.81
431.624	78.81
431.846	86.81
432.068	78.81
432.29	82.81
432.512	87.81
432.734	94.81
432.956	93.81
433.178	110.81
433.4	88.81
433.622	88.81
433.844	88.81
434.066	90.81
434.287	71.81
434.509	91.81
434.731	90.81
434.953	102.81
435.175	86.81
435.397	87.81
435.618	101.81
435.84	113.81
436.062	133.81
436.284	110.81
436.505	110.81
436.727	107.81
436.949	93.81
437.17	85.81
437.392	93.81
437.614	106.81
437.835	126.81
438.057	137.81
438.278	121.81
438.5	110.81
438.721	110.81
438.943	114.81
439.165	81.81
439.386	88.81
439.608	82.81
439.829	96.81
440.05	133.81
440.272	165.81
440.493	92.81
440.715	83.81
440.936	78.81
441.158	85.81
441.379	88.81
441.6	97.81
441.822	109.81
442.043	97.81
442.264	100.81
442.486	90.81
442.707	97.81
442.928	127.81
443.149	165.81
443.371	164.81
443.592	126.81
443.813	125.81
444.034	119.81
444.255	95.81
444.476	110.81
444.698	89.81
444.919	86.81
445.14	131.81
445.361	141.81
445.582	123.81
445.803	170.81
446.024	164.81
446.245	157.81
446.466	119.81
446.687	87.81
446.908	95.81
447.129	97.81
447.35	89.81
447.571	105.81
447.792	107.81
448.013	125.81
448.234	104.81
448.455	116.81
448.675	130.81
448.896	122.81
449.117	111.81
449.338	121.81
449.559	125.81
449.779	149.81
450	95.81
450.221	102.81
450.442	86.81
450.662	110.81
450.883	97.81
451.104	115.81
451.324	98.81
451.545	90.81
451.766	91.81
451.986	87.81
452.207	107.81
452.428	82.81
452.648	92.81
452.869	125.81
453.089	152.81
453.31	147.81
453.53	99.81
453.751	116.81
453.971	117.81
454.192	125.81
454.412	96.81
454.633	91.81
454.853	93.81
455.073	88.81
455.294	103.81
455.514	106.81
455.734	86.81
455.955	87.81
456.175	71.81
456.395	68.81
456.616	93.81
456.836	82.81
457.056	76.81
457.276	71.81
457.497	88.81
457.717	79.81
457.937	79.81
458.157	94.81
458.377	91.81
458.598	122.81
458.818	188.81
459.038	194.81
459.258	146.81
459.478	101.81
459.698	87.81
459.918	86.81
460.138	83.81
460.358	92.81
460.578	77.81
460.798	89.81
461.018	100.81
461.238	69.81
461.458	96.81
461.678	81.81
461.898	84.81
462.118	91.81
462.338	75.81
462.558	87.81
462.777	83.81
462.997	79.81
463.217	76.81
463.437	85.81
463.657	80.81
463.876	90.81
464.096	91.81
464.316	81.81
464.536	93.81
464.755	109.81
464.975	118.81
465.195	210.81
465.414	217.81
465.634	111.81
465.854	96.81
466.073	100.81
466.293	94.81
466.512	101.81
466.732	93.81
466.951	88.81
467.171	96.81
467.391	93.81
467.61	109.81
467.829	110.81
468.049	91.81
468.268	100.81
468.488	81.81
468.707	95.81
468.927	102.81
469.146	82.81
469.365	98.81
469.585	81.81
469.804	106.81
470.023	100.81
470.243	88.81
470.462	100.81
470.681	121.81
470.901	85.81
471.12	92.81
471.339	83.81
471.558	89.81
471.777	84.81
471.997	74.81
472.216	101.81
472.435	151.81
472.654	108.81
472.873	81.81
473.092	81.81
473.311	85.81
473.53	91.81
473.749	93.81
473.968	92.81
474.187	102.81
474.406	97.81
474.625	95.81
474.844	78.81
475.063	90.81
475.282	88.81
475.501	76.81
475.72	85.81
475.939	95.81
476.158	102.81
476.377	98.81
476.596	84.81
476.814	84.81
477.033	101.81
477.252	79.81
477.471	79.81
477.69	89.81
477.908	76.81
478.127	75.81
478.346	94.81
478.564	77.81
478.783	106.81
479.002	86.81
479.22	92.81
479.439	105.81
479.658	99.81
479.876	98.81
480.095	95.81
480.313	87.81
480.532	94.81
480.751	90.81
480.969	103.81
481.188	211.81
481.406	148.81
481.624	103.81
481.843	79.81
482.061	88.81
482.28	85.81
482.498	90.81
482.717	95.81
482.935	85.81
483.153	78.81
483.372	82.81
483.59	79.81
483.808	85.81
484.027	103.81
484.245	93.81
484.463	88.81
484.681	95.81
484.9	95.81
485.118	101.81
485.336	101.81
485.554	96.81
485.772	102.81
485.99	105.81
486.209	100.81
486.427	89.81
486.645	100.81
486.863	113.81
487.081	77.81
487.299	98.81
487.517	100.81
487.735	81.81
487.953	83.81
488.171	81.81
488.389	104.81
488.607	96.81
488.825	79.81
489.043	78.81
489.261	98.81
489.479	82.81
489.696	82.81
489.914	99.81
490.132	89.81
490.35	85.81
490.568	89.81
490.786	85.81
491.003	83.81
491.221	95.81
491.439	97.81
491.657	91.81
491.874	99.81
492.092	100.81
492.31	97.81
492.527	94.81
492.745	85.81
492.963	94.81
493.18	91.81
493.398	97.81
493.615	104.81
493.833	92.81
494.05	67.81
494.268	75.81
494.485	97.81
494.703	97.81
494.92	80.81
495.138	83.81
495.355	94.81
495.573	90.81
495.79	78.81
496.008	87.81
496.225	86.81
496.442	97.81
496.66	86.81
496.877	80.81
497.094	94.81
497.312	82.81
497.529	90.81
497.746	80.81
497.963	94.81
498.181	87.81
498.398	97.81
498.615	95.81
498.832	117.81
499.049	99.81
499.267	92.81
499.484	74.81
499.701	92.81
499.918	94.81
500.135	96.81
500.352	91.81
500.569	91.81
500.786	91.81
501.003	92.81
501.22	92.81
501.437	89.81
501.654	86.81
501.871	105.81
502.088	96.81
502.305	79.81
502.522	86.81
502.739	92.81
502.956	90.81
503.172	77.81
503.389	96.81
503.606	105.81
503.823	93.81
504.04	95.81
504.256	95.81
504.473	85.81
504.69	94.81
504.907	78.81
505.123	81.81
505.34	94.81
505.557	107.81
505.773	100.81
505.99	86.81
506.207	82.81
506.423	72.81
506.64	95.81
506.856	102.81
507.073	88.81
507.289	77.81
507.506	101.81
507.722	125.81
507.939	123.81
508.155	106.81
508.372	107.81
508.588	95.81
508.805	87.81
509.021	96.81
509.238	75.81
509.454	80.81
509.67	95.81
509.887	118.81
510.103	148.81
510.319	261.81
510.536	1021.81
510.752	3662.81
510.968	1000.81
511.184	189.81
511.401	134.81
511.617	115.81
511.833	107.81
512.049	96.81
512.265	97.81
512.481	93.81
512.698	105.81
512.914	97.81
513.13	82.81
513.346	87.81
513.562	109.81
513.778	100.81
513.994	93.81
514.21	99.81
514.426	138.81
514.642	159.81
514.858	149.81
