Data from Circ_2022_H10_HRD10591_00056.txt Node
Date: Wed Jan 03 09:53:48 EST 2024
User: Yrep
Spectrometer: HR+D1059
Trigger mode: 1
Integration Time (sec): 1.000000E-1
Scans to average: 1
Electric dark correction enabled: true
Nonlinearity correction enabled: false
Boxcar width: 0
XAxis mode: Wavelengths
Number of Pixels in Spectrum: 2048
>>>>>Begin Spectral Data<<<<<
223.165	-18.94
223.4	-18.94
223.635	-18.94
223.869	-14.94
224.104	-30.94
224.338	-11.94
224.573	-6.94
224.808	-0.94
225.042	-7.94
225.277	-1.94
225.511	-15.94
225.746	8.06
225.98	-0.94
226.215	7.06
226.449	21.06
226.683	16.06
226.918	27.06
227.152	32.06
227.387	29.06
227.621	47.06
227.856	36.06
228.09	44.06
228.324	49.06
228.559	72.06
228.793	67.06
229.027	58.06
229.262	79.06
229.496	63.06
229.73	80.06
229.964	75.06
230.199	71.06
230.433	89.06
230.667	67.06
230.901	76.06
231.136	82.06
231.37	69.06
231.604	73.06
231.838	73.06
232.072	85.06
232.306	81.06
232.541	93.06
232.775	77.06
233.009	78.06
233.243	81.06
233.477	83.06
233.711	74.06
233.945	77.06
234.179	73.06
234.413	85.06
234.647	81.06
234.881	95.06
235.115	80.06
235.349	79.06
235.583	86.06
235.817	85.06
236.051	73.06
236.285	92.06
236.519	76.06
236.753	64.06
236.987	65.06
237.221	76.06
237.455	87.06
237.689	80.06
237.922	81.06
238.156	84.06
238.39	77.06
238.624	63.06
238.858	63.06
239.091	77.06
239.325	78.06
239.559	84.06
239.793	90.06
240.027	72.06
240.26	88.06
240.494	83.06
240.728	80.06
240.961	76.06
241.195	71.06
241.429	80.06
241.662	79.06
241.896	80.06
242.13	80.06
242.363	84.06
242.597	92.06
242.83	77.06
243.064	84.06
243.298	72.06
243.531	73.06
243.765	70.06
243.998	80.06
244.232	84.06
244.465	73.06
244.699	79.06
244.932	87.06
245.166	80.06
245.399	84.06
245.633	69.06
245.866	86.06
246.099	65.06
246.333	71.06
246.566	93.06
246.8	95.06
247.033	80.06
247.266	80.06
247.5	89.06
247.733	90.06
247.966	82.06
248.2	77.06
248.433	90.06
248.666	74.06
248.899	79.06
249.133	93.06
249.366	102.06
249.599	85.06
249.832	79.06
250.066	85.06
250.299	89.06
250.532	81.06
250.765	80.06
250.998	76.06
251.231	77.06
251.465	75.06
251.698	83.06
251.931	86.06
252.164	70.06
252.397	63.06
252.63	70.06
252.863	89.06
253.096	90.06
253.329	79.06
253.562	83.06
253.795	79.06
254.028	81.06
254.261	84.06
254.494	81.06
254.727	81.06
254.96	77.06
255.193	69.06
255.426	82.06
255.659	76.06
255.892	78.06
256.124	76.06
256.357	74.06
256.59	69.06
256.823	92.06
257.056	77.06
257.289	81.06
257.521	79.06
257.754	75.06
257.987	82.06
258.22	84.06
258.452	81.06
258.685	84.06
258.918	74.06
259.151	101.06
259.383	81.06
259.616	80.06
259.849	76.06
260.081	70.06
260.314	73.06
260.547	104.06
260.779	90.06
261.012	101.06
261.244	90.06
261.477	73.06
261.71	98.06
261.942	127.06
262.175	121.06
262.407	95.06
262.64	74.06
262.872	92.06
263.105	87.06
263.337	101.06
263.57	89.06
263.802	81.06
264.035	80.06
264.267	85.06
264.499	91.06
264.732	91.06
264.964	86.06
265.197	77.06
265.429	77.06
265.661	68.06
265.894	86.06
266.126	83.06
266.358	89.06
266.591	80.06
266.823	90.06
267.055	75.06
267.287	91.06
267.52	74.06
267.752	95.06
267.984	90.06
268.216	91.06
268.448	79.06
268.681	77.06
268.913	93.06
269.145	82.06
269.377	80.06
269.609	85.06
269.841	87.06
270.073	105.06
270.306	89.06
270.538	97.06
270.77	83.06
271.002	84.06
271.234	76.06
271.466	86.06
271.698	73.06
271.93	81.06
272.162	69.06
272.394	92.06
272.626	85.06
272.858	83.06
273.09	88.06
273.322	79.06
273.553	83.06
273.785	91.06
274.017	70.06
274.249	88.06
274.481	85.06
274.713	88.06
274.945	83.06
275.176	80.06
275.408	77.06
275.64	90.06
275.872	91.06
276.104	90.06
276.335	102.06
276.567	110.06
276.799	119.06
277.031	98.06
277.262	88.06
277.494	90.06
277.726	99.06
277.957	87.06
278.189	82.06
278.421	92.06
278.652	88.06
278.884	76.06
279.115	81.06
279.347	89.06
279.579	101.06
279.81	72.06
280.042	84.06
280.273	99.06
280.505	98.06
280.736	89.06
280.968	105.06
281.199	92.06
281.431	76.06
281.662	78.06
281.894	89.06
282.125	96.06
282.356	129.06
282.588	182.06
282.819	126.06
283.051	92.06
283.282	95.06
283.513	75.06
283.745	89.06
283.976	66.06
284.207	87.06
284.439	94.06
284.67	81.06
284.901	79.06
285.132	82.06
285.364	85.06
285.595	88.06
285.826	96.06
286.057	73.06
286.288	96.06
286.52	94.06
286.751	83.06
286.982	89.06
287.213	81.06
287.444	89.06
287.675	96.06
287.906	86.06
288.138	96.06
288.369	91.06
288.6	89.06
288.831	98.06
289.062	86.06
289.293	81.06
289.524	90.06
289.755	88.06
289.986	82.06
290.217	96.06
290.448	87.06
290.679	104.06
290.91	89.06
291.141	94.06
291.371	73.06
291.602	76.06
291.833	82.06
292.064	91.06
292.295	90.06
292.526	98.06
292.757	90.06
292.987	95.06
293.218	93.06
293.449	94.06
293.68	100.06
293.91	75.06
294.141	93.06
294.372	84.06
294.603	99.06
294.833	91.06
295.064	83.06
295.295	97.06
295.525	90.06
295.756	97.06
295.987	137.06
296.217	153.06
296.448	131.06
296.679	104.06
296.909	100.06
297.14	79.06
297.37	84.06
297.601	88.06
297.831	87.06
298.062	95.06
298.292	97.06
298.523	93.06
298.753	98.06
298.984	100.06
299.214	88.06
299.445	96.06
299.675	108.06
299.905	98.06
300.136	90.06
300.366	82.06
300.597	99.06
300.827	93.06
301.057	100.06
301.288	111.06
301.518	98.06
301.748	93.06
301.979	98.06
302.209	95.06
302.439	104.06
302.669	80.06
302.9	88.06
303.13	101.06
303.36	112.06
303.59	99.06
303.82	100.06
304.051	84.06
304.281	91.06
304.511	95.06
304.741	92.06
304.971	87.06
305.201	91.06
305.431	86.06
305.661	98.06
305.891	98.06
306.121	95.06
306.352	104.06
306.582	123.06
306.812	87.06
307.042	79.06
307.272	95.06
307.502	109.06
307.731	103.06
307.961	99.06
308.191	88.06
308.421	95.06
308.651	93.06
308.881	99.06
309.111	109.06
309.341	105.06
309.571	102.06
309.8	96.06
310.03	104.06
310.26	96.06
310.49	101.06
310.72	112.06
310.949	108.06
311.179	100.06
311.409	97.06
311.639	94.06
311.868	115.06
312.098	91.06
312.328	87.06
312.557	104.06
312.787	102.06
313.017	92.06
313.246	90.06
313.476	99.06
313.706	100.06
313.935	111.06
314.165	105.06
314.394	116.06
314.624	111.06
314.853	99.06
315.083	95.06
315.312	95.06
315.542	76.06
315.771	108.06
316.001	107.06
316.23	92.06
316.46	86.06
316.689	89.06
316.919	87.06
317.148	107.06
317.377	100.06
317.607	96.06
317.836	83.06
318.065	99.06
318.295	94.06
318.524	95.06
318.753	85.06
318.983	92.06
319.212	132.06
319.441	132.06
319.67	116.06
319.9	112.06
320.129	91.06
320.358	112.06
320.587	108.06
320.816	97.06
321.046	94.06
321.275	103.06
321.504	101.06
321.733	92.06
321.962	93.06
322.191	109.06
322.42	105.06
322.649	129.06
322.878	131.06
323.108	132.06
323.337	136.06
323.566	139.06
323.795	166.06
324.024	216.06
324.253	456.06
324.482	933.06
324.71	1915.06
324.939	2543.06
325.168	960.06
325.397	255.06
325.626	154.06
325.855	153.06
326.084	136.06
326.313	140.06
326.542	155.06
326.77	236.06
326.999	473.06
327.228	969.06
327.457	1857.06
327.686	1504.06
327.914	436.06
328.143	252.06
328.372	198.06
328.6	155.06
328.829	133.06
329.058	136.06
329.287	161.06
329.515	128.06
329.744	103.06
329.972	133.06
330.201	170.06
330.43	210.06
330.658	171.06
330.887	175.06
331.115	140.06
331.344	108.06
331.572	95.06
331.801	103.06
332.03	108.06
332.258	96.06
332.486	85.06
332.715	100.06
332.943	87.06
333.172	87.06
333.4	104.06
333.629	128.06
333.857	109.06
334.085	136.06
334.314	156.06
334.542	211.06
334.771	215.06
334.999	124.06
335.227	122.06
335.455	96.06
335.684	116.06
335.912	100.06
336.14	118.06
336.369	98.06
336.597	97.06
336.825	90.06
337.053	96.06
337.281	96.06
337.51	98.06
337.738	110.06
337.966	98.06
338.194	95.06
338.422	96.06
338.65	90.06
338.878	99.06
339.106	89.06
339.334	100.06
339.562	100.06
339.79	81.06
340.018	84.06
340.246	82.06
340.474	102.06
340.702	107.06
340.93	107.06
341.158	97.06
341.386	102.06
341.614	104.06
341.842	100.06
342.07	89.06
342.298	83.06
342.526	92.06
342.754	90.06
342.981	84.06
343.209	95.06
343.437	106.06
343.665	96.06
343.893	92.06
344.12	95.06
344.348	92.06
344.576	90.06
344.804	100.06
345.031	101.06
345.259	101.06
345.487	108.06
345.714	102.06
345.942	97.06
346.17	98.06
346.397	92.06
346.625	91.06
346.853	91.06
347.08	85.06
347.308	95.06
347.535	114.06
347.763	104.06
347.99	97.06
348.218	97.06
348.445	87.06
348.673	103.06
348.9	108.06
349.128	103.06
349.355	96.06
349.583	84.06
349.81	100.06
350.037	90.06
350.265	99.06
350.492	100.06
350.72	90.06
350.947	109.06
351.174	127.06
351.402	119.06
351.629	110.06
351.856	116.06
352.083	111.06
352.311	113.06
352.538	128.06
352.765	120.06
352.992	116.06
353.22	127.06
353.447	92.06
353.674	104.06
353.901	87.06
354.128	109.06
354.355	87.06
354.583	92.06
354.81	96.06
355.037	94.06
355.264	98.06
355.491	91.06
355.718	105.06
355.945	104.06
356.172	101.06
356.399	90.06
356.626	103.06
356.853	107.06
357.08	95.06
357.307	98.06
357.534	99.06
357.761	84.06
357.988	91.06
358.215	91.06
358.441	86.06
358.668	95.06
358.895	88.06
359.122	79.06
359.349	89.06
359.576	97.06
359.802	106.06
360.029	130.06
360.256	127.06
360.483	104.06
360.709	105.06
360.936	94.06
361.163	90.06
361.39	88.06
361.616	106.06
361.843	91.06
362.07	115.06
362.296	110.06
362.523	96.06
362.749	100.06
362.976	95.06
363.203	111.06
363.429	86.06
363.656	85.06
363.882	94.06
364.109	94.06
364.335	100.06
364.562	104.06
364.788	101.06
365.015	98.06
365.241	96.06
365.468	106.06
365.694	113.06
365.92	111.06
366.147	98.06
366.373	91.06
366.599	96.06
366.826	102.06
367.052	81.06
367.278	91.06
367.505	87.06
367.731	102.06
367.957	93.06
368.184	91.06
368.41	103.06
368.636	112.06
368.862	121.06
369.089	114.06
369.315	111.06
369.541	88.06
369.767	84.06
369.993	89.06
370.219	89.06
370.445	87.06
370.672	94.06
370.898	85.06
371.124	91.06
371.35	81.06
371.576	80.06
371.802	83.06
372.028	98.06
372.254	80.06
372.48	92.06
372.706	88.06
372.932	74.06
373.158	84.06
373.384	88.06
373.61	88.06
373.835	89.06
374.061	97.06
374.287	98.06
374.513	86.06
374.739	90.06
374.965	94.06
375.191	91.06
375.416	88.06
375.642	87.06
375.868	76.06
376.094	101.06
376.319	90.06
376.545	81.06
376.771	86.06
376.997	80.06
377.222	73.06
377.448	86.06
377.674	88.06
377.899	95.06
378.125	88.06
378.35	83.06
378.576	87.06
378.802	101.06
379.027	93.06
379.253	90.06
379.478	83.06
379.704	88.06
379.929	93.06
380.155	109.06
380.38	98.06
380.606	100.06
380.831	103.06
381.057	106.06
381.282	83.06
381.507	96.06
381.733	102.06
381.958	101.06
382.184	92.06
382.409	113.06
382.634	106.06
382.86	86.06
383.085	92.06
383.31	117.06
383.535	109.06
383.761	83.06
383.986	103.06
384.211	94.06
384.436	90.06
384.662	95.06
384.887	98.06
385.112	104.06
385.337	106.06
385.562	99.06
385.787	83.06
386.013	114.06
386.238	131.06
386.463	108.06
386.688	105.06
386.913	90.06
387.138	90.06
387.363	101.06
387.588	105.06
387.813	100.06
388.038	98.06
388.263	115.06
388.488	105.06
388.713	88.06
388.938	85.06
389.163	95.06
389.387	96.06
389.612	95.06
389.837	97.06
390.062	96.06
390.287	100.06
390.512	103.06
390.736	98.06
390.961	86.06
391.186	99.06
391.411	102.06
391.636	80.06
391.86	84.06
392.085	96.06
392.31	88.06
392.534	97.06
392.759	76.06
392.984	86.06
393.208	87.06
393.433	83.06
393.658	76.06
393.882	95.06
394.107	74.06
394.331	81.06
394.556	68.06
394.78	103.06
395.005	97.06
395.229	84.06
395.454	86.06
395.678	100.06
395.903	82.06
396.127	86.06
396.352	92.06
396.576	79.06
396.801	77.06
397.025	83.06
397.249	93.06
397.474	87.06
397.698	100.06
397.922	89.06
398.147	80.06
398.371	91.06
398.595	83.06
398.82	84.06
399.044	89.06
399.268	84.06
399.492	70.06
399.717	80.06
399.941	104.06
400.165	91.06
400.389	99.06
400.613	99.06
400.837	81.06
401.062	82.06
401.286	82.06
401.51	90.06
401.734	92.06
401.958	115.06
402.182	135.06
402.406	191.06
402.63	135.06
402.854	111.06
403.078	100.06
403.302	83.06
403.526	91.06
403.75	112.06
403.974	92.06
404.198	93.06
404.422	82.06
404.645	89.06
404.869	83.06
405.093	95.06
405.317	116.06
405.541	89.06
405.765	111.06
405.988	149.06
406.212	217.06
406.436	300.06
406.66	188.06
406.883	113.06
407.107	88.06
407.331	93.06
407.555	97.06
407.778	105.06
408.002	88.06
408.226	93.06
408.449	87.06
408.673	101.06
408.896	77.06
409.12	90.06
409.344	93.06
409.567	90.06
409.791	95.06
410.014	92.06
410.238	100.06
410.461	97.06
410.685	99.06
410.908	99.06
411.132	95.06
411.355	98.06
411.578	121.06
411.802	83.06
412.025	98.06
412.249	92.06
412.472	98.06
412.695	92.06
412.919	96.06
413.142	82.06
413.365	86.06
413.589	81.06
413.812	82.06
414.035	84.06
414.258	94.06
414.482	87.06
414.705	98.06
414.928	84.06
415.151	86.06
415.374	99.06
415.597	97.06
415.821	94.06
416.044	82.06
416.267	98.06
416.49	88.06
416.713	78.06
416.936	84.06
417.159	92.06
417.382	81.06
417.605	88.06
417.828	99.06
418.051	80.06
418.274	92.06
418.497	86.06
418.72	91.06
418.943	87.06
419.166	90.06
419.389	80.06
419.611	87.06
419.834	101.06
420.057	97.06
420.28	79.06
420.503	93.06
420.726	90.06
420.948	86.06
421.171	101.06
421.394	72.06
421.617	98.06
421.839	98.06
422.062	77.06
422.285	102.06
422.507	95.06
422.73	95.06
422.953	101.06
423.175	97.06
423.398	87.06
423.621	91.06
423.843	104.06
424.066	79.06
424.288	87.06
424.511	99.06
424.733	91.06
424.956	115.06
425.178	89.06
425.401	96.06
425.623	98.06
425.846	98.06
426.068	89.06
426.291	101.06
426.513	88.06
426.735	80.06
426.958	83.06
427.18	108.06
427.402	162.06
427.625	208.06
427.847	162.06
428.069	138.06
428.292	92.06
428.514	84.06
428.736	91.06
428.958	93.06
429.181	91.06
429.403	84.06
429.625	82.06
429.847	98.06
430.069	103.06
430.292	114.06
430.514	79.06
430.736	90.06
430.958	81.06
431.18	64.06
431.402	82.06
431.624	85.06
431.846	79.06
432.068	89.06
432.29	92.06
432.512	87.06
432.734	89.06
432.956	90.06
433.178	94.06
433.4	97.06
433.622	97.06
433.844	81.06
434.066	102.06
434.287	96.06
434.509	91.06
434.731	88.06
434.953	86.06
435.175	85.06
435.397	96.06
435.618	97.06
435.84	99.06
436.062	125.06
436.284	111.06
436.505	100.06
436.727	96.06
436.949	88.06
437.17	87.06
437.392	95.06
437.614	84.06
437.835	113.06
438.057	121.06
438.278	123.06
438.5	113.06
438.721	129.06
438.943	101.06
439.165	78.06
439.386	72.06
439.608	73.06
439.829	109.06
440.05	119.06
440.272	146.06
440.493	106.06
440.715	81.06
440.936	95.06
441.158	85.06
441.379	108.06
441.6	106.06
441.822	109.06
442.043	105.06
442.264	98.06
442.486	92.06
442.707	93.06
442.928	115.06
443.149	155.06
443.371	150.06
443.592	124.06
443.813	112.06
444.034	116.06
444.255	105.06
444.476	88.06
444.698	80.06
444.919	95.06
445.14	121.06
445.361	120.06
445.582	119.06
445.803	157.06
446.024	147.06
446.245	141.06
446.466	107.06
446.687	87.06
446.908	102.06
447.129	111.06
447.35	88.06
447.571	104.06
447.792	109.06
448.013	98.06
448.234	111.06
448.455	91.06
448.675	105.06
448.896	117.06
449.117	118.06
449.338	93.06
449.559	112.06
449.779	123.06
450	111.06
450.221	93.06
450.442	84.06
450.662	105.06
450.883	129.06
451.104	119.06
451.324	114.06
451.545	87.06
451.766	101.06
451.986	95.06
452.207	96.06
452.428	94.06
452.648	109.06
452.869	119.06
453.089	129.06
453.31	132.06
453.53	97.06
453.751	92.06
453.971	115.06
454.192	130.06
454.412	83.06
454.633	84.06
454.853	94.06
455.073	90.06
455.294	88.06
455.514	100.06
455.734	100.06
455.955	83.06
456.175	78.06
456.395	95.06
456.616	83.06
456.836	74.06
457.056	81.06
457.276	71.06
457.497	80.06
457.717	71.06
457.937	81.06
458.157	103.06
458.377	85.06
458.598	117.06
458.818	178.06
459.038	199.06
459.258	133.06
459.478	89.06
459.698	87.06
459.918	90.06
460.138	86.06
460.358	85.06
460.578	83.06
460.798	97.06
461.018	86.06
461.238	83.06
461.458	83.06
461.678	94.06
461.898	90.06
462.118	84.06
462.338	76.06
462.558	83.06
462.777	97.06
462.997	94.06
463.217	93.06
463.437	80.06
463.657	98.06
463.876	89.06
464.096	88.06
464.316	93.06
464.536	80.06
464.755	91.06
464.975	114.06
465.195	201.06
465.414	204.06
465.634	103.06
465.854	93.06
466.073	98.06
466.293	95.06
466.512	104.06
466.732	84.06
466.951	70.06
467.171	77.06
467.391	87.06
467.61	105.06
467.829	111.06
468.049	129.06
468.268	137.06
468.488	94.06
468.707	78.06
468.927	96.06
469.146	91.06
469.365	103.06
469.585	105.06
469.804	92.06
470.023	104.06
470.243	89.06
470.462	100.06
470.681	108.06
470.901	80.06
471.12	93.06
471.339	86.06
471.558	89.06
471.777	79.06
471.997	92.06
472.216	171.06
472.435	273.06
472.654	121.06
472.873	85.06
473.092	108.06
473.311	83.06
473.53	77.06
473.749	96.06
473.968	89.06
474.187	116.06
474.406	98.06
474.625	83.06
474.844	89.06
475.063	91.06
475.282	71.06
475.501	76.06
475.72	87.06
475.939	76.06
476.158	83.06
476.377	84.06
476.596	85.06
476.814	93.06
477.033	110.06
477.252	91.06
477.471	81.06
477.69	90.06
477.908	88.06
478.127	84.06
478.346	84.06
478.564	104.06
478.783	113.06
479.002	96.06
479.22	91.06
479.439	113.06
479.658	104.06
479.876	92.06
480.095	102.06
480.313	96.06
480.532	104.06
480.751	107.06
480.969	161.06
481.188	415.06
481.406	283.06
481.624	119.06
481.843	96.06
482.061	91.06
482.28	95.06
482.498	87.06
482.717	89.06
482.935	98.06
483.153	91.06
483.372	77.06
483.59	88.06
483.808	84.06
484.027	82.06
484.245	95.06
484.463	88.06
484.681	107.06
484.9	94.06
485.118	99.06
485.336	79.06
485.554	91.06
485.772	93.06
485.99	103.06
486.209	109.06
486.427	104.06
486.645	96.06
486.863	115.06
487.081	99.06
487.299	92.06
487.517	100.06
487.735	80.06
487.953	83.06
488.171	84.06
488.389	99.06
488.607	104.06
488.825	106.06
489.043	98.06
489.261	97.06
489.479	91.06
489.696	103.06
489.914	90.06
490.132	91.06
490.35	97.06
490.568	88.06
490.786	75.06
491.003	95.06
491.221	81.06
491.439	85.06
491.657	96.06
491.874	91.06
492.092	76.06
492.31	91.06
492.527	93.06
492.745	88.06
492.963	97.06
493.18	91.06
493.398	90.06
493.615	89.06
493.833	98.06
494.05	98.06
494.268	92.06
494.485	84.06
494.703	86.06
494.92	93.06
495.138	86.06
495.355	82.06
495.573	82.06
495.79	94.06
496.008	82.06
496.225	85.06
496.442	92.06
496.66	95.06
496.877	104.06
497.094	90.06
497.312	96.06
497.529	96.06
497.746	102.06
497.963	91.06
498.181	91.06
498.398	103.06
498.615	127.06
498.832	106.06
499.049	108.06
499.267	87.06
499.484	77.06
499.701	95.06
499.918	90.06
500.135	83.06
500.352	102.06
500.569	104.06
500.786	89.06
501.003	98.06
501.22	84.06
501.437	92.06
501.654	90.06
501.871	127.06
502.088	95.06
502.305	80.06
502.522	87.06
502.739	83.06
502.956	93.06
503.172	92.06
503.389	105.06
503.606	111.06
503.823	87.06
504.04	89.06
504.256	89.06
504.473	96.06
504.69	83.06
504.907	96.06
505.123	92.06
505.34	90.06
505.557	94.06
505.773	87.06
505.99	90.06
506.207	88.06
506.423	89.06
506.64	99.06
506.856	93.06
507.073	80.06
507.289	96.06
507.506	90.06
507.722	138.06
507.939	111.06
508.155	93.06
508.372	87.06
508.588	107.06
508.805	103.06
509.021	95.06
509.238	96.06
509.454	94.06
509.67	90.06
509.887	100.06
510.103	145.06
510.319	263.06
510.536	984.06
510.752	3401.06
510.968	952.06
511.184	183.06
511.401	113.06
511.617	97.06
511.833	88.06
512.049	99.06
512.265	91.06
512.481	109.06
512.698	109.06
512.914	97.06
513.13	112.06
513.346	91.06
513.562	98.06
513.778	82.06
513.994	81.06
514.21	105.06
514.426	138.06
514.642	159.06
