Data from Circ_2022_H10_HRD10591_00061.txt Node
Date: Wed Jan 03 09:53:49 EST 2024
User: Yrep
Spectrometer: HR+D1059
Trigger mode: 1
Integration Time (sec): 1.000000E-1
Scans to average: 1
Electric dark correction enabled: true
Nonlinearity correction enabled: false
Boxcar width: 0
XAxis mode: Wavelengths
Number of Pixels in Spectrum: 2048
>>>>>Begin Spectral Data<<<<<
223.165	-22.19
223.4	-22.19
223.635	-22.19
223.869	-25.19
224.104	-6.19
224.338	-10.19
224.573	-20.19
224.808	-14.19
225.042	-3.19
225.277	-16.19
225.511	5.81
225.746	-4.19
225.98	-0.19
226.215	22.81
226.449	12.81
226.683	14.81
226.918	28.81
227.152	36.81
227.387	35.81
227.621	29.81
227.856	38.81
228.09	37.81
228.324	44.81
228.559	51.81
228.793	46.81
229.027	43.81
229.262	54.81
229.496	62.81
229.73	79.81
229.964	85.81
230.199	68.81
230.433	63.81
230.667	76.81
230.901	74.81
231.136	73.81
231.37	71.81
231.604	53.81
231.838	72.81
232.072	69.81
232.306	80.81
232.541	81.81
232.775	75.81
233.009	75.81
233.243	81.81
233.477	89.81
233.711	78.81
233.945	73.81
234.179	65.81
234.413	79.81
234.647	73.81
234.881	86.81
235.115	71.81
235.349	66.81
235.583	54.81
235.817	59.81
236.051	82.81
236.285	62.81
236.519	66.81
236.753	64.81
236.987	69.81
237.221	67.81
237.455	88.81
237.689	61.81
237.922	73.81
238.156	82.81
238.39	63.81
238.624	75.81
238.858	75.81
239.091	79.81
239.325	84.81
239.559	78.81
239.793	71.81
240.027	73.81
240.26	67.81
240.494	69.81
240.728	84.81
240.961	76.81
241.195	78.81
241.429	79.81
241.662	71.81
241.896	69.81
242.13	73.81
242.363	76.81
242.597	70.81
242.83	78.81
243.064	70.81
243.298	76.81
243.531	60.81
243.765	74.81
243.998	88.81
244.232	81.81
244.465	84.81
244.699	85.81
244.932	81.81
245.166	71.81
245.399	71.81
245.633	77.81
245.866	70.81
246.099	49.81
246.333	61.81
246.566	76.81
246.8	74.81
247.033	71.81
247.266	64.81
247.5	85.81
247.733	80.81
247.966	86.81
248.2	80.81
248.433	75.81
248.666	83.81
248.899	76.81
249.133	97.81
249.366	109.81
249.599	96.81
249.832	65.81
250.066	70.81
250.299	79.81
250.532	84.81
250.765	79.81
250.998	76.81
251.231	60.81
251.465	67.81
251.698	70.81
251.931	79.81
252.164	76.81
252.397	81.81
252.63	77.81
252.863	78.81
253.096	75.81
253.329	80.81
253.562	70.81
253.795	72.81
254.028	73.81
254.261	64.81
254.494	74.81
254.727	78.81
254.96	75.81
255.193	68.81
255.426	59.81
255.659	59.81
255.892	76.81
256.124	74.81
256.357	87.81
256.59	73.81
256.823	76.81
257.056	76.81
257.289	72.81
257.521	76.81
257.754	72.81
257.987	79.81
258.22	78.81
258.452	73.81
258.685	77.81
258.918	75.81
259.151	68.81
259.383	74.81
259.616	80.81
259.849	70.81
260.081	66.81
260.314	68.81
260.547	76.81
260.779	75.81
261.012	78.81
261.244	81.81
261.477	70.81
261.71	95.81
261.942	132.81
262.175	127.81
262.407	94.81
262.64	76.81
262.872	84.81
263.105	74.81
263.337	77.81
263.57	78.81
263.802	63.81
264.035	49.81
264.267	76.81
264.499	71.81
264.732	73.81
264.964	82.81
265.197	79.81
265.429	80.81
265.661	70.81
265.894	72.81
266.126	69.81
266.358	75.81
266.591	77.81
266.823	79.81
267.055	59.81
267.287	76.81
267.52	79.81
267.752	85.81
267.984	74.81
268.216	53.81
268.448	62.81
268.681	89.81
268.913	57.81
269.145	86.81
269.377	71.81
269.609	77.81
269.841	75.81
270.073	68.81
270.306	70.81
270.538	74.81
270.77	77.81
271.002	71.81
271.234	85.81
271.466	82.81
271.698	91.81
271.93	91.81
272.162	96.81
272.394	87.81
272.626	72.81
272.858	76.81
273.09	81.81
273.322	65.81
273.553	79.81
273.785	83.81
274.017	77.81
274.249	76.81
274.481	90.81
274.713	89.81
274.945	101.81
275.176	85.81
275.408	77.81
275.64	88.81
275.872	79.81
276.104	74.81
276.335	89.81
276.567	90.81
276.799	113.81
277.031	103.81
277.262	92.81
277.494	82.81
277.726	86.81
277.957	78.81
278.189	78.81
278.421	81.81
278.652	84.81
278.884	74.81
279.115	84.81
279.347	65.81
279.579	83.81
279.81	86.81
280.042	106.81
280.273	93.81
280.505	96.81
280.736	65.81
280.968	81.81
281.199	87.81
281.431	86.81
281.662	89.81
281.894	94.81
282.125	101.81
282.356	139.81
282.588	168.81
282.819	116.81
283.051	76.81
283.282	65.81
283.513	84.81
283.745	84.81
283.976	83.81
284.207	80.81
284.439	85.81
284.67	82.81
284.901	74.81
285.132	80.81
285.364	78.81
285.595	84.81
285.826	89.81
286.057	76.81
286.288	83.81
286.52	71.81
286.751	86.81
286.982	92.81
287.213	91.81
287.444	86.81
287.675	81.81
287.906	85.81
288.138	88.81
288.369	75.81
288.6	89.81
288.831	94.81
289.062	89.81
289.293	80.81
289.524	82.81
289.755	81.81
289.986	77.81
290.217	87.81
290.448	83.81
290.679	91.81
290.91	102.81
291.141	75.81
291.371	89.81
291.602	83.81
291.833	93.81
292.064	97.81
292.295	82.81
292.526	84.81
292.757	88.81
292.987	85.81
293.218	86.81
293.449	86.81
293.68	75.81
293.91	80.81
294.141	73.81
294.372	79.81
294.603	82.81
294.833	83.81
295.064	100.81
295.295	99.81
295.525	93.81
295.756	110.81
295.987	128.81
296.217	154.81
296.448	141.81
296.679	99.81
296.909	81.81
297.14	94.81
297.37	91.81
297.601	82.81
297.831	77.81
298.062	102.81
298.292	72.81
298.523	96.81
298.753	79.81
298.984	76.81
299.214	92.81
299.445	103.81
299.675	85.81
299.905	90.81
300.136	89.81
300.366	81.81
300.597	92.81
300.827	98.81
301.057	101.81
301.288	109.81
301.518	87.81
301.748	84.81
301.979	96.81
302.209	89.81
302.439	87.81
302.669	83.81
302.9	94.81
303.13	91.81
303.36	84.81
303.59	105.81
303.82	97.81
304.051	107.81
304.281	90.81
304.511	74.81
304.741	90.81
304.971	90.81
305.201	73.81
305.431	88.81
305.661	97.81
305.891	84.81
306.121	98.81
306.352	109.81
306.582	105.81
306.812	91.81
307.042	90.81
307.272	107.81
307.502	96.81
307.731	89.81
307.961	101.81
308.191	83.81
308.421	84.81
308.651	92.81
308.881	86.81
309.111	78.81
309.341	92.81
309.571	110.81
309.8	68.81
310.03	87.81
310.26	99.81
310.49	90.81
310.72	98.81
310.949	107.81
311.179	125.81
311.409	94.81
311.639	96.81
311.868	93.81
312.098	84.81
312.328	96.81
312.557	114.81
312.787	97.81
313.017	85.81
313.246	86.81
313.476	78.81
313.706	97.81
313.935	96.81
314.165	125.81
314.394	102.81
314.624	99.81
314.853	108.81
315.083	93.81
315.312	97.81
315.542	85.81
315.771	90.81
316.001	97.81
316.23	77.81
316.46	80.81
316.689	79.81
316.919	90.81
317.148	88.81
317.377	99.81
317.607	97.81
317.836	86.81
318.065	99.81
318.295	89.81
318.524	86.81
318.753	100.81
318.983	100.81
319.212	105.81
319.441	113.81
319.67	100.81
319.9	96.81
320.129	93.81
320.358	93.81
320.587	101.81
320.816	109.81
321.046	103.81
321.275	106.81
321.504	96.81
321.733	88.81
321.962	113.81
322.191	88.81
322.42	92.81
322.649	112.81
322.878	102.81
323.108	111.81
323.337	129.81
323.566	149.81
323.795	170.81
324.024	240.81
324.253	522.81
324.482	1105.81
324.71	2293.81
324.939	2961.81
325.168	1080.81
325.397	322.81
325.626	179.81
325.855	139.81
326.084	138.81
326.313	130.81
326.542	164.81
326.77	273.81
326.999	585.81
327.228	1174.81
327.457	2183.81
327.686	1747.81
327.914	482.81
328.143	249.81
328.372	214.81
328.6	152.81
328.829	130.81
329.058	148.81
329.287	148.81
329.515	120.81
329.744	112.81
329.972	127.81
330.201	166.81
330.43	227.81
330.658	180.81
330.887	167.81
331.115	160.81
331.344	105.81
331.572	118.81
331.801	114.81
332.03	104.81
332.258	86.81
332.486	91.81
332.715	96.81
332.943	95.81
333.172	112.81
333.4	91.81
333.629	123.81
333.857	128.81
334.085	150.81
334.314	165.81
334.542	247.81
334.771	240.81
334.999	135.81
335.227	101.81
335.455	107.81
335.684	98.81
335.912	94.81
336.14	97.81
336.369	97.81
336.597	106.81
336.825	110.81
337.053	99.81
337.281	89.81
337.51	94.81
337.738	98.81
337.966	107.81
338.194	94.81
338.422	89.81
338.65	86.81
338.878	104.81
339.106	88.81
339.334	93.81
339.562	85.81
339.79	93.81
340.018	87.81
340.246	105.81
340.474	102.81
340.702	86.81
340.93	107.81
341.158	91.81
341.386	94.81
341.614	99.81
341.842	92.81
342.07	82.81
342.298	90.81
342.526	107.81
342.754	81.81
342.981	75.81
343.209	83.81
343.437	93.81
343.665	92.81
343.893	88.81
344.12	79.81
344.348	93.81
344.576	96.81
344.804	84.81
345.031	101.81
345.259	110.81
345.487	107.81
345.714	92.81
345.942	95.81
346.17	88.81
346.397	75.81
346.625	101.81
346.853	98.81
347.08	82.81
347.308	94.81
347.535	97.81
347.763	100.81
347.99	97.81
348.218	98.81
348.445	110.81
348.673	110.81
348.9	92.81
349.128	83.81
349.355	99.81
349.583	81.81
349.81	76.81
350.037	82.81
350.265	82.81
350.492	75.81
350.72	108.81
350.947	102.81
351.174	106.81
351.402	121.81
351.629	109.81
351.856	86.81
352.083	111.81
352.311	106.81
352.538	119.81
352.765	129.81
352.992	112.81
353.22	117.81
353.447	103.81
353.674	111.81
353.901	98.81
354.128	82.81
354.355	84.81
354.583	86.81
354.81	89.81
355.037	98.81
355.264	79.81
355.491	94.81
355.718	80.81
355.945	88.81
356.172	94.81
356.399	77.81
356.626	70.81
356.853	84.81
357.08	100.81
357.307	91.81
357.534	94.81
357.761	97.81
357.988	97.81
358.215	93.81
358.441	87.81
358.668	79.81
358.895	84.81
359.122	79.81
359.349	92.81
359.576	86.81
359.802	109.81
360.029	115.81
360.256	112.81
360.483	108.81
360.709	89.81
360.936	93.81
361.163	102.81
361.39	78.81
361.616	87.81
361.843	94.81
362.07	82.81
362.296	89.81
362.523	107.81
362.749	89.81
362.976	93.81
363.203	101.81
363.429	84.81
363.656	87.81
363.882	76.81
364.109	87.81
364.335	86.81
364.562	96.81
364.788	85.81
365.015	101.81
365.241	103.81
365.468	122.81
365.694	120.81
365.92	93.81
366.147	92.81
366.373	95.81
366.599	85.81
366.826	91.81
367.052	90.81
367.278	94.81
367.505	99.81
367.731	89.81
367.957	86.81
368.184	100.81
368.41	100.81
368.636	103.81
368.862	121.81
369.089	128.81
369.315	89.81
369.541	103.81
369.767	92.81
369.993	95.81
370.219	91.81
370.445	86.81
370.672	67.81
370.898	86.81
371.124	95.81
371.35	81.81
371.576	89.81
371.802	89.81
372.028	69.81
372.254	79.81
372.48	98.81
372.706	93.81
372.932	93.81
373.158	89.81
373.384	78.81
373.61	96.81
373.835	98.81
374.061	93.81
374.287	90.81
374.513	101.81
374.739	87.81
374.965	73.81
375.191	92.81
375.416	80.81
375.642	95.81
375.868	94.81
376.094	91.81
376.319	83.81
376.545	103.81
376.771	79.81
376.997	68.81
377.222	96.81
377.448	87.81
377.674	86.81
377.899	91.81
378.125	95.81
378.35	73.81
378.576	79.81
378.802	81.81
379.027	86.81
379.253	97.81
379.478	98.81
379.704	86.81
379.929	93.81
380.155	92.81
380.38	91.81
380.606	90.81
380.831	85.81
381.057	86.81
381.282	88.81
381.507	98.81
381.733	80.81
381.958	90.81
382.184	90.81
382.409	89.81
382.634	82.81
382.86	102.81
383.085	95.81
383.31	97.81
383.535	93.81
383.761	88.81
383.986	94.81
384.211	82.81
384.436	66.81
384.662	78.81
384.887	91.81
385.112	103.81
385.337	102.81
385.562	84.81
385.787	79.81
386.013	103.81
386.238	95.81
386.463	106.81
386.688	97.81
386.913	105.81
387.138	98.81
387.363	88.81
387.588	94.81
387.813	102.81
388.038	106.81
388.263	94.81
388.488	90.81
388.713	87.81
388.938	83.81
389.163	91.81
389.387	86.81
389.612	97.81
389.837	86.81
390.062	104.81
390.287	74.81
390.512	89.81
390.736	84.81
390.961	84.81
391.186	90.81
391.411	93.81
391.636	88.81
391.86	79.81
392.085	85.81
392.31	84.81
392.534	86.81
392.759	73.81
392.984	86.81
393.208	96.81
393.433	84.81
393.658	81.81
393.882	89.81
394.107	87.81
394.331	73.81
394.556	70.81
394.78	89.81
395.005	88.81
395.229	74.81
395.454	87.81
395.678	75.81
395.903	78.81
396.127	82.81
396.352	79.81
396.576	77.81
396.801	74.81
397.025	86.81
397.249	99.81
397.474	96.81
397.698	89.81
397.922	93.81
398.147	77.81
398.371	83.81
398.595	85.81
398.82	73.81
399.044	76.81
399.268	77.81
399.492	93.81
399.717	102.81
399.941	83.81
400.165	95.81
400.389	92.81
400.613	85.81
400.837	90.81
401.062	87.81
401.286	81.81
401.51	91.81
401.734	77.81
401.958	101.81
402.182	151.81
402.406	197.81
402.63	137.81
402.854	89.81
403.078	91.81
403.302	82.81
403.526	76.81
403.75	77.81
403.974	92.81
404.198	87.81
404.422	74.81
404.645	84.81
404.869	93.81
405.093	97.81
405.317	97.81
405.541	99.81
405.765	110.81
405.988	130.81
406.212	206.81
406.436	312.81
406.66	182.81
406.883	93.81
407.107	91.81
407.331	89.81
407.555	102.81
407.778	97.81
408.002	90.81
408.226	81.81
408.449	100.81
408.673	78.81
408.896	91.81
409.12	82.81
409.344	78.81
409.567	89.81
409.791	99.81
410.014	94.81
410.238	92.81
410.461	97.81
410.685	85.81
410.908	90.81
411.132	95.81
411.355	90.81
411.578	77.81
411.802	87.81
412.025	82.81
412.249	83.81
412.472	90.81
412.695	92.81
412.919	89.81
413.142	81.81
413.365	81.81
413.589	81.81
413.812	62.81
414.035	85.81
414.258	82.81
414.482	79.81
414.705	78.81
414.928	86.81
415.151	77.81
415.374	76.81
415.597	85.81
415.821	78.81
416.044	74.81
416.267	80.81
416.49	84.81
416.713	81.81
416.936	107.81
417.159	73.81
417.382	80.81
417.605	96.81
417.828	93.81
418.051	101.81
418.274	88.81
418.497	80.81
418.72	78.81
418.943	83.81
419.166	81.81
419.389	71.81
419.611	94.81
419.834	87.81
420.057	91.81
420.28	84.81
420.503	84.81
420.726	76.81
420.948	84.81
421.171	84.81
421.394	92.81
421.617	99.81
421.839	81.81
422.062	102.81
422.285	89.81
422.507	103.81
422.73	106.81
422.953	79.81
423.175	77.81
423.398	80.81
423.621	89.81
423.843	78.81
424.066	74.81
424.288	80.81
424.511	69.81
424.733	89.81
424.956	107.81
425.178	97.81
425.401	103.81
425.623	109.81
425.846	70.81
426.068	96.81
426.291	91.81
426.513	91.81
426.735	79.81
426.958	98.81
427.18	89.81
427.402	155.81
427.625	212.81
427.847	175.81
428.069	131.81
428.292	99.81
428.514	78.81
428.736	85.81
428.958	70.81
429.181	84.81
429.403	74.81
429.625	80.81
429.847	90.81
430.069	98.81
430.292	95.81
430.514	77.81
430.736	98.81
430.958	85.81
431.18	71.81
431.402	97.81
431.624	80.81
431.846	68.81
432.068	75.81
432.29	90.81
432.512	77.81
432.734	77.81
432.956	96.81
433.178	101.81
433.4	103.81
433.622	86.81
433.844	94.81
434.066	89.81
434.287	86.81
434.509	90.81
434.731	85.81
434.953	68.81
435.175	75.81
435.397	78.81
435.618	102.81
435.84	130.81
436.062	123.81
436.284	94.81
436.505	106.81
436.727	107.81
436.949	89.81
437.17	72.81
437.392	79.81
437.614	88.81
437.835	102.81
438.057	143.81
438.278	121.81
438.5	119.81
438.721	108.81
438.943	102.81
439.165	90.81
439.386	97.81
439.608	81.81
439.829	105.81
440.05	126.81
440.272	176.81
440.493	97.81
440.715	90.81
440.936	94.81
441.158	83.81
441.379	100.81
441.6	106.81
441.822	94.81
442.043	99.81
442.264	101.81
442.486	94.81
442.707	105.81
442.928	119.81
443.149	142.81
443.371	145.81
443.592	125.81
443.813	113.81
444.034	120.81
444.255	87.81
444.476	73.81
444.698	79.81
444.919	89.81
445.14	115.81
445.361	127.81
445.582	129.81
445.803	129.81
446.024	141.81
446.245	140.81
446.466	130.81
446.687	97.81
446.908	97.81
447.129	81.81
447.35	86.81
447.571	92.81
447.792	90.81
448.013	95.81
448.234	116.81
448.455	94.81
448.675	118.81
448.896	116.81
449.117	91.81
449.338	111.81
449.559	121.81
449.779	126.81
450	100.81
450.221	83.81
450.442	99.81
450.662	86.81
450.883	114.81
451.104	126.81
451.324	113.81
451.545	87.81
451.766	80.81
451.986	65.81
452.207	86.81
452.428	84.81
452.648	99.81
452.869	121.81
453.089	127.81
453.31	141.81
453.53	101.81
453.751	87.81
453.971	101.81
454.192	117.81
454.412	94.81
454.633	88.81
454.853	90.81
455.073	74.81
455.294	94.81
455.514	97.81
455.734	70.81
455.955	92.81
456.175	87.81
456.395	89.81
456.616	94.81
456.836	84.81
457.056	87.81
457.276	75.81
457.497	79.81
457.717	74.81
457.937	79.81
458.157	79.81
458.377	99.81
458.598	126.81
458.818	187.81
459.038	198.81
459.258	145.81
459.478	93.81
459.698	77.81
459.918	73.81
460.138	83.81
460.358	84.81
460.578	81.81
460.798	90.81
461.018	75.81
461.238	73.81
461.458	77.81
461.678	76.81
461.898	79.81
462.118	75.81
462.338	92.81
462.558	85.81
462.777	79.81
462.997	81.81
463.217	82.81
463.437	88.81
463.657	77.81
463.876	87.81
464.096	91.81
464.316	77.81
464.536	86.81
464.755	92.81
464.975	110.81
465.195	207.81
465.414	210.81
465.634	96.81
465.854	76.81
466.073	79.81
466.293	88.81
466.512	82.81
466.732	74.81
466.951	74.81
467.171	78.81
467.391	97.81
467.61	109.81
467.829	104.81
468.049	119.81
468.268	153.81
468.488	92.81
468.707	86.81
468.927	96.81
469.146	84.81
469.365	83.81
469.585	85.81
469.804	115.81
470.023	108.81
470.243	89.81
470.462	103.81
470.681	117.81
470.901	116.81
471.12	79.81
471.339	73.81
471.558	91.81
471.777	86.81
471.997	105.81
472.216	178.81
472.435	305.81
472.654	125.81
472.873	94.81
473.092	78.81
473.311	86.81
473.53	86.81
473.749	85.81
473.968	87.81
474.187	120.81
474.406	96.81
474.625	88.81
474.844	81.81
475.063	79.81
475.282	92.81
475.501	82.81
475.72	74.81
475.939	82.81
476.158	96.81
476.377	73.81
476.596	88.81
476.814	86.81
477.033	88.81
477.252	87.81
477.471	80.81
477.69	70.81
477.908	85.81
478.127	75.81
478.346	92.81
478.564	87.81
478.783	95.81
479.002	95.81
479.22	110.81
479.439	109.81
479.658	92.81
479.876	101.81
480.095	74.81
480.313	90.81
480.532	92.81
480.751	89.81
480.969	186.81
481.188	461.81
481.406	320.81
481.624	109.81
481.843	89.81
482.061	71.81
482.28	66.81
482.498	70.81
482.717	80.81
482.935	84.81
483.153	92.81
483.372	70.81
483.59	82.81
483.808	75.81
484.027	93.81
484.245	97.81
484.463	78.81
484.681	83.81
484.9	80.81
485.118	86.81
485.336	87.81
485.554	79.81
485.772	79.81
485.99	110.81
486.209	97.81
486.427	100.81
486.645	116.81
486.863	123.81
487.081	83.81
487.299	94.81
487.517	89.81
487.735	71.81
487.953	82.81
488.171	86.81
488.389	69.81
488.607	105.81
488.825	68.81
489.043	74.81
489.261	79.81
489.479	81.81
489.696	76.81
489.914	84.81
490.132	91.81
490.35	75.81
490.568	82.81
490.786	84.81
491.003	74.81
491.221	75.81
491.439	88.81
491.657	79.81
491.874	77.81
492.092	74.81
492.31	95.81
492.527	71.81
492.745	85.81
492.963	95.81
493.18	93.81
493.398	100.81
493.615	99.81
493.833	85.81
494.05	86.81
494.268	78.81
494.485	81.81
494.703	82.81
494.92	87.81
495.138	89.81
495.355	90.81
495.573	78.81
495.79	79.81
496.008	86.81
496.225	84.81
496.442	70.81
496.66	82.81
496.877	85.81
497.094	81.81
497.312	84.81
497.529	87.81
497.746	87.81
497.963	85.81
498.181	86.81
498.398	100.81
498.615	112.81
498.832	107.81
499.049	97.81
499.267	76.81
499.484	86.81
499.701	93.81
499.918	90.81
500.135	73.81
500.352	66.81
500.569	91.81
500.786	92.81
501.003	82.81
501.22	89.81
501.437	83.81
501.654	97.81
501.871	106.81
502.088	102.81
502.305	77.81
502.522	83.81
502.739	82.81
502.956	79.81
503.172	99.81
503.389	101.81
503.606	103.81
503.823	68.81
504.04	95.81
504.256	74.81
504.473	72.81
504.69	85.81
504.907	77.81
505.123	86.81
505.34	92.81
505.557	81.81
505.773	82.81
505.99	87.81
506.207	91.81
506.423	82.81
506.64	93.81
506.856	101.81
507.073	101.81
507.289	75.81
507.506	101.81
507.722	130.81
507.939	120.81
508.155	99.81
508.372	63.81
508.588	80.81
508.805	83.81
509.021	89.81
509.238	91.81
509.454	104.81
509.67	106.81
509.887	109.81
510.103	138.81
510.319	274.81
510.536	1079.81
510.752	3717.81
510.968	1023.81
511.184	194.81
511.401	123.81
511.617	93.81
511.833	101.81
512.049	75.81
512.265	82.81
512.481	95.81
512.698	79.81
512.914	90.81
513.13	80.81
513.346	94.81
513.562	79.81
513.778	96.81
513.994	100.81
514.21	96.81
514.426	143.81
514.642	165.81
514.858	148.81
515.074	227.81
515.29	688.81
515.506	2523.81
515.721	869.81
515.937	197.81
