Data from Circ_2022_H10_HRD10591_00063.txt Node
Date: Wed Jan 03 09:53:50 EST 2024
User: Yrep
Spectrometer: HR+D1059
Trigger mode: 1
Integration Time (sec): 1.000000E-1
Scans to average: 1
Electric dark correction enabled: true
Nonlinearity correction enabled: false
Boxcar width: 0
XAxis mode: Wavelengths
Number of Pixels in Spectrum: 2048
>>>>>Begin Spectral Data<<<<<
223.165	-9.25
223.4	-9.25
223.635	-9.25
223.869	-29.25
224.104	-22.25
224.338	-20.25
224.573	-15.25
224.808	-9.25
225.042	-7.25
225.277	-4.25
225.511	12.75
225.746	-2.25
225.98	10.75
226.215	0.75
226.449	18.75
226.683	11.75
226.918	27.75
227.152	36.75
227.387	37.75
227.621	44.75
227.856	39.75
228.09	55.75
228.324	54.75
228.559	62.75
228.793	63.75
229.027	81.75
229.262	69.75
229.496	78.75
229.73	87.75
229.964	88.75
230.199	73.75
230.433	71.75
230.667	80.75
230.901	78.75
231.136	92.75
231.37	81.75
231.604	80.75
231.838	82.75
232.072	72.75
232.306	86.75
232.541	71.75
232.775	76.75
233.009	94.75
233.243	84.75
233.477	74.75
233.711	81.75
233.945	82.75
234.179	91.75
234.413	85.75
234.647	79.75
234.881	73.75
235.115	75.75
235.349	97.75
235.583	77.75
235.817	93.75
236.051	71.75
236.285	70.75
236.519	71.75
236.753	85.75
236.987	83.75
237.221	82.75
237.455	81.75
237.689	94.75
237.922	66.75
238.156	76.75
238.39	75.75
238.624	76.75
238.858	71.75
239.091	67.75
239.325	59.75
239.559	92.75
239.793	69.75
240.027	71.75
240.26	82.75
240.494	64.75
240.728	57.75
240.961	73.75
241.195	87.75
241.429	79.75
241.662	82.75
241.896	64.75
242.13	78.75
242.363	69.75
242.597	81.75
242.83	78.75
243.064	71.75
243.298	75.75
243.531	74.75
243.765	78.75
243.998	73.75
244.232	93.75
244.465	82.75
244.699	74.75
244.932	80.75
245.166	68.75
245.399	72.75
245.633	73.75
245.866	82.75
246.099	78.75
246.333	68.75
246.566	69.75
246.8	67.75
247.033	74.75
247.266	77.75
247.5	63.75
247.733	96.75
247.966	65.75
248.2	76.75
248.433	78.75
248.666	82.75
248.899	91.75
249.133	89.75
249.366	101.75
249.599	98.75
249.832	83.75
250.066	89.75
250.299	73.75
250.532	96.75
250.765	59.75
250.998	84.75
251.231	83.75
251.465	78.75
251.698	73.75
251.931	82.75
252.164	63.75
252.397	82.75
252.63	77.75
252.863	70.75
253.096	83.75
253.329	79.75
253.562	83.75
253.795	86.75
254.028	86.75
254.261	72.75
254.494	81.75
254.727	81.75
254.96	87.75
255.193	72.75
255.426	82.75
255.659	85.75
255.892	76.75
256.124	80.75
256.357	91.75
256.59	77.75
256.823	86.75
257.056	79.75
257.289	101.75
257.521	87.75
257.754	87.75
257.987	64.75
258.22	90.75
258.452	73.75
258.685	88.75
258.918	84.75
259.151	89.75
259.383	84.75
259.616	77.75
259.849	78.75
260.081	81.75
260.314	83.75
260.547	78.75
260.779	70.75
261.012	85.75
261.244	85.75
261.477	90.75
261.71	107.75
261.942	114.75
262.175	131.75
262.407	98.75
262.64	78.75
262.872	83.75
263.105	84.75
263.337	94.75
263.57	88.75
263.802	74.75
264.035	96.75
264.267	78.75
264.499	94.75
264.732	79.75
264.964	81.75
265.197	86.75
265.429	88.75
265.661	81.75
265.894	74.75
266.126	85.75
266.358	85.75
266.591	95.75
266.823	77.75
267.055	87.75
267.287	87.75
267.52	98.75
267.752	100.75
267.984	84.75
268.216	91.75
268.448	73.75
268.681	88.75
268.913	74.75
269.145	87.75
269.377	71.75
269.609	78.75
269.841	85.75
270.073	80.75
270.306	76.75
270.538	88.75
270.77	78.75
271.002	78.75
271.234	72.75
271.466	90.75
271.698	85.75
271.93	87.75
272.162	82.75
272.394	83.75
272.626	91.75
272.858	78.75
273.09	99.75
273.322	96.75
273.553	92.75
273.785	85.75
274.017	87.75
274.249	82.75
274.481	96.75
274.713	82.75
274.945	89.75
275.176	79.75
275.408	85.75
275.64	84.75
275.872	89.75
276.104	80.75
276.335	90.75
276.567	103.75
276.799	126.75
277.031	101.75
277.262	102.75
277.494	91.75
277.726	91.75
277.957	81.75
278.189	70.75
278.421	86.75
278.652	85.75
278.884	97.75
279.115	83.75
279.347	80.75
279.579	90.75
279.81	92.75
280.042	101.75
280.273	103.75
280.505	96.75
280.736	86.75
280.968	84.75
281.199	80.75
281.431	83.75
281.662	88.75
281.894	107.75
282.125	104.75
282.356	137.75
282.588	202.75
282.819	130.75
283.051	104.75
283.282	84.75
283.513	88.75
283.745	83.75
283.976	81.75
284.207	83.75
284.439	73.75
284.67	82.75
284.901	91.75
285.132	86.75
285.364	86.75
285.595	90.75
285.826	81.75
286.057	89.75
286.288	89.75
286.52	84.75
286.751	95.75
286.982	90.75
287.213	90.75
287.444	88.75
287.675	90.75
287.906	90.75
288.138	89.75
288.369	83.75
288.6	86.75
288.831	81.75
289.062	92.75
289.293	92.75
289.524	100.75
289.755	87.75
289.986	91.75
290.217	89.75
290.448	75.75
290.679	87.75
290.91	88.75
291.141	88.75
291.371	79.75
291.602	84.75
291.833	98.75
292.064	68.75
292.295	66.75
292.526	89.75
292.757	89.75
292.987	74.75
293.218	88.75
293.449	83.75
293.68	82.75
293.91	95.75
294.141	94.75
294.372	78.75
294.603	83.75
294.833	89.75
295.064	89.75
295.295	93.75
295.525	102.75
295.756	107.75
295.987	122.75
296.217	162.75
296.448	158.75
296.679	95.75
296.909	76.75
297.14	77.75
297.37	94.75
297.601	91.75
297.831	87.75
298.062	94.75
298.292	90.75
298.523	94.75
298.753	99.75
298.984	105.75
299.214	95.75
299.445	91.75
299.675	103.75
299.905	89.75
300.136	82.75
300.366	83.75
300.597	100.75
300.827	101.75
301.057	83.75
301.288	103.75
301.518	98.75
301.748	99.75
301.979	100.75
302.209	79.75
302.439	78.75
302.669	97.75
302.9	89.75
303.13	92.75
303.36	97.75
303.59	98.75
303.82	114.75
304.051	107.75
304.281	92.75
304.511	95.75
304.741	101.75
304.971	98.75
305.201	100.75
305.431	90.75
305.661	92.75
305.891	97.75
306.121	96.75
306.352	114.75
306.582	91.75
306.812	106.75
307.042	88.75
307.272	111.75
307.502	119.75
307.731	96.75
307.961	80.75
308.191	94.75
308.421	85.75
308.651	91.75
308.881	98.75
309.111	93.75
309.341	99.75
309.571	91.75
309.8	91.75
310.03	103.75
310.26	111.75
310.49	103.75
310.72	113.75
310.949	114.75
311.179	101.75
311.409	100.75
311.639	94.75
311.868	97.75
312.098	88.75
312.328	82.75
312.557	119.75
312.787	121.75
313.017	104.75
313.246	101.75
313.476	87.75
313.706	92.75
313.935	91.75
314.165	115.75
314.394	128.75
314.624	109.75
314.853	98.75
315.083	97.75
315.312	86.75
315.542	97.75
315.771	101.75
316.001	87.75
316.23	85.75
316.46	103.75
316.689	95.75
316.919	92.75
317.148	112.75
317.377	102.75
317.607	90.75
317.836	92.75
318.065	95.75
318.295	89.75
318.524	89.75
318.753	87.75
318.983	99.75
319.212	87.75
319.441	114.75
319.67	117.75
319.9	97.75
320.129	95.75
320.358	101.75
320.587	94.75
320.816	124.75
321.046	120.75
321.275	106.75
321.504	95.75
321.733	97.75
321.962	110.75
322.191	112.75
322.42	117.75
322.649	125.75
322.878	127.75
323.108	127.75
323.337	131.75
323.566	151.75
323.795	173.75
324.024	243.75
324.253	491.75
324.482	1099.75
324.71	2256.75
324.939	2940.75
325.168	1091.75
325.397	291.75
325.626	180.75
325.855	155.75
326.084	141.75
326.313	150.75
326.542	173.75
326.77	274.75
326.999	594.75
327.228	1208.75
327.457	2180.75
327.686	1694.75
327.914	480.75
328.143	270.75
328.372	212.75
328.6	169.75
328.829	140.75
329.058	135.75
329.287	158.75
329.515	136.75
329.744	121.75
329.972	119.75
330.201	178.75
330.43	239.75
330.658	176.75
330.887	180.75
331.115	145.75
331.344	116.75
331.572	127.75
331.801	107.75
332.03	110.75
332.258	94.75
332.486	94.75
332.715	95.75
332.943	106.75
333.172	110.75
333.4	106.75
333.629	129.75
333.857	146.75
334.085	155.75
334.314	183.75
334.542	260.75
334.771	256.75
334.999	128.75
335.227	115.75
335.455	91.75
335.684	104.75
335.912	100.75
336.14	110.75
336.369	108.75
336.597	98.75
336.825	100.75
337.053	80.75
337.281	95.75
337.51	82.75
337.738	100.75
337.966	91.75
338.194	112.75
338.422	105.75
338.65	92.75
338.878	95.75
339.106	89.75
339.334	82.75
339.562	89.75
339.79	96.75
340.018	92.75
340.246	101.75
340.474	105.75
340.702	103.75
340.93	82.75
341.158	72.75
341.386	105.75
341.614	119.75
341.842	95.75
342.07	100.75
342.298	97.75
342.526	103.75
342.754	85.75
342.981	73.75
343.209	84.75
343.437	106.75
343.665	97.75
343.893	103.75
344.12	92.75
344.348	111.75
344.576	82.75
344.804	87.75
345.031	97.75
345.259	94.75
345.487	100.75
345.714	94.75
345.942	88.75
346.17	90.75
346.397	84.75
346.625	98.75
346.853	83.75
347.08	96.75
347.308	91.75
347.535	97.75
347.763	104.75
347.99	102.75
348.218	116.75
348.445	130.75
348.673	115.75
348.9	99.75
349.128	90.75
349.355	84.75
349.583	95.75
349.81	87.75
350.037	101.75
350.265	83.75
350.492	96.75
350.72	91.75
350.947	114.75
351.174	110.75
351.402	113.75
351.629	122.75
351.856	114.75
352.083	115.75
352.311	105.75
352.538	110.75
352.765	102.75
352.992	128.75
353.22	121.75
353.447	108.75
353.674	103.75
353.901	92.75
354.128	81.75
354.355	81.75
354.583	107.75
354.81	92.75
355.037	82.75
355.264	94.75
355.491	91.75
355.718	89.75
355.945	98.75
356.172	102.75
356.399	98.75
356.626	92.75
356.853	98.75
357.08	87.75
357.307	98.75
357.534	83.75
357.761	84.75
357.988	89.75
358.215	96.75
358.441	97.75
358.668	76.75
358.895	87.75
359.122	88.75
359.349	107.75
359.576	99.75
359.802	116.75
360.029	129.75
360.256	122.75
360.483	102.75
360.709	94.75
360.936	91.75
361.163	103.75
361.39	98.75
361.616	102.75
361.843	96.75
362.07	95.75
362.296	99.75
362.523	87.75
362.749	95.75
362.976	95.75
363.203	91.75
363.429	110.75
363.656	97.75
363.882	90.75
364.109	88.75
364.335	97.75
364.562	99.75
364.788	89.75
365.015	92.75
365.241	102.75
365.468	107.75
365.694	103.75
365.92	105.75
366.147	94.75
366.373	92.75
366.599	90.75
366.826	97.75
367.052	87.75
367.278	94.75
367.505	88.75
367.731	102.75
367.957	85.75
368.184	95.75
368.41	110.75
368.636	124.75
368.862	144.75
369.089	116.75
369.315	100.75
369.541	89.75
369.767	90.75
369.993	100.75
370.219	90.75
370.445	108.75
370.672	97.75
370.898	94.75
371.124	73.75
371.35	93.75
371.576	89.75
371.802	84.75
372.028	105.75
372.254	98.75
372.48	74.75
372.706	89.75
372.932	86.75
373.158	87.75
373.384	79.75
373.61	92.75
373.835	89.75
374.061	98.75
374.287	90.75
374.513	86.75
374.739	82.75
374.965	89.75
375.191	87.75
375.416	93.75
375.642	86.75
375.868	96.75
376.094	90.75
376.319	79.75
376.545	89.75
376.771	90.75
376.997	82.75
377.222	89.75
377.448	108.75
377.674	90.75
377.899	100.75
378.125	79.75
378.35	98.75
378.576	92.75
378.802	100.75
379.027	95.75
379.253	93.75
379.478	98.75
379.704	92.75
379.929	97.75
380.155	97.75
380.38	102.75
380.606	86.75
380.831	87.75
381.057	81.75
381.282	90.75
381.507	94.75
381.733	91.75
381.958	94.75
382.184	87.75
382.409	96.75
382.634	114.75
382.86	92.75
383.085	96.75
383.31	88.75
383.535	89.75
383.761	100.75
383.986	92.75
384.211	102.75
384.436	103.75
384.662	101.75
384.887	91.75
385.112	84.75
385.337	95.75
385.562	98.75
385.787	112.75
386.013	107.75
386.238	110.75
386.463	107.75
386.688	101.75
386.913	109.75
387.138	112.75
387.363	102.75
387.588	96.75
387.813	96.75
388.038	116.75
388.263	112.75
388.488	110.75
388.713	97.75
388.938	85.75
389.163	72.75
389.387	91.75
389.612	88.75
389.837	97.75
390.062	93.75
390.287	89.75
390.512	105.75
390.736	89.75
390.961	85.75
391.186	107.75
391.411	96.75
391.636	73.75
391.86	90.75
392.085	79.75
392.31	86.75
392.534	89.75
392.759	89.75
392.984	88.75
393.208	86.75
393.433	98.75
393.658	91.75
393.882	87.75
394.107	80.75
394.331	86.75
394.556	84.75
394.78	106.75
395.005	79.75
395.229	85.75
395.454	76.75
395.678	83.75
395.903	74.75
396.127	92.75
396.352	91.75
396.576	80.75
396.801	78.75
397.025	88.75
397.249	87.75
397.474	94.75
397.698	80.75
397.922	84.75
398.147	93.75
398.371	91.75
398.595	81.75
398.82	81.75
399.044	85.75
399.268	89.75
399.492	95.75
399.717	96.75
399.941	91.75
400.165	76.75
400.389	102.75
400.613	92.75
400.837	92.75
401.062	100.75
401.286	75.75
401.51	102.75
401.734	117.75
401.958	114.75
402.182	161.75
402.406	198.75
402.63	137.75
402.854	90.75
403.078	87.75
403.302	87.75
403.526	95.75
403.75	92.75
403.974	84.75
404.198	81.75
404.422	91.75
404.645	87.75
404.869	103.75
405.093	98.75
405.317	88.75
405.541	95.75
405.765	103.75
405.988	125.75
406.212	192.75
406.436	329.75
406.66	196.75
406.883	122.75
407.107	99.75
407.331	94.75
407.555	111.75
407.778	95.75
408.002	82.75
408.226	88.75
408.449	90.75
408.673	93.75
408.896	99.75
409.12	89.75
409.344	79.75
409.567	93.75
409.791	99.75
410.014	90.75
410.238	89.75
410.461	75.75
410.685	105.75
410.908	94.75
411.132	91.75
411.355	105.75
411.578	95.75
411.802	86.75
412.025	103.75
412.249	103.75
412.472	110.75
412.695	96.75
412.919	89.75
413.142	82.75
413.365	97.75
413.589	89.75
413.812	82.75
414.035	70.75
414.258	89.75
414.482	87.75
414.705	88.75
414.928	88.75
415.151	83.75
415.374	87.75
415.597	100.75
415.821	78.75
416.044	89.75
416.267	79.75
416.49	96.75
416.713	71.75
416.936	82.75
417.159	80.75
417.382	93.75
417.605	89.75
417.828	96.75
418.051	99.75
418.274	94.75
418.497	85.75
418.72	90.75
418.943	78.75
419.166	86.75
419.389	89.75
419.611	98.75
419.834	91.75
420.057	86.75
420.28	79.75
420.503	82.75
420.726	88.75
420.948	89.75
421.171	92.75
421.394	90.75
421.617	79.75
421.839	81.75
422.062	95.75
422.285	91.75
422.507	95.75
422.73	99.75
422.953	97.75
423.175	95.75
423.398	80.75
423.621	81.75
423.843	90.75
424.066	90.75
424.288	91.75
424.511	105.75
424.733	102.75
424.956	116.75
425.178	84.75
425.401	109.75
425.623	97.75
425.846	95.75
426.068	79.75
426.291	79.75
426.513	92.75
426.735	82.75
426.958	87.75
427.18	100.75
427.402	163.75
427.625	222.75
427.847	174.75
428.069	144.75
428.292	97.75
428.514	87.75
428.736	92.75
428.958	80.75
429.181	87.75
429.403	79.75
429.625	89.75
429.847	99.75
430.069	100.75
430.292	94.75
430.514	98.75
430.736	78.75
430.958	85.75
431.18	85.75
431.402	85.75
431.624	81.75
431.846	80.75
432.068	94.75
432.29	79.75
432.512	97.75
432.734	89.75
432.956	106.75
433.178	111.75
433.4	94.75
433.622	76.75
433.844	85.75
434.066	97.75
434.287	85.75
434.509	90.75
434.731	97.75
434.953	94.75
435.175	91.75
435.397	83.75
435.618	94.75
435.84	104.75
436.062	131.75
436.284	112.75
436.505	103.75
436.727	90.75
436.949	88.75
437.17	85.75
437.392	97.75
437.614	97.75
437.835	104.75
438.057	123.75
438.278	120.75
438.5	116.75
438.721	127.75
438.943	105.75
439.165	96.75
439.386	96.75
439.608	96.75
439.829	99.75
440.05	137.75
440.272	160.75
440.493	97.75
440.715	93.75
440.936	95.75
441.158	88.75
441.379	86.75
441.6	102.75
441.822	102.75
442.043	98.75
442.264	105.75
442.486	120.75
442.707	98.75
442.928	113.75
443.149	146.75
443.371	147.75
443.592	123.75
443.813	124.75
444.034	127.75
444.255	93.75
444.476	72.75
444.698	89.75
444.919	86.75
445.14	134.75
445.361	132.75
445.582	126.75
445.803	159.75
446.024	156.75
446.245	148.75
446.466	127.75
446.687	99.75
446.908	83.75
447.129	90.75
447.35	85.75
447.571	99.75
447.792	97.75
448.013	105.75
448.234	128.75
448.455	114.75
448.675	123.75
448.896	135.75
449.117	110.75
449.338	115.75
449.559	132.75
449.779	132.75
450	94.75
450.221	99.75
450.442	80.75
450.662	98.75
450.883	126.75
451.104	122.75
451.324	104.75
451.545	95.75
451.766	82.75
451.986	78.75
452.207	83.75
452.428	94.75
452.648	97.75
452.869	113.75
453.089	140.75
453.31	137.75
453.53	87.75
453.751	81.75
453.971	95.75
454.192	106.75
454.412	93.75
454.633	96.75
454.853	83.75
455.073	87.75
455.294	93.75
455.514	103.75
455.734	94.75
455.955	90.75
456.175	84.75
456.395	78.75
456.616	84.75
456.836	102.75
457.056	81.75
457.276	87.75
457.497	95.75
457.717	81.75
457.937	78.75
458.157	97.75
458.377	103.75
458.598	108.75
458.818	193.75
459.038	200.75
459.258	139.75
459.478	82.75
459.698	78.75
459.918	82.75
460.138	89.75
460.358	86.75
460.578	91.75
460.798	95.75
461.018	81.75
461.238	72.75
461.458	93.75
461.678	74.75
461.898	86.75
462.118	87.75
462.338	84.75
462.558	77.75
462.777	80.75
462.997	89.75
463.217	81.75
463.437	77.75
463.657	68.75
463.876	93.75
464.096	87.75
464.316	97.75
464.536	86.75
464.755	84.75
464.975	119.75
465.195	215.75
465.414	198.75
465.634	103.75
465.854	88.75
466.073	98.75
466.293	87.75
466.512	95.75
466.732	75.75
466.951	88.75
467.171	89.75
467.391	96.75
467.61	111.75
467.829	108.75
468.049	138.75
468.268	153.75
468.488	88.75
468.707	93.75
468.927	81.75
469.146	91.75
469.365	95.75
469.585	89.75
469.804	105.75
470.023	114.75
470.243	96.75
470.462	111.75
470.681	116.75
470.901	109.75
471.12	86.75
471.339	73.75
471.558	81.75
471.777	89.75
471.997	106.75
472.216	186.75
472.435	321.75
472.654	146.75
472.873	94.75
473.092	81.75
473.311	99.75
473.53	85.75
473.749	95.75
473.968	100.75
474.187	106.75
474.406	94.75
474.625	99.75
474.844	82.75
475.063	82.75
475.282	92.75
475.501	82.75
475.72	101.75
475.939	90.75
476.158	82.75
476.377	86.75
476.596	91.75
476.814	100.75
477.033	85.75
477.252	73.75
477.471	94.75
477.69	93.75
477.908	88.75
478.127	95.75
478.346	89.75
478.564	82.75
478.783	99.75
479.002	96.75
479.22	99.75
479.439	114.75
479.658	124.75
479.876	115.75
480.095	98.75
480.313	104.75
480.532	95.75
480.751	113.75
480.969	182.75
481.188	501.75
481.406	351.75
481.624	112.75
481.843	92.75
482.061	95.75
482.28	100.75
482.498	84.75
482.717	87.75
482.935	91.75
483.153	86.75
483.372	90.75
483.59	95.75
483.808	100.75
484.027	78.75
484.245	90.75
484.463	98.75
484.681	96.75
484.9	93.75
485.118	73.75
485.336	84.75
485.554	100.75
485.772	104.75
485.99	98.75
486.209	96.75
486.427	105.75
486.645	112.75
486.863	115.75
487.081	110.75
487.299	95.75
487.517	106.75
487.735	94.75
487.953	104.75
488.171	90.75
488.389	90.75
488.607	104.75
488.825	93.75
489.043	93.75
489.261	97.75
489.479	88.75
489.696	105.75
489.914	94.75
490.132	78.75
490.35	81.75
490.568	95.75
490.786	85.75
491.003	85.75
491.221	84.75
491.439	90.75
491.657	84.75
491.874	84.75
492.092	95.75
492.31	81.75
492.527	98.75
492.745	99.75
492.963	87.75
493.18	93.75
493.398	99.75
493.615	94.75
493.833	85.75
494.05	81.75
494.268	93.75
494.485	80.75
494.703	91.75
494.92	98.75
495.138	101.75
495.355	93.75
495.573	94.75
495.79	107.75
496.008	91.75
496.225	95.75
496.442	89.75
496.66	90.75
496.877	81.75
497.094	98.75
497.312	86.75
497.529	91.75
497.746	110.75
497.963	97.75
498.181	75.75
498.398	100.75
498.615	111.75
498.832	100.75
499.049	82.75
499.267	98.75
499.484	81.75
499.701	74.75
499.918	91.75
500.135	81.75
500.352	94.75
500.569	94.75
500.786	76.75
501.003	77.75
501.22	90.75
501.437	94.75
501.654	103.75
501.871	119.75
502.088	86.75
502.305	99.75
502.522	89.75
502.739	88.75
502.956	88.75
503.172	90.75
503.389	106.75
503.606	110.75
503.823	92.75
504.04	94.75
504.256	87.75
504.473	84.75
504.69	101.75
504.907	89.75
505.123	98.75
505.34	100.75
505.557	103.75
505.773	91.75
505.99	92.75
506.207	90.75
506.423	75.75
506.64	96.75
506.856	87.75
507.073	98.75
507.289	100.75
507.506	108.75
507.722	128.75
507.939	120.75
508.155	91.75
508.372	88.75
508.588	97.75
508.805	107.75
509.021	112.75
509.238	90.75
509.454	105.75
509.67	113.75
509.887	115.75
510.103	150.75
510.319	256.75
510.536	1067.75
510.752	3769.75
510.968	1022.75
511.184	199.75
511.401	124.75
511.617	123.75
511.833	101.75
512.049	104.75
512.265	103.75
512.481	73.75
512.698	92.75
512.914	92.75
513.13	100.75
513.346	99.75
513.562	88.75
513.778	98.75
513.994	103.75
514.21	108.75
514.426	129.75
514.642	167.75
514.858	146.75
