Data from Circ_2022_H10_HRD10591_00055.txt Node
Date: Wed Jan 03 09:53:48 EST 2024
User: Yrep
Spectrometer: HR+D1059
Trigger mode: 1
Integration Time (sec): 1.000000E-1
Scans to average: 1
Electric dark correction enabled: true
Nonlinearity correction enabled: false
Boxcar width: 0
XAxis mode: Wavelengths
Number of Pixels in Spectrum: 2048
>>>>>Begin Spectral Data<<<<<
223.165	-11.75
223.4	-11.75
223.635	-11.75
223.869	-24.75
224.104	-6.75
224.338	-3.75
224.573	-8.75
224.808	-7.75
225.042	-0.75
225.277	-19.75
225.511	-13.75
225.746	4.25
225.98	10.25
226.215	19.25
226.449	9.25
226.683	29.25
226.918	18.25
227.152	7.25
227.387	43.25
227.621	36.25
227.856	48.25
228.09	46.25
228.324	58.25
228.559	78.25
228.793	70.25
229.027	69.25
229.262	60.25
229.496	72.25
229.73	95.25
229.964	100.25
230.199	78.25
230.433	81.25
230.667	92.25
230.901	84.25
231.136	69.25
231.37	85.25
231.604	88.25
231.838	81.25
232.072	79.25
232.306	86.25
232.541	95.25
232.775	85.25
233.009	94.25
233.243	79.25
233.477	77.25
233.711	89.25
233.945	84.25
234.179	80.25
234.413	76.25
234.647	84.25
234.881	82.25
235.115	94.25
235.349	84.25
235.583	68.25
235.817	72.25
236.051	74.25
236.285	81.25
236.519	86.25
236.753	86.25
236.987	91.25
237.221	92.25
237.455	78.25
237.689	73.25
237.922	83.25
238.156	96.25
238.39	78.25
238.624	79.25
238.858	66.25
239.091	88.25
239.325	79.25
239.559	72.25
239.793	85.25
240.027	85.25
240.26	75.25
240.494	83.25
240.728	86.25
240.961	86.25
241.195	76.25
241.429	75.25
241.662	72.25
241.896	85.25
242.13	79.25
242.363	80.25
242.597	71.25
242.83	71.25
243.064	66.25
243.298	86.25
243.531	83.25
243.765	93.25
243.998	94.25
244.232	81.25
244.465	78.25
244.699	82.25
244.932	82.25
245.166	90.25
245.399	77.25
245.633	77.25
245.866	86.25
246.099	88.25
246.333	77.25
246.566	80.25
246.8	96.25
247.033	65.25
247.266	79.25
247.5	90.25
247.733	72.25
247.966	76.25
248.2	79.25
248.433	83.25
248.666	79.25
248.899	81.25
249.133	80.25
249.366	94.25
249.599	96.25
249.832	81.25
250.066	91.25
250.299	79.25
250.532	75.25
250.765	85.25
250.998	93.25
251.231	87.25
251.465	83.25
251.698	70.25
251.931	75.25
252.164	71.25
252.397	85.25
252.63	76.25
252.863	84.25
253.096	92.25
253.329	79.25
253.562	90.25
253.795	107.25
254.028	96.25
254.261	79.25
254.494	85.25
254.727	93.25
254.96	89.25
255.193	89.25
255.426	91.25
255.659	77.25
255.892	90.25
256.124	73.25
256.357	79.25
256.59	99.25
256.823	82.25
257.056	84.25
257.289	94.25
257.521	81.25
257.754	68.25
257.987	95.25
258.22	104.25
258.452	79.25
258.685	74.25
258.918	89.25
259.151	81.25
259.383	88.25
259.616	94.25
259.849	85.25
260.081	84.25
260.314	93.25
260.547	95.25
260.779	93.25
261.012	92.25
261.244	96.25
261.477	97.25
261.71	103.25
261.942	132.25
262.175	137.25
262.407	98.25
262.64	92.25
262.872	92.25
263.105	95.25
263.337	102.25
263.57	81.25
263.802	86.25
264.035	94.25
264.267	88.25
264.499	80.25
264.732	90.25
264.964	101.25
265.197	86.25
265.429	79.25
265.661	82.25
265.894	87.25
266.126	94.25
266.358	89.25
266.591	93.25
266.823	100.25
267.055	77.25
267.287	85.25
267.52	85.25
267.752	70.25
267.984	97.25
268.216	79.25
268.448	79.25
268.681	82.25
268.913	89.25
269.145	91.25
269.377	94.25
269.609	78.25
269.841	78.25
270.073	80.25
270.306	87.25
270.538	87.25
270.77	87.25
271.002	102.25
271.234	88.25
271.466	86.25
271.698	87.25
271.93	96.25
272.162	96.25
272.394	87.25
272.626	93.25
272.858	93.25
273.09	96.25
273.322	102.25
273.553	92.25
273.785	92.25
274.017	84.25
274.249	88.25
274.481	95.25
274.713	80.25
274.945	92.25
275.176	82.25
275.408	90.25
275.64	84.25
275.872	83.25
276.104	100.25
276.335	113.25
276.567	104.25
276.799	128.25
277.031	113.25
277.262	95.25
277.494	86.25
277.726	84.25
277.957	90.25
278.189	86.25
278.421	102.25
278.652	81.25
278.884	99.25
279.115	83.25
279.347	92.25
279.579	94.25
279.81	96.25
280.042	83.25
280.273	90.25
280.505	85.25
280.736	92.25
280.968	88.25
281.199	101.25
281.431	93.25
281.662	86.25
281.894	84.25
282.125	109.25
282.356	142.25
282.588	175.25
282.819	126.25
283.051	96.25
283.282	106.25
283.513	98.25
283.745	97.25
283.976	99.25
284.207	93.25
284.439	79.25
284.67	93.25
284.901	95.25
285.132	83.25
285.364	79.25
285.595	93.25
285.826	96.25
286.057	83.25
286.288	87.25
286.52	90.25
286.751	94.25
286.982	86.25
287.213	83.25
287.444	90.25
287.675	84.25
287.906	97.25
288.138	80.25
288.369	109.25
288.6	87.25
288.831	106.25
289.062	93.25
289.293	103.25
289.524	99.25
289.755	93.25
289.986	86.25
290.217	106.25
290.448	99.25
290.679	101.25
290.91	93.25
291.141	91.25
291.371	87.25
291.602	82.25
291.833	73.25
292.064	88.25
292.295	76.25
292.526	104.25
292.757	83.25
292.987	94.25
293.218	99.25
293.449	78.25
293.68	86.25
293.91	86.25
294.141	81.25
294.372	77.25
294.603	90.25
294.833	86.25
295.064	91.25
295.295	103.25
295.525	116.25
295.756	116.25
295.987	140.25
296.217	186.25
296.448	142.25
296.679	100.25
296.909	95.25
297.14	77.25
297.37	101.25
297.601	82.25
297.831	91.25
298.062	90.25
298.292	93.25
298.523	115.25
298.753	86.25
298.984	104.25
299.214	89.25
299.445	95.25
299.675	100.25
299.905	104.25
300.136	108.25
300.366	102.25
300.597	86.25
300.827	96.25
301.057	111.25
301.288	88.25
301.518	101.25
301.748	97.25
301.979	87.25
302.209	94.25
302.439	90.25
302.669	95.25
302.9	86.25
303.13	87.25
303.36	88.25
303.59	107.25
303.82	119.25
304.051	101.25
304.281	87.25
304.511	94.25
304.741	94.25
304.971	87.25
305.201	101.25
305.431	92.25
305.661	97.25
305.891	95.25
306.121	100.25
306.352	127.25
306.582	124.25
306.812	98.25
307.042	106.25
307.272	92.25
307.502	103.25
307.731	102.25
307.961	100.25
308.191	96.25
308.421	88.25
308.651	99.25
308.881	101.25
309.111	94.25
309.341	109.25
309.571	98.25
309.8	110.25
310.03	101.25
310.26	123.25
310.49	113.25
310.72	119.25
310.949	95.25
311.179	94.25
311.409	105.25
311.639	99.25
311.868	93.25
312.098	108.25
312.328	95.25
312.557	95.25
312.787	127.25
313.017	109.25
313.246	87.25
313.476	98.25
313.706	99.25
313.935	95.25
314.165	111.25
314.394	114.25
314.624	110.25
314.853	101.25
315.083	106.25
315.312	95.25
315.542	86.25
315.771	103.25
316.001	90.25
316.23	107.25
316.46	114.25
316.689	104.25
316.919	95.25
317.148	98.25
317.377	91.25
317.607	111.25
317.836	101.25
318.065	90.25
318.295	89.25
318.524	100.25
318.753	99.25
318.983	102.25
319.212	115.25
319.441	114.25
319.67	114.25
319.9	108.25
320.129	98.25
320.358	106.25
320.587	78.25
320.816	88.25
321.046	108.25
321.275	101.25
321.504	90.25
321.733	94.25
321.962	95.25
322.191	94.25
322.42	119.25
322.649	118.25
322.878	132.25
323.108	129.25
323.337	137.25
323.566	171.25
323.795	172.25
324.024	232.25
324.253	488.25
324.482	977.25
324.71	2024.25
324.939	2637.25
325.168	977.25
325.397	286.25
325.626	162.25
325.855	130.25
326.084	143.25
326.313	161.25
326.542	164.25
326.77	256.25
326.999	507.25
327.228	1029.25
327.457	1908.25
327.686	1532.25
327.914	428.25
328.143	239.25
328.372	182.25
328.6	153.25
328.829	128.25
329.058	154.25
329.287	154.25
329.515	127.25
329.744	110.25
329.972	140.25
330.201	179.25
330.43	180.25
330.658	160.25
330.887	162.25
331.115	135.25
331.344	110.25
331.572	113.25
331.801	101.25
332.03	111.25
332.258	102.25
332.486	94.25
332.715	99.25
332.943	90.25
333.172	102.25
333.4	121.25
333.629	119.25
333.857	143.25
334.085	122.25
334.314	147.25
334.542	183.25
334.771	204.25
334.999	138.25
335.227	106.25
335.455	115.25
335.684	109.25
335.912	107.25
336.14	119.25
336.369	106.25
336.597	99.25
336.825	98.25
337.053	96.25
337.281	101.25
337.51	96.25
337.738	108.25
337.966	95.25
338.194	100.25
338.422	94.25
338.65	96.25
338.878	104.25
339.106	96.25
339.334	86.25
339.562	99.25
339.79	100.25
340.018	86.25
340.246	92.25
340.474	105.25
340.702	83.25
340.93	79.25
341.158	98.25
341.386	106.25
341.614	116.25
341.842	105.25
342.07	96.25
342.298	112.25
342.526	92.25
342.754	88.25
342.981	92.25
343.209	89.25
343.437	90.25
343.665	89.25
343.893	90.25
344.12	101.25
344.348	93.25
344.576	91.25
344.804	100.25
345.031	104.25
345.259	108.25
345.487	107.25
345.714	108.25
345.942	99.25
346.17	98.25
346.397	90.25
346.625	93.25
346.853	101.25
347.08	100.25
347.308	109.25
347.535	118.25
347.763	116.25
347.99	104.25
348.218	105.25
348.445	123.25
348.673	115.25
348.9	105.25
349.128	102.25
349.355	79.25
349.583	104.25
349.81	109.25
350.037	105.25
350.265	109.25
350.492	114.25
350.72	117.25
350.947	130.25
351.174	123.25
351.402	128.25
351.629	101.25
351.856	108.25
352.083	121.25
352.311	126.25
352.538	114.25
352.765	114.25
352.992	114.25
353.22	122.25
353.447	99.25
353.674	122.25
353.901	111.25
354.128	93.25
354.355	94.25
354.583	102.25
354.81	96.25
355.037	97.25
355.264	105.25
355.491	91.25
355.718	94.25
355.945	102.25
356.172	99.25
356.399	109.25
356.626	95.25
356.853	98.25
357.08	102.25
357.307	97.25
357.534	94.25
357.761	83.25
357.988	80.25
358.215	82.25
358.441	91.25
358.668	98.25
358.895	109.25
359.122	88.25
359.349	109.25
359.576	93.25
359.802	106.25
360.029	130.25
360.256	132.25
360.483	110.25
360.709	107.25
360.936	102.25
361.163	107.25
361.39	108.25
361.616	101.25
361.843	76.25
362.07	97.25
362.296	123.25
362.523	107.25
362.749	100.25
362.976	100.25
363.203	116.25
363.429	92.25
363.656	88.25
363.882	102.25
364.109	88.25
364.335	79.25
364.562	90.25
364.788	101.25
365.015	99.25
365.241	100.25
365.468	118.25
365.694	114.25
365.92	93.25
366.147	91.25
366.373	106.25
366.599	104.25
366.826	84.25
367.052	98.25
367.278	115.25
367.505	103.25
367.731	95.25
367.957	101.25
368.184	114.25
368.41	118.25
368.636	139.25
368.862	128.25
369.089	104.25
369.315	93.25
369.541	99.25
369.767	98.25
369.993	103.25
370.219	109.25
370.445	96.25
370.672	92.25
370.898	96.25
371.124	80.25
371.35	89.25
371.576	79.25
371.802	90.25
372.028	104.25
372.254	103.25
372.48	101.25
372.706	101.25
372.932	93.25
373.158	98.25
373.384	79.25
373.61	94.25
373.835	77.25
374.061	83.25
374.287	102.25
374.513	91.25
374.739	93.25
374.965	86.25
375.191	99.25
375.416	103.25
375.642	90.25
375.868	86.25
376.094	103.25
376.319	92.25
376.545	79.25
376.771	95.25
376.997	101.25
377.222	92.25
377.448	90.25
377.674	88.25
377.899	88.25
378.125	105.25
378.35	92.25
378.576	96.25
378.802	80.25
379.027	101.25
379.253	90.25
379.478	92.25
379.704	88.25
379.929	89.25
380.155	102.25
380.38	107.25
380.606	99.25
380.831	90.25
381.057	94.25
381.282	99.25
381.507	109.25
381.733	92.25
381.958	100.25
382.184	94.25
382.409	100.25
382.634	114.25
382.86	108.25
383.085	95.25
383.31	108.25
383.535	94.25
383.761	103.25
383.986	99.25
384.211	91.25
384.436	99.25
384.662	103.25
384.887	100.25
385.112	99.25
385.337	100.25
385.562	115.25
385.787	113.25
386.013	119.25
386.238	110.25
386.463	111.25
386.688	109.25
386.913	112.25
387.138	92.25
387.363	105.25
387.588	110.25
387.813	106.25
388.038	96.25
388.263	100.25
388.488	112.25
388.713	99.25
388.938	99.25
389.163	93.25
389.387	95.25
389.612	86.25
389.837	86.25
390.062	94.25
390.287	91.25
390.512	92.25
390.736	93.25
390.961	103.25
391.186	108.25
391.411	97.25
391.636	98.25
391.86	93.25
392.085	92.25
392.31	90.25
392.534	86.25
392.759	94.25
392.984	94.25
393.208	105.25
393.433	102.25
393.658	85.25
393.882	88.25
394.107	81.25
394.331	94.25
394.556	102.25
394.78	90.25
395.005	92.25
395.229	85.25
395.454	102.25
395.678	91.25
395.903	85.25
396.127	91.25
396.352	98.25
396.576	62.25
396.801	105.25
397.025	96.25
397.249	106.25
397.474	100.25
397.698	104.25
397.922	80.25
398.147	82.25
398.371	96.25
398.595	83.25
398.82	82.25
399.044	85.25
399.268	92.25
399.492	94.25
399.717	92.25
399.941	88.25
400.165	98.25
400.389	83.25
400.613	79.25
400.837	92.25
401.062	98.25
401.286	99.25
401.51	100.25
401.734	115.25
401.958	97.25
402.182	135.25
402.406	202.25
402.63	158.25
402.854	107.25
403.078	89.25
403.302	94.25
403.526	101.25
403.75	90.25
403.974	92.25
404.198	87.25
404.422	98.25
404.645	100.25
404.869	99.25
405.093	113.25
405.317	100.25
405.541	90.25
405.765	100.25
405.988	132.25
406.212	207.25
406.436	308.25
406.66	184.25
406.883	99.25
407.107	103.25
407.331	95.25
407.555	114.25
407.778	103.25
408.002	93.25
408.226	98.25
408.449	100.25
408.673	86.25
408.896	115.25
409.12	101.25
409.344	110.25
409.567	102.25
409.791	73.25
410.014	95.25
410.238	98.25
410.461	90.25
410.685	109.25
410.908	106.25
411.132	94.25
411.355	102.25
411.578	86.25
411.802	95.25
412.025	91.25
412.249	94.25
412.472	103.25
412.695	90.25
412.919	99.25
413.142	93.25
413.365	86.25
413.589	92.25
413.812	90.25
414.035	111.25
414.258	94.25
414.482	89.25
414.705	89.25
414.928	99.25
415.151	105.25
415.374	93.25
415.597	93.25
415.821	93.25
416.044	75.25
416.267	95.25
416.49	86.25
416.713	87.25
416.936	98.25
417.159	98.25
417.382	93.25
417.605	97.25
417.828	108.25
418.051	104.25
418.274	95.25
418.497	90.25
418.72	93.25
418.943	84.25
419.166	85.25
419.389	96.25
419.611	92.25
419.834	99.25
420.057	86.25
420.28	97.25
420.503	93.25
420.726	85.25
420.948	91.25
421.171	82.25
421.394	88.25
421.617	110.25
421.839	97.25
422.062	105.25
422.285	88.25
422.507	107.25
422.73	106.25
422.953	92.25
423.175	88.25
423.398	85.25
423.621	99.25
423.843	79.25
424.066	106.25
424.288	102.25
424.511	109.25
424.733	94.25
424.956	115.25
425.178	121.25
425.401	105.25
425.623	94.25
425.846	92.25
426.068	105.25
426.291	96.25
426.513	106.25
426.735	96.25
426.958	94.25
427.18	105.25
427.402	137.25
427.625	194.25
427.847	158.25
428.069	122.25
428.292	93.25
428.514	109.25
428.736	93.25
428.958	82.25
429.181	89.25
429.403	86.25
429.625	73.25
429.847	87.25
430.069	104.25
430.292	97.25
430.514	81.25
430.736	93.25
430.958	75.25
431.18	87.25
431.402	91.25
431.624	92.25
431.846	98.25
432.068	99.25
432.29	94.25
432.512	91.25
432.734	86.25
432.956	100.25
433.178	102.25
433.4	100.25
433.622	117.25
433.844	101.25
434.066	91.25
434.287	99.25
434.509	92.25
434.731	90.25
434.953	90.25
435.175	70.25
435.397	100.25
435.618	108.25
435.84	103.25
436.062	141.25
436.284	123.25
436.505	80.25
436.727	102.25
436.949	91.25
437.17	91.25
437.392	118.25
437.614	114.25
437.835	121.25
438.057	148.25
438.278	122.25
438.5	111.25
438.721	122.25
438.943	118.25
439.165	94.25
439.386	72.25
439.608	86.25
439.829	121.25
440.05	137.25
440.272	165.25
440.493	104.25
440.715	93.25
440.936	99.25
441.158	96.25
441.379	100.25
441.6	112.25
441.822	109.25
442.043	96.25
442.264	120.25
442.486	104.25
442.707	87.25
442.928	107.25
443.149	170.25
443.371	153.25
443.592	122.25
443.813	116.25
444.034	89.25
444.255	96.25
444.476	106.25
444.698	85.25
444.919	87.25
445.14	143.25
445.361	139.25
445.582	131.25
445.803	155.25
446.024	140.25
446.245	141.25
446.466	122.25
446.687	98.25
446.908	111.25
447.129	96.25
447.35	90.25
447.571	87.25
447.792	99.25
448.013	111.25
448.234	128.25
448.455	116.25
448.675	100.25
448.896	129.25
449.117	100.25
449.338	103.25
449.559	128.25
449.779	136.25
450	93.25
450.221	97.25
450.442	84.25
450.662	90.25
450.883	126.25
451.104	139.25
451.324	111.25
451.545	83.25
451.766	83.25
451.986	90.25
452.207	89.25
452.428	100.25
452.648	119.25
452.869	121.25
453.089	130.25
453.31	145.25
453.53	116.25
453.751	103.25
453.971	123.25
454.192	139.25
454.412	104.25
454.633	98.25
454.853	96.25
455.073	85.25
455.294	104.25
455.514	92.25
455.734	103.25
455.955	77.25
456.175	91.25
456.395	103.25
456.616	100.25
456.836	87.25
457.056	95.25
457.276	79.25
457.497	108.25
457.717	103.25
457.937	95.25
458.157	98.25
458.377	101.25
458.598	119.25
458.818	186.25
459.038	180.25
459.258	144.25
459.478	107.25
459.698	84.25
459.918	84.25
460.138	95.25
460.358	97.25
460.578	85.25
460.798	90.25
461.018	101.25
461.238	76.25
461.458	92.25
461.678	96.25
461.898	90.25
462.118	77.25
462.338	99.25
462.558	84.25
462.777	91.25
462.997	101.25
463.217	91.25
463.437	87.25
463.657	84.25
463.876	97.25
464.096	94.25
464.316	114.25
464.536	91.25
464.755	110.25
464.975	108.25
465.195	198.25
465.414	213.25
465.634	107.25
465.854	101.25
466.073	98.25
466.293	91.25
466.512	90.25
466.732	91.25
466.951	96.25
467.171	90.25
467.391	96.25
467.61	119.25
467.829	112.25
468.049	131.25
468.268	138.25
468.488	101.25
468.707	96.25
468.927	97.25
469.146	98.25
469.365	101.25
469.585	106.25
469.804	103.25
470.023	107.25
470.243	80.25
470.462	94.25
470.681	121.25
470.901	100.25
471.12	88.25
471.339	101.25
471.558	87.25
471.777	88.25
471.997	116.25
472.216	148.25
472.435	226.25
472.654	114.25
472.873	96.25
473.092	87.25
473.311	84.25
473.53	93.25
473.749	90.25
473.968	89.25
474.187	115.25
474.406	102.25
474.625	96.25
474.844	68.25
475.063	98.25
475.282	85.25
475.501	103.25
475.72	94.25
475.939	89.25
476.158	80.25
476.377	88.25
476.596	105.25
476.814	91.25
477.033	97.25
477.252	97.25
477.471	89.25
477.69	92.25
477.908	83.25
478.127	91.25
478.346	97.25
478.564	85.25
478.783	104.25
479.002	93.25
479.22	97.25
479.439	111.25
479.658	104.25
479.876	108.25
480.095	103.25
480.313	110.25
480.532	102.25
480.751	109.25
480.969	159.25
481.188	343.25
481.406	246.25
481.624	118.25
481.843	106.25
482.061	87.25
482.28	77.25
482.498	97.25
482.717	85.25
482.935	97.25
483.153	92.25
483.372	95.25
483.59	88.25
483.808	95.25
484.027	87.25
484.245	87.25
484.463	90.25
484.681	108.25
484.9	88.25
485.118	109.25
485.336	107.25
485.554	106.25
485.772	101.25
485.99	92.25
486.209	112.25
486.427	103.25
486.645	108.25
486.863	126.25
487.081	104.25
487.299	91.25
487.517	95.25
487.735	94.25
487.953	92.25
488.171	98.25
488.389	104.25
488.607	107.25
488.825	97.25
489.043	95.25
489.261	71.25
489.479	79.25
489.696	88.25
489.914	98.25
490.132	100.25
490.35	97.25
490.568	81.25
490.786	95.25
491.003	92.25
491.221	90.25
491.439	101.25
491.657	103.25
491.874	91.25
492.092	95.25
492.31	86.25
492.527	92.25
492.745	102.25
492.963	99.25
493.18	85.25
493.398	100.25
493.615	102.25
493.833	96.25
494.05	101.25
494.268	90.25
494.485	87.25
494.703	85.25
494.92	81.25
495.138	91.25
495.355	86.25
495.573	100.25
495.79	88.25
496.008	85.25
496.225	80.25
496.442	101.25
496.66	89.25
496.877	92.25
497.094	100.25
497.312	102.25
497.529	88.25
497.746	93.25
497.963	94.25
498.181	84.25
498.398	101.25
498.615	116.25
498.832	116.25
499.049	98.25
499.267	104.25
499.484	102.25
499.701	87.25
499.918	82.25
500.135	93.25
500.352	91.25
500.569	96.25
500.786	86.25
501.003	99.25
501.22	101.25
501.437	90.25
501.654	107.25
501.871	122.25
502.088	106.25
502.305	114.25
502.522	92.25
502.739	99.25
502.956	92.25
503.172	99.25
503.389	98.25
503.606	114.25
503.823	119.25
504.04	103.25
504.256	87.25
504.473	86.25
504.69	97.25
504.907	95.25
505.123	96.25
505.34	90.25
505.557	103.25
505.773	96.25
505.99	98.25
506.207	105.25
506.423	89.25
506.64	91.25
506.856	82.25
507.073	97.25
507.289	124.25
507.506	110.25
507.722	125.25
507.939	124.25
508.155	97.25
508.372	107.25
508.588	74.25
508.805	91.25
509.021	87.25
509.238	122.25
509.454	94.25
509.67	108.25
509.887	121.25
510.103	133.25
510.319	266.25
510.536	1031.25
510.752	3526.25
510.968	953.25
511.184	194.25
511.401	134.25
511.617	112.25
511.833	92.25
512.049	80.25
512.265	108.25
512.481	100.25
512.698	91.25
512.914	107.25
