Data from Circ_2022_H10_HRD10591_00011.txt Node
Date: Wed Jan 03 09:53:39 EST 2024
User: Yrep
Spectrometer: HR+D1059
Trigger mode: 1
Integration Time (sec): 1.000000E-1
Scans to average: 1
Electric dark correction enabled: true
Nonlinearity correction enabled: false
Boxcar width: 0
XAxis mode: Wavelengths
Number of Pixels in Spectrum: 2048
>>>>>Begin Spectral Data<<<<<
223.165	-6.88
223.4	-6.88
223.635	-6.88
223.869	-18.88
224.104	-18.88
224.338	-27.88
224.573	-8.88
224.808	3.12
225.042	-15.88
225.277	-5.88
225.511	-2.88
225.746	10.12
225.98	3.12
226.215	10.12
226.449	13.12
226.683	16.12
226.918	21.12
227.152	29.12
227.387	38.12
227.621	42.12
227.856	48.12
228.09	35.12
228.324	57.12
228.559	52.12
228.793	65.12
229.027	82.12
229.262	67.12
229.496	70.12
229.73	106.12
229.964	96.12
230.199	72.12
230.433	71.12
230.667	82.12
230.901	68.12
231.136	72.12
231.37	72.12
231.604	80.12
231.838	76.12
232.072	86.12
232.306	95.12
232.541	69.12
232.775	85.12
233.009	100.12
233.243	81.12
233.477	88.12
233.711	73.12
233.945	59.12
234.179	78.12
234.413	77.12
234.647	79.12
234.881	86.12
235.115	83.12
235.349	85.12
235.583	79.12
235.817	74.12
236.051	76.12
236.285	77.12
236.519	74.12
236.753	83.12
236.987	90.12
237.221	83.12
237.455	91.12
237.689	71.12
237.922	79.12
238.156	78.12
238.39	80.12
238.624	57.12
238.858	82.12
239.091	89.12
239.325	85.12
239.559	83.12
239.793	74.12
240.027	85.12
240.26	75.12
240.494	76.12
240.728	71.12
240.961	69.12
241.195	81.12
241.429	73.12
241.662	75.12
241.896	72.12
242.13	73.12
242.363	68.12
242.597	96.12
242.83	94.12
243.064	89.12
243.298	76.12
243.531	75.12
243.765	82.12
243.998	69.12
244.232	85.12
244.465	84.12
244.699	84.12
244.932	85.12
245.166	83.12
245.399	85.12
245.633	78.12
245.866	83.12
246.099	81.12
246.333	79.12
246.566	74.12
246.8	75.12
247.033	79.12
247.266	75.12
247.5	82.12
247.733	87.12
247.966	73.12
248.2	76.12
248.433	72.12
248.666	79.12
248.899	72.12
249.133	103.12
249.366	114.12
249.599	108.12
249.832	95.12
250.066	90.12
250.299	79.12
250.532	96.12
250.765	83.12
250.998	79.12
251.231	76.12
251.465	92.12
251.698	86.12
251.931	83.12
252.164	80.12
252.397	90.12
252.63	81.12
252.863	76.12
253.096	86.12
253.329	96.12
253.562	74.12
253.795	76.12
254.028	74.12
254.261	86.12
254.494	83.12
254.727	91.12
254.96	90.12
255.193	96.12
255.426	83.12
255.659	83.12
255.892	98.12
256.124	81.12
256.357	70.12
256.59	82.12
256.823	86.12
257.056	93.12
257.289	86.12
257.521	85.12
257.754	91.12
257.987	85.12
258.22	74.12
258.452	88.12
258.685	80.12
258.918	75.12
259.151	83.12
259.383	90.12
259.616	76.12
259.849	78.12
260.081	95.12
260.314	95.12
260.547	93.12
260.779	103.12
261.012	86.12
261.244	75.12
261.477	101.12
261.71	108.12
261.942	145.12
262.175	155.12
262.407	110.12
262.64	77.12
262.872	78.12
263.105	91.12
263.337	94.12
263.57	87.12
263.802	78.12
264.035	90.12
264.267	85.12
264.499	93.12
264.732	77.12
264.964	91.12
265.197	101.12
265.429	85.12
265.661	78.12
265.894	89.12
266.126	87.12
266.358	102.12
266.591	70.12
266.823	91.12
267.055	71.12
267.287	94.12
267.52	99.12
267.752	85.12
267.984	93.12
268.216	89.12
268.448	97.12
268.681	107.12
268.913	94.12
269.145	94.12
269.377	99.12
269.609	93.12
269.841	74.12
270.073	81.12
270.306	93.12
270.538	101.12
270.77	89.12
271.002	92.12
271.234	90.12
271.466	98.12
271.698	82.12
271.93	83.12
272.162	83.12
272.394	92.12
272.626	97.12
272.858	79.12
273.09	82.12
273.322	86.12
273.553	80.12
273.785	91.12
274.017	84.12
274.249	102.12
274.481	83.12
274.713	90.12
274.945	103.12
275.176	93.12
275.408	89.12
275.64	84.12
275.872	89.12
276.104	88.12
276.335	107.12
276.567	120.12
276.799	142.12
277.031	123.12
277.262	97.12
277.494	98.12
277.726	98.12
277.957	82.12
278.189	83.12
278.421	91.12
278.652	93.12
278.884	80.12
279.115	79.12
279.347	100.12
279.579	90.12
279.81	83.12
280.042	104.12
280.273	86.12
280.505	93.12
280.736	97.12
280.968	76.12
281.199	86.12
281.431	90.12
281.662	97.12
281.894	100.12
282.125	113.12
282.356	158.12
282.588	196.12
282.819	149.12
283.051	94.12
283.282	99.12
283.513	86.12
283.745	92.12
283.976	93.12
284.207	103.12
284.439	100.12
284.67	80.12
284.901	91.12
285.132	86.12
285.364	92.12
285.595	91.12
285.826	93.12
286.057	86.12
286.288	92.12
286.52	90.12
286.751	104.12
286.982	83.12
287.213	86.12
287.444	83.12
287.675	88.12
287.906	104.12
288.138	84.12
288.369	91.12
288.6	98.12
288.831	92.12
289.062	88.12
289.293	88.12
289.524	102.12
289.755	99.12
289.986	84.12
290.217	74.12
290.448	95.12
290.679	87.12
290.91	89.12
291.141	97.12
291.371	98.12
291.602	86.12
291.833	94.12
292.064	82.12
292.295	85.12
292.526	105.12
292.757	91.12
292.987	102.12
293.218	92.12
293.449	78.12
293.68	88.12
293.91	84.12
294.141	79.12
294.372	99.12
294.603	90.12
294.833	100.12
295.064	87.12
295.295	94.12
295.525	96.12
295.756	108.12
295.987	141.12
296.217	184.12
296.448	163.12
296.679	101.12
296.909	94.12
297.14	94.12
297.37	98.12
297.601	94.12
297.831	87.12
298.062	92.12
298.292	80.12
298.523	87.12
298.753	93.12
298.984	91.12
299.214	99.12
299.445	119.12
299.675	107.12
299.905	105.12
300.136	87.12
300.366	97.12
300.597	98.12
300.827	105.12
301.057	118.12
301.288	105.12
301.518	93.12
301.748	95.12
301.979	99.12
302.209	98.12
302.439	91.12
302.669	83.12
302.9	96.12
303.13	100.12
303.36	91.12
303.59	104.12
303.82	135.12
304.051	108.12
304.281	86.12
304.511	81.12
304.741	105.12
304.971	97.12
305.201	106.12
305.431	84.12
305.661	103.12
305.891	88.12
306.121	95.12
306.352	106.12
306.582	118.12
306.812	95.12
307.042	105.12
307.272	99.12
307.502	92.12
307.731	93.12
307.961	101.12
308.191	101.12
308.421	101.12
308.651	95.12
308.881	94.12
309.111	105.12
309.341	108.12
309.571	101.12
309.8	116.12
310.03	130.12
310.26	102.12
310.49	102.12
310.72	107.12
310.949	146.12
311.179	124.12
311.409	108.12
311.639	108.12
311.868	118.12
312.098	90.12
312.328	105.12
312.557	114.12
312.787	111.12
313.017	125.12
313.246	113.12
313.476	105.12
313.706	117.12
313.935	100.12
314.165	132.12
314.394	109.12
314.624	102.12
314.853	114.12
315.083	102.12
315.312	98.12
315.542	102.12
315.771	103.12
316.001	93.12
316.23	101.12
316.46	112.12
316.689	94.12
316.919	95.12
317.148	95.12
317.377	104.12
317.607	104.12
317.836	96.12
318.065	103.12
318.295	107.12
318.524	103.12
318.753	96.12
318.983	109.12
319.212	130.12
319.441	138.12
319.67	124.12
319.9	108.12
320.129	93.12
320.358	104.12
320.587	118.12
320.816	115.12
321.046	108.12
321.275	115.12
321.504	101.12
321.733	104.12
321.962	93.12
322.191	122.12
322.42	116.12
322.649	131.12
322.878	149.12
323.108	126.12
323.337	149.12
323.566	172.12
323.795	210.12
324.024	316.12
324.253	610.12
324.482	1326.12
324.71	2820.12
324.939	3865.12
325.168	1373.12
325.397	378.12
325.626	198.12
325.855	157.12
326.084	172.12
326.313	143.12
326.542	199.12
326.77	307.12
326.999	691.12
327.228	1411.12
327.457	2727.12
327.686	2183.12
327.914	556.12
328.143	262.12
328.372	226.12
328.6	177.12
328.829	163.12
329.058	175.12
329.287	202.12
329.515	147.12
329.744	125.12
329.972	113.12
330.201	122.12
330.43	146.12
330.658	166.12
330.887	211.12
331.115	174.12
331.344	121.12
331.572	127.12
331.801	137.12
332.03	139.12
332.258	102.12
332.486	90.12
332.715	91.12
332.943	98.12
333.172	108.12
333.4	117.12
333.629	128.12
333.857	125.12
334.085	122.12
334.314	118.12
334.542	134.12
334.771	125.12
334.999	111.12
335.227	113.12
335.455	105.12
335.684	110.12
335.912	93.12
336.14	112.12
336.369	86.12
336.597	93.12
336.825	90.12
337.053	99.12
337.281	99.12
337.51	92.12
337.738	100.12
337.966	99.12
338.194	104.12
338.422	119.12
338.65	98.12
338.878	95.12
339.106	100.12
339.334	84.12
339.562	98.12
339.79	104.12
340.018	105.12
340.246	107.12
340.474	96.12
340.702	109.12
340.93	100.12
341.158	103.12
341.386	99.12
341.614	100.12
341.842	99.12
342.07	100.12
342.298	104.12
342.526	105.12
342.754	98.12
342.981	99.12
343.209	88.12
343.437	103.12
343.665	101.12
343.893	89.12
344.12	87.12
344.348	91.12
344.576	99.12
344.804	93.12
345.031	116.12
345.259	117.12
345.487	100.12
345.714	97.12
345.942	119.12
346.17	94.12
346.397	100.12
346.625	115.12
346.853	95.12
347.08	110.12
347.308	90.12
347.535	106.12
347.763	111.12
347.99	105.12
348.218	112.12
348.445	126.12
348.673	125.12
348.9	109.12
349.128	100.12
349.355	98.12
349.583	108.12
349.81	113.12
350.037	95.12
350.265	82.12
350.492	102.12
350.72	102.12
350.947	101.12
351.174	122.12
351.402	129.12
351.629	104.12
351.856	103.12
352.083	140.12
352.311	120.12
352.538	143.12
352.765	122.12
352.992	137.12
353.22	133.12
353.447	131.12
353.674	110.12
353.901	106.12
354.128	99.12
354.355	109.12
354.583	97.12
354.81	105.12
355.037	104.12
355.264	110.12
355.491	95.12
355.718	107.12
355.945	107.12
356.172	71.12
356.399	96.12
356.626	92.12
356.853	106.12
357.08	107.12
357.307	87.12
357.534	103.12
357.761	87.12
357.988	99.12
358.215	106.12
358.441	91.12
358.668	97.12
358.895	100.12
359.122	103.12
359.349	102.12
359.576	102.12
359.802	124.12
360.029	147.12
360.256	146.12
360.483	140.12
360.709	104.12
360.936	100.12
361.163	105.12
361.39	92.12
361.616	106.12
361.843	90.12
362.07	103.12
362.296	121.12
362.523	115.12
362.749	107.12
362.976	96.12
363.203	106.12
363.429	98.12
363.656	110.12
363.882	101.12
364.109	94.12
364.335	91.12
364.562	93.12
364.788	104.12
365.015	109.12
365.241	118.12
365.468	145.12
365.694	124.12
365.92	104.12
366.147	98.12
366.373	96.12
366.599	102.12
366.826	89.12
367.052	83.12
367.278	96.12
367.505	106.12
367.731	91.12
367.957	99.12
368.184	104.12
368.41	109.12
368.636	139.12
368.862	152.12
369.089	135.12
369.315	104.12
369.541	102.12
369.767	111.12
369.993	92.12
370.219	105.12
370.445	87.12
370.672	82.12
370.898	90.12
371.124	107.12
371.35	93.12
371.576	88.12
371.802	96.12
372.028	80.12
372.254	95.12
372.48	92.12
372.706	94.12
372.932	87.12
373.158	93.12
373.384	100.12
373.61	99.12
373.835	88.12
374.061	84.12
374.287	97.12
374.513	100.12
374.739	111.12
374.965	91.12
375.191	82.12
375.416	76.12
375.642	81.12
375.868	88.12
376.094	103.12
376.319	95.12
376.545	93.12
376.771	95.12
376.997	88.12
377.222	95.12
377.448	101.12
377.674	97.12
377.899	91.12
378.125	99.12
378.35	101.12
378.576	104.12
378.802	96.12
379.027	101.12
379.253	95.12
379.478	100.12
379.704	93.12
379.929	97.12
380.155	97.12
380.38	111.12
380.606	103.12
380.831	108.12
381.057	106.12
381.282	110.12
381.507	100.12
381.733	104.12
381.958	104.12
382.184	122.12
382.409	110.12
382.634	117.12
382.86	110.12
383.085	116.12
383.31	102.12
383.535	117.12
383.761	116.12
383.986	108.12
384.211	110.12
384.436	102.12
384.662	104.12
384.887	116.12
385.112	123.12
385.337	117.12
385.562	123.12
385.787	109.12
386.013	116.12
386.238	131.12
386.463	117.12
386.688	116.12
386.913	99.12
387.138	126.12
387.363	101.12
387.588	102.12
387.813	98.12
388.038	118.12
388.263	135.12
388.488	118.12
388.713	103.12
388.938	99.12
389.163	115.12
389.387	103.12
389.612	90.12
389.837	101.12
390.062	83.12
390.287	99.12
390.512	100.12
390.736	86.12
390.961	94.12
391.186	108.12
391.411	101.12
391.636	93.12
391.86	80.12
392.085	99.12
392.31	100.12
392.534	98.12
392.759	97.12
392.984	95.12
393.208	108.12
393.433	127.12
393.658	101.12
393.882	103.12
394.107	89.12
394.331	102.12
394.556	94.12
394.78	91.12
395.005	101.12
395.229	93.12
395.454	91.12
395.678	69.12
395.903	89.12
396.127	91.12
396.352	105.12
396.576	95.12
396.801	104.12
397.025	130.12
397.249	92.12
397.474	100.12
397.698	98.12
397.922	99.12
398.147	89.12
398.371	104.12
398.595	107.12
398.82	92.12
399.044	84.12
399.268	92.12
399.492	85.12
399.717	88.12
399.941	105.12
400.165	101.12
400.389	98.12
400.613	81.12
400.837	87.12
401.062	87.12
401.286	99.12
401.51	108.12
401.734	108.12
401.958	112.12
402.182	159.12
402.406	233.12
402.63	168.12
402.854	109.12
403.078	90.12
403.302	89.12
403.526	85.12
403.75	89.12
403.974	103.12
404.198	91.12
404.422	104.12
404.645	83.12
404.869	91.12
405.093	99.12
405.317	124.12
405.541	119.12
405.765	138.12
405.988	157.12
406.212	255.12
406.436	383.12
406.66	225.12
406.883	148.12
407.107	120.12
407.331	113.12
407.555	118.12
407.778	107.12
408.002	102.12
408.226	90.12
408.449	95.12
408.673	85.12
408.896	89.12
409.12	109.12
409.344	87.12
409.567	88.12
409.791	95.12
410.014	90.12
410.238	99.12
410.461	98.12
410.685	109.12
410.908	106.12
411.132	107.12
411.355	102.12
411.578	101.12
411.802	79.12
412.025	83.12
412.249	104.12
412.472	96.12
412.695	107.12
412.919	107.12
413.142	89.12
413.365	108.12
413.589	83.12
413.812	98.12
414.035	94.12
414.258	90.12
414.482	104.12
414.705	92.12
414.928	102.12
415.151	101.12
415.374	94.12
415.597	85.12
415.821	85.12
416.044	99.12
416.267	106.12
416.49	91.12
416.713	78.12
416.936	101.12
417.159	104.12
417.382	74.12
417.605	94.12
417.828	109.12
418.051	105.12
418.274	92.12
418.497	100.12
418.72	95.12
418.943	92.12
419.166	97.12
419.389	84.12
419.611	84.12
419.834	86.12
420.057	94.12
420.28	78.12
420.503	82.12
420.726	101.12
420.948	95.12
421.171	99.12
421.394	104.12
421.617	100.12
421.839	102.12
422.062	96.12
422.285	88.12
422.507	106.12
422.73	130.12
422.953	108.12
423.175	97.12
423.398	91.12
423.621	99.12
423.843	99.12
424.066	104.12
424.288	111.12
424.511	89.12
424.733	114.12
424.956	141.12
425.178	113.12
425.401	111.12
425.623	105.12
425.846	93.12
426.068	107.12
426.291	104.12
426.513	114.12
426.735	99.12
426.958	102.12
427.18	116.12
427.402	170.12
427.625	276.12
427.847	192.12
428.069	134.12
428.292	105.12
428.514	87.12
428.736	95.12
428.958	95.12
429.181	88.12
429.403	90.12
429.625	93.12
429.847	101.12
430.069	111.12
430.292	91.12
430.514	78.12
430.736	91.12
430.958	80.12
431.18	85.12
431.402	83.12
431.624	92.12
431.846	90.12
432.068	80.12
432.29	84.12
432.512	97.12
432.734	92.12
432.956	82.12
433.178	100.12
433.4	109.12
433.622	104.12
433.844	94.12
434.066	98.12
434.287	113.12
434.509	101.12
434.731	100.12
434.953	77.12
435.175	92.12
435.397	94.12
435.618	106.12
435.84	126.12
436.062	151.12
436.284	138.12
436.505	109.12
436.727	127.12
436.949	102.12
437.17	98.12
437.392	89.12
437.614	91.12
437.835	138.12
438.057	158.12
438.278	147.12
438.5	121.12
438.721	141.12
438.943	132.12
439.165	103.12
439.386	92.12
439.608	101.12
439.829	113.12
440.05	166.12
440.272	215.12
440.493	131.12
440.715	98.12
440.936	115.12
441.158	108.12
441.379	100.12
441.6	116.12
441.822	96.12
442.043	119.12
442.264	118.12
442.486	142.12
442.707	118.12
442.928	131.12
443.149	185.12
443.371	195.12
443.592	142.12
443.813	133.12
444.034	149.12
444.255	101.12
444.476	89.12
444.698	90.12
444.919	101.12
445.14	131.12
445.361	133.12
445.582	157.12
445.803	198.12
446.024	200.12
446.245	189.12
446.466	130.12
446.687	103.12
446.908	98.12
447.129	90.12
447.35	95.12
447.571	92.12
447.792	102.12
448.013	135.12
448.234	136.12
448.455	117.12
448.675	123.12
448.896	163.12
449.117	120.12
449.338	128.12
449.559	160.12
449.779	172.12
450	115.12
450.221	96.12
450.442	92.12
450.662	118.12
450.883	148.12
451.104	163.12
451.324	118.12
451.545	99.12
451.766	95.12
451.986	90.12
452.207	106.12
452.428	101.12
452.648	127.12
452.869	131.12
453.089	149.12
453.31	153.12
453.53	120.12
453.751	108.12
453.971	126.12
454.192	150.12
454.412	117.12
454.633	103.12
454.853	91.12
455.073	83.12
455.294	87.12
455.514	106.12
455.734	93.12
455.955	99.12
456.175	90.12
456.395	94.12
456.616	95.12
456.836	89.12
457.056	85.12
457.276	103.12
457.497	87.12
457.717	85.12
457.937	88.12
458.157	93.12
458.377	107.12
458.598	133.12
458.818	231.12
459.038	267.12
459.258	163.12
459.478	102.12
459.698	99.12
459.918	98.12
460.138	68.12
460.358	86.12
460.578	95.12
460.798	93.12
461.018	89.12
461.238	92.12
461.458	98.12
461.678	84.12
461.898	98.12
462.118	96.12
462.338	89.12
462.558	93.12
462.777	90.12
462.997	85.12
463.217	99.12
463.437	83.12
463.657	82.12
463.876	93.12
464.096	99.12
464.316	113.12
464.536	109.12
464.755	110.12
464.975	140.12
465.195	269.12
465.414	281.12
465.634	123.12
465.854	97.12
466.073	95.12
466.293	86.12
466.512	89.12
466.732	86.12
466.951	83.12
467.171	100.12
467.391	110.12
467.61	122.12
467.829	113.12
468.049	110.12
468.268	99.12
468.488	87.12
468.707	86.12
468.927	74.12
469.146	86.12
469.365	90.12
469.585	101.12
469.804	111.12
470.023	112.12
470.243	95.12
470.462	131.12
470.681	149.12
470.901	94.12
471.12	75.12
471.339	91.12
471.558	84.12
471.777	87.12
471.997	90.12
472.216	123.12
472.435	111.12
472.654	101.12
472.873	97.12
473.092	95.12
473.311	97.12
473.53	94.12
473.749	102.12
473.968	102.12
474.187	120.12
474.406	104.12
474.625	109.12
474.844	84.12
475.063	76.12
475.282	100.12
475.501	107.12
475.72	94.12
475.939	98.12
476.158	87.12
476.377	87.12
476.596	94.12
476.814	103.12
477.033	118.12
477.252	98.12
477.471	92.12
477.69	99.12
477.908	91.12
478.127	107.12
478.346	92.12
478.564	92.12
478.783	102.12
479.002	118.12
479.22	108.12
479.439	123.12
479.658	134.12
479.876	122.12
480.095	105.12
480.313	97.12
480.532	101.12
480.751	106.12
480.969	114.12
481.188	153.12
481.406	145.12
481.624	117.12
481.843	100.12
482.061	100.12
482.28	104.12
482.498	97.12
482.717	112.12
482.935	97.12
483.153	100.12
483.372	92.12
483.59	95.12
483.808	91.12
484.027	83.12
484.245	89.12
484.463	89.12
484.681	91.12
484.9	106.12
485.118	113.12
485.336	103.12
485.554	114.12
485.772	102.12
485.99	111.12
486.209	108.12
486.427	119.12
486.645	138.12
486.863	147.12
487.081	126.12
487.299	103.12
487.517	102.12
487.735	102.12
487.953	103.12
488.171	96.12
488.389	97.12
488.607	122.12
488.825	105.12
489.043	100.12
489.261	89.12
489.479	94.12
489.696	97.12
489.914	96.12
490.132	91.12
490.35	86.12
490.568	85.12
490.786	98.12
491.003	80.12
491.221	103.12
491.439	86.12
491.657	104.12
491.874	102.12
492.092	100.12
492.31	87.12
492.527	75.12
492.745	85.12
492.963	94.12
493.18	83.12
493.398	86.12
493.615	101.12
493.833	102.12
494.05	93.12
494.268	94.12
494.485	84.12
494.703	88.12
494.92	98.12
495.138	79.12
495.355	93.12
495.573	107.12
495.79	92.12
496.008	97.12
496.225	105.12
496.442	90.12
496.66	83.12
496.877	87.12
497.094	96.12
497.312	105.12
497.529	93.12
497.746	84.12
497.963	92.12
498.181	95.12
498.398	110.12
498.615	117.12
498.832	110.12
499.049	88.12
499.267	94.12
499.484	96.12
499.701	94.12
499.918	95.12
500.135	100.12
500.352	98.12
500.569	93.12
500.786	92.12
501.003	79.12
501.22	88.12
501.437	104.12
501.654	95.12
501.871	133.12
502.088	115.12
502.305	101.12
502.522	82.12
502.739	108.12
502.956	93.12
503.172	93.12
503.389	104.12
503.606	119.12
503.823	109.12
504.04	94.12
504.256	91.12
504.473	104.12
504.69	89.12
504.907	106.12
505.123	107.12
505.34	91.12
505.557	106.12
505.773	105.12
505.99	94.12
506.207	89.12
506.423	93.12
506.64	78.12
506.856	95.12
507.073	90.12
507.289	109.12
507.506	111.12
507.722	155.12
507.939	155.12
508.155	117.12
508.372	106.12
508.588	87.12
508.805	108.12
509.021	104.12
509.238	96.12
509.454	98.12
509.67	118.12
509.887	133.12
510.103	148.12
510.319	292.12
510.536	1151.12
510.752	4155.12
510.968	1127.12
511.184	214.12
511.401	152.12
511.617	122.12
