Data from Circ_2022_H10_HRD10591_00051.txt Node
Date: Wed Jan 03 09:53:47 EST 2024
User: Yrep
Spectrometer: HR+D1059
Trigger mode: 1
Integration Time (sec): 1.000000E-1
Scans to average: 1
Electric dark correction enabled: true
Nonlinearity correction enabled: false
Boxcar width: 0
XAxis mode: Wavelengths
Number of Pixels in Spectrum: 2048
>>>>>Begin Spectral Data<<<<<
223.165	-19.88
223.4	-19.88
223.635	-19.88
223.869	-12.88
224.104	-15.88
224.338	-10.88
224.573	1.12
224.808	-13.88
225.042	1.12
225.277	-12.88
225.511	6.12
225.746	-3.88
225.98	7.12
226.215	5.12
226.449	9.12
226.683	14.12
226.918	13.12
227.152	33.12
227.387	31.12
227.621	25.12
227.856	48.12
228.09	47.12
228.324	54.12
228.559	56.12
228.793	59.12
229.027	47.12
229.262	71.12
229.496	79.12
229.73	76.12
229.964	81.12
230.199	81.12
230.433	81.12
230.667	73.12
230.901	72.12
231.136	77.12
231.37	88.12
231.604	82.12
231.838	77.12
232.072	91.12
232.306	80.12
232.541	88.12
232.775	92.12
233.009	91.12
233.243	89.12
233.477	94.12
233.711	79.12
233.945	84.12
234.179	72.12
234.413	80.12
234.647	83.12
234.881	81.12
235.115	77.12
235.349	77.12
235.583	75.12
235.817	90.12
236.051	64.12
236.285	86.12
236.519	97.12
236.753	77.12
236.987	74.12
237.221	84.12
237.455	92.12
237.689	81.12
237.922	71.12
238.156	80.12
238.39	71.12
238.624	82.12
238.858	65.12
239.091	75.12
239.325	85.12
239.559	89.12
239.793	96.12
240.027	73.12
240.26	76.12
240.494	73.12
240.728	70.12
240.961	89.12
241.195	78.12
241.429	84.12
241.662	85.12
241.896	72.12
242.13	70.12
242.363	81.12
242.597	87.12
242.83	83.12
243.064	86.12
243.298	83.12
243.531	71.12
243.765	76.12
243.998	66.12
244.232	72.12
244.465	82.12
244.699	84.12
244.932	85.12
245.166	81.12
245.399	68.12
245.633	81.12
245.866	87.12
246.099	83.12
246.333	75.12
246.566	77.12
246.8	87.12
247.033	78.12
247.266	83.12
247.5	80.12
247.733	82.12
247.966	80.12
248.2	78.12
248.433	73.12
248.666	81.12
248.899	84.12
249.133	83.12
249.366	104.12
249.599	100.12
249.832	98.12
250.066	87.12
250.299	76.12
250.532	86.12
250.765	91.12
250.998	77.12
251.231	78.12
251.465	90.12
251.698	87.12
251.931	90.12
252.164	72.12
252.397	82.12
252.63	94.12
252.863	77.12
253.096	77.12
253.329	86.12
253.562	77.12
253.795	89.12
254.028	85.12
254.261	96.12
254.494	67.12
254.727	72.12
254.96	77.12
255.193	90.12
255.426	78.12
255.659	85.12
255.892	92.12
256.124	90.12
256.357	73.12
256.59	76.12
256.823	76.12
257.056	89.12
257.289	82.12
257.521	83.12
257.754	83.12
257.987	79.12
258.22	96.12
258.452	98.12
258.685	99.12
258.918	88.12
259.151	91.12
259.383	88.12
259.616	101.12
259.849	104.12
260.081	66.12
260.314	101.12
260.547	85.12
260.779	88.12
261.012	84.12
261.244	91.12
261.477	86.12
261.71	89.12
261.942	128.12
262.175	135.12
262.407	97.12
262.64	75.12
262.872	76.12
263.105	93.12
263.337	91.12
263.57	68.12
263.802	87.12
264.035	83.12
264.267	92.12
264.499	87.12
264.732	100.12
264.964	92.12
265.197	87.12
265.429	88.12
265.661	97.12
265.894	81.12
266.126	82.12
266.358	89.12
266.591	82.12
266.823	88.12
267.055	90.12
267.287	97.12
267.52	89.12
267.752	100.12
267.984	87.12
268.216	90.12
268.448	98.12
268.681	76.12
268.913	83.12
269.145	83.12
269.377	75.12
269.609	92.12
269.841	90.12
270.073	85.12
270.306	90.12
270.538	76.12
270.77	80.12
271.002	87.12
271.234	93.12
271.466	112.12
271.698	85.12
271.93	87.12
272.162	90.12
272.394	92.12
272.626	86.12
272.858	87.12
273.09	78.12
273.322	83.12
273.553	81.12
273.785	86.12
274.017	91.12
274.249	88.12
274.481	92.12
274.713	72.12
274.945	87.12
275.176	76.12
275.408	97.12
275.64	99.12
275.872	96.12
276.104	83.12
276.335	98.12
276.567	106.12
276.799	113.12
277.031	109.12
277.262	94.12
277.494	97.12
277.726	71.12
277.957	93.12
278.189	105.12
278.421	75.12
278.652	92.12
278.884	88.12
279.115	94.12
279.347	89.12
279.579	96.12
279.81	95.12
280.042	76.12
280.273	86.12
280.505	94.12
280.736	99.12
280.968	83.12
281.199	81.12
281.431	87.12
281.662	85.12
281.894	94.12
282.125	87.12
282.356	139.12
282.588	145.12
282.819	120.12
283.051	100.12
283.282	93.12
283.513	88.12
283.745	82.12
283.976	104.12
284.207	92.12
284.439	87.12
284.67	80.12
284.901	76.12
285.132	72.12
285.364	79.12
285.595	83.12
285.826	79.12
286.057	79.12
286.288	84.12
286.52	91.12
286.751	83.12
286.982	97.12
287.213	87.12
287.444	87.12
287.675	88.12
287.906	78.12
288.138	98.12
288.369	99.12
288.6	93.12
288.831	82.12
289.062	92.12
289.293	90.12
289.524	90.12
289.755	96.12
289.986	95.12
290.217	88.12
290.448	97.12
290.679	84.12
290.91	90.12
291.141	84.12
291.371	82.12
291.602	98.12
291.833	87.12
292.064	89.12
292.295	82.12
292.526	97.12
292.757	81.12
292.987	89.12
293.218	89.12
293.449	84.12
293.68	91.12
293.91	81.12
294.141	87.12
294.372	80.12
294.603	81.12
294.833	93.12
295.064	91.12
295.295	89.12
295.525	94.12
295.756	100.12
295.987	125.12
296.217	151.12
296.448	141.12
296.679	91.12
296.909	84.12
297.14	101.12
297.37	100.12
297.601	87.12
297.831	87.12
298.062	100.12
298.292	91.12
298.523	83.12
298.753	90.12
298.984	83.12
299.214	91.12
299.445	78.12
299.675	105.12
299.905	96.12
300.136	96.12
300.366	92.12
300.597	96.12
300.827	112.12
301.057	104.12
301.288	113.12
301.518	96.12
301.748	96.12
301.979	105.12
302.209	91.12
302.439	90.12
302.669	90.12
302.9	93.12
303.13	99.12
303.36	88.12
303.59	109.12
303.82	113.12
304.051	82.12
304.281	97.12
304.511	92.12
304.741	90.12
304.971	92.12
305.201	104.12
305.431	94.12
305.661	88.12
305.891	97.12
306.121	86.12
306.352	92.12
306.582	106.12
306.812	99.12
307.042	87.12
307.272	95.12
307.502	98.12
307.731	92.12
307.961	89.12
308.191	93.12
308.421	80.12
308.651	98.12
308.881	99.12
309.111	96.12
309.341	103.12
309.571	101.12
309.8	92.12
310.03	97.12
310.26	96.12
310.49	99.12
310.72	103.12
310.949	105.12
311.179	103.12
311.409	90.12
311.639	100.12
311.868	86.12
312.098	99.12
312.328	98.12
312.557	88.12
312.787	112.12
313.017	106.12
313.246	101.12
313.476	100.12
313.706	101.12
313.935	109.12
314.165	104.12
314.394	99.12
314.624	75.12
314.853	99.12
315.083	89.12
315.312	105.12
315.542	85.12
315.771	90.12
316.001	90.12
316.23	83.12
316.46	90.12
316.689	89.12
316.919	111.12
317.148	108.12
317.377	108.12
317.607	94.12
317.836	101.12
318.065	97.12
318.295	93.12
318.524	100.12
318.753	88.12
318.983	95.12
319.212	95.12
319.441	118.12
319.67	113.12
319.9	93.12
320.129	100.12
320.358	94.12
320.587	103.12
320.816	109.12
321.046	121.12
321.275	100.12
321.504	104.12
321.733	81.12
321.962	112.12
322.191	108.12
322.42	104.12
322.649	105.12
322.878	122.12
323.108	111.12
323.337	125.12
323.566	143.12
323.795	162.12
324.024	204.12
324.253	420.12
324.482	848.12
324.71	1746.12
324.939	2418.12
325.168	903.12
325.397	257.12
325.626	152.12
325.855	147.12
326.084	128.12
326.313	125.12
326.542	165.12
326.77	247.12
326.999	471.12
327.228	902.12
327.457	1713.12
327.686	1413.12
327.914	401.12
328.143	233.12
328.372	186.12
328.6	147.12
328.829	132.12
329.058	129.12
329.287	152.12
329.515	108.12
329.744	104.12
329.972	123.12
330.201	171.12
330.43	192.12
330.658	174.12
330.887	162.12
331.115	139.12
331.344	118.12
331.572	84.12
331.801	113.12
332.03	114.12
332.258	104.12
332.486	97.12
332.715	98.12
332.943	91.12
333.172	106.12
333.4	111.12
333.629	112.12
333.857	124.12
334.085	130.12
334.314	155.12
334.542	203.12
334.771	200.12
334.999	121.12
335.227	103.12
335.455	97.12
335.684	96.12
335.912	91.12
336.14	88.12
336.369	92.12
336.597	117.12
336.825	115.12
337.053	94.12
337.281	88.12
337.51	91.12
337.738	91.12
337.966	99.12
338.194	103.12
338.422	101.12
338.65	113.12
338.878	90.12
339.106	91.12
339.334	91.12
339.562	96.12
339.79	101.12
340.018	78.12
340.246	101.12
340.474	109.12
340.702	91.12
340.93	92.12
341.158	105.12
341.386	92.12
341.614	94.12
341.842	96.12
342.07	100.12
342.298	95.12
342.526	87.12
342.754	89.12
342.981	98.12
343.209	93.12
343.437	98.12
343.665	101.12
343.893	94.12
344.12	93.12
344.348	84.12
344.576	85.12
344.804	87.12
345.031	100.12
345.259	87.12
345.487	92.12
345.714	96.12
345.942	88.12
346.17	91.12
346.397	85.12
346.625	86.12
346.853	104.12
347.08	78.12
347.308	89.12
347.535	93.12
347.763	106.12
347.99	102.12
348.218	117.12
348.445	102.12
348.673	98.12
348.9	104.12
349.128	94.12
349.355	100.12
349.583	81.12
349.81	88.12
350.037	84.12
350.265	94.12
350.492	103.12
350.72	99.12
350.947	105.12
351.174	119.12
351.402	112.12
351.629	113.12
351.856	93.12
352.083	109.12
352.311	122.12
352.538	100.12
352.765	112.12
352.992	124.12
353.22	99.12
353.447	108.12
353.674	95.12
353.901	92.12
354.128	90.12
354.355	92.12
354.583	108.12
354.81	91.12
355.037	89.12
355.264	83.12
355.491	87.12
355.718	101.12
355.945	93.12
356.172	84.12
356.399	105.12
356.626	83.12
356.853	83.12
357.08	73.12
357.307	87.12
357.534	97.12
357.761	87.12
357.988	101.12
358.215	91.12
358.441	102.12
358.668	89.12
358.895	88.12
359.122	97.12
359.349	84.12
359.576	77.12
359.802	95.12
360.029	116.12
360.256	128.12
360.483	96.12
360.709	93.12
360.936	102.12
361.163	96.12
361.39	93.12
361.616	98.12
361.843	98.12
362.07	100.12
362.296	97.12
362.523	100.12
362.749	87.12
362.976	88.12
363.203	98.12
363.429	92.12
363.656	88.12
363.882	84.12
364.109	96.12
364.335	108.12
364.562	95.12
364.788	105.12
365.015	115.12
365.241	113.12
365.468	111.12
365.694	113.12
365.92	98.12
366.147	76.12
366.373	89.12
366.599	81.12
366.826	89.12
367.052	82.12
367.278	81.12
367.505	98.12
367.731	87.12
367.957	95.12
368.184	103.12
368.41	113.12
368.636	113.12
368.862	126.12
369.089	133.12
369.315	97.12
369.541	94.12
369.767	88.12
369.993	91.12
370.219	96.12
370.445	87.12
370.672	68.12
370.898	72.12
371.124	89.12
371.35	93.12
371.576	79.12
371.802	92.12
372.028	88.12
372.254	72.12
372.48	80.12
372.706	83.12
372.932	92.12
373.158	105.12
373.384	87.12
373.61	92.12
373.835	93.12
374.061	87.12
374.287	83.12
374.513	90.12
374.739	85.12
374.965	93.12
375.191	87.12
375.416	97.12
375.642	76.12
375.868	68.12
376.094	96.12
376.319	89.12
376.545	87.12
376.771	94.12
376.997	81.12
377.222	85.12
377.448	90.12
377.674	76.12
377.899	89.12
378.125	103.12
378.35	93.12
378.576	88.12
378.802	75.12
379.027	93.12
379.253	86.12
379.478	90.12
379.704	107.12
379.929	90.12
380.155	101.12
380.38	94.12
380.606	100.12
380.831	99.12
381.057	96.12
381.282	97.12
381.507	86.12
381.733	112.12
381.958	101.12
382.184	91.12
382.409	105.12
382.634	87.12
382.86	95.12
383.085	94.12
383.31	100.12
383.535	94.12
383.761	108.12
383.986	83.12
384.211	94.12
384.436	97.12
384.662	91.12
384.887	92.12
385.112	105.12
385.337	99.12
385.562	104.12
385.787	90.12
386.013	101.12
386.238	99.12
386.463	96.12
386.688	112.12
386.913	113.12
387.138	97.12
387.363	96.12
387.588	104.12
387.813	111.12
388.038	106.12
388.263	112.12
388.488	100.12
388.713	91.12
388.938	77.12
389.163	96.12
389.387	83.12
389.612	91.12
389.837	82.12
390.062	79.12
390.287	91.12
390.512	90.12
390.736	100.12
390.961	87.12
391.186	91.12
391.411	89.12
391.636	89.12
391.86	83.12
392.085	87.12
392.31	75.12
392.534	79.12
392.759	83.12
392.984	80.12
393.208	81.12
393.433	106.12
393.658	85.12
393.882	97.12
394.107	83.12
394.331	67.12
394.556	86.12
394.78	87.12
395.005	107.12
395.229	77.12
395.454	92.12
395.678	77.12
395.903	79.12
396.127	95.12
396.352	76.12
396.576	84.12
396.801	83.12
397.025	92.12
397.249	74.12
397.474	78.12
397.698	91.12
397.922	92.12
398.147	74.12
398.371	80.12
398.595	71.12
398.82	92.12
399.044	73.12
399.268	92.12
399.492	86.12
399.717	76.12
399.941	91.12
400.165	98.12
400.389	94.12
400.613	96.12
400.837	100.12
401.062	93.12
401.286	85.12
401.51	87.12
401.734	99.12
401.958	102.12
402.182	138.12
402.406	192.12
402.63	144.12
402.854	80.12
403.078	95.12
403.302	97.12
403.526	84.12
403.75	97.12
403.974	96.12
404.198	95.12
404.422	80.12
404.645	105.12
404.869	83.12
405.093	108.12
405.317	105.12
405.541	95.12
405.765	123.12
405.988	117.12
406.212	195.12
406.436	284.12
406.66	184.12
406.883	103.12
407.107	105.12
407.331	94.12
407.555	100.12
407.778	100.12
408.002	96.12
408.226	91.12
408.449	102.12
408.673	89.12
408.896	88.12
409.12	91.12
409.344	83.12
409.567	86.12
409.791	103.12
410.014	111.12
410.238	86.12
410.461	110.12
410.685	84.12
410.908	91.12
411.132	107.12
411.355	93.12
411.578	89.12
411.802	90.12
412.025	99.12
412.249	112.12
412.472	103.12
412.695	80.12
412.919	106.12
413.142	92.12
413.365	96.12
413.589	84.12
413.812	81.12
414.035	86.12
414.258	87.12
414.482	95.12
414.705	93.12
414.928	73.12
415.151	96.12
415.374	84.12
415.597	87.12
415.821	88.12
416.044	83.12
416.267	111.12
416.49	90.12
416.713	92.12
416.936	93.12
417.159	87.12
417.382	99.12
417.605	89.12
417.828	87.12
418.051	89.12
418.274	76.12
418.497	83.12
418.72	95.12
418.943	79.12
419.166	89.12
419.389	79.12
419.611	98.12
419.834	98.12
420.057	90.12
420.28	100.12
420.503	87.12
420.726	76.12
420.948	72.12
421.171	100.12
421.394	91.12
421.617	88.12
421.839	91.12
422.062	101.12
422.285	88.12
422.507	95.12
422.73	106.12
422.953	88.12
423.175	75.12
423.398	94.12
423.621	93.12
423.843	86.12
424.066	89.12
424.288	88.12
424.511	104.12
424.733	99.12
424.956	108.12
425.178	99.12
425.401	108.12
425.623	112.12
425.846	88.12
426.068	95.12
426.291	96.12
426.513	97.12
426.735	89.12
426.958	93.12
427.18	110.12
427.402	149.12
427.625	210.12
427.847	158.12
428.069	124.12
428.292	95.12
428.514	91.12
428.736	88.12
428.958	86.12
429.181	95.12
429.403	92.12
429.625	89.12
429.847	101.12
430.069	115.12
430.292	72.12
430.514	87.12
430.736	93.12
430.958	81.12
431.18	84.12
431.402	76.12
431.624	97.12
431.846	82.12
432.068	100.12
432.29	83.12
432.512	100.12
432.734	82.12
432.956	88.12
433.178	95.12
433.4	107.12
433.622	96.12
433.844	97.12
434.066	85.12
434.287	83.12
434.509	72.12
434.731	92.12
434.953	100.12
435.175	91.12
435.397	94.12
435.618	83.12
435.84	102.12
436.062	137.12
436.284	121.12
436.505	84.12
436.727	109.12
436.949	89.12
437.17	80.12
437.392	90.12
437.614	85.12
437.835	113.12
438.057	132.12
438.278	120.12
438.5	103.12
438.721	123.12
438.943	111.12
439.165	76.12
439.386	91.12
439.608	91.12
439.829	94.12
440.05	125.12
440.272	147.12
440.493	104.12
440.715	90.12
440.936	93.12
441.158	87.12
441.379	81.12
441.6	99.12
441.822	102.12
442.043	109.12
442.264	111.12
442.486	113.12
442.707	104.12
442.928	103.12
443.149	149.12
443.371	138.12
443.592	119.12
443.813	123.12
444.034	119.12
444.255	84.12
444.476	93.12
444.698	88.12
444.919	91.12
445.14	134.12
445.361	129.12
445.582	137.12
445.803	154.12
446.024	148.12
446.245	140.12
446.466	140.12
446.687	100.12
446.908	100.12
447.129	90.12
447.35	80.12
447.571	87.12
447.792	80.12
448.013	111.12
448.234	120.12
448.455	120.12
448.675	117.12
448.896	127.12
449.117	100.12
449.338	108.12
449.559	139.12
449.779	135.12
450	79.12
450.221	96.12
450.442	101.12
450.662	101.12
450.883	119.12
451.104	128.12
451.324	81.12
451.545	87.12
451.766	85.12
451.986	89.12
452.207	103.12
452.428	95.12
452.648	101.12
452.869	111.12
453.089	104.12
453.31	123.12
453.53	96.12
453.751	99.12
453.971	104.12
454.192	126.12
454.412	106.12
454.633	99.12
454.853	78.12
455.073	103.12
455.294	98.12
455.514	89.12
455.734	91.12
455.955	92.12
456.175	89.12
456.395	85.12
456.616	84.12
456.836	86.12
457.056	73.12
457.276	84.12
457.497	80.12
457.717	87.12
457.937	89.12
458.157	93.12
458.377	97.12
458.598	118.12
458.818	184.12
459.038	182.12
459.258	130.12
459.478	87.12
459.698	76.12
459.918	89.12
460.138	101.12
460.358	79.12
460.578	81.12
460.798	100.12
461.018	86.12
461.238	85.12
461.458	95.12
461.678	88.12
461.898	101.12
462.118	85.12
462.338	97.12
462.558	73.12
462.777	74.12
462.997	88.12
463.217	84.12
463.437	94.12
463.657	81.12
463.876	77.12
464.096	98.12
464.316	78.12
464.536	92.12
464.755	93.12
464.975	131.12
465.195	187.12
465.414	204.12
465.634	105.12
465.854	91.12
466.073	77.12
466.293	97.12
466.512	95.12
466.732	80.12
466.951	93.12
467.171	100.12
467.391	100.12
467.61	109.12
467.829	118.12
468.049	131.12
468.268	125.12
468.488	93.12
468.707	81.12
468.927	93.12
469.146	89.12
469.365	100.12
469.585	88.12
469.804	90.12
470.023	105.12
470.243	97.12
470.462	98.12
470.681	104.12
470.901	111.12
471.12	86.12
471.339	100.12
471.558	95.12
471.777	93.12
471.997	104.12
472.216	160.12
472.435	242.12
472.654	115.12
472.873	77.12
473.092	79.12
473.311	85.12
473.53	89.12
473.749	87.12
473.968	100.12
474.187	119.12
474.406	102.12
474.625	93.12
474.844	90.12
475.063	82.12
475.282	85.12
475.501	83.12
475.72	91.12
475.939	98.12
476.158	87.12
476.377	96.12
476.596	80.12
476.814	83.12
477.033	85.12
477.252	93.12
477.471	85.12
477.69	81.12
477.908	95.12
478.127	85.12
478.346	97.12
478.564	114.12
478.783	111.12
479.002	96.12
479.22	74.12
479.439	120.12
479.658	106.12
479.876	92.12
480.095	91.12
480.313	98.12
480.532	95.12
480.751	114.12
480.969	154.12
481.188	353.12
481.406	265.12
481.624	119.12
481.843	92.12
482.061	79.12
482.28	93.12
482.498	89.12
482.717	94.12
482.935	93.12
483.153	96.12
483.372	73.12
483.59	81.12
483.808	87.12
484.027	97.12
484.245	96.12
484.463	92.12
484.681	82.12
484.9	99.12
485.118	85.12
485.336	95.12
485.554	89.12
485.772	96.12
485.99	107.12
486.209	102.12
486.427	105.12
486.645	122.12
486.863	115.12
487.081	109.12
487.299	86.12
487.517	94.12
487.735	92.12
487.953	82.12
488.171	89.12
488.389	93.12
488.607	99.12
488.825	78.12
489.043	84.12
489.261	117.12
489.479	93.12
489.696	100.12
489.914	100.12
490.132	101.12
490.35	104.12
490.568	82.12
490.786	81.12
491.003	83.12
491.221	87.12
491.439	88.12
491.657	90.12
491.874	99.12
492.092	103.12
492.31	86.12
492.527	88.12
492.745	77.12
492.963	97.12
493.18	109.12
493.398	92.12
493.615	96.12
493.833	96.12
494.05	75.12
494.268	80.12
494.485	84.12
494.703	84.12
494.92	88.12
495.138	90.12
495.355	104.12
495.573	101.12
495.79	78.12
496.008	82.12
496.225	102.12
496.442	95.12
496.66	97.12
496.877	88.12
497.094	98.12
497.312	87.12
497.529	95.12
497.746	97.12
497.963	88.12
498.181	95.12
498.398	95.12
498.615	102.12
498.832	106.12
499.049	95.12
499.267	88.12
499.484	94.12
499.701	76.12
499.918	80.12
500.135	93.12
500.352	94.12
500.569	77.12
500.786	104.12
501.003	106.12
501.22	84.12
501.437	91.12
501.654	94.12
501.871	113.12
502.088	91.12
502.305	90.12
502.522	94.12
502.739	82.12
502.956	90.12
503.172	81.12
503.389	106.12
503.606	104.12
503.823	97.12
504.04	88.12
504.256	105.12
504.473	88.12
504.69	92.12
504.907	105.12
505.123	91.12
505.34	79.12
505.557	87.12
505.773	83.12
505.99	95.12
506.207	92.12
506.423	91.12
506.64	102.12
506.856	91.12
507.073	101.12
507.289	102.12
507.506	93.12
507.722	116.12
507.939	128.12
508.155	119.12
508.372	98.12
508.588	110.12
508.805	107.12
509.021	92.12
509.238	101.12
509.454	103.12
509.67	112.12
509.887	125.12
510.103	135.12
510.319	246.12
510.536	908.12
510.752	2987.12
510.968	868.12
511.184	169.12
511.401	104.12
511.617	112.12
511.833	79.12
512.049	87.12
512.265	99.12
512.481	103.12
512.698	96.12
512.914	96.12
513.13	99.12
513.346	83.12
513.562	90.12
513.778	109.12
513.994	106.12
514.21	118.12
514.426	143.12
514.642	154.12
