Data from Circ_2022_H10_HRD10591_00087.txt Node
Date: Wed Jan 03 09:53:55 EST 2024
User: Yrep
Spectrometer: HR+D1059
Trigger mode: 1
Integration Time (sec): 1.000000E-1
Scans to average: 1
Electric dark correction enabled: true
Nonlinearity correction enabled: false
Boxcar width: 0
XAxis mode: Wavelengths
Number of Pixels in Spectrum: 2048
>>>>>Begin Spectral Data<<<<<
223.165	-20.12
223.4	-20.12
223.635	-20.12
223.869	-20.12
224.104	-17.12
224.338	-21.12
224.573	-11.12
224.808	-20.12
225.042	-12.12
225.277	-6.12
225.511	-16.12
225.746	-2.12
225.98	24.88
226.215	11.88
226.449	27.88
226.683	15.88
226.918	30.88
227.152	34.88
227.387	29.88
227.621	31.88
227.856	38.88
228.09	37.88
228.324	60.88
228.559	59.88
228.793	63.88
229.027	64.88
229.262	58.88
229.496	73.88
229.73	88.88
229.964	94.88
230.199	79.88
230.433	86.88
230.667	62.88
230.901	64.88
231.136	76.88
231.37	78.88
231.604	75.88
231.838	87.88
232.072	70.88
232.306	66.88
232.541	69.88
232.775	70.88
233.009	79.88
233.243	80.88
233.477	78.88
233.711	66.88
233.945	75.88
234.179	83.88
234.413	63.88
234.647	80.88
234.881	70.88
235.115	77.88
235.349	65.88
235.583	83.88
235.817	81.88
236.051	76.88
236.285	84.88
236.519	76.88
236.753	74.88
236.987	85.88
237.221	90.88
237.455	84.88
237.689	89.88
237.922	76.88
238.156	72.88
238.39	75.88
238.624	76.88
238.858	75.88
239.091	65.88
239.325	76.88
239.559	83.88
239.793	93.88
240.027	86.88
240.26	72.88
240.494	72.88
240.728	72.88
240.961	57.88
241.195	73.88
241.429	74.88
241.662	69.88
241.896	67.88
242.13	72.88
242.363	75.88
242.597	84.88
242.83	70.88
243.064	86.88
243.298	80.88
243.531	77.88
243.765	86.88
243.998	76.88
244.232	77.88
244.465	84.88
244.699	71.88
244.932	79.88
245.166	81.88
245.399	71.88
245.633	73.88
245.866	78.88
246.099	82.88
246.333	83.88
246.566	80.88
246.8	80.88
247.033	73.88
247.266	79.88
247.5	66.88
247.733	74.88
247.966	78.88
248.2	74.88
248.433	78.88
248.666	77.88
248.899	92.88
249.133	81.88
249.366	100.88
249.599	94.88
249.832	84.88
250.066	71.88
250.299	83.88
250.532	72.88
250.765	88.88
250.998	79.88
251.231	66.88
251.465	73.88
251.698	80.88
251.931	73.88
252.164	93.88
252.397	64.88
252.63	71.88
252.863	92.88
253.096	83.88
253.329	77.88
253.562	71.88
253.795	70.88
254.028	78.88
254.261	82.88
254.494	76.88
254.727	72.88
254.96	93.88
255.193	77.88
255.426	64.88
255.659	59.88
255.892	88.88
256.124	85.88
256.357	95.88
256.59	93.88
256.823	70.88
257.056	85.88
257.289	75.88
257.521	86.88
257.754	85.88
257.987	80.88
258.22	75.88
258.452	79.88
258.685	84.88
258.918	85.88
259.151	77.88
259.383	75.88
259.616	66.88
259.849	62.88
260.081	78.88
260.314	72.88
260.547	74.88
260.779	77.88
261.012	102.88
261.244	100.88
261.477	94.88
261.71	90.88
261.942	114.88
262.175	125.88
262.407	106.88
262.64	84.88
262.872	82.88
263.105	78.88
263.337	87.88
263.57	71.88
263.802	85.88
264.035	74.88
264.267	75.88
264.499	70.88
264.732	86.88
264.964	72.88
265.197	75.88
265.429	77.88
265.661	89.88
265.894	82.88
266.126	100.88
266.358	83.88
266.591	88.88
266.823	78.88
267.055	92.88
267.287	72.88
267.52	81.88
267.752	78.88
267.984	80.88
268.216	94.88
268.448	91.88
268.681	87.88
268.913	91.88
269.145	82.88
269.377	88.88
269.609	79.88
269.841	75.88
270.073	82.88
270.306	97.88
270.538	82.88
270.77	71.88
271.002	85.88
271.234	70.88
271.466	88.88
271.698	89.88
271.93	92.88
272.162	95.88
272.394	82.88
272.626	68.88
272.858	86.88
273.09	80.88
273.322	96.88
273.553	71.88
273.785	90.88
274.017	77.88
274.249	68.88
274.481	82.88
274.713	89.88
274.945	84.88
275.176	89.88
275.408	91.88
275.64	88.88
275.872	91.88
276.104	94.88
276.335	87.88
276.567	111.88
276.799	103.88
277.031	120.88
277.262	105.88
277.494	90.88
277.726	79.88
277.957	83.88
278.189	92.88
278.421	81.88
278.652	91.88
278.884	85.88
279.115	75.88
279.347	86.88
279.579	87.88
279.81	76.88
280.042	103.88
280.273	97.88
280.505	105.88
280.736	91.88
280.968	84.88
281.199	91.88
281.431	93.88
281.662	82.88
281.894	83.88
282.125	92.88
282.356	120.88
282.588	154.88
282.819	113.88
283.051	88.88
283.282	88.88
283.513	71.88
283.745	85.88
283.976	91.88
284.207	78.88
284.439	81.88
284.67	82.88
284.901	81.88
285.132	86.88
285.364	77.88
285.595	77.88
285.826	91.88
286.057	86.88
286.288	87.88
286.52	94.88
286.751	79.88
286.982	74.88
287.213	87.88
287.444	88.88
287.675	85.88
287.906	86.88
288.138	81.88
288.369	105.88
288.6	84.88
288.831	96.88
289.062	79.88
289.293	88.88
289.524	94.88
289.755	94.88
289.986	81.88
290.217	73.88
290.448	91.88
290.679	74.88
290.91	83.88
291.141	88.88
291.371	99.88
291.602	91.88
291.833	91.88
292.064	83.88
292.295	75.88
292.526	83.88
292.757	84.88
292.987	74.88
293.218	83.88
293.449	89.88
293.68	71.88
293.91	95.88
294.141	105.88
294.372	84.88
294.603	92.88
294.833	90.88
295.064	95.88
295.295	83.88
295.525	96.88
295.756	106.88
295.987	114.88
296.217	156.88
296.448	149.88
296.679	103.88
296.909	105.88
297.14	94.88
297.37	91.88
297.601	89.88
297.831	95.88
298.062	94.88
298.292	94.88
298.523	93.88
298.753	78.88
298.984	82.88
299.214	97.88
299.445	98.88
299.675	93.88
299.905	111.88
300.136	100.88
300.366	91.88
300.597	91.88
300.827	82.88
301.057	90.88
301.288	109.88
301.518	97.88
301.748	95.88
301.979	114.88
302.209	87.88
302.439	81.88
302.669	96.88
302.9	92.88
303.13	79.88
303.36	98.88
303.59	109.88
303.82	110.88
304.051	104.88
304.281	101.88
304.511	85.88
304.741	82.88
304.971	98.88
305.201	79.88
305.431	75.88
305.661	80.88
305.891	91.88
306.121	102.88
306.352	109.88
306.582	101.88
306.812	74.88
307.042	106.88
307.272	118.88
307.502	111.88
307.731	129.88
307.961	97.88
308.191	74.88
308.421	89.88
308.651	91.88
308.881	91.88
309.111	101.88
309.341	101.88
309.571	100.88
309.8	111.88
310.03	106.88
310.26	89.88
310.49	90.88
310.72	115.88
310.949	110.88
311.179	98.88
311.409	100.88
311.639	111.88
311.868	98.88
312.098	88.88
312.328	89.88
312.557	107.88
312.787	112.88
313.017	115.88
313.246	113.88
313.476	90.88
313.706	87.88
313.935	93.88
314.165	106.88
314.394	110.88
314.624	112.88
314.853	96.88
315.083	101.88
315.312	102.88
315.542	90.88
315.771	89.88
316.001	98.88
316.23	89.88
316.46	87.88
316.689	78.88
316.919	93.88
317.148	92.88
317.377	95.88
317.607	83.88
317.836	86.88
318.065	85.88
318.295	95.88
318.524	90.88
318.753	87.88
318.983	92.88
319.212	113.88
319.441	113.88
319.67	106.88
319.9	93.88
320.129	85.88
320.358	101.88
320.587	94.88
320.816	93.88
321.046	96.88
321.275	84.88
321.504	104.88
321.733	76.88
321.962	90.88
322.191	106.88
322.42	115.88
322.649	125.88
322.878	115.88
323.108	125.88
323.337	139.88
323.566	135.88
323.795	181.88
324.024	237.88
324.253	423.88
324.482	915.88
324.71	1926.88
324.939	2585.88
325.168	921.88
325.397	260.88
325.626	146.88
325.855	136.88
326.084	125.88
326.313	136.88
326.542	171.88
326.77	243.88
326.999	499.88
327.228	959.88
327.457	1839.88
327.686	1528.88
327.914	404.88
328.143	265.88
328.372	249.88
328.6	178.88
328.829	143.88
329.058	146.88
329.287	169.88
329.515	119.88
329.744	129.88
329.972	170.88
330.201	249.88
330.43	353.88
330.658	223.88
330.887	208.88
331.115	155.88
331.344	121.88
331.572	106.88
331.801	111.88
332.03	113.88
332.258	104.88
332.486	106.88
332.715	88.88
332.943	100.88
333.172	116.88
333.4	115.88
333.629	101.88
333.857	138.88
334.085	161.88
334.314	253.88
334.542	420.88
334.771	416.88
334.999	164.88
335.227	119.88
335.455	98.88
335.684	103.88
335.912	96.88
336.14	96.88
336.369	105.88
336.597	104.88
336.825	105.88
337.053	99.88
337.281	99.88
337.51	84.88
337.738	99.88
337.966	92.88
338.194	103.88
338.422	103.88
338.65	87.88
338.878	94.88
339.106	87.88
339.334	101.88
339.562	82.88
339.79	90.88
340.018	87.88
340.246	100.88
340.474	103.88
340.702	85.88
340.93	94.88
341.158	88.88
341.386	96.88
341.614	89.88
341.842	101.88
342.07	88.88
342.298	89.88
342.526	99.88
342.754	90.88
342.981	87.88
343.209	89.88
343.437	95.88
343.665	93.88
343.893	85.88
344.12	90.88
344.348	92.88
344.576	97.88
344.804	78.88
345.031	96.88
345.259	109.88
345.487	107.88
345.714	106.88
345.942	100.88
346.17	94.88
346.397	103.88
346.625	89.88
346.853	96.88
347.08	83.88
347.308	90.88
347.535	97.88
347.763	94.88
347.99	91.88
348.218	91.88
348.445	106.88
348.673	109.88
348.9	106.88
349.128	90.88
349.355	101.88
349.583	102.88
349.81	95.88
350.037	85.88
350.265	98.88
350.492	84.88
350.72	104.88
350.947	102.88
351.174	120.88
351.402	126.88
351.629	117.88
351.856	99.88
352.083	125.88
352.311	110.88
352.538	121.88
352.765	121.88
352.992	105.88
353.22	117.88
353.447	109.88
353.674	103.88
353.901	97.88
354.128	84.88
354.355	102.88
354.583	98.88
354.81	88.88
355.037	93.88
355.264	104.88
355.491	95.88
355.718	96.88
355.945	91.88
356.172	91.88
356.399	73.88
356.626	99.88
356.853	86.88
357.08	97.88
357.307	94.88
357.534	103.88
357.761	95.88
357.988	92.88
358.215	82.88
358.441	91.88
358.668	81.88
358.895	74.88
359.122	92.88
359.349	78.88
359.576	99.88
359.802	105.88
360.029	133.88
360.256	112.88
360.483	115.88
360.709	94.88
360.936	89.88
361.163	98.88
361.39	96.88
361.616	87.88
361.843	85.88
362.07	104.88
362.296	98.88
362.523	86.88
362.749	94.88
362.976	104.88
363.203	104.88
363.429	90.88
363.656	86.88
363.882	97.88
364.109	109.88
364.335	96.88
364.562	100.88
364.788	98.88
365.015	101.88
365.241	104.88
365.468	117.88
365.694	115.88
365.92	100.88
366.147	83.88
366.373	105.88
366.599	91.88
366.826	86.88
367.052	90.88
367.278	89.88
367.505	102.88
367.731	104.88
367.957	89.88
368.184	107.88
368.41	99.88
368.636	101.88
368.862	115.88
369.089	115.88
369.315	90.88
369.541	113.88
369.767	105.88
369.993	101.88
370.219	96.88
370.445	99.88
370.672	91.88
370.898	74.88
371.124	89.88
371.35	84.88
371.576	84.88
371.802	85.88
372.028	88.88
372.254	85.88
372.48	82.88
372.706	107.88
372.932	64.88
373.158	90.88
373.384	87.88
373.61	96.88
373.835	82.88
374.061	95.88
374.287	96.88
374.513	97.88
374.739	90.88
374.965	90.88
375.191	97.88
375.416	89.88
375.642	111.88
375.868	96.88
376.094	90.88
376.319	85.88
376.545	94.88
376.771	79.88
376.997	97.88
377.222	89.88
377.448	103.88
377.674	105.88
377.899	87.88
378.125	88.88
378.35	69.88
378.576	83.88
378.802	84.88
379.027	88.88
379.253	87.88
379.478	86.88
379.704	92.88
379.929	92.88
380.155	81.88
380.38	94.88
380.606	94.88
380.831	105.88
381.057	91.88
381.282	96.88
381.507	89.88
381.733	102.88
381.958	96.88
382.184	102.88
382.409	94.88
382.634	98.88
382.86	95.88
383.085	95.88
383.31	87.88
383.535	97.88
383.761	104.88
383.986	98.88
384.211	94.88
384.436	82.88
384.662	98.88
384.887	97.88
385.112	103.88
385.337	93.88
385.562	93.88
385.787	94.88
386.013	95.88
386.238	124.88
386.463	93.88
386.688	109.88
386.913	98.88
387.138	97.88
387.363	87.88
387.588	93.88
387.813	95.88
388.038	89.88
388.263	94.88
388.488	109.88
388.713	96.88
388.938	96.88
389.163	95.88
389.387	89.88
389.612	77.88
389.837	84.88
390.062	88.88
390.287	91.88
390.512	91.88
390.736	86.88
390.961	84.88
391.186	93.88
391.411	87.88
391.636	87.88
391.86	65.88
392.085	93.88
392.31	71.88
392.534	90.88
392.759	81.88
392.984	88.88
393.208	86.88
393.433	87.88
393.658	82.88
393.882	88.88
394.107	75.88
394.331	87.88
394.556	80.88
394.78	89.88
395.005	74.88
395.229	83.88
395.454	89.88
395.678	89.88
395.903	89.88
396.127	90.88
396.352	94.88
396.576	90.88
396.801	83.88
397.025	94.88
397.249	82.88
397.474	88.88
397.698	92.88
397.922	82.88
398.147	93.88
398.371	94.88
398.595	79.88
398.82	82.88
399.044	92.88
399.268	81.88
399.492	94.88
399.717	88.88
399.941	79.88
400.165	96.88
400.389	95.88
400.613	87.88
400.837	84.88
401.062	79.88
401.286	83.88
401.51	94.88
401.734	106.88
401.958	105.88
402.182	143.88
402.406	184.88
402.63	145.88
402.854	99.88
403.078	84.88
403.302	85.88
403.526	81.88
403.75	86.88
403.974	93.88
404.198	83.88
404.422	98.88
404.645	97.88
404.869	77.88
405.093	90.88
405.317	114.88
405.541	97.88
405.765	114.88
405.988	157.88
406.212	197.88
406.436	266.88
406.66	169.88
406.883	114.88
407.107	102.88
407.331	107.88
407.555	109.88
407.778	108.88
408.002	90.88
408.226	91.88
408.449	89.88
408.673	102.88
408.896	96.88
409.12	100.88
409.344	90.88
409.567	88.88
409.791	88.88
410.014	100.88
410.238	80.88
410.461	91.88
410.685	81.88
410.908	97.88
411.132	103.88
411.355	107.88
411.578	93.88
411.802	103.88
412.025	88.88
412.249	108.88
412.472	111.88
412.695	111.88
412.919	92.88
413.142	100.88
413.365	95.88
413.589	87.88
413.812	92.88
414.035	90.88
414.258	83.88
414.482	75.88
414.705	88.88
414.928	98.88
415.151	87.88
415.374	85.88
415.597	93.88
415.821	87.88
416.044	90.88
416.267	97.88
416.49	83.88
416.713	89.88
416.936	85.88
417.159	77.88
417.382	96.88
417.605	90.88
417.828	94.88
418.051	84.88
418.274	85.88
418.497	91.88
418.72	85.88
418.943	85.88
419.166	86.88
419.389	80.88
419.611	75.88
419.834	81.88
420.057	102.88
420.28	95.88
420.503	108.88
420.726	111.88
420.948	84.88
421.171	100.88
421.394	99.88
421.617	86.88
421.839	97.88
422.062	87.88
422.285	105.88
422.507	94.88
422.73	116.88
422.953	109.88
423.175	94.88
423.398	95.88
423.621	82.88
423.843	91.88
424.066	74.88
424.288	100.88
424.511	89.88
424.733	105.88
424.956	129.88
425.178	123.88
425.401	118.88
425.623	114.88
425.846	110.88
426.068	93.88
426.291	96.88
426.513	109.88
426.735	96.88
426.958	94.88
427.18	121.88
427.402	162.88
427.625	221.88
427.847	180.88
428.069	135.88
428.292	94.88
428.514	90.88
428.736	94.88
428.958	87.88
429.181	80.88
429.403	93.88
429.625	86.88
429.847	96.88
430.069	106.88
430.292	99.88
430.514	107.88
430.736	85.88
430.958	94.88
431.18	82.88
431.402	77.88
431.624	85.88
431.846	78.88
432.068	80.88
432.29	77.88
432.512	87.88
432.734	85.88
432.956	91.88
433.178	109.88
433.4	104.88
433.622	86.88
433.844	93.88
434.066	95.88
434.287	83.88
434.509	89.88
434.731	81.88
434.953	86.88
435.175	85.88
435.397	92.88
435.618	94.88
435.84	98.88
436.062	130.88
436.284	133.88
436.505	114.88
436.727	121.88
436.949	101.88
437.17	85.88
437.392	86.88
437.614	83.88
437.835	121.88
438.057	145.88
438.278	151.88
438.5	118.88
438.721	130.88
438.943	101.88
439.165	81.88
439.386	88.88
439.608	75.88
439.829	108.88
440.05	126.88
440.272	176.88
440.493	118.88
440.715	89.88
440.936	94.88
441.158	97.88
441.379	90.88
441.6	89.88
441.822	103.88
442.043	100.88
442.264	139.88
442.486	119.88
442.707	97.88
442.928	124.88
443.149	161.88
443.371	163.88
443.592	129.88
443.813	121.88
444.034	111.88
444.255	85.88
444.476	91.88
444.698	87.88
444.919	106.88
445.14	128.88
445.361	121.88
445.582	133.88
445.803	177.88
446.024	183.88
446.245	157.88
446.466	112.88
446.687	90.88
446.908	92.88
447.129	85.88
447.35	103.88
447.571	109.88
447.792	93.88
448.013	93.88
448.234	123.88
448.455	114.88
448.675	119.88
448.896	132.88
449.117	105.88
449.338	119.88
449.559	147.88
449.779	163.88
450	90.88
450.221	93.88
450.442	101.88
450.662	94.88
450.883	119.88
451.104	113.88
451.324	93.88
451.545	109.88
451.766	76.88
451.986	79.88
452.207	85.88
452.428	91.88
452.648	102.88
452.869	133.88
453.089	139.88
453.31	138.88
453.53	94.88
453.751	105.88
453.971	102.88
454.192	146.88
454.412	114.88
454.633	88.88
454.853	81.88
455.073	95.88
455.294	95.88
455.514	110.88
455.734	94.88
455.955	73.88
456.175	84.88
456.395	83.88
456.616	77.88
456.836	84.88
457.056	67.88
457.276	81.88
457.497	80.88
457.717	82.88
457.937	86.88
458.157	85.88
458.377	96.88
458.598	117.88
458.818	179.88
459.038	214.88
459.258	145.88
459.478	88.88
459.698	94.88
459.918	85.88
460.138	74.88
460.358	87.88
460.578	82.88
460.798	82.88
461.018	94.88
461.238	86.88
461.458	69.88
461.678	92.88
461.898	78.88
462.118	82.88
462.338	90.88
462.558	74.88
462.777	72.88
462.997	91.88
463.217	90.88
463.437	80.88
463.657	81.88
463.876	76.88
464.096	71.88
464.316	90.88
464.536	100.88
464.755	98.88
464.975	129.88
465.195	213.88
465.414	220.88
465.634	99.88
465.854	87.88
466.073	78.88
466.293	95.88
466.512	91.88
466.732	86.88
466.951	87.88
467.171	90.88
467.391	104.88
467.61	104.88
467.829	136.88
468.049	162.88
468.268	195.88
468.488	104.88
468.707	95.88
468.927	74.88
469.146	87.88
469.365	94.88
469.585	101.88
469.804	100.88
470.023	96.88
470.243	90.88
470.462	97.88
470.681	118.88
470.901	80.88
471.12	82.88
471.339	86.88
471.558	98.88
471.777	96.88
471.997	99.88
472.216	260.88
472.435	503.88
472.654	192.88
472.873	95.88
473.092	95.88
473.311	89.88
473.53	96.88
473.749	88.88
473.968	102.88
474.187	123.88
474.406	125.88
474.625	87.88
474.844	86.88
475.063	80.88
475.282	79.88
475.501	94.88
475.72	74.88
475.939	110.88
476.158	93.88
476.377	89.88
476.596	93.88
476.814	88.88
477.033	84.88
477.252	80.88
477.471	83.88
477.69	94.88
477.908	92.88
478.127	89.88
478.346	97.88
478.564	89.88
478.783	103.88
479.002	82.88
479.22	88.88
479.439	106.88
479.658	112.88
479.876	89.88
480.095	105.88
480.313	118.88
480.532	100.88
480.751	123.88
480.969	262.88
481.188	793.88
481.406	564.88
481.624	149.88
481.843	107.88
482.061	101.88
482.28	101.88
482.498	84.88
482.717	91.88
482.935	88.88
483.153	78.88
483.372	96.88
483.59	99.88
483.808	86.88
484.027	81.88
484.245	86.88
484.463	105.88
484.681	97.88
484.9	92.88
485.118	89.88
485.336	95.88
485.554	101.88
485.772	88.88
485.99	94.88
486.209	107.88
486.427	101.88
486.645	118.88
486.863	110.88
487.081	89.88
487.299	105.88
487.517	98.88
487.735	103.88
487.953	109.88
488.171	90.88
488.389	101.88
488.607	99.88
488.825	94.88
489.043	92.88
489.261	98.88
489.479	91.88
489.696	94.88
489.914	85.88
490.132	85.88
490.35	75.88
490.568	78.88
490.786	111.88
491.003	72.88
491.221	94.88
491.439	78.88
491.657	90.88
491.874	96.88
492.092	83.88
492.31	95.88
492.527	92.88
492.745	93.88
492.963	100.88
493.18	87.88
493.398	87.88
493.615	96.88
493.833	93.88
494.05	84.88
494.268	81.88
494.485	75.88
494.703	86.88
494.92	90.88
495.138	96.88
495.355	91.88
495.573	85.88
495.79	91.88
496.008	86.88
496.225	90.88
496.442	86.88
496.66	90.88
496.877	96.88
497.094	101.88
497.312	87.88
497.529	78.88
497.746	89.88
497.963	92.88
498.181	95.88
498.398	88.88
498.615	117.88
498.832	108.88
499.049	77.88
499.267	89.88
499.484	88.88
499.701	86.88
499.918	76.88
500.135	89.88
500.352	97.88
500.569	91.88
500.786	82.88
501.003	84.88
501.22	88.88
501.437	90.88
501.654	95.88
501.871	127.88
502.088	93.88
502.305	98.88
502.522	79.88
502.739	88.88
502.956	102.88
503.172	87.88
503.389	93.88
503.606	114.88
503.823	113.88
504.04	111.88
504.256	82.88
504.473	96.88
504.69	94.88
504.907	94.88
505.123	75.88
505.34	77.88
505.557	95.88
505.773	94.88
505.99	104.88
506.207	92.88
506.423	95.88
506.64	89.88
506.856	93.88
507.073	111.88
507.289	102.88
507.506	102.88
507.722	131.88
507.939	130.88
508.155	97.88
508.372	98.88
508.588	75.88
508.805	104.88
509.021	87.88
509.238	94.88
509.454	109.88
509.67	93.88
509.887	123.88
510.103	143.88
510.319	232.88
510.536	818.88
510.752	2917.88
510.968	827.88
511.184	184.88
511.401	125.88
511.617	102.88
511.833	106.88
512.049	104.88
512.265	78.88
512.481	78.88
512.698	86.88
512.914	104.88
513.13	91.88
513.346	97.88
513.562	93.88
513.778	112.88
513.994	95.88
514.21	113.88
514.426	130.88
514.642	174.88
