Data from Circ_2022_H10_HRD10591_00082.txt Node
Date: Wed Jan 03 09:53:54 EST 2024
User: Yrep
Spectrometer: HR+D1059
Trigger mode: 1
Integration Time (sec): 1.000000E-1
Scans to average: 1
Electric dark correction enabled: true
Nonlinearity correction enabled: false
Boxcar width: 0
XAxis mode: Wavelengths
Number of Pixels in Spectrum: 2048
>>>>>Begin Spectral Data<<<<<
223.165	-24.75
223.4	-24.75
223.635	-24.75
223.869	-18.75
224.104	-10.75
224.338	-19.75
224.573	-13.75
224.808	-7.75
225.042	-15.75
225.277	-3.75
225.511	-1.75
225.746	-4.75
225.98	-0.75
226.215	21.25
226.449	20.25
226.683	30.25
226.918	20.25
227.152	30.25
227.387	44.25
227.621	50.25
227.856	58.25
228.09	46.25
228.324	64.25
228.559	54.25
228.793	60.25
229.027	68.25
229.262	67.25
229.496	58.25
229.73	97.25
229.964	89.25
230.199	75.25
230.433	89.25
230.667	69.25
230.901	78.25
231.136	82.25
231.37	73.25
231.604	95.25
231.838	76.25
232.072	96.25
232.306	74.25
232.541	89.25
232.775	78.25
233.009	81.25
233.243	94.25
233.477	88.25
233.711	78.25
233.945	66.25
234.179	78.25
234.413	92.25
234.647	85.25
234.881	84.25
235.115	76.25
235.349	89.25
235.583	81.25
235.817	79.25
236.051	85.25
236.285	82.25
236.519	86.25
236.753	77.25
236.987	77.25
237.221	90.25
237.455	81.25
237.689	79.25
237.922	71.25
238.156	84.25
238.39	74.25
238.624	72.25
238.858	84.25
239.091	86.25
239.325	84.25
239.559	88.25
239.793	93.25
240.027	81.25
240.26	88.25
240.494	86.25
240.728	81.25
240.961	70.25
241.195	77.25
241.429	72.25
241.662	79.25
241.896	76.25
242.13	73.25
242.363	79.25
242.597	92.25
242.83	90.25
243.064	77.25
243.298	81.25
243.531	93.25
243.765	85.25
243.998	85.25
244.232	86.25
244.465	74.25
244.699	84.25
244.932	76.25
245.166	83.25
245.399	82.25
245.633	73.25
245.866	84.25
246.099	78.25
246.333	80.25
246.566	81.25
246.8	69.25
247.033	87.25
247.266	80.25
247.5	70.25
247.733	85.25
247.966	83.25
248.2	81.25
248.433	70.25
248.666	82.25
248.899	95.25
249.133	81.25
249.366	104.25
249.599	101.25
249.832	85.25
250.066	90.25
250.299	81.25
250.532	88.25
250.765	75.25
250.998	83.25
251.231	83.25
251.465	75.25
251.698	84.25
251.931	80.25
252.164	86.25
252.397	81.25
252.63	70.25
252.863	79.25
253.096	74.25
253.329	84.25
253.562	94.25
253.795	86.25
254.028	73.25
254.261	90.25
254.494	74.25
254.727	83.25
254.96	93.25
255.193	83.25
255.426	75.25
255.659	72.25
255.892	84.25
256.124	74.25
256.357	97.25
256.59	87.25
256.823	80.25
257.056	76.25
257.289	77.25
257.521	91.25
257.754	86.25
257.987	85.25
258.22	75.25
258.452	87.25
258.685	86.25
258.918	82.25
259.151	85.25
259.383	88.25
259.616	81.25
259.849	72.25
260.081	73.25
260.314	89.25
260.547	97.25
260.779	86.25
261.012	75.25
261.244	91.25
261.477	91.25
261.71	100.25
261.942	108.25
262.175	129.25
262.407	103.25
262.64	90.25
262.872	91.25
263.105	84.25
263.337	71.25
263.57	82.25
263.802	96.25
264.035	92.25
264.267	74.25
264.499	79.25
264.732	84.25
264.964	87.25
265.197	77.25
265.429	73.25
265.661	76.25
265.894	100.25
266.126	89.25
266.358	93.25
266.591	93.25
266.823	96.25
267.055	69.25
267.287	91.25
267.52	93.25
267.752	95.25
267.984	92.25
268.216	89.25
268.448	84.25
268.681	100.25
268.913	83.25
269.145	74.25
269.377	82.25
269.609	85.25
269.841	84.25
270.073	85.25
270.306	89.25
270.538	83.25
270.77	90.25
271.002	87.25
271.234	72.25
271.466	74.25
271.698	87.25
271.93	91.25
272.162	76.25
272.394	79.25
272.626	85.25
272.858	84.25
273.09	98.25
273.322	90.25
273.553	91.25
273.785	89.25
274.017	86.25
274.249	81.25
274.481	71.25
274.713	82.25
274.945	77.25
275.176	85.25
275.408	94.25
275.64	99.25
275.872	93.25
276.104	105.25
276.335	91.25
276.567	106.25
276.799	99.25
277.031	104.25
277.262	101.25
277.494	95.25
277.726	87.25
277.957	93.25
278.189	80.25
278.421	84.25
278.652	81.25
278.884	83.25
279.115	99.25
279.347	96.25
279.579	80.25
279.81	99.25
280.042	105.25
280.273	108.25
280.505	88.25
280.736	78.25
280.968	96.25
281.199	85.25
281.431	97.25
281.662	86.25
281.894	96.25
282.125	102.25
282.356	126.25
282.588	148.25
282.819	113.25
283.051	80.25
283.282	87.25
283.513	86.25
283.745	101.25
283.976	94.25
284.207	97.25
284.439	106.25
284.67	77.25
284.901	85.25
285.132	94.25
285.364	85.25
285.595	86.25
285.826	87.25
286.057	88.25
286.288	87.25
286.52	80.25
286.751	74.25
286.982	86.25
287.213	83.25
287.444	92.25
287.675	108.25
287.906	90.25
288.138	80.25
288.369	89.25
288.6	79.25
288.831	92.25
289.062	86.25
289.293	80.25
289.524	90.25
289.755	74.25
289.986	96.25
290.217	82.25
290.448	76.25
290.679	85.25
290.91	75.25
291.141	66.25
291.371	83.25
291.602	93.25
291.833	77.25
292.064	91.25
292.295	84.25
292.526	80.25
292.757	83.25
292.987	90.25
293.218	78.25
293.449	91.25
293.68	96.25
293.91	82.25
294.141	88.25
294.372	83.25
294.603	90.25
294.833	95.25
295.064	87.25
295.295	83.25
295.525	95.25
295.756	99.25
295.987	130.25
296.217	159.25
296.448	133.25
296.679	82.25
296.909	92.25
297.14	81.25
297.37	104.25
297.601	103.25
297.831	103.25
298.062	93.25
298.292	100.25
298.523	86.25
298.753	101.25
298.984	88.25
299.214	94.25
299.445	100.25
299.675	113.25
299.905	90.25
300.136	104.25
300.366	80.25
300.597	96.25
300.827	100.25
301.057	105.25
301.288	107.25
301.518	80.25
301.748	91.25
301.979	110.25
302.209	89.25
302.439	87.25
302.669	94.25
302.9	87.25
303.13	91.25
303.36	92.25
303.59	114.25
303.82	105.25
304.051	92.25
304.281	89.25
304.511	81.25
304.741	92.25
304.971	101.25
305.201	93.25
305.431	100.25
305.661	95.25
305.891	99.25
306.121	110.25
306.352	105.25
306.582	97.25
306.812	101.25
307.042	90.25
307.272	113.25
307.502	101.25
307.731	110.25
307.961	85.25
308.191	100.25
308.421	100.25
308.651	83.25
308.881	78.25
309.111	87.25
309.341	87.25
309.571	103.25
309.8	101.25
310.03	96.25
310.26	90.25
310.49	97.25
310.72	97.25
310.949	88.25
311.179	108.25
311.409	100.25
311.639	96.25
311.868	105.25
312.098	95.25
312.328	82.25
312.557	124.25
312.787	104.25
313.017	106.25
313.246	97.25
313.476	103.25
313.706	77.25
313.935	95.25
314.165	105.25
314.394	92.25
314.624	98.25
314.853	87.25
315.083	101.25
315.312	84.25
315.542	93.25
315.771	94.25
316.001	99.25
316.23	94.25
316.46	75.25
316.689	88.25
316.919	106.25
317.148	86.25
317.377	88.25
317.607	98.25
317.836	85.25
318.065	97.25
318.295	99.25
318.524	104.25
318.753	96.25
318.983	101.25
319.212	105.25
319.441	109.25
319.67	116.25
319.9	114.25
320.129	95.25
320.358	93.25
320.587	90.25
320.816	99.25
321.046	108.25
321.275	119.25
321.504	103.25
321.733	91.25
321.962	96.25
322.191	88.25
322.42	110.25
322.649	105.25
322.878	122.25
323.108	116.25
323.337	116.25
323.566	132.25
323.795	165.25
324.024	218.25
324.253	425.25
324.482	859.25
324.71	1760.25
324.939	2341.25
325.168	851.25
325.397	261.25
325.626	169.25
325.855	132.25
326.084	139.25
326.313	139.25
326.542	147.25
326.77	240.25
326.999	468.25
327.228	965.25
327.457	1765.25
327.686	1420.25
327.914	404.25
328.143	227.25
328.372	196.25
328.6	162.25
328.829	117.25
329.058	128.25
329.287	130.25
329.515	114.25
329.744	123.25
329.972	137.25
330.201	196.25
330.43	251.25
330.658	187.25
330.887	166.25
331.115	117.25
331.344	109.25
331.572	99.25
331.801	95.25
332.03	109.25
332.258	105.25
332.486	96.25
332.715	91.25
332.943	102.25
333.172	110.25
333.4	85.25
333.629	105.25
333.857	134.25
334.085	155.25
334.314	209.25
334.542	287.25
334.771	281.25
334.999	140.25
335.227	114.25
335.455	101.25
335.684	103.25
335.912	106.25
336.14	97.25
336.369	93.25
336.597	94.25
336.825	109.25
337.053	88.25
337.281	84.25
337.51	89.25
337.738	98.25
337.966	104.25
338.194	87.25
338.422	88.25
338.65	102.25
338.878	93.25
339.106	89.25
339.334	84.25
339.562	105.25
339.79	87.25
340.018	89.25
340.246	108.25
340.474	93.25
340.702	91.25
340.93	93.25
341.158	88.25
341.386	89.25
341.614	98.25
341.842	86.25
342.07	89.25
342.298	92.25
342.526	90.25
342.754	109.25
342.981	94.25
343.209	87.25
343.437	101.25
343.665	91.25
343.893	81.25
344.12	97.25
344.348	89.25
344.576	107.25
344.804	74.25
345.031	83.25
345.259	109.25
345.487	91.25
345.714	77.25
345.942	91.25
346.17	94.25
346.397	95.25
346.625	93.25
346.853	107.25
347.08	93.25
347.308	73.25
347.535	109.25
347.763	84.25
347.99	96.25
348.218	104.25
348.445	95.25
348.673	103.25
348.9	82.25
349.128	89.25
349.355	102.25
349.583	104.25
349.81	102.25
350.037	98.25
350.265	95.25
350.492	101.25
350.72	98.25
350.947	112.25
351.174	92.25
351.402	99.25
351.629	102.25
351.856	93.25
352.083	111.25
352.311	112.25
352.538	118.25
352.765	117.25
352.992	117.25
353.22	111.25
353.447	100.25
353.674	98.25
353.901	101.25
354.128	105.25
354.355	118.25
354.583	116.25
354.81	97.25
355.037	100.25
355.264	101.25
355.491	96.25
355.718	86.25
355.945	89.25
356.172	99.25
356.399	98.25
356.626	93.25
356.853	98.25
357.08	96.25
357.307	84.25
357.534	96.25
357.761	79.25
357.988	101.25
358.215	108.25
358.441	97.25
358.668	89.25
358.895	87.25
359.122	97.25
359.349	83.25
359.576	107.25
359.802	100.25
360.029	112.25
360.256	116.25
360.483	94.25
360.709	104.25
360.936	98.25
361.163	93.25
361.39	93.25
361.616	104.25
361.843	84.25
362.07	86.25
362.296	111.25
362.523	108.25
362.749	89.25
362.976	88.25
363.203	85.25
363.429	105.25
363.656	92.25
363.882	84.25
364.109	91.25
364.335	105.25
364.562	82.25
364.788	86.25
365.015	75.25
365.241	104.25
365.468	101.25
365.694	112.25
365.92	102.25
366.147	104.25
366.373	105.25
366.599	94.25
366.826	90.25
367.052	84.25
367.278	91.25
367.505	85.25
367.731	98.25
367.957	78.25
368.184	102.25
368.41	113.25
368.636	115.25
368.862	128.25
369.089	117.25
369.315	100.25
369.541	94.25
369.767	83.25
369.993	99.25
370.219	86.25
370.445	105.25
370.672	90.25
370.898	86.25
371.124	101.25
371.35	82.25
371.576	85.25
371.802	109.25
372.028	94.25
372.254	97.25
372.48	72.25
372.706	96.25
372.932	85.25
373.158	89.25
373.384	83.25
373.61	97.25
373.835	91.25
374.061	85.25
374.287	86.25
374.513	97.25
374.739	91.25
374.965	97.25
375.191	83.25
375.416	96.25
375.642	85.25
375.868	89.25
376.094	92.25
376.319	88.25
376.545	94.25
376.771	92.25
376.997	91.25
377.222	81.25
377.448	85.25
377.674	87.25
377.899	77.25
378.125	102.25
378.35	89.25
378.576	102.25
378.802	89.25
379.027	96.25
379.253	102.25
379.478	110.25
379.704	89.25
379.929	96.25
380.155	92.25
380.38	91.25
380.606	84.25
380.831	99.25
381.057	91.25
381.282	104.25
381.507	106.25
381.733	100.25
381.958	96.25
382.184	96.25
382.409	107.25
382.634	107.25
382.86	104.25
383.085	99.25
383.31	96.25
383.535	116.25
383.761	87.25
383.986	108.25
384.211	98.25
384.436	89.25
384.662	94.25
384.887	101.25
385.112	94.25
385.337	106.25
385.562	100.25
385.787	98.25
386.013	112.25
386.238	102.25
386.463	111.25
386.688	107.25
386.913	100.25
387.138	111.25
387.363	101.25
387.588	101.25
387.813	88.25
388.038	98.25
388.263	105.25
388.488	114.25
388.713	101.25
388.938	97.25
389.163	114.25
389.387	91.25
389.612	98.25
389.837	87.25
390.062	103.25
390.287	90.25
390.512	100.25
390.736	109.25
390.961	100.25
391.186	106.25
391.411	92.25
391.636	99.25
391.86	100.25
392.085	86.25
392.31	88.25
392.534	83.25
392.759	92.25
392.984	87.25
393.208	92.25
393.433	76.25
393.658	90.25
393.882	84.25
394.107	82.25
394.331	84.25
394.556	74.25
394.78	96.25
395.005	91.25
395.229	89.25
395.454	67.25
395.678	93.25
395.903	100.25
396.127	94.25
396.352	90.25
396.576	91.25
396.801	93.25
397.025	101.25
397.249	94.25
397.474	84.25
397.698	73.25
397.922	82.25
398.147	87.25
398.371	93.25
398.595	88.25
398.82	84.25
399.044	83.25
399.268	80.25
399.492	81.25
399.717	91.25
399.941	92.25
400.165	108.25
400.389	95.25
400.613	85.25
400.837	98.25
401.062	75.25
401.286	83.25
401.51	85.25
401.734	99.25
401.958	106.25
402.182	150.25
402.406	183.25
402.63	127.25
402.854	90.25
403.078	88.25
403.302	79.25
403.526	84.25
403.75	105.25
403.974	82.25
404.198	81.25
404.422	83.25
404.645	86.25
404.869	91.25
405.093	104.25
405.317	108.25
405.541	112.25
405.765	96.25
405.988	132.25
406.212	182.25
406.436	266.25
406.66	163.25
406.883	102.25
407.107	94.25
407.331	93.25
407.555	98.25
407.778	107.25
408.002	97.25
408.226	91.25
408.449	92.25
408.673	84.25
408.896	93.25
409.12	96.25
409.344	87.25
409.567	98.25
409.791	98.25
410.014	91.25
410.238	92.25
410.461	98.25
410.685	105.25
410.908	116.25
411.132	107.25
411.355	83.25
411.578	95.25
411.802	93.25
412.025	76.25
412.249	102.25
412.472	109.25
412.695	103.25
412.919	100.25
413.142	97.25
413.365	101.25
413.589	95.25
413.812	88.25
414.035	106.25
414.258	92.25
414.482	93.25
414.705	82.25
414.928	94.25
415.151	85.25
415.374	91.25
415.597	99.25
415.821	104.25
416.044	84.25
416.267	97.25
416.49	96.25
416.713	88.25
416.936	89.25
417.159	108.25
417.382	95.25
417.605	93.25
417.828	97.25
418.051	110.25
418.274	99.25
418.497	96.25
418.72	102.25
418.943	85.25
419.166	95.25
419.389	97.25
419.611	105.25
419.834	91.25
420.057	82.25
420.28	74.25
420.503	96.25
420.726	85.25
420.948	83.25
421.171	104.25
421.394	100.25
421.617	93.25
421.839	94.25
422.062	88.25
422.285	85.25
422.507	96.25
422.73	98.25
422.953	89.25
423.175	90.25
423.398	92.25
423.621	93.25
423.843	101.25
424.066	95.25
424.288	94.25
424.511	81.25
424.733	104.25
424.956	104.25
425.178	112.25
425.401	109.25
425.623	124.25
425.846	100.25
426.068	87.25
426.291	72.25
426.513	107.25
426.735	89.25
426.958	102.25
427.18	105.25
427.402	138.25
427.625	183.25
427.847	144.25
428.069	128.25
428.292	100.25
428.514	97.25
428.736	84.25
428.958	94.25
429.181	86.25
429.403	76.25
429.625	87.25
429.847	83.25
430.069	93.25
430.292	82.25
430.514	93.25
430.736	91.25
430.958	92.25
431.18	78.25
431.402	85.25
431.624	82.25
431.846	96.25
432.068	89.25
432.29	91.25
432.512	87.25
432.734	90.25
432.956	90.25
433.178	92.25
433.4	101.25
433.622	89.25
433.844	86.25
434.066	89.25
434.287	111.25
434.509	83.25
434.731	91.25
434.953	82.25
435.175	92.25
435.397	84.25
435.618	110.25
435.84	89.25
436.062	121.25
436.284	121.25
436.505	104.25
436.727	109.25
436.949	103.25
437.17	107.25
437.392	76.25
437.614	96.25
437.835	118.25
438.057	131.25
438.278	124.25
438.5	118.25
438.721	121.25
438.943	94.25
439.165	87.25
439.386	87.25
439.608	88.25
439.829	108.25
440.05	133.25
440.272	142.25
440.493	99.25
440.715	100.25
440.936	84.25
441.158	97.25
441.379	90.25
441.6	83.25
441.822	97.25
442.043	96.25
442.264	106.25
442.486	106.25
442.707	99.25
442.928	101.25
443.149	152.25
443.371	136.25
443.592	132.25
443.813	121.25
444.034	107.25
444.255	85.25
444.476	95.25
444.698	92.25
444.919	92.25
445.14	131.25
445.361	127.25
445.582	106.25
445.803	152.25
446.024	139.25
446.245	138.25
446.466	112.25
446.687	93.25
446.908	96.25
447.129	91.25
447.35	97.25
447.571	85.25
447.792	110.25
448.013	99.25
448.234	127.25
448.455	96.25
448.675	118.25
448.896	115.25
449.117	101.25
449.338	103.25
449.559	117.25
449.779	129.25
450	96.25
450.221	85.25
450.442	108.25
450.662	109.25
450.883	113.25
451.104	116.25
451.324	116.25
451.545	95.25
451.766	85.25
451.986	77.25
452.207	86.25
452.428	82.25
452.648	117.25
452.869	108.25
453.089	126.25
453.31	131.25
453.53	82.25
453.751	95.25
453.971	112.25
454.192	120.25
454.412	88.25
454.633	96.25
454.853	94.25
455.073	80.25
455.294	94.25
455.514	95.25
455.734	101.25
455.955	91.25
456.175	91.25
456.395	91.25
456.616	106.25
456.836	91.25
457.056	90.25
457.276	92.25
457.497	96.25
457.717	87.25
457.937	76.25
458.157	80.25
458.377	84.25
458.598	119.25
458.818	158.25
459.038	187.25
459.258	112.25
459.478	96.25
459.698	85.25
459.918	72.25
460.138	109.25
460.358	94.25
460.578	82.25
460.798	81.25
461.018	102.25
461.238	74.25
461.458	85.25
461.678	91.25
461.898	82.25
462.118	75.25
462.338	72.25
462.558	94.25
462.777	85.25
462.997	96.25
463.217	80.25
463.437	92.25
463.657	100.25
463.876	98.25
464.096	90.25
464.316	110.25
464.536	94.25
464.755	100.25
464.975	132.25
465.195	193.25
465.414	178.25
465.634	105.25
465.854	101.25
466.073	83.25
466.293	78.25
466.512	75.25
466.732	98.25
466.951	101.25
467.171	111.25
467.391	96.25
467.61	108.25
467.829	119.25
468.049	139.25
468.268	184.25
468.488	103.25
468.707	90.25
468.927	93.25
469.146	68.25
469.365	91.25
469.585	98.25
469.804	100.25
470.023	105.25
470.243	102.25
470.462	105.25
470.681	120.25
470.901	89.25
471.12	94.25
471.339	85.25
471.558	87.25
471.777	95.25
471.997	118.25
472.216	204.25
472.435	388.25
472.654	138.25
472.873	100.25
473.092	98.25
473.311	78.25
473.53	87.25
473.749	105.25
473.968	102.25
474.187	105.25
474.406	90.25
474.625	92.25
474.844	94.25
475.063	102.25
475.282	76.25
475.501	83.25
475.72	102.25
475.939	89.25
476.158	88.25
476.377	94.25
476.596	86.25
476.814	89.25
477.033	90.25
477.252	99.25
477.471	83.25
477.69	90.25
477.908	103.25
478.127	89.25
478.346	93.25
478.564	90.25
478.783	98.25
479.002	103.25
479.22	101.25
479.439	101.25
479.658	97.25
479.876	90.25
480.095	94.25
480.313	109.25
480.532	94.25
480.751	106.25
480.969	203.25
481.188	578.25
481.406	393.25
481.624	127.25
481.843	101.25
482.061	81.25
482.28	80.25
482.498	90.25
482.717	100.25
482.935	87.25
483.153	96.25
483.372	89.25
483.59	90.25
483.808	107.25
484.027	91.25
484.245	95.25
484.463	99.25
484.681	91.25
484.9	101.25
485.118	103.25
485.336	85.25
485.554	100.25
485.772	102.25
485.99	105.25
486.209	104.25
486.427	102.25
486.645	104.25
486.863	123.25
487.081	103.25
487.299	97.25
487.517	90.25
487.735	93.25
487.953	102.25
488.171	91.25
488.389	99.25
488.607	104.25
488.825	88.25
489.043	97.25
489.261	103.25
489.479	109.25
489.696	95.25
489.914	93.25
490.132	86.25
490.35	84.25
490.568	92.25
490.786	104.25
491.003	92.25
491.221	78.25
491.439	93.25
491.657	98.25
491.874	86.25
492.092	93.25
492.31	90.25
492.527	96.25
492.745	92.25
492.963	96.25
493.18	96.25
493.398	101.25
493.615	104.25
493.833	97.25
494.05	84.25
494.268	81.25
494.485	96.25
494.703	92.25
494.92	93.25
495.138	89.25
495.355	100.25
495.573	81.25
495.79	101.25
496.008	84.25
496.225	97.25
496.442	96.25
496.66	105.25
496.877	97.25
497.094	73.25
497.312	106.25
497.529	94.25
497.746	94.25
497.963	105.25
498.181	80.25
498.398	84.25
498.615	100.25
498.832	105.25
499.049	83.25
499.267	90.25
499.484	91.25
499.701	75.25
499.918	93.25
500.135	97.25
500.352	103.25
500.569	88.25
500.786	93.25
501.003	92.25
501.22	84.25
501.437	100.25
501.654	104.25
501.871	105.25
502.088	83.25
502.305	108.25
502.522	85.25
502.739	90.25
502.956	85.25
503.172	94.25
503.389	102.25
503.606	102.25
503.823	108.25
504.04	92.25
504.256	91.25
504.473	85.25
504.69	84.25
504.907	80.25
505.123	76.25
505.34	92.25
505.557	88.25
505.773	96.25
505.99	89.25
506.207	96.25
506.423	99.25
506.64	96.25
506.856	77.25
507.073	100.25
507.289	94.25
507.506	85.25
507.722	118.25
507.939	116.25
508.155	98.25
508.372	101.25
508.588	90.25
508.805	106.25
509.021	89.25
509.238	93.25
509.454	97.25
509.67	95.25
509.887	101.25
510.103	143.25
510.319	240.25
510.536	826.25
510.752	2900.25
510.968	843.25
511.184	180.25
511.401	118.25
511.617	103.25
511.833	101.25
512.049	106.25
512.265	89.25
512.481	112.25
512.698	82.25
512.914	79.25
513.13	85.25
513.346	93.25
513.562	103.25
513.778	112.25
513.994	109.25
