Data from Circ_2022_H10_HRD10591_00019.txt Node
Date: Wed Jan 03 09:53:41 EST 2024
User: Yrep
Spectrometer: HR+D1059
Trigger mode: 1
Integration Time (sec): 1.000000E-1
Scans to average: 1
Electric dark correction enabled: true
Nonlinearity correction enabled: false
Boxcar width: 0
XAxis mode: Wavelengths
Number of Pixels in Spectrum: 2048
>>>>>Begin Spectral Data<<<<<
223.165	0.12
223.4	0.12
223.635	0.12
223.869	-9.88
224.104	-11.88
224.338	-21.88
224.573	-17.88
224.808	-1.88
225.042	-13.88
225.277	-7.88
225.511	0.12
225.746	-2.88
225.98	9.12
226.215	10.12
226.449	8.12
226.683	9.12
226.918	24.12
227.152	27.12
227.387	25.12
227.621	47.12
227.856	59.12
228.09	55.12
228.324	59.12
228.559	35.12
228.793	50.12
229.027	60.12
229.262	74.12
229.496	68.12
229.73	100.12
229.964	87.12
230.199	65.12
230.433	87.12
230.667	66.12
230.901	76.12
231.136	70.12
231.37	64.12
231.604	70.12
231.838	85.12
232.072	70.12
232.306	74.12
232.541	83.12
232.775	78.12
233.009	79.12
233.243	84.12
233.477	75.12
233.711	78.12
233.945	77.12
234.179	77.12
234.413	88.12
234.647	81.12
234.881	88.12
235.115	84.12
235.349	70.12
235.583	87.12
235.817	86.12
236.051	70.12
236.285	84.12
236.519	76.12
236.753	82.12
236.987	92.12
237.221	83.12
237.455	102.12
237.689	75.12
237.922	77.12
238.156	71.12
238.39	72.12
238.624	71.12
238.858	81.12
239.091	73.12
239.325	74.12
239.559	83.12
239.793	75.12
240.027	82.12
240.26	69.12
240.494	73.12
240.728	81.12
240.961	82.12
241.195	95.12
241.429	101.12
241.662	81.12
241.896	70.12
242.13	73.12
242.363	68.12
242.597	74.12
242.83	78.12
243.064	75.12
243.298	81.12
243.531	81.12
243.765	89.12
243.998	77.12
244.232	79.12
244.465	56.12
244.699	82.12
244.932	74.12
245.166	77.12
245.399	76.12
245.633	88.12
245.866	77.12
246.099	76.12
246.333	73.12
246.566	75.12
246.8	70.12
247.033	80.12
247.266	70.12
247.5	69.12
247.733	90.12
247.966	61.12
248.2	77.12
248.433	91.12
248.666	62.12
248.899	81.12
249.133	69.12
249.366	100.12
249.599	105.12
249.832	84.12
250.066	74.12
250.299	86.12
250.532	79.12
250.765	73.12
250.998	80.12
251.231	66.12
251.465	75.12
251.698	77.12
251.931	70.12
252.164	76.12
252.397	84.12
252.63	83.12
252.863	80.12
253.096	74.12
253.329	67.12
253.562	70.12
253.795	82.12
254.028	77.12
254.261	79.12
254.494	73.12
254.727	73.12
254.96	81.12
255.193	87.12
255.426	74.12
255.659	72.12
255.892	64.12
256.124	67.12
256.357	92.12
256.59	85.12
256.823	90.12
257.056	70.12
257.289	73.12
257.521	80.12
257.754	80.12
257.987	92.12
258.22	83.12
258.452	77.12
258.685	82.12
258.918	81.12
259.151	78.12
259.383	88.12
259.616	95.12
259.849	70.12
260.081	89.12
260.314	81.12
260.547	90.12
260.779	84.12
261.012	84.12
261.244	73.12
261.477	97.12
261.71	102.12
261.942	126.12
262.175	140.12
262.407	102.12
262.64	78.12
262.872	89.12
263.105	83.12
263.337	103.12
263.57	78.12
263.802	99.12
264.035	79.12
264.267	79.12
264.499	86.12
264.732	73.12
264.964	66.12
265.197	89.12
265.429	82.12
265.661	82.12
265.894	79.12
266.126	92.12
266.358	69.12
266.591	83.12
266.823	81.12
267.055	81.12
267.287	84.12
267.52	83.12
267.752	93.12
267.984	92.12
268.216	80.12
268.448	77.12
268.681	89.12
268.913	90.12
269.145	96.12
269.377	80.12
269.609	94.12
269.841	87.12
270.073	68.12
270.306	84.12
270.538	89.12
270.77	70.12
271.002	83.12
271.234	92.12
271.466	84.12
271.698	72.12
271.93	95.12
272.162	74.12
272.394	89.12
272.626	82.12
272.858	86.12
273.09	78.12
273.322	81.12
273.553	89.12
273.785	102.12
274.017	75.12
274.249	73.12
274.481	86.12
274.713	88.12
274.945	89.12
275.176	83.12
275.408	96.12
275.64	92.12
275.872	99.12
276.104	92.12
276.335	90.12
276.567	102.12
276.799	131.12
277.031	83.12
277.262	97.12
277.494	85.12
277.726	81.12
277.957	71.12
278.189	83.12
278.421	88.12
278.652	85.12
278.884	93.12
279.115	79.12
279.347	80.12
279.579	83.12
279.81	79.12
280.042	82.12
280.273	70.12
280.505	83.12
280.736	73.12
280.968	84.12
281.199	100.12
281.431	92.12
281.662	94.12
281.894	104.12
282.125	110.12
282.356	144.12
282.588	169.12
282.819	122.12
283.051	87.12
283.282	77.12
283.513	90.12
283.745	88.12
283.976	87.12
284.207	75.12
284.439	86.12
284.67	84.12
284.901	85.12
285.132	80.12
285.364	82.12
285.595	80.12
285.826	72.12
286.057	84.12
286.288	86.12
286.52	79.12
286.751	77.12
286.982	106.12
287.213	72.12
287.444	88.12
287.675	94.12
287.906	78.12
288.138	108.12
288.369	78.12
288.6	103.12
288.831	91.12
289.062	88.12
289.293	101.12
289.524	84.12
289.755	86.12
289.986	87.12
290.217	78.12
290.448	89.12
290.679	93.12
290.91	86.12
291.141	94.12
291.371	88.12
291.602	86.12
291.833	98.12
292.064	95.12
292.295	99.12
292.526	98.12
292.757	90.12
292.987	85.12
293.218	85.12
293.449	85.12
293.68	76.12
293.91	79.12
294.141	90.12
294.372	84.12
294.603	71.12
294.833	83.12
295.064	86.12
295.295	104.12
295.525	88.12
295.756	109.12
295.987	138.12
296.217	193.12
296.448	141.12
296.679	102.12
296.909	101.12
297.14	81.12
297.37	87.12
297.601	99.12
297.831	105.12
298.062	85.12
298.292	97.12
298.523	83.12
298.753	97.12
298.984	84.12
299.214	85.12
299.445	103.12
299.675	85.12
299.905	105.12
300.136	101.12
300.366	82.12
300.597	82.12
300.827	86.12
301.057	108.12
301.288	113.12
301.518	87.12
301.748	90.12
301.979	104.12
302.209	89.12
302.439	90.12
302.669	96.12
302.9	83.12
303.13	91.12
303.36	101.12
303.59	114.12
303.82	116.12
304.051	102.12
304.281	96.12
304.511	90.12
304.741	105.12
304.971	89.12
305.201	99.12
305.431	89.12
305.661	92.12
305.891	88.12
306.121	103.12
306.352	112.12
306.582	113.12
306.812	81.12
307.042	94.12
307.272	93.12
307.502	92.12
307.731	93.12
307.961	82.12
308.191	97.12
308.421	105.12
308.651	81.12
308.881	89.12
309.111	87.12
309.341	96.12
309.571	97.12
309.8	117.12
310.03	113.12
310.26	103.12
310.49	97.12
310.72	117.12
310.949	108.12
311.179	134.12
311.409	112.12
311.639	102.12
311.868	115.12
312.098	107.12
312.328	101.12
312.557	105.12
312.787	126.12
313.017	104.12
313.246	100.12
313.476	90.12
313.706	98.12
313.935	93.12
314.165	112.12
314.394	114.12
314.624	112.12
314.853	104.12
315.083	87.12
315.312	96.12
315.542	83.12
315.771	82.12
316.001	95.12
316.23	93.12
316.46	89.12
316.689	103.12
316.919	96.12
317.148	105.12
317.377	98.12
317.607	108.12
317.836	90.12
318.065	89.12
318.295	94.12
318.524	93.12
318.753	89.12
318.983	89.12
319.212	100.12
319.441	110.12
319.67	120.12
319.9	74.12
320.129	97.12
320.358	98.12
320.587	106.12
320.816	109.12
321.046	113.12
321.275	95.12
321.504	88.12
321.733	105.12
321.962	86.12
322.191	113.12
322.42	116.12
322.649	137.12
322.878	128.12
323.108	131.12
323.337	156.12
323.566	169.12
323.795	205.12
324.024	274.12
324.253	537.12
324.482	1209.12
324.71	2554.12
324.939	3303.12
325.168	1210.12
325.397	334.12
325.626	184.12
325.855	157.12
326.084	152.12
326.313	169.12
326.542	197.12
326.77	298.12
326.999	628.12
327.228	1285.12
327.457	2409.12
327.686	1912.12
327.914	514.12
328.143	259.12
328.372	222.12
328.6	148.12
328.829	149.12
329.058	177.12
329.287	174.12
329.515	133.12
329.744	114.12
329.972	115.12
330.201	120.12
330.43	162.12
330.658	177.12
330.887	223.12
331.115	182.12
331.344	94.12
331.572	100.12
331.801	118.12
332.03	115.12
332.258	127.12
332.486	109.12
332.715	86.12
332.943	97.12
333.172	92.12
333.4	103.12
333.629	120.12
333.857	126.12
334.085	119.12
334.314	117.12
334.542	148.12
334.771	150.12
334.999	122.12
335.227	101.12
335.455	98.12
335.684	102.12
335.912	105.12
336.14	93.12
336.369	106.12
336.597	106.12
336.825	98.12
337.053	98.12
337.281	91.12
337.51	95.12
337.738	94.12
337.966	111.12
338.194	105.12
338.422	98.12
338.65	96.12
338.878	98.12
339.106	91.12
339.334	84.12
339.562	86.12
339.79	85.12
340.018	74.12
340.246	106.12
340.474	108.12
340.702	99.12
340.93	94.12
341.158	82.12
341.386	97.12
341.614	109.12
341.842	104.12
342.07	101.12
342.298	94.12
342.526	78.12
342.754	94.12
342.981	94.12
343.209	88.12
343.437	84.12
343.665	87.12
343.893	93.12
344.12	97.12
344.348	93.12
344.576	99.12
344.804	84.12
345.031	114.12
345.259	112.12
345.487	108.12
345.714	93.12
345.942	97.12
346.17	101.12
346.397	97.12
346.625	91.12
346.853	102.12
347.08	103.12
347.308	93.12
347.535	92.12
347.763	113.12
347.99	95.12
348.218	110.12
348.445	141.12
348.673	121.12
348.9	104.12
349.128	99.12
349.355	96.12
349.583	88.12
349.81	83.12
350.037	100.12
350.265	101.12
350.492	93.12
350.72	94.12
350.947	103.12
351.174	116.12
351.402	137.12
351.629	102.12
351.856	104.12
352.083	117.12
352.311	124.12
352.538	138.12
352.765	141.12
352.992	118.12
353.22	100.12
353.447	121.12
353.674	114.12
353.901	90.12
354.128	88.12
354.355	112.12
354.583	98.12
354.81	100.12
355.037	91.12
355.264	99.12
355.491	108.12
355.718	96.12
355.945	95.12
356.172	101.12
356.399	85.12
356.626	94.12
356.853	90.12
357.08	83.12
357.307	90.12
357.534	81.12
357.761	111.12
357.988	92.12
358.215	93.12
358.441	87.12
358.668	88.12
358.895	84.12
359.122	80.12
359.349	87.12
359.576	110.12
359.802	127.12
360.029	154.12
360.256	144.12
360.483	105.12
360.709	92.12
360.936	107.12
361.163	87.12
361.39	111.12
361.616	96.12
361.843	104.12
362.07	89.12
362.296	99.12
362.523	94.12
362.749	92.12
362.976	100.12
363.203	90.12
363.429	88.12
363.656	85.12
363.882	96.12
364.109	89.12
364.335	108.12
364.562	98.12
364.788	94.12
365.015	111.12
365.241	105.12
365.468	123.12
365.694	115.12
365.92	114.12
366.147	103.12
366.373	89.12
366.599	84.12
366.826	97.12
367.052	97.12
367.278	87.12
367.505	87.12
367.731	85.12
367.957	89.12
368.184	106.12
368.41	95.12
368.636	133.12
368.862	133.12
369.089	127.12
369.315	108.12
369.541	89.12
369.767	101.12
369.993	88.12
370.219	105.12
370.445	103.12
370.672	84.12
370.898	91.12
371.124	83.12
371.35	89.12
371.576	103.12
371.802	78.12
372.028	81.12
372.254	82.12
372.48	88.12
372.706	79.12
372.932	97.12
373.158	85.12
373.384	78.12
373.61	89.12
373.835	85.12
374.061	92.12
374.287	85.12
374.513	80.12
374.739	104.12
374.965	95.12
375.191	76.12
375.416	95.12
375.642	89.12
375.868	98.12
376.094	96.12
376.319	88.12
376.545	93.12
376.771	77.12
376.997	103.12
377.222	86.12
377.448	101.12
377.674	74.12
377.899	93.12
378.125	95.12
378.35	99.12
378.576	97.12
378.802	100.12
379.027	106.12
379.253	94.12
379.478	104.12
379.704	90.12
379.929	91.12
380.155	101.12
380.38	91.12
380.606	109.12
380.831	90.12
381.057	96.12
381.282	105.12
381.507	96.12
381.733	82.12
381.958	96.12
382.184	92.12
382.409	102.12
382.634	99.12
382.86	97.12
383.085	101.12
383.31	104.12
383.535	96.12
383.761	98.12
383.986	106.12
384.211	101.12
384.436	98.12
384.662	99.12
384.887	105.12
385.112	121.12
385.337	102.12
385.562	104.12
385.787	102.12
386.013	106.12
386.238	128.12
386.463	110.12
386.688	116.12
386.913	120.12
387.138	95.12
387.363	100.12
387.588	92.12
387.813	101.12
388.038	110.12
388.263	104.12
388.488	104.12
388.713	97.12
388.938	89.12
389.163	94.12
389.387	85.12
389.612	97.12
389.837	100.12
390.062	92.12
390.287	80.12
390.512	84.12
390.736	87.12
390.961	80.12
391.186	93.12
391.411	67.12
391.636	95.12
391.86	81.12
392.085	90.12
392.31	91.12
392.534	88.12
392.759	84.12
392.984	80.12
393.208	91.12
393.433	91.12
393.658	86.12
393.882	93.12
394.107	89.12
394.331	91.12
394.556	98.12
394.78	73.12
395.005	96.12
395.229	99.12
395.454	80.12
395.678	92.12
395.903	84.12
396.127	93.12
396.352	71.12
396.576	90.12
396.801	84.12
397.025	101.12
397.249	93.12
397.474	93.12
397.698	93.12
397.922	96.12
398.147	84.12
398.371	88.12
398.595	88.12
398.82	78.12
399.044	76.12
399.268	79.12
399.492	97.12
399.717	80.12
399.941	88.12
400.165	91.12
400.389	82.12
400.613	112.12
400.837	85.12
401.062	92.12
401.286	95.12
401.51	92.12
401.734	105.12
401.958	112.12
402.182	148.12
402.406	217.12
402.63	157.12
402.854	97.12
403.078	98.12
403.302	90.12
403.526	85.12
403.75	70.12
403.974	75.12
404.198	90.12
404.422	80.12
404.645	92.12
404.869	88.12
405.093	105.12
405.317	124.12
405.541	111.12
405.765	103.12
405.988	150.12
406.212	231.12
406.436	323.12
406.66	208.12
406.883	135.12
407.107	81.12
407.331	102.12
407.555	122.12
407.778	108.12
408.002	80.12
408.226	105.12
408.449	86.12
408.673	93.12
408.896	113.12
409.12	105.12
409.344	98.12
409.567	92.12
409.791	83.12
410.014	95.12
410.238	90.12
410.461	80.12
410.685	88.12
410.908	100.12
411.132	120.12
411.355	99.12
411.578	91.12
411.802	95.12
412.025	103.12
412.249	79.12
412.472	93.12
412.695	99.12
412.919	98.12
413.142	94.12
413.365	81.12
413.589	79.12
413.812	94.12
414.035	90.12
414.258	69.12
414.482	78.12
414.705	88.12
414.928	99.12
415.151	102.12
415.374	97.12
415.597	89.12
415.821	90.12
416.044	84.12
416.267	67.12
416.49	75.12
416.713	72.12
416.936	93.12
417.159	78.12
417.382	81.12
417.605	91.12
417.828	87.12
418.051	95.12
418.274	84.12
418.497	70.12
418.72	97.12
418.943	95.12
419.166	93.12
419.389	90.12
419.611	103.12
419.834	108.12
420.057	88.12
420.28	88.12
420.503	94.12
420.726	85.12
420.948	99.12
421.171	96.12
421.394	103.12
421.617	83.12
421.839	91.12
422.062	97.12
422.285	91.12
422.507	93.12
422.73	100.12
422.953	96.12
423.175	94.12
423.398	77.12
423.621	97.12
423.843	90.12
424.066	94.12
424.288	82.12
424.511	101.12
424.733	122.12
424.956	115.12
425.178	100.12
425.401	103.12
425.623	104.12
425.846	87.12
426.068	90.12
426.291	88.12
426.513	88.12
426.735	86.12
426.958	98.12
427.18	117.12
427.402	182.12
427.625	254.12
427.847	196.12
428.069	132.12
428.292	98.12
428.514	95.12
428.736	78.12
428.958	93.12
429.181	94.12
429.403	86.12
429.625	94.12
429.847	98.12
430.069	125.12
430.292	96.12
430.514	78.12
430.736	98.12
430.958	88.12
431.18	82.12
431.402	78.12
431.624	76.12
431.846	89.12
432.068	84.12
432.29	79.12
432.512	95.12
432.734	104.12
432.956	91.12
433.178	103.12
433.4	109.12
433.622	95.12
433.844	87.12
434.066	77.12
434.287	102.12
434.509	95.12
434.731	93.12
434.953	101.12
435.175	87.12
435.397	92.12
435.618	109.12
435.84	126.12
436.062	145.12
436.284	134.12
436.505	106.12
436.727	108.12
436.949	86.12
437.17	79.12
437.392	94.12
437.614	98.12
437.835	131.12
438.057	156.12
438.278	133.12
438.5	117.12
438.721	157.12
438.943	111.12
439.165	91.12
439.386	85.12
439.608	107.12
439.829	116.12
440.05	157.12
440.272	213.12
440.493	122.12
440.715	101.12
440.936	86.12
441.158	80.12
441.379	82.12
441.6	96.12
441.822	119.12
442.043	108.12
442.264	124.12
442.486	127.12
442.707	122.12
442.928	124.12
443.149	179.12
443.371	172.12
443.592	151.12
443.813	136.12
444.034	134.12
444.255	94.12
444.476	93.12
444.698	87.12
444.919	93.12
445.14	132.12
445.361	144.12
445.582	150.12
445.803	209.12
446.024	200.12
446.245	184.12
446.466	129.12
446.687	99.12
446.908	96.12
447.129	96.12
447.35	80.12
447.571	93.12
447.792	95.12
448.013	103.12
448.234	111.12
448.455	127.12
448.675	129.12
448.896	149.12
449.117	109.12
449.338	109.12
449.559	156.12
449.779	173.12
450	104.12
450.221	100.12
450.442	77.12
450.662	116.12
450.883	130.12
451.104	127.12
451.324	115.12
451.545	90.12
451.766	99.12
451.986	81.12
452.207	96.12
452.428	96.12
452.648	94.12
452.869	125.12
453.089	120.12
453.31	147.12
453.53	105.12
453.751	104.12
453.971	122.12
454.192	142.12
454.412	113.12
454.633	99.12
454.853	92.12
455.073	80.12
455.294	100.12
455.514	110.12
455.734	103.12
455.955	88.12
456.175	79.12
456.395	88.12
456.616	68.12
456.836	80.12
457.056	83.12
457.276	90.12
457.497	86.12
457.717	89.12
457.937	99.12
458.157	94.12
458.377	85.12
458.598	132.12
458.818	213.12
459.038	246.12
459.258	156.12
459.478	102.12
459.698	81.12
459.918	72.12
460.138	104.12
460.358	73.12
460.578	96.12
460.798	86.12
461.018	91.12
461.238	86.12
461.458	86.12
461.678	95.12
461.898	85.12
462.118	82.12
462.338	85.12
462.558	68.12
462.777	86.12
462.997	77.12
463.217	84.12
463.437	93.12
463.657	82.12
463.876	75.12
464.096	95.12
464.316	105.12
464.536	121.12
464.755	94.12
464.975	124.12
465.195	245.12
465.414	270.12
465.634	101.12
465.854	84.12
466.073	89.12
466.293	88.12
466.512	86.12
466.732	91.12
466.951	87.12
467.171	97.12
467.391	100.12
467.61	124.12
467.829	123.12
468.049	104.12
468.268	98.12
468.488	73.12
468.707	85.12
468.927	80.12
469.146	93.12
469.365	96.12
469.585	87.12
469.804	94.12
470.023	105.12
470.243	99.12
470.462	128.12
470.681	128.12
470.901	90.12
471.12	91.12
471.339	85.12
471.558	87.12
471.777	97.12
471.997	81.12
472.216	126.12
472.435	127.12
472.654	89.12
472.873	86.12
473.092	78.12
473.311	89.12
473.53	83.12
473.749	86.12
473.968	102.12
474.187	127.12
474.406	125.12
474.625	87.12
474.844	90.12
475.063	80.12
475.282	87.12
475.501	91.12
475.72	74.12
475.939	73.12
476.158	84.12
476.377	87.12
476.596	90.12
476.814	106.12
477.033	84.12
477.252	96.12
477.471	88.12
477.69	86.12
477.908	80.12
478.127	84.12
478.346	78.12
478.564	92.12
478.783	115.12
479.002	90.12
479.22	105.12
479.439	114.12
479.658	133.12
479.876	108.12
480.095	89.12
480.313	95.12
480.532	90.12
480.751	88.12
480.969	100.12
481.188	181.12
481.406	144.12
481.624	101.12
481.843	80.12
482.061	83.12
482.28	87.12
482.498	82.12
482.717	78.12
482.935	84.12
483.153	99.12
483.372	102.12
483.59	86.12
483.808	96.12
484.027	92.12
484.245	80.12
484.463	87.12
484.681	88.12
484.9	94.12
485.118	83.12
485.336	94.12
485.554	103.12
485.772	84.12
485.99	90.12
486.209	98.12
486.427	94.12
486.645	118.12
486.863	140.12
487.081	105.12
487.299	108.12
487.517	86.12
487.735	89.12
487.953	94.12
488.171	85.12
488.389	77.12
488.607	98.12
488.825	87.12
489.043	96.12
489.261	100.12
489.479	97.12
489.696	81.12
489.914	95.12
490.132	89.12
490.35	91.12
490.568	104.12
490.786	94.12
491.003	97.12
491.221	101.12
491.439	108.12
491.657	94.12
491.874	85.12
492.092	92.12
492.31	82.12
492.527	73.12
492.745	91.12
492.963	92.12
493.18	91.12
493.398	92.12
493.615	81.12
493.833	88.12
494.05	91.12
494.268	88.12
494.485	90.12
494.703	83.12
494.92	84.12
495.138	84.12
495.355	102.12
495.573	87.12
495.79	90.12
496.008	105.12
496.225	92.12
496.442	81.12
496.66	91.12
496.877	90.12
497.094	92.12
497.312	101.12
497.529	86.12
497.746	91.12
497.963	81.12
498.181	88.12
498.398	94.12
498.615	128.12
498.832	114.12
499.049	82.12
499.267	82.12
499.484	76.12
499.701	97.12
499.918	93.12
500.135	87.12
500.352	83.12
500.569	92.12
500.786	101.12
501.003	81.12
501.22	83.12
501.437	106.12
501.654	81.12
501.871	119.12
502.088	109.12
502.305	92.12
502.522	97.12
502.739	91.12
502.956	89.12
503.172	98.12
503.389	89.12
503.606	128.12
503.823	98.12
504.04	94.12
504.256	88.12
504.473	88.12
504.69	88.12
504.907	100.12
505.123	84.12
505.34	111.12
505.557	98.12
505.773	97.12
505.99	80.12
506.207	90.12
506.423	81.12
506.64	108.12
506.856	88.12
507.073	89.12
507.289	98.12
507.506	102.12
507.722	150.12
507.939	131.12
508.155	108.12
508.372	78.12
508.588	89.12
508.805	96.12
509.021	104.12
509.238	96.12
509.454	100.12
509.67	96.12
509.887	124.12
510.103	154.12
510.319	252.12
510.536	1057.12
510.752	3755.12
510.968	1036.12
511.184	191.12
511.401	142.12
511.617	112.12
511.833	91.12
512.049	99.12
512.265	88.12
512.481	89.12
512.698	104.12
512.914	89.12
513.13	110.12
513.346	85.12
513.562	97.12
513.778	99.12
513.994	103.12
514.21	108.12
