Data from Circ_2022_H10_HRD10591_00100.txt Node
Date: Wed Jan 03 09:53:57 EST 2024
User: Yrep
Spectrometer: HR+D1059
Trigger mode: 1
Integration Time (sec): 1.000000E-1
Scans to average: 1
Electric dark correction enabled: true
Nonlinearity correction enabled: false
Boxcar width: 0
XAxis mode: Wavelengths
Number of Pixels in Spectrum: 2048
>>>>>Begin Spectral Data<<<<<
223.165	-19.75
223.4	-19.75
223.635	-19.75
223.869	-12.75
224.104	-17.75
224.338	-8.75
224.573	-7.75
224.808	-8.75
225.042	-14.75
225.277	-6.75
225.511	-4.75
225.746	-2.75
225.98	5.25
226.215	-8.75
226.449	8.25
226.683	24.25
226.918	28.25
227.152	47.25
227.387	23.25
227.621	39.25
227.856	41.25
228.09	37.25
228.324	44.25
228.559	65.25
228.793	40.25
229.027	45.25
229.262	65.25
229.496	67.25
229.73	91.25
229.964	96.25
230.199	72.25
230.433	57.25
230.667	70.25
230.901	76.25
231.136	72.25
231.37	61.25
231.604	84.25
231.838	67.25
232.072	91.25
232.306	88.25
232.541	90.25
232.775	89.25
233.009	77.25
233.243	75.25
233.477	69.25
233.711	85.25
233.945	77.25
234.179	69.25
234.413	81.25
234.647	84.25
234.881	78.25
235.115	81.25
235.349	74.25
235.583	79.25
235.817	81.25
236.051	69.25
236.285	68.25
236.519	78.25
236.753	86.25
236.987	69.25
237.221	70.25
237.455	74.25
237.689	72.25
237.922	68.25
238.156	84.25
238.39	78.25
238.624	67.25
238.858	75.25
239.091	65.25
239.325	76.25
239.559	75.25
239.793	69.25
240.027	83.25
240.26	81.25
240.494	83.25
240.728	72.25
240.961	85.25
241.195	63.25
241.429	70.25
241.662	69.25
241.896	73.25
242.13	79.25
242.363	73.25
242.597	79.25
242.83	68.25
243.064	84.25
243.298	69.25
243.531	74.25
243.765	73.25
243.998	80.25
244.232	86.25
244.465	88.25
244.699	81.25
244.932	84.25
245.166	69.25
245.399	79.25
245.633	82.25
245.866	81.25
246.099	84.25
246.333	77.25
246.566	82.25
246.8	72.25
247.033	76.25
247.266	70.25
247.5	63.25
247.733	76.25
247.966	69.25
248.2	66.25
248.433	84.25
248.666	76.25
248.899	73.25
249.133	81.25
249.366	99.25
249.599	120.25
249.832	85.25
250.066	77.25
250.299	66.25
250.532	77.25
250.765	72.25
250.998	78.25
251.231	76.25
251.465	74.25
251.698	86.25
251.931	82.25
252.164	89.25
252.397	72.25
252.63	86.25
252.863	69.25
253.096	68.25
253.329	78.25
253.562	77.25
253.795	61.25
254.028	80.25
254.261	69.25
254.494	90.25
254.727	84.25
254.96	75.25
255.193	64.25
255.426	75.25
255.659	90.25
255.892	79.25
256.124	82.25
256.357	73.25
256.59	79.25
256.823	71.25
257.056	66.25
257.289	83.25
257.521	78.25
257.754	73.25
257.987	86.25
258.22	83.25
258.452	97.25
258.685	92.25
258.918	79.25
259.151	70.25
259.383	79.25
259.616	75.25
259.849	74.25
260.081	82.25
260.314	96.25
260.547	89.25
260.779	83.25
261.012	87.25
261.244	76.25
261.477	94.25
261.71	91.25
261.942	128.25
262.175	131.25
262.407	88.25
262.64	77.25
262.872	80.25
263.105	65.25
263.337	77.25
263.57	69.25
263.802	71.25
264.035	83.25
264.267	88.25
264.499	77.25
264.732	82.25
264.964	69.25
265.197	77.25
265.429	93.25
265.661	88.25
265.894	83.25
266.126	73.25
266.358	86.25
266.591	80.25
266.823	83.25
267.055	80.25
267.287	77.25
267.52	81.25
267.752	81.25
267.984	97.25
268.216	93.25
268.448	93.25
268.681	66.25
268.913	65.25
269.145	81.25
269.377	88.25
269.609	76.25
269.841	88.25
270.073	82.25
270.306	85.25
270.538	82.25
270.77	73.25
271.002	92.25
271.234	92.25
271.466	83.25
271.698	85.25
271.93	82.25
272.162	91.25
272.394	79.25
272.626	83.25
272.858	75.25
273.09	87.25
273.322	82.25
273.553	84.25
273.785	93.25
274.017	76.25
274.249	93.25
274.481	93.25
274.713	99.25
274.945	93.25
275.176	77.25
275.408	78.25
275.64	101.25
275.872	84.25
276.104	89.25
276.335	97.25
276.567	98.25
276.799	130.25
277.031	110.25
277.262	111.25
277.494	86.25
277.726	73.25
277.957	86.25
278.189	99.25
278.421	87.25
278.652	86.25
278.884	81.25
279.115	84.25
279.347	90.25
279.579	66.25
279.81	88.25
280.042	101.25
280.273	120.25
280.505	102.25
280.736	99.25
280.968	92.25
281.199	82.25
281.431	88.25
281.662	87.25
281.894	84.25
282.125	85.25
282.356	131.25
282.588	166.25
282.819	133.25
283.051	100.25
283.282	83.25
283.513	74.25
283.745	88.25
283.976	73.25
284.207	72.25
284.439	87.25
284.67	78.25
284.901	80.25
285.132	97.25
285.364	87.25
285.595	85.25
285.826	83.25
286.057	85.25
286.288	79.25
286.52	76.25
286.751	84.25
286.982	79.25
287.213	91.25
287.444	86.25
287.675	91.25
287.906	94.25
288.138	92.25
288.369	88.25
288.6	101.25
288.831	79.25
289.062	88.25
289.293	80.25
289.524	89.25
289.755	81.25
289.986	90.25
290.217	83.25
290.448	79.25
290.679	79.25
290.91	89.25
291.141	88.25
291.371	89.25
291.602	73.25
291.833	86.25
292.064	91.25
292.295	87.25
292.526	86.25
292.757	87.25
292.987	86.25
293.218	70.25
293.449	85.25
293.68	89.25
293.91	91.25
294.141	93.25
294.372	99.25
294.603	85.25
294.833	91.25
295.064	87.25
295.295	93.25
295.525	94.25
295.756	95.25
295.987	109.25
296.217	167.25
296.448	140.25
296.679	89.25
296.909	67.25
297.14	81.25
297.37	80.25
297.601	101.25
297.831	88.25
298.062	91.25
298.292	93.25
298.523	79.25
298.753	86.25
298.984	80.25
299.214	86.25
299.445	88.25
299.675	101.25
299.905	94.25
300.136	94.25
300.366	95.25
300.597	82.25
300.827	91.25
301.057	97.25
301.288	103.25
301.518	100.25
301.748	90.25
301.979	97.25
302.209	85.25
302.439	79.25
302.669	89.25
302.9	92.25
303.13	103.25
303.36	98.25
303.59	107.25
303.82	129.25
304.051	102.25
304.281	90.25
304.511	94.25
304.741	103.25
304.971	89.25
305.201	99.25
305.431	77.25
305.661	88.25
305.891	96.25
306.121	92.25
306.352	114.25
306.582	99.25
306.812	96.25
307.042	94.25
307.272	95.25
307.502	101.25
307.731	115.25
307.961	92.25
308.191	75.25
308.421	85.25
308.651	98.25
308.881	81.25
309.111	83.25
309.341	94.25
309.571	93.25
309.8	98.25
310.03	102.25
310.26	105.25
310.49	93.25
310.72	104.25
310.949	115.25
311.179	92.25
311.409	96.25
311.639	101.25
311.868	87.25
312.098	101.25
312.328	110.25
312.557	86.25
312.787	116.25
313.017	107.25
313.246	89.25
313.476	79.25
313.706	85.25
313.935	92.25
314.165	112.25
314.394	92.25
314.624	101.25
314.853	108.25
315.083	98.25
315.312	84.25
315.542	86.25
315.771	93.25
316.001	90.25
316.23	75.25
316.46	82.25
316.689	86.25
316.919	88.25
317.148	112.25
317.377	89.25
317.607	96.25
317.836	100.25
318.065	85.25
318.295	94.25
318.524	93.25
318.753	99.25
318.983	98.25
319.212	111.25
319.441	103.25
319.67	116.25
319.9	87.25
320.129	95.25
320.358	102.25
320.587	107.25
320.816	96.25
321.046	112.25
321.275	87.25
321.504	94.25
321.733	109.25
321.962	109.25
322.191	123.25
322.42	109.25
322.649	114.25
322.878	104.25
323.108	123.25
323.337	165.25
323.566	149.25
323.795	172.25
324.024	256.25
324.253	529.25
324.482	1118.25
324.71	2343.25
324.939	3101.25
325.168	1101.25
325.397	314.25
325.626	177.25
325.855	127.25
326.084	141.25
326.313	131.25
326.542	184.25
326.77	269.25
326.999	567.25
327.228	1237.25
327.457	2294.25
327.686	1815.25
327.914	507.25
328.143	305.25
328.372	273.25
328.6	187.25
328.829	141.25
329.058	156.25
329.287	172.25
329.515	129.25
329.744	131.25
329.972	205.25
330.201	320.25
330.43	433.25
330.658	272.25
330.887	224.25
331.115	157.25
331.344	112.25
331.572	112.25
331.801	117.25
332.03	106.25
332.258	102.25
332.486	96.25
332.715	105.25
332.943	91.25
333.172	91.25
333.4	121.25
333.629	136.25
333.857	138.25
334.085	188.25
334.314	318.25
334.542	543.25
334.771	499.25
334.999	191.25
335.227	116.25
335.455	84.25
335.684	104.25
335.912	91.25
336.14	107.25
336.369	93.25
336.597	105.25
336.825	118.25
337.053	85.25
337.281	91.25
337.51	105.25
337.738	91.25
337.966	85.25
338.194	105.25
338.422	96.25
338.65	100.25
338.878	87.25
339.106	88.25
339.334	94.25
339.562	88.25
339.79	80.25
340.018	93.25
340.246	90.25
340.474	96.25
340.702	94.25
340.93	93.25
341.158	88.25
341.386	102.25
341.614	92.25
341.842	91.25
342.07	87.25
342.298	73.25
342.526	86.25
342.754	87.25
342.981	83.25
343.209	89.25
343.437	97.25
343.665	91.25
343.893	83.25
344.12	76.25
344.348	85.25
344.576	83.25
344.804	92.25
345.031	94.25
345.259	125.25
345.487	97.25
345.714	94.25
345.942	91.25
346.17	102.25
346.397	83.25
346.625	98.25
346.853	93.25
347.08	100.25
347.308	102.25
347.535	97.25
347.763	84.25
347.99	103.25
348.218	113.25
348.445	110.25
348.673	104.25
348.9	83.25
349.128	94.25
349.355	80.25
349.583	97.25
349.81	96.25
350.037	98.25
350.265	85.25
350.492	99.25
350.72	103.25
350.947	100.25
351.174	112.25
351.402	119.25
351.629	103.25
351.856	94.25
352.083	108.25
352.311	122.25
352.538	117.25
352.765	119.25
352.992	128.25
353.22	118.25
353.447	103.25
353.674	108.25
353.901	91.25
354.128	80.25
354.355	95.25
354.583	103.25
354.81	88.25
355.037	97.25
355.264	86.25
355.491	100.25
355.718	84.25
355.945	89.25
356.172	76.25
356.399	92.25
356.626	93.25
356.853	84.25
357.08	87.25
357.307	86.25
357.534	93.25
357.761	79.25
357.988	80.25
358.215	81.25
358.441	86.25
358.668	90.25
358.895	97.25
359.122	87.25
359.349	95.25
359.576	93.25
359.802	109.25
360.029	137.25
360.256	130.25
360.483	103.25
360.709	87.25
360.936	95.25
361.163	85.25
361.39	102.25
361.616	96.25
361.843	98.25
362.07	97.25
362.296	102.25
362.523	94.25
362.749	88.25
362.976	89.25
363.203	88.25
363.429	90.25
363.656	91.25
363.882	102.25
364.109	80.25
364.335	98.25
364.562	85.25
364.788	94.25
365.015	109.25
365.241	100.25
365.468	118.25
365.694	131.25
365.92	123.25
366.147	80.25
366.373	90.25
366.599	105.25
366.826	91.25
367.052	92.25
367.278	78.25
367.505	85.25
367.731	96.25
367.957	95.25
368.184	93.25
368.41	96.25
368.636	120.25
368.862	125.25
369.089	113.25
369.315	93.25
369.541	94.25
369.767	83.25
369.993	84.25
370.219	86.25
370.445	83.25
370.672	89.25
370.898	88.25
371.124	89.25
371.35	86.25
371.576	89.25
371.802	87.25
372.028	86.25
372.254	94.25
372.48	73.25
372.706	103.25
372.932	86.25
373.158	86.25
373.384	101.25
373.61	76.25
373.835	79.25
374.061	82.25
374.287	91.25
374.513	97.25
374.739	78.25
374.965	93.25
375.191	96.25
375.416	85.25
375.642	84.25
375.868	86.25
376.094	87.25
376.319	67.25
376.545	83.25
376.771	78.25
376.997	91.25
377.222	93.25
377.448	85.25
377.674	85.25
377.899	80.25
378.125	82.25
378.35	77.25
378.576	72.25
378.802	92.25
379.027	81.25
379.253	82.25
379.478	89.25
379.704	82.25
379.929	98.25
380.155	101.25
380.38	94.25
380.606	100.25
380.831	92.25
381.057	95.25
381.282	75.25
381.507	97.25
381.733	94.25
381.958	94.25
382.184	87.25
382.409	94.25
382.634	96.25
382.86	98.25
383.085	84.25
383.31	92.25
383.535	95.25
383.761	95.25
383.986	87.25
384.211	90.25
384.436	92.25
384.662	101.25
384.887	91.25
385.112	92.25
385.337	93.25
385.562	93.25
385.787	107.25
386.013	109.25
386.238	114.25
386.463	118.25
386.688	96.25
386.913	96.25
387.138	87.25
387.363	98.25
387.588	79.25
387.813	87.25
388.038	108.25
388.263	94.25
388.488	96.25
388.713	94.25
388.938	97.25
389.163	91.25
389.387	100.25
389.612	84.25
389.837	96.25
390.062	91.25
390.287	97.25
390.512	79.25
390.736	86.25
390.961	93.25
391.186	82.25
391.411	91.25
391.636	93.25
391.86	94.25
392.085	86.25
392.31	86.25
392.534	87.25
392.759	82.25
392.984	76.25
393.208	77.25
393.433	82.25
393.658	83.25
393.882	97.25
394.107	73.25
394.331	91.25
394.556	82.25
394.78	88.25
395.005	83.25
395.229	76.25
395.454	81.25
395.678	83.25
395.903	66.25
396.127	88.25
396.352	74.25
396.576	84.25
396.801	84.25
397.025	86.25
397.249	89.25
397.474	88.25
397.698	73.25
397.922	87.25
398.147	84.25
398.371	77.25
398.595	78.25
398.82	90.25
399.044	87.25
399.268	87.25
399.492	80.25
399.717	93.25
399.941	88.25
400.165	92.25
400.389	88.25
400.613	96.25
400.837	91.25
401.062	90.25
401.286	77.25
401.51	95.25
401.734	76.25
401.958	88.25
402.182	146.25
402.406	194.25
402.63	156.25
402.854	102.25
403.078	93.25
403.302	87.25
403.526	82.25
403.75	93.25
403.974	75.25
404.198	100.25
404.422	97.25
404.645	93.25
404.869	98.25
405.093	94.25
405.317	131.25
405.541	133.25
405.765	121.25
405.988	145.25
406.212	226.25
406.436	293.25
406.66	189.25
406.883	122.25
407.107	92.25
407.331	90.25
407.555	91.25
407.778	110.25
408.002	107.25
408.226	82.25
408.449	92.25
408.673	85.25
408.896	89.25
409.12	100.25
409.344	93.25
409.567	94.25
409.791	83.25
410.014	84.25
410.238	98.25
410.461	82.25
410.685	88.25
410.908	86.25
411.132	115.25
411.355	104.25
411.578	97.25
411.802	89.25
412.025	90.25
412.249	103.25
412.472	110.25
412.695	125.25
412.919	88.25
413.142	81.25
413.365	71.25
413.589	83.25
413.812	99.25
414.035	90.25
414.258	97.25
414.482	90.25
414.705	92.25
414.928	76.25
415.151	93.25
415.374	83.25
415.597	80.25
415.821	87.25
416.044	92.25
416.267	90.25
416.49	81.25
416.713	80.25
416.936	79.25
417.159	72.25
417.382	85.25
417.605	81.25
417.828	87.25
418.051	94.25
418.274	98.25
418.497	91.25
418.72	71.25
418.943	88.25
419.166	85.25
419.389	97.25
419.611	87.25
419.834	83.25
420.057	86.25
420.28	87.25
420.503	91.25
420.726	87.25
420.948	85.25
421.171	100.25
421.394	106.25
421.617	92.25
421.839	68.25
422.062	79.25
422.285	84.25
422.507	108.25
422.73	125.25
422.953	103.25
423.175	77.25
423.398	84.25
423.621	89.25
423.843	91.25
424.066	88.25
424.288	84.25
424.511	84.25
424.733	102.25
424.956	140.25
425.178	106.25
425.401	111.25
425.623	116.25
425.846	94.25
426.068	96.25
426.291	98.25
426.513	80.25
426.735	92.25
426.958	87.25
427.18	96.25
427.402	179.25
427.625	241.25
427.847	204.25
428.069	166.25
428.292	104.25
428.514	89.25
428.736	72.25
428.958	66.25
429.181	70.25
429.403	90.25
429.625	79.25
429.847	94.25
430.069	98.25
430.292	76.25
430.514	80.25
430.736	80.25
430.958	86.25
431.18	81.25
431.402	76.25
431.624	88.25
431.846	85.25
432.068	77.25
432.29	79.25
432.512	81.25
432.734	86.25
432.956	81.25
433.178	90.25
433.4	100.25
433.622	95.25
433.844	88.25
434.066	79.25
434.287	88.25
434.509	82.25
434.731	87.25
434.953	84.25
435.175	81.25
435.397	103.25
435.618	95.25
435.84	100.25
436.062	136.25
436.284	127.25
436.505	94.25
436.727	118.25
436.949	88.25
437.17	84.25
437.392	107.25
437.614	90.25
437.835	114.25
438.057	152.25
438.278	131.25
438.5	106.25
438.721	132.25
438.943	113.25
439.165	83.25
439.386	86.25
439.608	92.25
439.829	107.25
440.05	166.25
440.272	172.25
440.493	111.25
440.715	105.25
440.936	107.25
441.158	78.25
441.379	76.25
441.6	83.25
441.822	90.25
442.043	99.25
442.264	106.25
442.486	119.25
442.707	101.25
442.928	119.25
443.149	164.25
443.371	172.25
443.592	127.25
443.813	131.25
444.034	144.25
444.255	94.25
444.476	81.25
444.698	96.25
444.919	82.25
445.14	115.25
445.361	129.25
445.582	150.25
445.803	187.25
446.024	175.25
446.245	163.25
446.466	110.25
446.687	83.25
446.908	96.25
447.129	80.25
447.35	85.25
447.571	84.25
447.792	93.25
448.013	107.25
448.234	108.25
448.455	103.25
448.675	137.25
448.896	151.25
449.117	120.25
449.338	126.25
449.559	159.25
449.779	171.25
450	96.25
450.221	93.25
450.442	87.25
450.662	90.25
450.883	124.25
451.104	123.25
451.324	96.25
451.545	75.25
451.766	77.25
451.986	86.25
452.207	73.25
452.428	96.25
452.648	104.25
452.869	131.25
453.089	136.25
453.31	145.25
453.53	91.25
453.751	99.25
453.971	109.25
454.192	124.25
454.412	110.25
454.633	97.25
454.853	96.25
455.073	88.25
455.294	86.25
455.514	100.25
455.734	100.25
455.955	85.25
456.175	77.25
456.395	83.25
456.616	69.25
456.836	88.25
457.056	90.25
457.276	78.25
457.497	79.25
457.717	78.25
457.937	91.25
458.157	87.25
458.377	94.25
458.598	114.25
458.818	211.25
459.038	224.25
459.258	154.25
459.478	102.25
459.698	90.25
459.918	71.25
460.138	78.25
460.358	82.25
460.578	75.25
460.798	95.25
461.018	94.25
461.238	85.25
461.458	73.25
461.678	75.25
461.898	81.25
462.118	89.25
462.338	78.25
462.558	72.25
462.777	79.25
462.997	90.25
463.217	87.25
463.437	89.25
463.657	79.25
463.876	93.25
464.096	100.25
464.316	105.25
464.536	100.25
464.755	105.25
464.975	126.25
465.195	209.25
465.414	225.25
465.634	117.25
465.854	98.25
466.073	84.25
466.293	88.25
466.512	89.25
466.732	81.25
466.951	89.25
467.171	94.25
467.391	101.25
467.61	132.25
467.829	132.25
468.049	197.25
468.268	258.25
468.488	107.25
468.707	91.25
468.927	79.25
469.146	86.25
469.365	73.25
469.585	83.25
469.804	99.25
470.023	89.25
470.243	94.25
470.462	99.25
470.681	134.25
470.901	85.25
471.12	86.25
471.339	88.25
471.558	83.25
471.777	93.25
471.997	138.25
472.216	315.25
472.435	619.25
472.654	219.25
472.873	110.25
473.092	82.25
473.311	92.25
473.53	76.25
473.749	85.25
473.968	95.25
474.187	121.25
474.406	109.25
474.625	86.25
474.844	85.25
475.063	89.25
475.282	81.25
475.501	78.25
475.72	81.25
475.939	72.25
476.158	94.25
476.377	91.25
476.596	84.25
476.814	95.25
477.033	95.25
477.252	78.25
477.471	83.25
477.69	88.25
477.908	96.25
478.127	87.25
478.346	86.25
478.564	94.25
478.783	92.25
479.002	91.25
479.22	93.25
479.439	124.25
479.658	126.25
479.876	128.25
480.095	87.25
480.313	100.25
480.532	101.25
480.751	145.25
480.969	317.25
481.188	1068.25
481.406	693.25
481.624	156.25
481.843	90.25
482.061	103.25
482.28	83.25
482.498	89.25
482.717	84.25
482.935	79.25
483.153	78.25
483.372	90.25
483.59	91.25
483.808	92.25
484.027	85.25
484.245	89.25
484.463	95.25
484.681	94.25
484.9	82.25
485.118	83.25
485.336	99.25
485.554	96.25
485.772	85.25
485.99	98.25
486.209	98.25
486.427	99.25
486.645	103.25
486.863	126.25
487.081	93.25
487.299	88.25
487.517	103.25
487.735	83.25
487.953	86.25
488.171	97.25
488.389	93.25
488.607	104.25
488.825	91.25
489.043	98.25
489.261	81.25
489.479	100.25
489.696	81.25
489.914	99.25
490.132	79.25
490.35	83.25
490.568	88.25
490.786	84.25
491.003	85.25
491.221	89.25
491.439	92.25
491.657	86.25
491.874	86.25
492.092	88.25
492.31	93.25
492.527	95.25
492.745	88.25
492.963	82.25
493.18	85.25
493.398	93.25
493.615	102.25
493.833	86.25
494.05	93.25
494.268	86.25
494.485	78.25
494.703	78.25
494.92	86.25
495.138	84.25
495.355	102.25
495.573	93.25
495.79	98.25
496.008	98.25
496.225	88.25
496.442	94.25
496.66	89.25
496.877	81.25
497.094	91.25
497.312	87.25
497.529	84.25
497.746	96.25
497.963	81.25
498.181	84.25
498.398	80.25
498.615	96.25
498.832	108.25
499.049	97.25
499.267	92.25
499.484	103.25
499.701	81.25
499.918	86.25
500.135	92.25
500.352	83.25
500.569	83.25
500.786	91.25
501.003	82.25
501.22	90.25
501.437	90.25
501.654	93.25
501.871	112.25
502.088	85.25
502.305	95.25
502.522	77.25
502.739	89.25
502.956	92.25
503.172	100.25
503.389	80.25
503.606	133.25
503.823	109.25
504.04	102.25
504.256	91.25
504.473	87.25
504.69	87.25
504.907	87.25
505.123	74.25
505.34	99.25
505.557	80.25
505.773	83.25
505.99	75.25
506.207	104.25
506.423	78.25
506.64	85.25
506.856	90.25
507.073	93.25
507.289	96.25
507.506	92.25
507.722	107.25
507.939	129.25
508.155	90.25
508.372	94.25
508.588	83.25
508.805	92.25
509.021	95.25
509.238	80.25
509.454	97.25
509.67	94.25
509.887	102.25
510.103	145.25
510.319	253.25
510.536	905.25
510.752	3256.25
510.968	924.25
511.184	193.25
511.401	104.25
511.617	111.25
511.833	100.25
512.049	88.25
512.265	97.25
512.481	77.25
512.698	82.25
512.914	92.25
513.13	106.25
513.346	82.25
513.562	85.25
513.778	86.25
513.994	95.25
514.21	118.25
514.426	124.25
514.642	166.25
514.858	144.25
515.074	207.25
515.29	675.25
