Data from Circ_2022_H10_HRD10591_00064.txt Node
Date: Wed Jan 03 09:53:50 EST 2024
User: Yrep
Spectrometer: HR+D1059
Trigger mode: 1
Integration Time (sec): 1.000000E-1
Scans to average: 1
Electric dark correction enabled: true
Nonlinearity correction enabled: false
Boxcar width: 0
XAxis mode: Wavelengths
Number of Pixels in Spectrum: 2048
>>>>>Begin Spectral Data<<<<<
223.165	-13.12
223.4	-13.12
223.635	-13.12
223.869	-1.12
224.104	-13.12
224.338	-30.12
224.573	-7.12
224.808	-13.12
225.042	-7.12
225.277	-5.12
225.511	-17.12
225.746	-3.12
225.98	2.88
226.215	7.88
226.449	14.88
226.683	25.88
226.918	28.88
227.152	29.88
227.387	23.88
227.621	48.88
227.856	36.88
228.09	52.88
228.324	52.88
228.559	49.88
228.793	58.88
229.027	46.88
229.262	66.88
229.496	79.88
229.73	85.88
229.964	75.88
230.199	76.88
230.433	73.88
230.667	77.88
230.901	83.88
231.136	72.88
231.37	87.88
231.604	66.88
231.838	64.88
232.072	69.88
232.306	84.88
232.541	88.88
232.775	76.88
233.009	63.88
233.243	90.88
233.477	86.88
233.711	93.88
233.945	84.88
234.179	64.88
234.413	85.88
234.647	73.88
234.881	90.88
235.115	68.88
235.349	76.88
235.583	72.88
235.817	70.88
236.051	75.88
236.285	83.88
236.519	80.88
236.753	79.88
236.987	73.88
237.221	86.88
237.455	80.88
237.689	74.88
237.922	79.88
238.156	70.88
238.39	64.88
238.624	72.88
238.858	78.88
239.091	82.88
239.325	90.88
239.559	84.88
239.793	86.88
240.027	78.88
240.26	73.88
240.494	70.88
240.728	85.88
240.961	84.88
241.195	79.88
241.429	83.88
241.662	68.88
241.896	55.88
242.13	68.88
242.363	78.88
242.597	77.88
242.83	79.88
243.064	66.88
243.298	79.88
243.531	76.88
243.765	79.88
243.998	70.88
244.232	75.88
244.465	90.88
244.699	80.88
244.932	86.88
245.166	72.88
245.399	85.88
245.633	81.88
245.866	71.88
246.099	66.88
246.333	68.88
246.566	69.88
246.8	69.88
247.033	70.88
247.266	74.88
247.5	64.88
247.733	72.88
247.966	62.88
248.2	68.88
248.433	69.88
248.666	66.88
248.899	81.88
249.133	75.88
249.366	113.88
249.599	101.88
249.832	87.88
250.066	69.88
250.299	72.88
250.532	68.88
250.765	83.88
250.998	80.88
251.231	80.88
251.465	78.88
251.698	74.88
251.931	79.88
252.164	71.88
252.397	81.88
252.63	85.88
252.863	82.88
253.096	72.88
253.329	84.88
253.562	72.88
253.795	76.88
254.028	85.88
254.261	69.88
254.494	77.88
254.727	90.88
254.96	68.88
255.193	78.88
255.426	66.88
255.659	77.88
255.892	90.88
256.124	77.88
256.357	83.88
256.59	85.88
256.823	83.88
257.056	90.88
257.289	80.88
257.521	70.88
257.754	62.88
257.987	67.88
258.22	76.88
258.452	72.88
258.685	82.88
258.918	73.88
259.151	79.88
259.383	76.88
259.616	71.88
259.849	87.88
260.081	79.88
260.314	63.88
260.547	63.88
260.779	77.88
261.012	80.88
261.244	87.88
261.477	101.88
261.71	100.88
261.942	131.88
262.175	148.88
262.407	85.88
262.64	92.88
262.872	82.88
263.105	87.88
263.337	78.88
263.57	77.88
263.802	73.88
264.035	85.88
264.267	84.88
264.499	71.88
264.732	83.88
264.964	99.88
265.197	79.88
265.429	82.88
265.661	80.88
265.894	91.88
266.126	87.88
266.358	70.88
266.591	80.88
266.823	89.88
267.055	84.88
267.287	92.88
267.52	77.88
267.752	69.88
267.984	86.88
268.216	72.88
268.448	82.88
268.681	76.88
268.913	78.88
269.145	69.88
269.377	78.88
269.609	79.88
269.841	81.88
270.073	78.88
270.306	82.88
270.538	72.88
270.77	85.88
271.002	79.88
271.234	89.88
271.466	83.88
271.698	75.88
271.93	84.88
272.162	78.88
272.394	69.88
272.626	89.88
272.858	76.88
273.09	80.88
273.322	71.88
273.553	66.88
273.785	83.88
274.017	76.88
274.249	94.88
274.481	79.88
274.713	78.88
274.945	90.88
275.176	80.88
275.408	81.88
275.64	82.88
275.872	95.88
276.104	84.88
276.335	92.88
276.567	110.88
276.799	122.88
277.031	112.88
277.262	93.88
277.494	85.88
277.726	77.88
277.957	75.88
278.189	66.88
278.421	72.88
278.652	93.88
278.884	94.88
279.115	74.88
279.347	79.88
279.579	84.88
279.81	74.88
280.042	90.88
280.273	80.88
280.505	81.88
280.736	66.88
280.968	88.88
281.199	77.88
281.431	87.88
281.662	89.88
281.894	91.88
282.125	105.88
282.356	129.88
282.588	167.88
282.819	123.88
283.051	87.88
283.282	89.88
283.513	67.88
283.745	86.88
283.976	82.88
284.207	78.88
284.439	92.88
284.67	78.88
284.901	91.88
285.132	72.88
285.364	79.88
285.595	91.88
285.826	77.88
286.057	70.88
286.288	94.88
286.52	83.88
286.751	68.88
286.982	75.88
287.213	78.88
287.444	82.88
287.675	95.88
287.906	77.88
288.138	88.88
288.369	87.88
288.6	95.88
288.831	87.88
289.062	86.88
289.293	96.88
289.524	72.88
289.755	80.88
289.986	99.88
290.217	80.88
290.448	70.88
290.679	83.88
290.91	103.88
291.141	89.88
291.371	83.88
291.602	87.88
291.833	81.88
292.064	91.88
292.295	81.88
292.526	75.88
292.757	79.88
292.987	79.88
293.218	83.88
293.449	77.88
293.68	80.88
293.91	87.88
294.141	99.88
294.372	93.88
294.603	78.88
294.833	85.88
295.064	87.88
295.295	82.88
295.525	91.88
295.756	106.88
295.987	138.88
296.217	175.88
296.448	153.88
296.679	101.88
296.909	84.88
297.14	86.88
297.37	85.88
297.601	69.88
297.831	74.88
298.062	92.88
298.292	94.88
298.523	79.88
298.753	75.88
298.984	81.88
299.214	84.88
299.445	94.88
299.675	98.88
299.905	98.88
300.136	111.88
300.366	86.88
300.597	95.88
300.827	81.88
301.057	104.88
301.288	120.88
301.518	104.88
301.748	85.88
301.979	89.88
302.209	83.88
302.439	92.88
302.669	84.88
302.9	82.88
303.13	72.88
303.36	103.88
303.59	109.88
303.82	122.88
304.051	95.88
304.281	97.88
304.511	88.88
304.741	100.88
304.971	90.88
305.201	74.88
305.431	91.88
305.661	94.88
305.891	79.88
306.121	103.88
306.352	99.88
306.582	99.88
306.812	86.88
307.042	82.88
307.272	99.88
307.502	87.88
307.731	109.88
307.961	89.88
308.191	81.88
308.421	80.88
308.651	96.88
308.881	91.88
309.111	97.88
309.341	122.88
309.571	95.88
309.8	104.88
310.03	123.88
310.26	100.88
310.49	93.88
310.72	107.88
310.949	104.88
311.179	109.88
311.409	98.88
311.639	91.88
311.868	96.88
312.098	93.88
312.328	92.88
312.557	101.88
312.787	116.88
313.017	115.88
313.246	81.88
313.476	81.88
313.706	94.88
313.935	102.88
314.165	97.88
314.394	106.88
314.624	91.88
314.853	93.88
315.083	92.88
315.312	95.88
315.542	93.88
315.771	83.88
316.001	77.88
316.23	82.88
316.46	92.88
316.689	84.88
316.919	79.88
317.148	97.88
317.377	84.88
317.607	83.88
317.836	99.88
318.065	75.88
318.295	76.88
318.524	88.88
318.753	79.88
318.983	107.88
319.212	109.88
319.441	115.88
319.67	116.88
319.9	105.88
320.129	96.88
320.358	89.88
320.587	92.88
320.816	113.88
321.046	127.88
321.275	101.88
321.504	98.88
321.733	104.88
321.962	94.88
322.191	120.88
322.42	118.88
322.649	133.88
322.878	119.88
323.108	130.88
323.337	143.88
323.566	152.88
323.795	184.88
324.024	269.88
324.253	547.88
324.482	1189.88
324.71	2473.88
324.939	3259.88
325.168	1172.88
325.397	323.88
325.626	190.88
325.855	142.88
326.084	147.88
326.313	147.88
326.542	176.88
326.77	283.88
326.999	605.88
327.228	1266.88
327.457	2331.88
327.686	1818.88
327.914	508.88
328.143	278.88
328.372	227.88
328.6	162.88
328.829	139.88
329.058	146.88
329.287	166.88
329.515	127.88
329.744	126.88
329.972	142.88
330.201	177.88
330.43	218.88
330.658	190.88
330.887	190.88
331.115	164.88
331.344	100.88
331.572	102.88
331.801	109.88
332.03	98.88
332.258	96.88
332.486	86.88
332.715	90.88
332.943	92.88
333.172	104.88
333.4	107.88
333.629	133.88
333.857	134.88
334.085	145.88
334.314	154.88
334.542	240.88
334.771	242.88
334.999	123.88
335.227	91.88
335.455	101.88
335.684	97.88
335.912	103.88
336.14	87.88
336.369	98.88
336.597	104.88
336.825	107.88
337.053	103.88
337.281	92.88
337.51	92.88
337.738	95.88
337.966	88.88
338.194	109.88
338.422	101.88
338.65	87.88
338.878	84.88
339.106	86.88
339.334	84.88
339.562	92.88
339.79	104.88
340.018	81.88
340.246	87.88
340.474	97.88
340.702	100.88
340.93	100.88
341.158	100.88
341.386	99.88
341.614	112.88
341.842	118.88
342.07	87.88
342.298	90.88
342.526	101.88
342.754	79.88
342.981	84.88
343.209	87.88
343.437	105.88
343.665	92.88
343.893	77.88
344.12	96.88
344.348	91.88
344.576	83.88
344.804	82.88
345.031	87.88
345.259	103.88
345.487	100.88
345.714	107.88
345.942	103.88
346.17	100.88
346.397	95.88
346.625	86.88
346.853	99.88
347.08	78.88
347.308	98.88
347.535	96.88
347.763	100.88
347.99	101.88
348.218	99.88
348.445	106.88
348.673	92.88
348.9	94.88
349.128	84.88
349.355	87.88
349.583	88.88
349.81	96.88
350.037	98.88
350.265	102.88
350.492	83.88
350.72	99.88
350.947	91.88
351.174	108.88
351.402	116.88
351.629	114.88
351.856	108.88
352.083	108.88
352.311	107.88
352.538	125.88
352.765	124.88
352.992	112.88
353.22	99.88
353.447	109.88
353.674	102.88
353.901	101.88
354.128	86.88
354.355	90.88
354.583	107.88
354.81	107.88
355.037	94.88
355.264	78.88
355.491	68.88
355.718	79.88
355.945	96.88
356.172	67.88
356.399	101.88
356.626	107.88
356.853	91.88
357.08	86.88
357.307	97.88
357.534	72.88
357.761	89.88
357.988	103.88
358.215	79.88
358.441	105.88
358.668	94.88
358.895	87.88
359.122	94.88
359.349	94.88
359.576	96.88
359.802	106.88
360.029	135.88
360.256	126.88
360.483	98.88
360.709	87.88
360.936	104.88
361.163	98.88
361.39	99.88
361.616	106.88
361.843	104.88
362.07	99.88
362.296	91.88
362.523	105.88
362.749	92.88
362.976	97.88
363.203	95.88
363.429	98.88
363.656	80.88
363.882	84.88
364.109	83.88
364.335	92.88
364.562	97.88
364.788	99.88
365.015	94.88
365.241	97.88
365.468	111.88
365.694	116.88
365.92	96.88
366.147	95.88
366.373	91.88
366.599	99.88
366.826	85.88
367.052	100.88
367.278	98.88
367.505	94.88
367.731	101.88
367.957	96.88
368.184	95.88
368.41	114.88
368.636	125.88
368.862	150.88
369.089	132.88
369.315	114.88
369.541	90.88
369.767	78.88
369.993	84.88
370.219	100.88
370.445	82.88
370.672	78.88
370.898	89.88
371.124	77.88
371.35	88.88
371.576	77.88
371.802	83.88
372.028	91.88
372.254	79.88
372.48	82.88
372.706	77.88
372.932	88.88
373.158	99.88
373.384	82.88
373.61	66.88
373.835	88.88
374.061	73.88
374.287	81.88
374.513	94.88
374.739	92.88
374.965	83.88
375.191	80.88
375.416	73.88
375.642	85.88
375.868	91.88
376.094	83.88
376.319	87.88
376.545	78.88
376.771	91.88
376.997	89.88
377.222	92.88
377.448	92.88
377.674	81.88
377.899	87.88
378.125	89.88
378.35	88.88
378.576	91.88
378.802	79.88
379.027	83.88
379.253	96.88
379.478	96.88
379.704	93.88
379.929	94.88
380.155	101.88
380.38	91.88
380.606	96.88
380.831	88.88
381.057	109.88
381.282	95.88
381.507	102.88
381.733	86.88
381.958	75.88
382.184	106.88
382.409	103.88
382.634	101.88
382.86	97.88
383.085	103.88
383.31	76.88
383.535	85.88
383.761	94.88
383.986	98.88
384.211	84.88
384.436	99.88
384.662	86.88
384.887	99.88
385.112	92.88
385.337	90.88
385.562	115.88
385.787	95.88
386.013	109.88
386.238	115.88
386.463	92.88
386.688	98.88
386.913	90.88
387.138	97.88
387.363	98.88
387.588	89.88
387.813	99.88
388.038	87.88
388.263	105.88
388.488	94.88
388.713	84.88
388.938	82.88
389.163	92.88
389.387	85.88
389.612	84.88
389.837	103.88
390.062	94.88
390.287	88.88
390.512	79.88
390.736	79.88
390.961	86.88
391.186	90.88
391.411	85.88
391.636	91.88
391.86	78.88
392.085	99.88
392.31	76.88
392.534	90.88
392.759	92.88
392.984	99.88
393.208	100.88
393.433	85.88
393.658	79.88
393.882	78.88
394.107	91.88
394.331	73.88
394.556	69.88
394.78	79.88
395.005	85.88
395.229	78.88
395.454	69.88
395.678	78.88
395.903	86.88
396.127	90.88
396.352	79.88
396.576	94.88
396.801	81.88
397.025	92.88
397.249	85.88
397.474	86.88
397.698	102.88
397.922	87.88
398.147	99.88
398.371	77.88
398.595	73.88
398.82	74.88
399.044	83.88
399.268	86.88
399.492	80.88
399.717	89.88
399.941	78.88
400.165	91.88
400.389	98.88
400.613	83.88
400.837	84.88
401.062	82.88
401.286	99.88
401.51	89.88
401.734	97.88
401.958	123.88
402.182	160.88
402.406	230.88
402.63	136.88
402.854	108.88
403.078	87.88
403.302	90.88
403.526	92.88
403.75	90.88
403.974	72.88
404.198	93.88
404.422	74.88
404.645	97.88
404.869	99.88
405.093	94.88
405.317	119.88
405.541	106.88
405.765	97.88
405.988	153.88
406.212	240.88
406.436	354.88
406.66	206.88
406.883	115.88
407.107	97.88
407.331	96.88
407.555	105.88
407.778	102.88
408.002	111.88
408.226	79.88
408.449	82.88
408.673	82.88
408.896	95.88
409.12	99.88
409.344	83.88
409.567	91.88
409.791	100.88
410.014	96.88
410.238	88.88
410.461	93.88
410.685	90.88
410.908	93.88
411.132	99.88
411.355	104.88
411.578	96.88
411.802	90.88
412.025	90.88
412.249	84.88
412.472	91.88
412.695	79.88
412.919	86.88
413.142	83.88
413.365	86.88
413.589	88.88
413.812	89.88
414.035	79.88
414.258	79.88
414.482	87.88
414.705	80.88
414.928	81.88
415.151	86.88
415.374	97.88
415.597	95.88
415.821	83.88
416.044	79.88
416.267	87.88
416.49	78.88
416.713	90.88
416.936	102.88
417.159	90.88
417.382	90.88
417.605	103.88
417.828	76.88
418.051	85.88
418.274	87.88
418.497	88.88
418.72	96.88
418.943	91.88
419.166	84.88
419.389	88.88
419.611	82.88
419.834	84.88
420.057	76.88
420.28	89.88
420.503	83.88
420.726	81.88
420.948	81.88
421.171	88.88
421.394	96.88
421.617	102.88
421.839	92.88
422.062	101.88
422.285	90.88
422.507	99.88
422.73	103.88
422.953	106.88
423.175	87.88
423.398	80.88
423.621	103.88
423.843	89.88
424.066	67.88
424.288	71.88
424.511	86.88
424.733	92.88
424.956	117.88
425.178	93.88
425.401	97.88
425.623	119.88
425.846	90.88
426.068	87.88
426.291	91.88
426.513	87.88
426.735	102.88
426.958	103.88
427.18	109.88
427.402	171.88
427.625	228.88
427.847	175.88
428.069	123.88
428.292	99.88
428.514	91.88
428.736	86.88
428.958	90.88
429.181	80.88
429.403	94.88
429.625	84.88
429.847	99.88
430.069	107.88
430.292	91.88
430.514	94.88
430.736	95.88
430.958	93.88
431.18	83.88
431.402	70.88
431.624	83.88
431.846	101.88
432.068	65.88
432.29	94.88
432.512	80.88
432.734	80.88
432.956	93.88
433.178	98.88
433.4	89.88
433.622	86.88
433.844	96.88
434.066	111.88
434.287	88.88
434.509	78.88
434.731	80.88
434.953	76.88
435.175	91.88
435.397	98.88
435.618	81.88
435.84	119.88
436.062	138.88
436.284	122.88
436.505	103.88
436.727	108.88
436.949	92.88
437.17	76.88
437.392	83.88
437.614	101.88
437.835	129.88
438.057	166.88
438.278	116.88
438.5	105.88
438.721	122.88
438.943	106.88
439.165	75.88
439.386	80.88
439.608	95.88
439.829	104.88
440.05	135.88
440.272	176.88
440.493	102.88
440.715	78.88
440.936	86.88
441.158	93.88
441.379	94.88
441.6	95.88
441.822	94.88
442.043	99.88
442.264	137.88
442.486	106.88
442.707	103.88
442.928	120.88
443.149	164.88
443.371	165.88
443.592	121.88
443.813	127.88
444.034	107.88
444.255	94.88
444.476	90.88
444.698	91.88
444.919	85.88
445.14	118.88
445.361	127.88
445.582	126.88
445.803	161.88
446.024	162.88
446.245	151.88
446.466	131.88
446.687	95.88
446.908	83.88
447.129	82.88
447.35	94.88
447.571	89.88
447.792	87.88
448.013	110.88
448.234	124.88
448.455	105.88
448.675	126.88
448.896	150.88
449.117	100.88
449.338	107.88
449.559	133.88
449.779	134.88
450	99.88
450.221	76.88
450.442	78.88
450.662	111.88
450.883	139.88
451.104	143.88
451.324	105.88
451.545	76.88
451.766	83.88
451.986	76.88
452.207	79.88
452.428	90.88
452.648	111.88
452.869	148.88
453.089	147.88
453.31	137.88
453.53	93.88
453.751	91.88
453.971	120.88
454.192	136.88
454.412	114.88
454.633	79.88
454.853	88.88
455.073	96.88
455.294	87.88
455.514	99.88
455.734	76.88
455.955	64.88
456.175	65.88
456.395	90.88
456.616	90.88
456.836	84.88
457.056	75.88
457.276	75.88
457.497	76.88
457.717	77.88
457.937	83.88
458.157	88.88
458.377	85.88
458.598	126.88
458.818	207.88
459.038	232.88
459.258	134.88
459.478	75.88
459.698	74.88
459.918	86.88
460.138	81.88
460.358	70.88
460.578	98.88
460.798	94.88
461.018	85.88
461.238	75.88
461.458	101.88
461.678	79.88
461.898	85.88
462.118	80.88
462.338	69.88
462.558	84.88
462.777	82.88
462.997	87.88
463.217	87.88
463.437	70.88
463.657	78.88
463.876	94.88
464.096	90.88
464.316	93.88
464.536	87.88
464.755	95.88
464.975	145.88
465.195	244.88
465.414	237.88
465.634	114.88
465.854	89.88
466.073	77.88
466.293	91.88
466.512	79.88
466.732	83.88
466.951	75.88
467.171	92.88
467.391	106.88
467.61	122.88
467.829	112.88
468.049	131.88
468.268	147.88
468.488	83.88
468.707	76.88
468.927	75.88
469.146	81.88
469.365	75.88
469.585	77.88
469.804	93.88
470.023	111.88
470.243	86.88
470.462	102.88
470.681	122.88
470.901	113.88
471.12	84.88
471.339	72.88
471.558	73.88
471.777	88.88
471.997	111.88
472.216	180.88
472.435	309.88
472.654	130.88
472.873	79.88
473.092	76.88
473.311	90.88
473.53	87.88
473.749	86.88
473.968	103.88
474.187	122.88
474.406	93.88
474.625	76.88
474.844	86.88
475.063	87.88
475.282	82.88
475.501	94.88
475.72	96.88
475.939	86.88
476.158	85.88
476.377	57.88
476.596	89.88
476.814	103.88
477.033	93.88
477.252	100.88
477.471	89.88
477.69	69.88
477.908	84.88
478.127	88.88
478.346	73.88
478.564	86.88
478.783	109.88
479.002	94.88
479.22	88.88
479.439	112.88
479.658	120.88
479.876	107.88
480.095	82.88
480.313	107.88
480.532	94.88
480.751	106.88
480.969	172.88
481.188	507.88
481.406	325.88
481.624	120.88
481.843	80.88
482.061	92.88
482.28	90.88
482.498	89.88
482.717	91.88
482.935	88.88
483.153	81.88
483.372	83.88
483.59	95.88
483.808	87.88
484.027	81.88
484.245	84.88
484.463	90.88
484.681	85.88
484.9	84.88
485.118	75.88
485.336	91.88
485.554	97.88
485.772	98.88
485.99	103.88
486.209	90.88
486.427	100.88
486.645	123.88
486.863	125.88
487.081	113.88
487.299	87.88
487.517	96.88
487.735	81.88
487.953	82.88
488.171	84.88
488.389	106.88
488.607	96.88
488.825	91.88
489.043	86.88
489.261	89.88
489.479	95.88
489.696	93.88
489.914	89.88
490.132	90.88
490.35	83.88
490.568	85.88
490.786	93.88
491.003	90.88
491.221	88.88
491.439	79.88
491.657	78.88
491.874	91.88
492.092	80.88
492.31	82.88
492.527	88.88
492.745	81.88
492.963	87.88
493.18	79.88
493.398	92.88
493.615	97.88
493.833	96.88
494.05	95.88
494.268	85.88
494.485	93.88
494.703	79.88
494.92	90.88
495.138	88.88
495.355	114.88
495.573	81.88
495.79	76.88
496.008	87.88
496.225	94.88
496.442	85.88
496.66	96.88
496.877	101.88
497.094	74.88
497.312	90.88
497.529	87.88
497.746	90.88
497.963	74.88
498.181	84.88
498.398	99.88
498.615	112.88
498.832	120.88
499.049	94.88
499.267	80.88
499.484	88.88
499.701	91.88
499.918	90.88
500.135	97.88
500.352	88.88
500.569	81.88
500.786	77.88
501.003	88.88
501.22	95.88
501.437	99.88
501.654	93.88
501.871	119.88
502.088	90.88
502.305	94.88
502.522	88.88
502.739	74.88
502.956	81.88
503.172	88.88
503.389	89.88
503.606	118.88
503.823	91.88
504.04	83.88
504.256	107.88
504.473	82.88
504.69	82.88
504.907	99.88
505.123	92.88
505.34	87.88
505.557	78.88
505.773	80.88
505.99	80.88
506.207	85.88
506.423	92.88
506.64	79.88
506.856	86.88
507.073	92.88
507.289	76.88
507.506	109.88
507.722	140.88
507.939	138.88
508.155	99.88
508.372	85.88
508.588	98.88
508.805	79.88
509.021	90.88
509.238	113.88
509.454	89.88
509.67	116.88
509.887	115.88
510.103	146.88
510.319	289.88
510.536	1176.88
510.752	4095.88
510.968	1111.88
511.184	215.88
511.401	123.88
511.617	110.88
511.833	97.88
512.049	76.88
512.265	83.88
512.481	91.88
512.698	97.88
512.914	109.88
513.13	99.88
513.346	98.88
513.562	95.88
513.778	89.88
513.994	94.88
514.21	134.88
514.426	157.88
514.642	174.88
514.858	160.88
515.074	244.88
515.29	832.88
