Data from Circ_2022_H10_HRD10591_00030.txt Node
Date: Wed Jan 03 09:53:43 EST 2024
User: Yrep
Spectrometer: HR+D1059
Trigger mode: 1
Integration Time (sec): 1.000000E-1
Scans to average: 1
Electric dark correction enabled: true
Nonlinearity correction enabled: false
Boxcar width: 0
XAxis mode: Wavelengths
Number of Pixels in Spectrum: 2048
>>>>>Begin Spectral Data<<<<<
223.165	-23.62
223.4	-23.62
223.635	-23.62
223.869	-4.62
224.104	-16.62
224.338	-8.62
224.573	-4.62
224.808	-13.62
225.042	-8.62
225.277	-3.62
225.511	-12.62
225.746	7.38
225.98	-7.62
226.215	7.38
226.449	22.38
226.683	10.38
226.918	34.38
227.152	22.38
227.387	46.38
227.621	30.38
227.856	50.38
228.09	46.38
228.324	58.38
228.559	48.38
228.793	48.38
229.027	56.38
229.262	64.38
229.496	79.38
229.73	102.38
229.964	86.38
230.199	74.38
230.433	67.38
230.667	73.38
230.901	82.38
231.136	79.38
231.37	73.38
231.604	90.38
231.838	65.38
232.072	91.38
232.306	80.38
232.541	78.38
232.775	79.38
233.009	87.38
233.243	74.38
233.477	91.38
233.711	78.38
233.945	80.38
234.179	82.38
234.413	74.38
234.647	82.38
234.881	70.38
235.115	84.38
235.349	77.38
235.583	87.38
235.817	81.38
236.051	82.38
236.285	87.38
236.519	87.38
236.753	94.38
236.987	84.38
237.221	80.38
237.455	83.38
237.689	72.38
237.922	66.38
238.156	71.38
238.39	78.38
238.624	85.38
238.858	81.38
239.091	89.38
239.325	87.38
239.559	88.38
239.793	94.38
240.027	95.38
240.26	79.38
240.494	78.38
240.728	74.38
240.961	76.38
241.195	81.38
241.429	78.38
241.662	73.38
241.896	69.38
242.13	66.38
242.363	79.38
242.597	87.38
242.83	76.38
243.064	76.38
243.298	69.38
243.531	76.38
243.765	79.38
243.998	90.38
244.232	83.38
244.465	79.38
244.699	81.38
244.932	76.38
245.166	76.38
245.399	90.38
245.633	83.38
245.866	73.38
246.099	83.38
246.333	70.38
246.566	75.38
246.8	79.38
247.033	80.38
247.266	87.38
247.5	85.38
247.733	80.38
247.966	73.38
248.2	96.38
248.433	77.38
248.666	84.38
248.899	102.38
249.133	102.38
249.366	105.38
249.599	102.38
249.832	81.38
250.066	94.38
250.299	102.38
250.532	80.38
250.765	74.38
250.998	96.38
251.231	86.38
251.465	78.38
251.698	87.38
251.931	83.38
252.164	87.38
252.397	68.38
252.63	89.38
252.863	78.38
253.096	75.38
253.329	69.38
253.562	75.38
253.795	80.38
254.028	79.38
254.261	94.38
254.494	84.38
254.727	87.38
254.96	85.38
255.193	80.38
255.426	65.38
255.659	77.38
255.892	81.38
256.124	78.38
256.357	78.38
256.59	80.38
256.823	77.38
257.056	83.38
257.289	77.38
257.521	66.38
257.754	74.38
257.987	86.38
258.22	83.38
258.452	94.38
258.685	82.38
258.918	84.38
259.151	70.38
259.383	84.38
259.616	81.38
259.849	90.38
260.081	88.38
260.314	84.38
260.547	94.38
260.779	91.38
261.012	83.38
261.244	75.38
261.477	79.38
261.71	102.38
261.942	139.38
262.175	160.38
262.407	97.38
262.64	94.38
262.872	84.38
263.105	90.38
263.337	86.38
263.57	79.38
263.802	85.38
264.035	72.38
264.267	87.38
264.499	105.38
264.732	83.38
264.964	68.38
265.197	79.38
265.429	82.38
265.661	95.38
265.894	78.38
266.126	86.38
266.358	76.38
266.591	83.38
266.823	80.38
267.055	74.38
267.287	82.38
267.52	95.38
267.752	93.38
267.984	89.38
268.216	97.38
268.448	101.38
268.681	83.38
268.913	75.38
269.145	78.38
269.377	92.38
269.609	92.38
269.841	81.38
270.073	78.38
270.306	76.38
270.538	88.38
270.77	94.38
271.002	82.38
271.234	74.38
271.466	84.38
271.698	90.38
271.93	73.38
272.162	91.38
272.394	89.38
272.626	98.38
272.858	74.38
273.09	103.38
273.322	91.38
273.553	92.38
273.785	88.38
274.017	71.38
274.249	81.38
274.481	90.38
274.713	86.38
274.945	88.38
275.176	85.38
275.408	83.38
275.64	79.38
275.872	78.38
276.104	90.38
276.335	101.38
276.567	108.38
276.799	130.38
277.031	111.38
277.262	89.38
277.494	95.38
277.726	95.38
277.957	80.38
278.189	74.38
278.421	82.38
278.652	81.38
278.884	81.38
279.115	69.38
279.347	86.38
279.579	97.38
279.81	81.38
280.042	86.38
280.273	96.38
280.505	93.38
280.736	83.38
280.968	97.38
281.199	82.38
281.431	88.38
281.662	86.38
281.894	95.38
282.125	107.38
282.356	138.38
282.588	187.38
282.819	137.38
283.051	84.38
283.282	77.38
283.513	83.38
283.745	83.38
283.976	80.38
284.207	83.38
284.439	83.38
284.67	70.38
284.901	79.38
285.132	88.38
285.364	95.38
285.595	85.38
285.826	91.38
286.057	85.38
286.288	75.38
286.52	85.38
286.751	82.38
286.982	80.38
287.213	92.38
287.444	75.38
287.675	98.38
287.906	82.38
288.138	90.38
288.369	96.38
288.6	102.38
288.831	81.38
289.062	98.38
289.293	100.38
289.524	84.38
289.755	88.38
289.986	73.38
290.217	90.38
290.448	79.38
290.679	74.38
290.91	95.38
291.141	82.38
291.371	110.38
291.602	99.38
291.833	86.38
292.064	81.38
292.295	85.38
292.526	84.38
292.757	87.38
292.987	85.38
293.218	97.38
293.449	96.38
293.68	105.38
293.91	85.38
294.141	95.38
294.372	90.38
294.603	87.38
294.833	87.38
295.064	95.38
295.295	87.38
295.525	93.38
295.756	110.38
295.987	146.38
296.217	185.38
296.448	159.38
296.679	105.38
296.909	79.38
297.14	95.38
297.37	89.38
297.601	83.38
297.831	89.38
298.062	97.38
298.292	112.38
298.523	92.38
298.753	86.38
298.984	76.38
299.214	91.38
299.445	93.38
299.675	118.38
299.905	98.38
300.136	85.38
300.366	80.38
300.597	98.38
300.827	97.38
301.057	107.38
301.288	114.38
301.518	110.38
301.748	92.38
301.979	107.38
302.209	98.38
302.439	101.38
302.669	96.38
302.9	100.38
303.13	102.38
303.36	104.38
303.59	112.38
303.82	108.38
304.051	102.38
304.281	104.38
304.511	95.38
304.741	85.38
304.971	89.38
305.201	83.38
305.431	80.38
305.661	102.38
305.891	91.38
306.121	110.38
306.352	118.38
306.582	114.38
306.812	92.38
307.042	90.38
307.272	93.38
307.502	94.38
307.731	90.38
307.961	88.38
308.191	79.38
308.421	96.38
308.651	98.38
308.881	88.38
309.111	88.38
309.341	96.38
309.571	120.38
309.8	116.38
310.03	104.38
310.26	116.38
310.49	86.38
310.72	108.38
310.949	116.38
311.179	107.38
311.409	104.38
311.639	114.38
311.868	95.38
312.098	107.38
312.328	112.38
312.557	107.38
312.787	130.38
313.017	118.38
313.246	93.38
313.476	94.38
313.706	97.38
313.935	100.38
314.165	120.38
314.394	117.38
314.624	85.38
314.853	97.38
315.083	95.38
315.312	96.38
315.542	80.38
315.771	106.38
316.001	97.38
316.23	97.38
316.46	95.38
316.689	91.38
316.919	97.38
317.148	86.38
317.377	94.38
317.607	99.38
317.836	103.38
318.065	112.38
318.295	103.38
318.524	97.38
318.753	83.38
318.983	96.38
319.212	107.38
319.441	130.38
319.67	114.38
319.9	111.38
320.129	97.38
320.358	102.38
320.587	89.38
320.816	112.38
321.046	107.38
321.275	108.38
321.504	106.38
321.733	112.38
321.962	113.38
322.191	89.38
322.42	123.38
322.649	132.38
322.878	126.38
323.108	157.38
323.337	133.38
323.566	145.38
323.795	192.38
324.024	268.38
324.253	572.38
324.482	1231.38
324.71	2548.38
324.939	3438.38
325.168	1237.38
325.397	331.38
325.626	182.38
325.855	149.38
326.084	147.38
326.313	145.38
326.542	182.38
326.77	296.38
326.999	612.38
327.228	1340.38
327.457	2463.38
327.686	1928.38
327.914	526.38
328.143	251.38
328.372	195.38
328.6	155.38
328.829	137.38
329.058	171.38
329.287	162.38
329.515	131.38
329.744	121.38
329.972	119.38
330.201	131.38
330.43	144.38
330.658	146.38
330.887	192.38
331.115	157.38
331.344	108.38
331.572	105.38
331.801	114.38
332.03	109.38
332.258	103.38
332.486	107.38
332.715	98.38
332.943	89.38
333.172	92.38
333.4	94.38
333.629	108.38
333.857	138.38
334.085	124.38
334.314	113.38
334.542	132.38
334.771	115.38
334.999	114.38
335.227	97.38
335.455	120.38
335.684	117.38
335.912	82.38
336.14	113.38
336.369	91.38
336.597	100.38
336.825	104.38
337.053	95.38
337.281	104.38
337.51	89.38
337.738	99.38
337.966	98.38
338.194	114.38
338.422	99.38
338.65	112.38
338.878	95.38
339.106	98.38
339.334	83.38
339.562	102.38
339.79	86.38
340.018	89.38
340.246	100.38
340.474	87.38
340.702	87.38
340.93	87.38
341.158	84.38
341.386	96.38
341.614	98.38
341.842	91.38
342.07	85.38
342.298	107.38
342.526	105.38
342.754	105.38
342.981	95.38
343.209	96.38
343.437	95.38
343.665	88.38
343.893	93.38
344.12	107.38
344.348	82.38
344.576	105.38
344.804	93.38
345.031	105.38
345.259	105.38
345.487	98.38
345.714	91.38
345.942	91.38
346.17	91.38
346.397	89.38
346.625	89.38
346.853	104.38
347.08	87.38
347.308	94.38
347.535	105.38
347.763	107.38
347.99	99.38
348.218	119.38
348.445	119.38
348.673	129.38
348.9	110.38
349.128	106.38
349.355	94.38
349.583	100.38
349.81	93.38
350.037	97.38
350.265	87.38
350.492	103.38
350.72	89.38
350.947	95.38
351.174	119.38
351.402	120.38
351.629	115.38
351.856	105.38
352.083	113.38
352.311	114.38
352.538	115.38
352.765	111.38
352.992	132.38
353.22	131.38
353.447	105.38
353.674	84.38
353.901	94.38
354.128	91.38
354.355	100.38
354.583	105.38
354.81	102.38
355.037	101.38
355.264	84.38
355.491	77.38
355.718	87.38
355.945	101.38
356.172	95.38
356.399	100.38
356.626	108.38
356.853	87.38
357.08	70.38
357.307	93.38
357.534	94.38
357.761	100.38
357.988	108.38
358.215	99.38
358.441	104.38
358.668	97.38
358.895	87.38
359.122	94.38
359.349	105.38
359.576	86.38
359.802	110.38
360.029	138.38
360.256	126.38
360.483	111.38
360.709	91.38
360.936	107.38
361.163	102.38
361.39	111.38
361.616	111.38
361.843	98.38
362.07	94.38
362.296	96.38
362.523	95.38
362.749	100.38
362.976	84.38
363.203	86.38
363.429	81.38
363.656	96.38
363.882	79.38
364.109	99.38
364.335	90.38
364.562	103.38
364.788	95.38
365.015	91.38
365.241	123.38
365.468	116.38
365.694	124.38
365.92	118.38
366.147	104.38
366.373	93.38
366.599	91.38
366.826	88.38
367.052	79.38
367.278	111.38
367.505	91.38
367.731	97.38
367.957	112.38
368.184	105.38
368.41	117.38
368.636	123.38
368.862	141.38
369.089	117.38
369.315	96.38
369.541	102.38
369.767	85.38
369.993	96.38
370.219	90.38
370.445	92.38
370.672	90.38
370.898	91.38
371.124	80.38
371.35	86.38
371.576	95.38
371.802	93.38
372.028	83.38
372.254	88.38
372.48	96.38
372.706	90.38
372.932	89.38
373.158	91.38
373.384	84.38
373.61	98.38
373.835	84.38
374.061	97.38
374.287	106.38
374.513	89.38
374.739	89.38
374.965	84.38
375.191	95.38
375.416	87.38
375.642	90.38
375.868	95.38
376.094	90.38
376.319	98.38
376.545	75.38
376.771	93.38
376.997	84.38
377.222	81.38
377.448	91.38
377.674	108.38
377.899	76.38
378.125	80.38
378.35	97.38
378.576	81.38
378.802	104.38
379.027	97.38
379.253	106.38
379.478	111.38
379.704	102.38
379.929	100.38
380.155	97.38
380.38	99.38
380.606	111.38
380.831	84.38
381.057	97.38
381.282	89.38
381.507	100.38
381.733	94.38
381.958	102.38
382.184	87.38
382.409	102.38
382.634	106.38
382.86	110.38
383.085	110.38
383.31	107.38
383.535	114.38
383.761	102.38
383.986	90.38
384.211	110.38
384.436	91.38
384.662	109.38
384.887	100.38
385.112	106.38
385.337	106.38
385.562	120.38
385.787	88.38
386.013	130.38
386.238	118.38
386.463	100.38
386.688	114.38
386.913	99.38
387.138	102.38
387.363	98.38
387.588	107.38
387.813	115.38
388.038	98.38
388.263	106.38
388.488	98.38
388.713	110.38
388.938	74.38
389.163	92.38
389.387	91.38
389.612	87.38
389.837	95.38
390.062	88.38
390.287	93.38
390.512	76.38
390.736	89.38
390.961	82.38
391.186	95.38
391.411	97.38
391.636	73.38
391.86	85.38
392.085	84.38
392.31	88.38
392.534	85.38
392.759	81.38
392.984	79.38
393.208	89.38
393.433	105.38
393.658	82.38
393.882	87.38
394.107	80.38
394.331	79.38
394.556	83.38
394.78	94.38
395.005	80.38
395.229	87.38
395.454	98.38
395.678	95.38
395.903	90.38
396.127	82.38
396.352	83.38
396.576	86.38
396.801	75.38
397.025	99.38
397.249	86.38
397.474	96.38
397.698	89.38
397.922	90.38
398.147	89.38
398.371	82.38
398.595	71.38
398.82	78.38
399.044	79.38
399.268	96.38
399.492	87.38
399.717	89.38
399.941	97.38
400.165	103.38
400.389	102.38
400.613	111.38
400.837	101.38
401.062	104.38
401.286	105.38
401.51	98.38
401.734	83.38
401.958	108.38
402.182	166.38
402.406	223.38
402.63	149.38
402.854	110.38
403.078	101.38
403.302	89.38
403.526	82.38
403.75	98.38
403.974	82.38
404.198	73.38
404.422	100.38
404.645	107.38
404.869	97.38
405.093	114.38
405.317	106.38
405.541	105.38
405.765	100.38
405.988	154.38
406.212	239.38
406.436	359.38
406.66	208.38
406.883	128.38
407.107	99.38
407.331	91.38
407.555	103.38
407.778	115.38
408.002	89.38
408.226	97.38
408.449	89.38
408.673	81.38
408.896	101.38
409.12	93.38
409.344	80.38
409.567	87.38
409.791	98.38
410.014	98.38
410.238	98.38
410.461	106.38
410.685	98.38
410.908	99.38
411.132	98.38
411.355	115.38
411.578	96.38
411.802	83.38
412.025	97.38
412.249	93.38
412.472	95.38
412.695	103.38
412.919	94.38
413.142	76.38
413.365	88.38
413.589	87.38
413.812	67.38
414.035	92.38
414.258	90.38
414.482	108.38
414.705	84.38
414.928	88.38
415.151	85.38
415.374	94.38
415.597	79.38
415.821	69.38
416.044	84.38
416.267	87.38
416.49	75.38
416.713	92.38
416.936	96.38
417.159	89.38
417.382	85.38
417.605	97.38
417.828	99.38
418.051	98.38
418.274	83.38
418.497	86.38
418.72	85.38
418.943	94.38
419.166	86.38
419.389	90.38
419.611	84.38
419.834	95.38
420.057	85.38
420.28	98.38
420.503	77.38
420.726	87.38
420.948	90.38
421.171	99.38
421.394	94.38
421.617	101.38
421.839	88.38
422.062	86.38
422.285	100.38
422.507	97.38
422.73	103.38
422.953	82.38
423.175	88.38
423.398	77.38
423.621	86.38
423.843	92.38
424.066	88.38
424.288	102.38
424.511	110.38
424.733	105.38
424.956	118.38
425.178	102.38
425.401	99.38
425.623	110.38
425.846	92.38
426.068	92.38
426.291	86.38
426.513	89.38
426.735	96.38
426.958	99.38
427.18	115.38
427.402	152.38
427.625	223.38
427.847	166.38
428.069	120.38
428.292	89.38
428.514	94.38
428.736	97.38
428.958	85.38
429.181	91.38
429.403	80.38
429.625	93.38
429.847	103.38
430.069	100.38
430.292	99.38
430.514	78.38
430.736	88.38
430.958	95.38
431.18	87.38
431.402	75.38
431.624	75.38
431.846	80.38
432.068	84.38
432.29	103.38
432.512	84.38
432.734	75.38
432.956	97.38
433.178	91.38
433.4	106.38
433.622	88.38
433.844	66.38
434.066	113.38
434.287	89.38
434.509	88.38
434.731	98.38
434.953	80.38
435.175	96.38
435.397	76.38
435.618	106.38
435.84	111.38
436.062	130.38
436.284	119.38
436.505	103.38
436.727	116.38
436.949	90.38
437.17	82.38
437.392	91.38
437.614	106.38
437.835	121.38
438.057	146.38
438.278	130.38
438.5	97.38
438.721	126.38
438.943	103.38
439.165	93.38
439.386	86.38
439.608	83.38
439.829	92.38
440.05	137.38
440.272	174.38
440.493	110.38
440.715	83.38
440.936	86.38
441.158	99.38
441.379	83.38
441.6	94.38
441.822	98.38
442.043	96.38
442.264	105.38
442.486	113.38
442.707	103.38
442.928	128.38
443.149	176.38
443.371	162.38
443.592	138.38
443.813	123.38
444.034	100.38
444.255	97.38
444.476	107.38
444.698	106.38
444.919	84.38
445.14	126.38
445.361	138.38
445.582	133.38
445.803	190.38
446.024	166.38
446.245	154.38
446.466	118.38
446.687	94.38
446.908	91.38
447.129	89.38
447.35	99.38
447.571	93.38
447.792	98.38
448.013	106.38
448.234	125.38
448.455	103.38
448.675	128.38
448.896	126.38
449.117	98.38
449.338	107.38
449.559	128.38
449.779	127.38
450	91.38
450.221	85.38
450.442	92.38
450.662	105.38
450.883	131.38
451.104	137.38
451.324	113.38
451.545	96.38
451.766	92.38
451.986	83.38
452.207	68.38
452.428	102.38
452.648	110.38
452.869	143.38
453.089	157.38
453.31	147.38
453.53	110.38
453.751	86.38
453.971	100.38
454.192	140.38
454.412	111.38
454.633	82.38
454.853	77.38
455.073	98.38
455.294	95.38
455.514	124.38
455.734	96.38
455.955	86.38
456.175	82.38
456.395	102.38
456.616	91.38
456.836	98.38
457.056	97.38
457.276	84.38
457.497	87.38
457.717	85.38
457.937	95.38
458.157	72.38
458.377	90.38
458.598	124.38
458.818	208.38
459.038	219.38
459.258	152.38
459.478	88.38
459.698	101.38
459.918	97.38
460.138	81.38
460.358	74.38
460.578	82.38
460.798	89.38
461.018	86.38
461.238	100.38
461.458	95.38
461.678	82.38
461.898	85.38
462.118	83.38
462.338	81.38
462.558	87.38
462.777	87.38
462.997	95.38
463.217	96.38
463.437	95.38
463.657	84.38
463.876	76.38
464.096	97.38
464.316	95.38
464.536	103.38
464.755	94.38
464.975	135.38
465.195	244.38
465.414	247.38
465.634	106.38
465.854	88.38
466.073	90.38
466.293	80.38
466.512	100.38
466.732	81.38
466.951	83.38
467.171	91.38
467.391	111.38
467.61	116.38
467.829	100.38
468.049	97.38
468.268	91.38
468.488	94.38
468.707	70.38
468.927	83.38
469.146	94.38
469.365	90.38
469.585	82.38
469.804	113.38
470.023	100.38
470.243	94.38
470.462	116.38
470.681	146.38
470.901	94.38
471.12	81.38
471.339	81.38
471.558	106.38
471.777	97.38
471.997	93.38
472.216	113.38
472.435	117.38
472.654	88.38
472.873	96.38
473.092	90.38
473.311	82.38
473.53	67.38
473.749	80.38
473.968	97.38
474.187	109.38
474.406	88.38
474.625	96.38
474.844	95.38
475.063	75.38
475.282	105.38
475.501	90.38
475.72	97.38
475.939	79.38
476.158	88.38
476.377	91.38
476.596	82.38
476.814	118.38
477.033	93.38
477.252	94.38
477.471	75.38
477.69	96.38
477.908	85.38
478.127	105.38
478.346	86.38
478.564	104.38
478.783	100.38
479.002	81.38
479.22	102.38
479.439	89.38
479.658	112.38
479.876	108.38
480.095	107.38
480.313	83.38
480.532	85.38
480.751	95.38
480.969	98.38
481.188	155.38
481.406	136.38
481.624	83.38
481.843	86.38
482.061	85.38
482.28	105.38
482.498	97.38
482.717	83.38
482.935	91.38
483.153	99.38
483.372	80.38
483.59	83.38
483.808	90.38
484.027	87.38
484.245	114.38
484.463	89.38
484.681	94.38
484.9	89.38
485.118	99.38
485.336	88.38
485.554	97.38
485.772	97.38
485.99	101.38
486.209	120.38
486.427	106.38
486.645	110.38
486.863	123.38
487.081	102.38
487.299	102.38
487.517	96.38
487.735	84.38
487.953	98.38
488.171	110.38
488.389	91.38
488.607	107.38
488.825	100.38
489.043	93.38
489.261	96.38
489.479	106.38
489.696	98.38
489.914	95.38
490.132	80.38
490.35	84.38
490.568	91.38
490.786	94.38
491.003	82.38
491.221	82.38
491.439	104.38
491.657	82.38
491.874	83.38
492.092	95.38
492.31	106.38
492.527	94.38
492.745	83.38
492.963	93.38
493.18	88.38
493.398	86.38
493.615	94.38
493.833	90.38
494.05	91.38
494.268	71.38
494.485	90.38
494.703	97.38
494.92	91.38
495.138	102.38
495.355	89.38
495.573	103.38
495.79	87.38
496.008	90.38
496.225	101.38
496.442	99.38
496.66	88.38
496.877	100.38
497.094	87.38
497.312	90.38
497.529	84.38
497.746	97.38
497.963	90.38
498.181	81.38
498.398	100.38
498.615	128.38
498.832	103.38
499.049	108.38
499.267	94.38
499.484	86.38
499.701	92.38
499.918	95.38
500.135	102.38
500.352	86.38
500.569	73.38
500.786	102.38
501.003	97.38
501.22	102.38
501.437	90.38
501.654	99.38
501.871	117.38
502.088	94.38
502.305	91.38
502.522	92.38
502.739	98.38
502.956	96.38
503.172	104.38
503.389	91.38
503.606	131.38
503.823	99.38
504.04	97.38
504.256	100.38
504.473	98.38
504.69	86.38
504.907	83.38
505.123	87.38
505.34	87.38
505.557	85.38
505.773	81.38
505.99	84.38
506.207	91.38
506.423	89.38
506.64	97.38
506.856	90.38
507.073	88.38
507.289	95.38
507.506	115.38
507.722	138.38
507.939	137.38
508.155	108.38
508.372	92.38
508.588	98.38
508.805	84.38
509.021	118.38
509.238	120.38
509.454	109.38
509.67	105.38
509.887	120.38
510.103	159.38
510.319	282.38
510.536	1183.38
510.752	4233.38
510.968	1116.38
511.184	227.38
511.401	138.38
511.617	116.38
511.833	103.38
512.049	99.38
512.265	91.38
512.481	95.38
512.698	96.38
512.914	96.38
513.13	99.38
513.346	97.38
513.562	103.38
513.778	113.38
513.994	101.38
