Data from Circ_2022_H10_HRD10591_00021.txt Node
Date: Wed Jan 03 09:53:41 EST 2024
User: Yrep
Spectrometer: HR+D1059
Trigger mode: 1
Integration Time (sec): 1.000000E-1
Scans to average: 1
Electric dark correction enabled: true
Nonlinearity correction enabled: false
Boxcar width: 0
XAxis mode: Wavelengths
Number of Pixels in Spectrum: 2048
>>>>>Begin Spectral Data<<<<<
223.165	-23.75
223.4	-23.75
223.635	-23.75
223.869	-34.75
224.104	-18.75
224.338	-2.75
224.573	-6.75
224.808	-15.75
225.042	-2.75
225.277	-0.75
225.511	-6.75
225.746	0.25
225.98	7.25
226.215	7.25
226.449	20.25
226.683	19.25
226.918	26.25
227.152	32.25
227.387	21.25
227.621	28.25
227.856	36.25
228.09	36.25
228.324	46.25
228.559	58.25
228.793	53.25
229.027	58.25
229.262	73.25
229.496	69.25
229.73	85.25
229.964	75.25
230.199	82.25
230.433	68.25
230.667	83.25
230.901	82.25
231.136	77.25
231.37	77.25
231.604	70.25
231.838	66.25
232.072	73.25
232.306	74.25
232.541	70.25
232.775	72.25
233.009	81.25
233.243	68.25
233.477	68.25
233.711	83.25
233.945	68.25
234.179	64.25
234.413	77.25
234.647	77.25
234.881	78.25
235.115	75.25
235.349	56.25
235.583	77.25
235.817	72.25
236.051	66.25
236.285	75.25
236.519	71.25
236.753	81.25
236.987	72.25
237.221	85.25
237.455	90.25
237.689	71.25
237.922	83.25
238.156	78.25
238.39	76.25
238.624	77.25
238.858	81.25
239.091	78.25
239.325	85.25
239.559	75.25
239.793	74.25
240.027	75.25
240.26	65.25
240.494	74.25
240.728	96.25
240.961	67.25
241.195	71.25
241.429	81.25
241.662	62.25
241.896	78.25
242.13	74.25
242.363	71.25
242.597	82.25
242.83	71.25
243.064	77.25
243.298	79.25
243.531	78.25
243.765	72.25
243.998	74.25
244.232	90.25
244.465	90.25
244.699	75.25
244.932	79.25
245.166	79.25
245.399	69.25
245.633	90.25
245.866	63.25
246.099	76.25
246.333	76.25
246.566	76.25
246.8	71.25
247.033	75.25
247.266	73.25
247.5	82.25
247.733	68.25
247.966	80.25
248.2	86.25
248.433	78.25
248.666	83.25
248.899	81.25
249.133	102.25
249.366	91.25
249.599	104.25
249.832	85.25
250.066	89.25
250.299	69.25
250.532	66.25
250.765	78.25
250.998	74.25
251.231	62.25
251.465	74.25
251.698	73.25
251.931	86.25
252.164	87.25
252.397	80.25
252.63	70.25
252.863	66.25
253.096	71.25
253.329	75.25
253.562	88.25
253.795	98.25
254.028	85.25
254.261	89.25
254.494	89.25
254.727	96.25
254.96	85.25
255.193	75.25
255.426	67.25
255.659	72.25
255.892	83.25
256.124	77.25
256.357	80.25
256.59	88.25
256.823	70.25
257.056	78.25
257.289	81.25
257.521	66.25
257.754	63.25
257.987	91.25
258.22	94.25
258.452	81.25
258.685	75.25
258.918	75.25
259.151	62.25
259.383	77.25
259.616	80.25
259.849	89.25
260.081	84.25
260.314	74.25
260.547	76.25
260.779	86.25
261.012	85.25
261.244	73.25
261.477	95.25
261.71	89.25
261.942	131.25
262.175	139.25
262.407	93.25
262.64	93.25
262.872	86.25
263.105	90.25
263.337	85.25
263.57	83.25
263.802	85.25
264.035	70.25
264.267	88.25
264.499	91.25
264.732	86.25
264.964	78.25
265.197	83.25
265.429	77.25
265.661	66.25
265.894	95.25
266.126	94.25
266.358	75.25
266.591	79.25
266.823	93.25
267.055	74.25
267.287	88.25
267.52	98.25
267.752	82.25
267.984	98.25
268.216	88.25
268.448	73.25
268.681	77.25
268.913	77.25
269.145	73.25
269.377	87.25
269.609	80.25
269.841	85.25
270.073	94.25
270.306	97.25
270.538	83.25
270.77	93.25
271.002	77.25
271.234	77.25
271.466	86.25
271.698	80.25
271.93	94.25
272.162	94.25
272.394	99.25
272.626	79.25
272.858	81.25
273.09	85.25
273.322	82.25
273.553	82.25
273.785	87.25
274.017	74.25
274.249	77.25
274.481	65.25
274.713	82.25
274.945	80.25
275.176	68.25
275.408	89.25
275.64	83.25
275.872	89.25
276.104	91.25
276.335	90.25
276.567	112.25
276.799	141.25
277.031	97.25
277.262	87.25
277.494	92.25
277.726	81.25
277.957	82.25
278.189	90.25
278.421	80.25
278.652	89.25
278.884	97.25
279.115	94.25
279.347	79.25
279.579	89.25
279.81	86.25
280.042	64.25
280.273	87.25
280.505	84.25
280.736	74.25
280.968	94.25
281.199	74.25
281.431	83.25
281.662	90.25
281.894	83.25
282.125	101.25
282.356	130.25
282.588	167.25
282.819	119.25
283.051	100.25
283.282	89.25
283.513	96.25
283.745	78.25
283.976	97.25
284.207	93.25
284.439	79.25
284.67	101.25
284.901	87.25
285.132	88.25
285.364	92.25
285.595	74.25
285.826	93.25
286.057	89.25
286.288	87.25
286.52	86.25
286.751	87.25
286.982	56.25
287.213	81.25
287.444	72.25
287.675	79.25
287.906	73.25
288.138	91.25
288.369	99.25
288.6	97.25
288.831	83.25
289.062	90.25
289.293	86.25
289.524	78.25
289.755	71.25
289.986	66.25
290.217	85.25
290.448	92.25
290.679	90.25
290.91	80.25
291.141	61.25
291.371	76.25
291.602	85.25
291.833	89.25
292.064	81.25
292.295	76.25
292.526	89.25
292.757	79.25
292.987	97.25
293.218	84.25
293.449	95.25
293.68	85.25
293.91	86.25
294.141	79.25
294.372	85.25
294.603	103.25
294.833	94.25
295.064	77.25
295.295	107.25
295.525	77.25
295.756	99.25
295.987	124.25
296.217	165.25
296.448	144.25
296.679	108.25
296.909	82.25
297.14	80.25
297.37	98.25
297.601	85.25
297.831	79.25
298.062	80.25
298.292	83.25
298.523	84.25
298.753	85.25
298.984	99.25
299.214	98.25
299.445	93.25
299.675	86.25
299.905	84.25
300.136	89.25
300.366	88.25
300.597	91.25
300.827	90.25
301.057	95.25
301.288	105.25
301.518	97.25
301.748	78.25
301.979	96.25
302.209	97.25
302.439	98.25
302.669	73.25
302.9	93.25
303.13	93.25
303.36	96.25
303.59	95.25
303.82	117.25
304.051	106.25
304.281	93.25
304.511	94.25
304.741	83.25
304.971	86.25
305.201	83.25
305.431	94.25
305.661	74.25
305.891	94.25
306.121	94.25
306.352	112.25
306.582	91.25
306.812	83.25
307.042	103.25
307.272	109.25
307.502	95.25
307.731	87.25
307.961	84.25
308.191	83.25
308.421	82.25
308.651	80.25
308.881	89.25
309.111	81.25
309.341	99.25
309.571	103.25
309.8	105.25
310.03	99.25
310.26	95.25
310.49	103.25
310.72	108.25
310.949	118.25
311.179	111.25
311.409	90.25
311.639	94.25
311.868	98.25
312.098	111.25
312.328	93.25
312.557	109.25
312.787	127.25
313.017	103.25
313.246	97.25
313.476	95.25
313.706	81.25
313.935	85.25
314.165	97.25
314.394	100.25
314.624	111.25
314.853	105.25
315.083	94.25
315.312	97.25
315.542	85.25
315.771	95.25
316.001	96.25
316.23	102.25
316.46	92.25
316.689	102.25
316.919	98.25
317.148	100.25
317.377	100.25
317.607	93.25
317.836	97.25
318.065	87.25
318.295	87.25
318.524	87.25
318.753	81.25
318.983	94.25
319.212	106.25
319.441	125.25
319.67	119.25
319.9	98.25
320.129	94.25
320.358	94.25
320.587	94.25
320.816	94.25
321.046	104.25
321.275	97.25
321.504	89.25
321.733	92.25
321.962	103.25
322.191	97.25
322.42	97.25
322.649	113.25
322.878	114.25
323.108	135.25
323.337	146.25
323.566	155.25
323.795	173.25
324.024	245.25
324.253	491.25
324.482	1085.25
324.71	2233.25
324.939	2968.25
325.168	1091.25
325.397	300.25
325.626	169.25
325.855	145.25
326.084	137.25
326.313	141.25
326.542	184.25
326.77	250.25
326.999	543.25
327.228	1139.25
327.457	2117.25
327.686	1717.25
327.914	453.25
328.143	233.25
328.372	174.25
328.6	139.25
328.829	136.25
329.058	144.25
329.287	153.25
329.515	137.25
329.744	119.25
329.972	103.25
330.201	118.25
330.43	142.25
330.658	144.25
330.887	195.25
331.115	157.25
331.344	111.25
331.572	102.25
331.801	104.25
332.03	115.25
332.258	95.25
332.486	97.25
332.715	92.25
332.943	102.25
333.172	100.25
333.4	94.25
333.629	112.25
333.857	109.25
334.085	127.25
334.314	96.25
334.542	132.25
334.771	125.25
334.999	104.25
335.227	96.25
335.455	95.25
335.684	96.25
335.912	93.25
336.14	95.25
336.369	96.25
336.597	101.25
336.825	106.25
337.053	99.25
337.281	88.25
337.51	104.25
337.738	94.25
337.966	98.25
338.194	95.25
338.422	105.25
338.65	96.25
338.878	97.25
339.106	80.25
339.334	86.25
339.562	88.25
339.79	92.25
340.018	89.25
340.246	89.25
340.474	94.25
340.702	103.25
340.93	91.25
341.158	91.25
341.386	95.25
341.614	100.25
341.842	111.25
342.07	100.25
342.298	99.25
342.526	94.25
342.754	101.25
342.981	87.25
343.209	93.25
343.437	85.25
343.665	97.25
343.893	87.25
344.12	88.25
344.348	88.25
344.576	79.25
344.804	89.25
345.031	104.25
345.259	109.25
345.487	101.25
345.714	84.25
345.942	88.25
346.17	89.25
346.397	79.25
346.625	116.25
346.853	94.25
347.08	90.25
347.308	89.25
347.535	93.25
347.763	86.25
347.99	98.25
348.218	106.25
348.445	113.25
348.673	102.25
348.9	100.25
349.128	91.25
349.355	97.25
349.583	106.25
349.81	91.25
350.037	104.25
350.265	96.25
350.492	94.25
350.72	89.25
350.947	115.25
351.174	112.25
351.402	122.25
351.629	101.25
351.856	104.25
352.083	110.25
352.311	113.25
352.538	119.25
352.765	121.25
352.992	128.25
353.22	128.25
353.447	112.25
353.674	105.25
353.901	89.25
354.128	93.25
354.355	99.25
354.583	104.25
354.81	115.25
355.037	102.25
355.264	85.25
355.491	86.25
355.718	88.25
355.945	103.25
356.172	88.25
356.399	100.25
356.626	90.25
356.853	86.25
357.08	90.25
357.307	96.25
357.534	82.25
357.761	89.25
357.988	96.25
358.215	87.25
358.441	95.25
358.668	85.25
358.895	90.25
359.122	82.25
359.349	84.25
359.576	90.25
359.802	110.25
360.029	125.25
360.256	125.25
360.483	112.25
360.709	94.25
360.936	94.25
361.163	91.25
361.39	103.25
361.616	102.25
361.843	96.25
362.07	96.25
362.296	103.25
362.523	100.25
362.749	93.25
362.976	112.25
363.203	109.25
363.429	86.25
363.656	95.25
363.882	82.25
364.109	82.25
364.335	95.25
364.562	80.25
364.788	90.25
365.015	93.25
365.241	93.25
365.468	110.25
365.694	120.25
365.92	98.25
366.147	104.25
366.373	98.25
366.599	98.25
366.826	72.25
367.052	96.25
367.278	85.25
367.505	96.25
367.731	90.25
367.957	87.25
368.184	91.25
368.41	97.25
368.636	113.25
368.862	146.25
369.089	119.25
369.315	97.25
369.541	81.25
369.767	105.25
369.993	102.25
370.219	83.25
370.445	87.25
370.672	88.25
370.898	94.25
371.124	85.25
371.35	88.25
371.576	90.25
371.802	89.25
372.028	104.25
372.254	82.25
372.48	82.25
372.706	85.25
372.932	79.25
373.158	95.25
373.384	108.25
373.61	88.25
373.835	102.25
374.061	85.25
374.287	85.25
374.513	103.25
374.739	93.25
374.965	84.25
375.191	81.25
375.416	101.25
375.642	86.25
375.868	82.25
376.094	82.25
376.319	70.25
376.545	94.25
376.771	85.25
376.997	79.25
377.222	104.25
377.448	86.25
377.674	96.25
377.899	94.25
378.125	91.25
378.35	92.25
378.576	85.25
378.802	99.25
379.027	81.25
379.253	81.25
379.478	92.25
379.704	106.25
379.929	89.25
380.155	103.25
380.38	89.25
380.606	98.25
380.831	95.25
381.057	111.25
381.282	93.25
381.507	107.25
381.733	102.25
381.958	91.25
382.184	98.25
382.409	115.25
382.634	98.25
382.86	96.25
383.085	101.25
383.31	100.25
383.535	109.25
383.761	82.25
383.986	97.25
384.211	107.25
384.436	101.25
384.662	89.25
384.887	116.25
385.112	102.25
385.337	102.25
385.562	122.25
385.787	105.25
386.013	111.25
386.238	116.25
386.463	106.25
386.688	99.25
386.913	107.25
387.138	118.25
387.363	103.25
387.588	91.25
387.813	91.25
388.038	104.25
388.263	106.25
388.488	121.25
388.713	95.25
388.938	96.25
389.163	90.25
389.387	90.25
389.612	97.25
389.837	96.25
390.062	97.25
390.287	91.25
390.512	86.25
390.736	84.25
390.961	75.25
391.186	87.25
391.411	97.25
391.636	98.25
391.86	92.25
392.085	93.25
392.31	76.25
392.534	79.25
392.759	88.25
392.984	99.25
393.208	86.25
393.433	98.25
393.658	98.25
393.882	83.25
394.107	80.25
394.331	81.25
394.556	98.25
394.78	84.25
395.005	90.25
395.229	96.25
395.454	81.25
395.678	81.25
395.903	82.25
396.127	88.25
396.352	72.25
396.576	70.25
396.801	94.25
397.025	99.25
397.249	81.25
397.474	94.25
397.698	89.25
397.922	88.25
398.147	91.25
398.371	98.25
398.595	98.25
398.82	87.25
399.044	90.25
399.268	61.25
399.492	72.25
399.717	96.25
399.941	87.25
400.165	105.25
400.389	101.25
400.613	80.25
400.837	85.25
401.062	82.25
401.286	85.25
401.51	91.25
401.734	78.25
401.958	91.25
402.182	153.25
402.406	180.25
402.63	152.25
402.854	105.25
403.078	94.25
403.302	95.25
403.526	92.25
403.75	79.25
403.974	75.25
404.198	74.25
404.422	86.25
404.645	83.25
404.869	101.25
405.093	109.25
405.317	98.25
405.541	121.25
405.765	126.25
405.988	131.25
406.212	213.25
406.436	302.25
406.66	192.25
406.883	121.25
407.107	106.25
407.331	105.25
407.555	98.25
407.778	99.25
408.002	95.25
408.226	88.25
408.449	90.25
408.673	95.25
408.896	93.25
409.12	93.25
409.344	102.25
409.567	83.25
409.791	94.25
410.014	103.25
410.238	93.25
410.461	92.25
410.685	99.25
410.908	97.25
411.132	111.25
411.355	103.25
411.578	94.25
411.802	87.25
412.025	95.25
412.249	93.25
412.472	101.25
412.695	101.25
412.919	103.25
413.142	87.25
413.365	95.25
413.589	84.25
413.812	82.25
414.035	93.25
414.258	91.25
414.482	94.25
414.705	90.25
414.928	88.25
415.151	85.25
415.374	85.25
415.597	91.25
415.821	86.25
416.044	101.25
416.267	88.25
416.49	81.25
416.713	80.25
416.936	65.25
417.159	89.25
417.382	89.25
417.605	86.25
417.828	89.25
418.051	103.25
418.274	98.25
418.497	89.25
418.72	75.25
418.943	83.25
419.166	83.25
419.389	82.25
419.611	97.25
419.834	79.25
420.057	104.25
420.28	95.25
420.503	93.25
420.726	99.25
420.948	92.25
421.171	109.25
421.394	88.25
421.617	95.25
421.839	96.25
422.062	88.25
422.285	102.25
422.507	79.25
422.73	96.25
422.953	97.25
423.175	87.25
423.398	75.25
423.621	87.25
423.843	82.25
424.066	91.25
424.288	94.25
424.511	85.25
424.733	100.25
424.956	121.25
425.178	109.25
425.401	97.25
425.623	109.25
425.846	98.25
426.068	117.25
426.291	97.25
426.513	88.25
426.735	88.25
426.958	83.25
427.18	112.25
427.402	144.25
427.625	207.25
427.847	156.25
428.069	130.25
428.292	81.25
428.514	79.25
428.736	88.25
428.958	89.25
429.181	83.25
429.403	90.25
429.625	83.25
429.847	94.25
430.069	94.25
430.292	109.25
430.514	86.25
430.736	83.25
430.958	97.25
431.18	85.25
431.402	80.25
431.624	84.25
431.846	91.25
432.068	84.25
432.29	91.25
432.512	89.25
432.734	89.25
432.956	88.25
433.178	104.25
433.4	104.25
433.622	98.25
433.844	101.25
434.066	97.25
434.287	78.25
434.509	99.25
434.731	75.25
434.953	77.25
435.175	75.25
435.397	97.25
435.618	95.25
435.84	107.25
436.062	143.25
436.284	135.25
436.505	98.25
436.727	110.25
436.949	84.25
437.17	96.25
437.392	72.25
437.614	96.25
437.835	116.25
438.057	121.25
438.278	112.25
438.5	110.25
438.721	131.25
438.943	104.25
439.165	97.25
439.386	94.25
439.608	104.25
439.829	105.25
440.05	142.25
440.272	177.25
440.493	115.25
440.715	82.25
440.936	86.25
441.158	86.25
441.379	96.25
441.6	101.25
441.822	90.25
442.043	98.25
442.264	110.25
442.486	105.25
442.707	113.25
442.928	129.25
443.149	149.25
443.371	171.25
443.592	128.25
443.813	126.25
444.034	127.25
444.255	92.25
444.476	102.25
444.698	104.25
444.919	104.25
445.14	141.25
445.361	127.25
445.582	119.25
445.803	162.25
446.024	171.25
446.245	158.25
446.466	139.25
446.687	102.25
446.908	92.25
447.129	87.25
447.35	93.25
447.571	99.25
447.792	95.25
448.013	103.25
448.234	107.25
448.455	106.25
448.675	129.25
448.896	118.25
449.117	111.25
449.338	105.25
449.559	143.25
449.779	163.25
450	92.25
450.221	82.25
450.442	95.25
450.662	119.25
450.883	128.25
451.104	129.25
451.324	103.25
451.545	94.25
451.766	86.25
451.986	86.25
452.207	89.25
452.428	96.25
452.648	109.25
452.869	127.25
453.089	154.25
453.31	134.25
453.53	98.25
453.751	98.25
453.971	106.25
454.192	125.25
454.412	99.25
454.633	97.25
454.853	98.25
455.073	79.25
455.294	96.25
455.514	110.25
455.734	88.25
455.955	86.25
456.175	97.25
456.395	82.25
456.616	75.25
456.836	75.25
457.056	88.25
457.276	88.25
457.497	81.25
457.717	84.25
457.937	83.25
458.157	94.25
458.377	98.25
458.598	142.25
458.818	191.25
459.038	209.25
459.258	151.25
459.478	98.25
459.698	94.25
459.918	70.25
460.138	78.25
460.358	85.25
460.578	83.25
460.798	87.25
461.018	96.25
461.238	77.25
461.458	86.25
461.678	97.25
461.898	86.25
462.118	74.25
462.338	87.25
462.558	84.25
462.777	81.25
462.997	80.25
463.217	72.25
463.437	86.25
463.657	92.25
463.876	71.25
464.096	79.25
464.316	96.25
464.536	84.25
464.755	96.25
464.975	143.25
465.195	214.25
465.414	222.25
465.634	109.25
465.854	93.25
466.073	82.25
466.293	85.25
466.512	81.25
466.732	87.25
466.951	88.25
467.171	88.25
467.391	94.25
467.61	106.25
467.829	102.25
468.049	90.25
468.268	86.25
468.488	86.25
468.707	84.25
468.927	71.25
469.146	77.25
469.365	78.25
469.585	73.25
469.804	97.25
470.023	103.25
470.243	90.25
470.462	108.25
470.681	120.25
470.901	83.25
471.12	91.25
471.339	84.25
471.558	81.25
471.777	90.25
471.997	73.25
472.216	93.25
472.435	120.25
472.654	86.25
472.873	84.25
473.092	96.25
473.311	89.25
473.53	82.25
473.749	90.25
473.968	84.25
474.187	109.25
474.406	106.25
474.625	77.25
474.844	95.25
475.063	90.25
475.282	80.25
475.501	83.25
475.72	104.25
475.939	86.25
476.158	89.25
476.377	85.25
476.596	94.25
476.814	92.25
477.033	91.25
477.252	81.25
477.471	106.25
477.69	99.25
477.908	98.25
478.127	76.25
478.346	97.25
478.564	86.25
478.783	111.25
479.002	101.25
479.22	97.25
479.439	104.25
479.658	100.25
479.876	89.25
480.095	94.25
480.313	99.25
480.532	94.25
480.751	91.25
480.969	98.25
481.188	147.25
481.406	139.25
481.624	90.25
481.843	81.25
482.061	98.25
482.28	76.25
482.498	87.25
482.717	87.25
482.935	95.25
483.153	99.25
483.372	97.25
483.59	84.25
483.808	89.25
484.027	78.25
484.245	84.25
484.463	97.25
484.681	107.25
484.9	86.25
485.118	94.25
485.336	98.25
485.554	104.25
485.772	113.25
485.99	93.25
486.209	115.25
486.427	111.25
486.645	105.25
486.863	105.25
487.081	106.25
487.299	103.25
487.517	75.25
487.735	85.25
487.953	95.25
488.171	81.25
488.389	105.25
488.607	95.25
488.825	93.25
489.043	82.25
489.261	91.25
489.479	82.25
489.696	92.25
489.914	85.25
490.132	91.25
490.35	99.25
490.568	85.25
490.786	89.25
491.003	89.25
491.221	87.25
491.439	95.25
491.657	91.25
491.874	90.25
492.092	91.25
492.31	81.25
492.527	90.25
492.745	92.25
492.963	88.25
493.18	79.25
493.398	101.25
493.615	95.25
493.833	90.25
494.05	94.25
494.268	103.25
494.485	81.25
494.703	89.25
494.92	83.25
495.138	100.25
495.355	78.25
495.573	93.25
495.79	90.25
496.008	84.25
496.225	88.25
496.442	91.25
496.66	101.25
496.877	102.25
497.094	106.25
497.312	85.25
497.529	80.25
497.746	95.25
497.963	107.25
498.181	92.25
498.398	100.25
498.615	114.25
498.832	115.25
499.049	83.25
499.267	85.25
499.484	83.25
499.701	96.25
499.918	77.25
500.135	99.25
500.352	89.25
500.569	86.25
500.786	75.25
501.003	92.25
501.22	90.25
501.437	84.25
501.654	110.25
501.871	138.25
502.088	78.25
502.305	85.25
502.522	75.25
502.739	89.25
502.956	93.25
503.172	96.25
503.389	98.25
503.606	108.25
503.823	86.25
504.04	92.25
504.256	78.25
504.473	89.25
504.69	99.25
504.907	93.25
505.123	94.25
505.34	87.25
505.557	101.25
505.773	78.25
505.99	91.25
506.207	82.25
506.423	95.25
506.64	91.25
506.856	99.25
507.073	95.25
507.289	87.25
507.506	101.25
507.722	134.25
507.939	113.25
508.155	92.25
508.372	91.25
508.588	95.25
508.805	111.25
509.021	87.25
509.238	90.25
509.454	91.25
509.67	106.25
509.887	114.25
510.103	154.25
510.319	247.25
510.536	973.25
510.752	3387.25
510.968	915.25
511.184	166.25
511.401	130.25
511.617	99.25
511.833	95.25
512.049	92.25
512.265	99.25
512.481	91.25
512.698	83.25
512.914	95.25
513.13	77.25
513.346	103.25
513.562	103.25
513.778	93.25
513.994	117.25
514.21	113.25
514.426	148.25
514.642	170.25
514.858	169.25
515.074	210.25
