Data from Circ_2022_H10_HRD10591_00092.txt Node
Date: Wed Jan 03 09:53:56 EST 2024
User: Yrep
Spectrometer: HR+D1059
Trigger mode: 1
Integration Time (sec): 1.000000E-1
Scans to average: 1
Electric dark correction enabled: true
Nonlinearity correction enabled: false
Boxcar width: 0
XAxis mode: Wavelengths
Number of Pixels in Spectrum: 2048
>>>>>Begin Spectral Data<<<<<
223.165	-23.44
223.4	-23.44
223.635	-23.44
223.869	-7.44
224.104	-24.44
224.338	-18.44
224.573	-18.44
224.808	-15.44
225.042	5.56
225.277	-2.44
225.511	5.56
225.746	-9.44
225.98	14.56
226.215	4.56
226.449	28.56
226.683	21.56
226.918	19.56
227.152	19.56
227.387	40.56
227.621	37.56
227.856	44.56
228.09	46.56
228.324	49.56
228.559	57.56
228.793	54.56
229.027	58.56
229.262	69.56
229.496	88.56
229.73	108.56
229.964	91.56
230.199	78.56
230.433	73.56
230.667	62.56
230.901	73.56
231.136	68.56
231.37	77.56
231.604	68.56
231.838	81.56
232.072	92.56
232.306	73.56
232.541	78.56
232.775	79.56
233.009	65.56
233.243	81.56
233.477	84.56
233.711	87.56
233.945	65.56
234.179	91.56
234.413	78.56
234.647	84.56
234.881	79.56
235.115	82.56
235.349	69.56
235.583	86.56
235.817	73.56
236.051	70.56
236.285	72.56
236.519	89.56
236.753	69.56
236.987	76.56
237.221	82.56
237.455	105.56
237.689	85.56
237.922	82.56
238.156	70.56
238.39	90.56
238.624	76.56
238.858	91.56
239.091	79.56
239.325	79.56
239.559	82.56
239.793	75.56
240.027	64.56
240.26	72.56
240.494	77.56
240.728	64.56
240.961	70.56
241.195	72.56
241.429	64.56
241.662	79.56
241.896	66.56
242.13	69.56
242.363	68.56
242.597	70.56
242.83	73.56
243.064	70.56
243.298	75.56
243.531	85.56
243.765	79.56
243.998	68.56
244.232	74.56
244.465	90.56
244.699	65.56
244.932	75.56
245.166	78.56
245.399	69.56
245.633	71.56
245.866	74.56
246.099	69.56
246.333	71.56
246.566	76.56
246.8	82.56
247.033	81.56
247.266	76.56
247.5	69.56
247.733	72.56
247.966	92.56
248.2	90.56
248.433	82.56
248.666	73.56
248.899	69.56
249.133	85.56
249.366	98.56
249.599	104.56
249.832	97.56
250.066	87.56
250.299	66.56
250.532	80.56
250.765	72.56
250.998	83.56
251.231	93.56
251.465	83.56
251.698	84.56
251.931	82.56
252.164	83.56
252.397	76.56
252.63	79.56
252.863	77.56
253.096	84.56
253.329	85.56
253.562	83.56
253.795	81.56
254.028	82.56
254.261	77.56
254.494	62.56
254.727	78.56
254.96	64.56
255.193	76.56
255.426	83.56
255.659	72.56
255.892	93.56
256.124	91.56
256.357	86.56
256.59	92.56
256.823	88.56
257.056	83.56
257.289	82.56
257.521	78.56
257.754	83.56
257.987	70.56
258.22	86.56
258.452	89.56
258.685	87.56
258.918	86.56
259.151	77.56
259.383	81.56
259.616	92.56
259.849	85.56
260.081	80.56
260.314	82.56
260.547	86.56
260.779	88.56
261.012	84.56
261.244	95.56
261.477	89.56
261.71	100.56
261.942	146.56
262.175	149.56
262.407	88.56
262.64	86.56
262.872	86.56
263.105	70.56
263.337	71.56
263.57	81.56
263.802	88.56
264.035	87.56
264.267	78.56
264.499	65.56
264.732	85.56
264.964	69.56
265.197	100.56
265.429	91.56
265.661	94.56
265.894	95.56
266.126	76.56
266.358	72.56
266.591	95.56
266.823	81.56
267.055	81.56
267.287	89.56
267.52	83.56
267.752	91.56
267.984	79.56
268.216	85.56
268.448	84.56
268.681	87.56
268.913	89.56
269.145	84.56
269.377	84.56
269.609	79.56
269.841	109.56
270.073	89.56
270.306	80.56
270.538	80.56
270.77	92.56
271.002	88.56
271.234	84.56
271.466	85.56
271.698	70.56
271.93	85.56
272.162	86.56
272.394	95.56
272.626	85.56
272.858	86.56
273.09	80.56
273.322	80.56
273.553	84.56
273.785	83.56
274.017	92.56
274.249	88.56
274.481	81.56
274.713	84.56
274.945	77.56
275.176	87.56
275.408	96.56
275.64	84.56
275.872	110.56
276.104	98.56
276.335	105.56
276.567	126.56
276.799	146.56
277.031	131.56
277.262	124.56
277.494	98.56
277.726	80.56
277.957	85.56
278.189	84.56
278.421	90.56
278.652	78.56
278.884	95.56
279.115	80.56
279.347	82.56
279.579	84.56
279.81	84.56
280.042	102.56
280.273	136.56
280.505	120.56
280.736	89.56
280.968	86.56
281.199	82.56
281.431	94.56
281.662	86.56
281.894	93.56
282.125	129.56
282.356	143.56
282.588	174.56
282.819	123.56
283.051	85.56
283.282	93.56
283.513	74.56
283.745	89.56
283.976	82.56
284.207	88.56
284.439	97.56
284.67	85.56
284.901	90.56
285.132	83.56
285.364	80.56
285.595	87.56
285.826	83.56
286.057	87.56
286.288	87.56
286.52	81.56
286.751	97.56
286.982	88.56
287.213	81.56
287.444	84.56
287.675	79.56
287.906	76.56
288.138	96.56
288.369	114.56
288.6	95.56
288.831	92.56
289.062	100.56
289.293	88.56
289.524	85.56
289.755	80.56
289.986	88.56
290.217	78.56
290.448	87.56
290.679	83.56
290.91	83.56
291.141	69.56
291.371	83.56
291.602	84.56
291.833	81.56
292.064	88.56
292.295	85.56
292.526	102.56
292.757	100.56
292.987	105.56
293.218	70.56
293.449	81.56
293.68	90.56
293.91	72.56
294.141	94.56
294.372	100.56
294.603	91.56
294.833	84.56
295.064	92.56
295.295	85.56
295.525	98.56
295.756	109.56
295.987	130.56
296.217	181.56
296.448	172.56
296.679	119.56
296.909	87.56
297.14	91.56
297.37	81.56
297.601	83.56
297.831	95.56
298.062	98.56
298.292	100.56
298.523	97.56
298.753	88.56
298.984	100.56
299.214	91.56
299.445	100.56
299.675	101.56
299.905	99.56
300.136	88.56
300.366	76.56
300.597	93.56
300.827	94.56
301.057	112.56
301.288	117.56
301.518	110.56
301.748	100.56
301.979	95.56
302.209	103.56
302.439	105.56
302.669	91.56
302.9	86.56
303.13	95.56
303.36	93.56
303.59	120.56
303.82	129.56
304.051	94.56
304.281	89.56
304.511	83.56
304.741	79.56
304.971	82.56
305.201	90.56
305.431	78.56
305.661	88.56
305.891	87.56
306.121	104.56
306.352	118.56
306.582	118.56
306.812	98.56
307.042	106.56
307.272	104.56
307.502	125.56
307.731	116.56
307.961	101.56
308.191	95.56
308.421	82.56
308.651	96.56
308.881	108.56
309.111	97.56
309.341	111.56
309.571	103.56
309.8	100.56
310.03	94.56
310.26	108.56
310.49	88.56
310.72	117.56
310.949	124.56
311.179	123.56
311.409	90.56
311.639	105.56
311.868	113.56
312.098	94.56
312.328	96.56
312.557	127.56
312.787	120.56
313.017	105.56
313.246	108.56
313.476	86.56
313.706	95.56
313.935	124.56
314.165	109.56
314.394	120.56
314.624	115.56
314.853	101.56
315.083	108.56
315.312	93.56
315.542	90.56
315.771	96.56
316.001	83.56
316.23	94.56
316.46	88.56
316.689	102.56
316.919	105.56
317.148	115.56
317.377	109.56
317.607	93.56
317.836	92.56
318.065	92.56
318.295	85.56
318.524	100.56
318.753	103.56
318.983	109.56
319.212	93.56
319.441	116.56
319.67	113.56
319.9	96.56
320.129	93.56
320.358	95.56
320.587	109.56
320.816	95.56
321.046	120.56
321.275	109.56
321.504	90.56
321.733	99.56
321.962	105.56
322.191	122.56
322.42	117.56
322.649	131.56
322.878	128.56
323.108	148.56
323.337	147.56
323.566	154.56
323.795	212.56
324.024	288.56
324.253	603.56
324.482	1300.56
324.71	2758.56
324.939	3603.56
325.168	1320.56
325.397	355.56
325.626	200.56
325.855	158.56
326.084	152.56
326.313	154.56
326.542	209.56
326.77	297.56
326.999	639.56
327.228	1388.56
327.457	2574.56
327.686	2079.56
327.914	570.56
328.143	356.56
328.372	343.56
328.6	231.56
328.829	174.56
329.058	191.56
329.287	194.56
329.515	150.56
329.744	157.56
329.972	209.56
330.201	349.56
330.43	508.56
330.658	316.56
330.887	265.56
331.115	206.56
331.344	124.56
331.572	108.56
331.801	117.56
332.03	132.56
332.258	107.56
332.486	97.56
332.715	82.56
332.943	101.56
333.172	114.56
333.4	110.56
333.629	127.56
333.857	157.56
334.085	220.56
334.314	335.56
334.542	592.56
334.771	588.56
334.999	208.56
335.227	112.56
335.455	98.56
335.684	118.56
335.912	93.56
336.14	90.56
336.369	103.56
336.597	111.56
336.825	132.56
337.053	96.56
337.281	84.56
337.51	90.56
337.738	113.56
337.966	95.56
338.194	111.56
338.422	101.56
338.65	104.56
338.878	97.56
339.106	93.56
339.334	109.56
339.562	80.56
339.79	84.56
340.018	100.56
340.246	107.56
340.474	104.56
340.702	102.56
340.93	98.56
341.158	90.56
341.386	103.56
341.614	110.56
341.842	92.56
342.07	82.56
342.298	103.56
342.526	92.56
342.754	83.56
342.981	85.56
343.209	83.56
343.437	103.56
343.665	92.56
343.893	81.56
344.12	94.56
344.348	86.56
344.576	93.56
344.804	98.56
345.031	102.56
345.259	104.56
345.487	96.56
345.714	101.56
345.942	88.56
346.17	100.56
346.397	90.56
346.625	96.56
346.853	105.56
347.08	88.56
347.308	99.56
347.535	118.56
347.763	126.56
347.99	108.56
348.218	98.56
348.445	132.56
348.673	121.56
348.9	100.56
349.128	97.56
349.355	92.56
349.583	100.56
349.81	120.56
350.037	103.56
350.265	107.56
350.492	88.56
350.72	103.56
350.947	92.56
351.174	118.56
351.402	108.56
351.629	99.56
351.856	106.56
352.083	133.56
352.311	126.56
352.538	139.56
352.765	136.56
352.992	120.56
353.22	127.56
353.447	116.56
353.674	100.56
353.901	99.56
354.128	103.56
354.355	104.56
354.583	96.56
354.81	104.56
355.037	93.56
355.264	84.56
355.491	81.56
355.718	96.56
355.945	111.56
356.172	99.56
356.399	94.56
356.626	99.56
356.853	100.56
357.08	101.56
357.307	78.56
357.534	104.56
357.761	95.56
357.988	85.56
358.215	95.56
358.441	82.56
358.668	81.56
358.895	94.56
359.122	88.56
359.349	94.56
359.576	118.56
359.802	131.56
360.029	162.56
360.256	163.56
360.483	128.56
360.709	82.56
360.936	94.56
361.163	104.56
361.39	109.56
361.616	100.56
361.843	93.56
362.07	109.56
362.296	101.56
362.523	107.56
362.749	102.56
362.976	94.56
363.203	85.56
363.429	96.56
363.656	90.56
363.882	95.56
364.109	101.56
364.335	97.56
364.562	103.56
364.788	118.56
365.015	103.56
365.241	110.56
365.468	134.56
365.694	126.56
365.92	111.56
366.147	98.56
366.373	79.56
366.599	89.56
366.826	89.56
367.052	90.56
367.278	92.56
367.505	94.56
367.731	96.56
367.957	93.56
368.184	97.56
368.41	117.56
368.636	136.56
368.862	137.56
369.089	134.56
369.315	106.56
369.541	91.56
369.767	95.56
369.993	105.56
370.219	94.56
370.445	78.56
370.672	90.56
370.898	86.56
371.124	96.56
371.35	97.56
371.576	88.56
371.802	92.56
372.028	81.56
372.254	98.56
372.48	87.56
372.706	91.56
372.932	82.56
373.158	88.56
373.384	92.56
373.61	98.56
373.835	101.56
374.061	91.56
374.287	101.56
374.513	83.56
374.739	73.56
374.965	90.56
375.191	88.56
375.416	82.56
375.642	100.56
375.868	86.56
376.094	90.56
376.319	92.56
376.545	90.56
376.771	107.56
376.997	82.56
377.222	115.56
377.448	103.56
377.674	94.56
377.899	89.56
378.125	88.56
378.35	95.56
378.576	79.56
378.802	75.56
379.027	96.56
379.253	88.56
379.478	83.56
379.704	87.56
379.929	99.56
380.155	74.56
380.38	82.56
380.606	104.56
380.831	93.56
381.057	109.56
381.282	90.56
381.507	92.56
381.733	99.56
381.958	96.56
382.184	73.56
382.409	87.56
382.634	100.56
382.86	100.56
383.085	88.56
383.31	105.56
383.535	98.56
383.761	89.56
383.986	110.56
384.211	95.56
384.436	93.56
384.662	94.56
384.887	100.56
385.112	97.56
385.337	96.56
385.562	100.56
385.787	99.56
386.013	113.56
386.238	108.56
386.463	113.56
386.688	101.56
386.913	111.56
387.138	103.56
387.363	93.56
387.588	87.56
387.813	98.56
388.038	102.56
388.263	110.56
388.488	114.56
388.713	84.56
388.938	109.56
389.163	96.56
389.387	85.56
389.612	88.56
389.837	84.56
390.062	89.56
390.287	84.56
390.512	90.56
390.736	102.56
390.961	81.56
391.186	97.56
391.411	82.56
391.636	94.56
391.86	75.56
392.085	83.56
392.31	72.56
392.534	88.56
392.759	89.56
392.984	85.56
393.208	90.56
393.433	89.56
393.658	68.56
393.882	73.56
394.107	80.56
394.331	72.56
394.556	93.56
394.78	94.56
395.005	81.56
395.229	95.56
395.454	74.56
395.678	82.56
395.903	82.56
396.127	97.56
396.352	97.56
396.576	93.56
396.801	79.56
397.025	89.56
397.249	97.56
397.474	85.56
397.698	93.56
397.922	94.56
398.147	93.56
398.371	79.56
398.595	97.56
398.82	88.56
399.044	81.56
399.268	82.56
399.492	93.56
399.717	89.56
399.941	89.56
400.165	97.56
400.389	89.56
400.613	89.56
400.837	99.56
401.062	85.56
401.286	96.56
401.51	88.56
401.734	100.56
401.958	108.56
402.182	177.56
402.406	216.56
402.63	152.56
402.854	104.56
403.078	103.56
403.302	89.56
403.526	86.56
403.75	101.56
403.974	101.56
404.198	94.56
404.422	93.56
404.645	96.56
404.869	102.56
405.093	102.56
405.317	124.56
405.541	125.56
405.765	140.56
405.988	134.56
406.212	253.56
406.436	361.56
406.66	245.56
406.883	142.56
407.107	105.56
407.331	119.56
407.555	115.56
407.778	115.56
408.002	90.56
408.226	95.56
408.449	85.56
408.673	97.56
408.896	89.56
409.12	82.56
409.344	96.56
409.567	86.56
409.791	80.56
410.014	102.56
410.238	96.56
410.461	86.56
410.685	87.56
410.908	95.56
411.132	94.56
411.355	114.56
411.578	92.56
411.802	97.56
412.025	71.56
412.249	95.56
412.472	115.56
412.695	115.56
412.919	116.56
413.142	89.56
413.365	89.56
413.589	89.56
413.812	73.56
414.035	99.56
414.258	86.56
414.482	86.56
414.705	84.56
414.928	89.56
415.151	92.56
415.374	90.56
415.597	105.56
415.821	90.56
416.044	85.56
416.267	90.56
416.49	77.56
416.713	88.56
416.936	103.56
417.159	92.56
417.382	85.56
417.605	85.56
417.828	114.56
418.051	95.56
418.274	92.56
418.497	73.56
418.72	80.56
418.943	81.56
419.166	79.56
419.389	78.56
419.611	77.56
419.834	89.56
420.057	92.56
420.28	80.56
420.503	88.56
420.726	87.56
420.948	84.56
421.171	102.56
421.394	92.56
421.617	87.56
421.839	93.56
422.062	93.56
422.285	97.56
422.507	102.56
422.73	104.56
422.953	90.56
423.175	93.56
423.398	70.56
423.621	98.56
423.843	87.56
424.066	89.56
424.288	93.56
424.511	93.56
424.733	98.56
424.956	120.56
425.178	120.56
425.401	103.56
425.623	104.56
425.846	104.56
426.068	102.56
426.291	102.56
426.513	95.56
426.735	104.56
426.958	97.56
427.18	128.56
427.402	204.56
427.625	290.56
427.847	236.56
428.069	167.56
428.292	124.56
428.514	89.56
428.736	88.56
428.958	79.56
429.181	81.56
429.403	80.56
429.625	73.56
429.847	89.56
430.069	109.56
430.292	112.56
430.514	77.56
430.736	86.56
430.958	86.56
431.18	84.56
431.402	89.56
431.624	73.56
431.846	85.56
432.068	96.56
432.29	74.56
432.512	93.56
432.734	77.56
432.956	94.56
433.178	102.56
433.4	106.56
433.622	99.56
433.844	92.56
434.066	85.56
434.287	99.56
434.509	85.56
434.731	80.56
434.953	92.56
435.175	93.56
435.397	77.56
435.618	81.56
435.84	118.56
436.062	147.56
436.284	143.56
436.505	131.56
436.727	117.56
436.949	96.56
437.17	95.56
437.392	89.56
437.614	109.56
437.835	127.56
438.057	172.56
438.278	143.56
438.5	129.56
438.721	137.56
438.943	121.56
439.165	94.56
439.386	77.56
439.608	79.56
439.829	124.56
440.05	175.56
440.272	220.56
440.493	128.56
440.715	78.56
440.936	80.56
441.158	95.56
441.379	101.56
441.6	109.56
441.822	116.56
442.043	108.56
442.264	132.56
442.486	109.56
442.707	106.56
442.928	128.56
443.149	200.56
443.371	204.56
443.592	143.56
443.813	141.56
444.034	132.56
444.255	104.56
444.476	82.56
444.698	89.56
444.919	97.56
445.14	129.56
445.361	154.56
445.582	162.56
445.803	212.56
446.024	200.56
446.245	190.56
446.466	139.56
446.687	106.56
446.908	88.56
447.129	91.56
447.35	98.56
447.571	104.56
447.792	86.56
448.013	114.56
448.234	127.56
448.455	94.56
448.675	138.56
448.896	143.56
449.117	111.56
449.338	114.56
449.559	150.56
449.779	169.56
450	108.56
450.221	93.56
450.442	92.56
450.662	109.56
450.883	145.56
451.104	160.56
451.324	105.56
451.545	96.56
451.766	84.56
451.986	87.56
452.207	98.56
452.428	102.56
452.648	132.56
452.869	132.56
453.089	135.56
453.31	161.56
453.53	112.56
453.751	127.56
453.971	129.56
454.192	138.56
454.412	88.56
454.633	76.56
454.853	91.56
455.073	87.56
455.294	98.56
455.514	130.56
455.734	98.56
455.955	83.56
456.175	68.56
456.395	73.56
456.616	82.56
456.836	87.56
457.056	76.56
457.276	74.56
457.497	82.56
457.717	92.56
457.937	77.56
458.157	84.56
458.377	108.56
458.598	148.56
458.818	247.56
459.038	284.56
459.258	170.56
459.478	102.56
459.698	88.56
459.918	89.56
460.138	94.56
460.358	86.56
460.578	92.56
460.798	94.56
461.018	100.56
461.238	84.56
461.458	95.56
461.678	93.56
461.898	82.56
462.118	86.56
462.338	91.56
462.558	69.56
462.777	83.56
462.997	82.56
463.217	91.56
463.437	86.56
463.657	103.56
463.876	89.56
464.096	103.56
464.316	94.56
464.536	100.56
464.755	114.56
464.975	142.56
465.195	286.56
465.414	283.56
465.634	127.56
465.854	103.56
466.073	88.56
466.293	81.56
466.512	74.56
466.732	86.56
466.951	81.56
467.171	77.56
467.391	103.56
467.61	139.56
467.829	130.56
468.049	196.56
468.268	279.56
468.488	112.56
468.707	93.56
468.927	94.56
469.146	82.56
469.365	88.56
469.585	94.56
469.804	94.56
470.023	114.56
470.243	106.56
470.462	120.56
470.681	146.56
470.901	105.56
471.12	97.56
471.339	95.56
471.558	108.56
471.777	97.56
471.997	129.56
472.216	373.56
472.435	726.56
472.654	246.56
472.873	119.56
473.092	88.56
473.311	75.56
473.53	97.56
473.749	84.56
473.968	115.56
474.187	139.56
474.406	97.56
474.625	74.56
474.844	90.56
475.063	89.56
475.282	85.56
475.501	92.56
475.72	86.56
475.939	86.56
476.158	93.56
476.377	92.56
476.596	93.56
476.814	113.56
477.033	110.56
477.252	95.56
477.471	89.56
477.69	77.56
477.908	99.56
478.127	105.56
478.346	88.56
478.564	104.56
478.783	103.56
479.002	94.56
479.22	99.56
479.439	121.56
479.658	138.56
479.876	119.56
480.095	83.56
480.313	109.56
480.532	104.56
480.751	144.56
480.969	359.56
481.188	1232.56
481.406	811.56
481.624	180.56
481.843	118.56
482.061	97.56
482.28	84.56
482.498	91.56
482.717	83.56
482.935	94.56
483.153	78.56
483.372	83.56
483.59	102.56
483.808	100.56
484.027	111.56
484.245	91.56
484.463	94.56
484.681	96.56
484.9	87.56
485.118	93.56
485.336	100.56
485.554	85.56
485.772	103.56
485.99	98.56
486.209	101.56
486.427	96.56
486.645	113.56
486.863	125.56
487.081	121.56
487.299	90.56
487.517	84.56
487.735	90.56
487.953	86.56
488.171	99.56
488.389	95.56
488.607	109.56
488.825	101.56
489.043	84.56
489.261	89.56
489.479	84.56
489.696	94.56
489.914	96.56
490.132	68.56
490.35	78.56
490.568	83.56
490.786	96.56
491.003	93.56
491.221	97.56
491.439	98.56
491.657	83.56
491.874	103.56
492.092	81.56
492.31	76.56
492.527	85.56
492.745	102.56
492.963	114.56
493.18	104.56
493.398	87.56
493.615	108.56
493.833	92.56
494.05	86.56
494.268	86.56
494.485	100.56
494.703	86.56
494.92	89.56
495.138	103.56
495.355	82.56
495.573	93.56
495.79	97.56
496.008	102.56
496.225	92.56
496.442	103.56
496.66	84.56
496.877	107.56
497.094	96.56
497.312	82.56
497.529	77.56
497.746	104.56
497.963	86.56
498.181	96.56
498.398	103.56
498.615	114.56
498.832	124.56
499.049	96.56
499.267	89.56
499.484	88.56
499.701	85.56
499.918	100.56
500.135	82.56
500.352	87.56
500.569	99.56
500.786	91.56
501.003	65.56
501.22	84.56
501.437	91.56
501.654	100.56
501.871	129.56
502.088	108.56
502.305	94.56
502.522	97.56
502.739	89.56
502.956	91.56
503.172	103.56
503.389	114.56
503.606	115.56
503.823	114.56
504.04	103.56
504.256	100.56
504.473	73.56
504.69	88.56
504.907	93.56
505.123	95.56
505.34	87.56
505.557	80.56
505.773	85.56
505.99	101.56
506.207	84.56
506.423	98.56
506.64	104.56
506.856	88.56
507.073	88.56
507.289	93.56
507.506	113.56
507.722	152.56
507.939	140.56
508.155	111.56
508.372	87.56
508.588	95.56
508.805	110.56
509.021	108.56
509.238	99.56
509.454	97.56
509.67	88.56
509.887	128.56
510.103	144.56
510.319	280.56
510.536	1136.56
510.752	4119.56
510.968	1113.56
511.184	205.56
511.401	139.56
511.617	110.56
511.833	110.56
512.049	104.56
512.265	92.56
512.481	102.56
512.698	88.56
512.914	106.56
513.13	100.56
513.346	98.56
