Data from Circ_2022_H10_HRD10591_00071.txt Node
Date: Wed Jan 03 09:53:51 EST 2024
User: Yrep
Spectrometer: HR+D1059
Trigger mode: 1
Integration Time (sec): 1.000000E-1
Scans to average: 1
Electric dark correction enabled: true
Nonlinearity correction enabled: false
Boxcar width: 0
XAxis mode: Wavelengths
Number of Pixels in Spectrum: 2048
>>>>>Begin Spectral Data<<<<<
223.165	-20.19
223.4	-20.19
223.635	-20.19
223.869	-3.19
224.104	-7.19
224.338	-20.19
224.573	-21.19
224.808	-27.19
225.042	-3.19
225.277	-11.19
225.511	-1.19
225.746	-5.19
225.98	4.81
226.215	10.81
226.449	26.81
226.683	20.81
226.918	22.81
227.152	33.81
227.387	28.81
227.621	40.81
227.856	38.81
228.09	42.81
228.324	37.81
228.559	50.81
228.793	65.81
229.027	62.81
229.262	71.81
229.496	66.81
229.73	56.81
229.964	92.81
230.199	83.81
230.433	79.81
230.667	88.81
230.901	81.81
231.136	80.81
231.37	96.81
231.604	83.81
231.838	70.81
232.072	81.81
232.306	79.81
232.541	87.81
232.775	73.81
233.009	84.81
233.243	87.81
233.477	71.81
233.711	81.81
233.945	79.81
234.179	74.81
234.413	64.81
234.647	77.81
234.881	78.81
235.115	81.81
235.349	67.81
235.583	76.81
235.817	84.81
236.051	73.81
236.285	75.81
236.519	76.81
236.753	86.81
236.987	88.81
237.221	76.81
237.455	83.81
237.689	82.81
237.922	82.81
238.156	78.81
238.39	74.81
238.624	71.81
238.858	54.81
239.091	87.81
239.325	73.81
239.559	82.81
239.793	87.81
240.027	86.81
240.26	87.81
240.494	72.81
240.728	73.81
240.961	88.81
241.195	81.81
241.429	66.81
241.662	76.81
241.896	60.81
242.13	86.81
242.363	85.81
242.597	71.81
242.83	82.81
243.064	78.81
243.298	75.81
243.531	67.81
243.765	81.81
243.998	75.81
244.232	77.81
244.465	83.81
244.699	89.81
244.932	92.81
245.166	79.81
245.399	76.81
245.633	71.81
245.866	80.81
246.099	82.81
246.333	76.81
246.566	97.81
246.8	89.81
247.033	69.81
247.266	59.81
247.5	80.81
247.733	75.81
247.966	82.81
248.2	80.81
248.433	75.81
248.666	88.81
248.899	68.81
249.133	82.81
249.366	94.81
249.599	111.81
249.832	81.81
250.066	72.81
250.299	62.81
250.532	86.81
250.765	87.81
250.998	67.81
251.231	70.81
251.465	82.81
251.698	74.81
251.931	84.81
252.164	74.81
252.397	69.81
252.63	86.81
252.863	82.81
253.096	82.81
253.329	75.81
253.562	77.81
253.795	84.81
254.028	92.81
254.261	69.81
254.494	73.81
254.727	90.81
254.96	76.81
255.193	97.81
255.426	75.81
255.659	67.81
255.892	70.81
256.124	85.81
256.357	76.81
256.59	87.81
256.823	89.81
257.056	78.81
257.289	73.81
257.521	83.81
257.754	69.81
257.987	73.81
258.22	77.81
258.452	73.81
258.685	95.81
258.918	75.81
259.151	83.81
259.383	85.81
259.616	78.81
259.849	76.81
260.081	78.81
260.314	80.81
260.547	75.81
260.779	98.81
261.012	76.81
261.244	89.81
261.477	88.81
261.71	75.81
261.942	104.81
262.175	127.81
262.407	80.81
262.64	74.81
262.872	98.81
263.105	77.81
263.337	88.81
263.57	76.81
263.802	85.81
264.035	78.81
264.267	80.81
264.499	84.81
264.732	90.81
264.964	75.81
265.197	97.81
265.429	94.81
265.661	82.81
265.894	80.81
266.126	90.81
266.358	81.81
266.591	84.81
266.823	83.81
267.055	82.81
267.287	88.81
267.52	90.81
267.752	85.81
267.984	79.81
268.216	80.81
268.448	91.81
268.681	75.81
268.913	88.81
269.145	87.81
269.377	73.81
269.609	86.81
269.841	78.81
270.073	75.81
270.306	92.81
270.538	82.81
270.77	84.81
271.002	81.81
271.234	86.81
271.466	101.81
271.698	90.81
271.93	93.81
272.162	92.81
272.394	75.81
272.626	86.81
272.858	78.81
273.09	75.81
273.322	92.81
273.553	81.81
273.785	89.81
274.017	91.81
274.249	90.81
274.481	85.81
274.713	84.81
274.945	90.81
275.176	87.81
275.408	88.81
275.64	87.81
275.872	91.81
276.104	87.81
276.335	84.81
276.567	97.81
276.799	104.81
277.031	103.81
277.262	112.81
277.494	83.81
277.726	92.81
277.957	84.81
278.189	87.81
278.421	101.81
278.652	78.81
278.884	87.81
279.115	78.81
279.347	76.81
279.579	91.81
279.81	89.81
280.042	86.81
280.273	94.81
280.505	95.81
280.736	84.81
280.968	90.81
281.199	94.81
281.431	92.81
281.662	82.81
281.894	78.81
282.125	91.81
282.356	112.81
282.588	122.81
282.819	104.81
283.051	87.81
283.282	83.81
283.513	89.81
283.745	86.81
283.976	91.81
284.207	83.81
284.439	75.81
284.67	78.81
284.901	89.81
285.132	90.81
285.364	79.81
285.595	89.81
285.826	82.81
286.057	86.81
286.288	95.81
286.52	96.81
286.751	87.81
286.982	76.81
287.213	83.81
287.444	86.81
287.675	87.81
287.906	100.81
288.138	83.81
288.369	95.81
288.6	85.81
288.831	91.81
289.062	73.81
289.293	72.81
289.524	80.81
289.755	99.81
289.986	83.81
290.217	82.81
290.448	96.81
290.679	85.81
290.91	91.81
291.141	84.81
291.371	77.81
291.602	80.81
291.833	95.81
292.064	92.81
292.295	94.81
292.526	86.81
292.757	88.81
292.987	86.81
293.218	86.81
293.449	87.81
293.68	81.81
293.91	90.81
294.141	87.81
294.372	97.81
294.603	79.81
294.833	75.81
295.064	103.81
295.295	101.81
295.525	100.81
295.756	110.81
295.987	121.81
296.217	136.81
296.448	134.81
296.679	96.81
296.909	91.81
297.14	100.81
297.37	84.81
297.601	83.81
297.831	83.81
298.062	80.81
298.292	92.81
298.523	86.81
298.753	82.81
298.984	83.81
299.214	72.81
299.445	94.81
299.675	94.81
299.905	74.81
300.136	80.81
300.366	89.81
300.597	93.81
300.827	94.81
301.057	107.81
301.288	106.81
301.518	81.81
301.748	87.81
301.979	99.81
302.209	96.81
302.439	87.81
302.669	76.81
302.9	103.81
303.13	104.81
303.36	90.81
303.59	114.81
303.82	96.81
304.051	99.81
304.281	101.81
304.511	102.81
304.741	80.81
304.971	93.81
305.201	77.81
305.431	75.81
305.661	96.81
305.891	82.81
306.121	99.81
306.352	95.81
306.582	106.81
306.812	75.81
307.042	89.81
307.272	93.81
307.502	98.81
307.731	91.81
307.961	109.81
308.191	96.81
308.421	89.81
308.651	103.81
308.881	90.81
309.111	100.81
309.341	86.81
309.571	96.81
309.8	85.81
310.03	79.81
310.26	98.81
310.49	94.81
310.72	93.81
310.949	106.81
311.179	95.81
311.409	85.81
311.639	91.81
311.868	92.81
312.098	78.81
312.328	96.81
312.557	97.81
312.787	90.81
313.017	88.81
313.246	97.81
313.476	100.81
313.706	97.81
313.935	111.81
314.165	107.81
314.394	98.81
314.624	90.81
314.853	89.81
315.083	108.81
315.312	94.81
315.542	103.81
315.771	97.81
316.001	93.81
316.23	96.81
316.46	92.81
316.689	97.81
316.919	98.81
317.148	97.81
317.377	93.81
317.607	82.81
317.836	102.81
318.065	98.81
318.295	83.81
318.524	82.81
318.753	97.81
318.983	98.81
319.212	93.81
319.441	103.81
319.67	98.81
319.9	86.81
320.129	106.81
320.358	90.81
320.587	98.81
320.816	94.81
321.046	107.81
321.275	101.81
321.504	99.81
321.733	95.81
321.962	98.81
322.191	89.81
322.42	99.81
322.649	126.81
322.878	111.81
323.108	105.81
323.337	110.81
323.566	145.81
323.795	140.81
324.024	219.81
324.253	396.81
324.482	786.81
324.71	1620.81
324.939	2128.81
325.168	801.81
325.397	249.81
325.626	143.81
325.855	140.81
326.084	131.81
326.313	133.81
326.542	142.81
326.77	208.81
326.999	477.81
327.228	873.81
327.457	1623.81
327.686	1324.81
327.914	384.81
328.143	212.81
328.372	170.81
328.6	130.81
328.829	116.81
329.058	128.81
329.287	134.81
329.515	110.81
329.744	126.81
329.972	128.81
330.201	170.81
330.43	216.81
330.658	165.81
330.887	145.81
331.115	132.81
331.344	96.81
331.572	85.81
331.801	108.81
332.03	113.81
332.258	96.81
332.486	97.81
332.715	95.81
332.943	86.81
333.172	96.81
333.4	122.81
333.629	124.81
333.857	115.81
334.085	134.81
334.314	172.81
334.542	262.81
334.771	240.81
334.999	132.81
335.227	103.81
335.455	108.81
335.684	103.81
335.912	89.81
336.14	94.81
336.369	100.81
336.597	96.81
336.825	74.81
337.053	91.81
337.281	95.81
337.51	99.81
337.738	79.81
337.966	87.81
338.194	87.81
338.422	98.81
338.65	84.81
338.878	95.81
339.106	85.81
339.334	95.81
339.562	80.81
339.79	104.81
340.018	111.81
340.246	84.81
340.474	98.81
340.702	91.81
340.93	90.81
341.158	95.81
341.386	101.81
341.614	99.81
341.842	113.81
342.07	95.81
342.298	94.81
342.526	76.81
342.754	91.81
342.981	84.81
343.209	82.81
343.437	109.81
343.665	89.81
343.893	80.81
344.12	84.81
344.348	81.81
344.576	82.81
344.804	97.81
345.031	98.81
345.259	90.81
345.487	98.81
345.714	103.81
345.942	87.81
346.17	105.81
346.397	86.81
346.625	99.81
346.853	82.81
347.08	88.81
347.308	87.81
347.535	123.81
347.763	102.81
347.99	100.81
348.218	99.81
348.445	95.81
348.673	102.81
348.9	112.81
349.128	97.81
349.355	102.81
349.583	97.81
349.81	98.81
350.037	89.81
350.265	101.81
350.492	86.81
350.72	91.81
350.947	96.81
351.174	113.81
351.402	102.81
351.629	111.81
351.856	98.81
352.083	119.81
352.311	100.81
352.538	112.81
352.765	111.81
352.992	113.81
353.22	115.81
353.447	88.81
353.674	89.81
353.901	100.81
354.128	87.81
354.355	94.81
354.583	111.81
354.81	91.81
355.037	94.81
355.264	97.81
355.491	93.81
355.718	76.81
355.945	89.81
356.172	88.81
356.399	105.81
356.626	91.81
356.853	96.81
357.08	101.81
357.307	92.81
357.534	86.81
357.761	87.81
357.988	100.81
358.215	79.81
358.441	88.81
358.668	83.81
358.895	97.81
359.122	83.81
359.349	80.81
359.576	84.81
359.802	94.81
360.029	115.81
360.256	118.81
360.483	95.81
360.709	95.81
360.936	86.81
361.163	95.81
361.39	103.81
361.616	97.81
361.843	74.81
362.07	94.81
362.296	85.81
362.523	98.81
362.749	97.81
362.976	110.81
363.203	100.81
363.429	98.81
363.656	98.81
363.882	79.81
364.109	86.81
364.335	90.81
364.562	95.81
364.788	78.81
365.015	94.81
365.241	116.81
365.468	101.81
365.694	101.81
365.92	102.81
366.147	96.81
366.373	96.81
366.599	99.81
366.826	74.81
367.052	97.81
367.278	97.81
367.505	88.81
367.731	86.81
367.957	82.81
368.184	86.81
368.41	101.81
368.636	111.81
368.862	110.81
369.089	103.81
369.315	86.81
369.541	91.81
369.767	80.81
369.993	85.81
370.219	98.81
370.445	69.81
370.672	81.81
370.898	77.81
371.124	74.81
371.35	88.81
371.576	98.81
371.802	87.81
372.028	86.81
372.254	90.81
372.48	92.81
372.706	86.81
372.932	83.81
373.158	77.81
373.384	89.81
373.61	88.81
373.835	88.81
374.061	83.81
374.287	97.81
374.513	89.81
374.739	78.81
374.965	81.81
375.191	73.81
375.416	89.81
375.642	100.81
375.868	90.81
376.094	89.81
376.319	84.81
376.545	94.81
376.771	74.81
376.997	94.81
377.222	96.81
377.448	86.81
377.674	86.81
377.899	96.81
378.125	82.81
378.35	88.81
378.576	77.81
378.802	85.81
379.027	88.81
379.253	101.81
379.478	90.81
379.704	81.81
379.929	80.81
380.155	90.81
380.38	90.81
380.606	87.81
380.831	104.81
381.057	92.81
381.282	95.81
381.507	79.81
381.733	95.81
381.958	94.81
382.184	100.81
382.409	90.81
382.634	102.81
382.86	105.81
383.085	87.81
383.31	95.81
383.535	99.81
383.761	96.81
383.986	91.81
384.211	105.81
384.436	95.81
384.662	81.81
384.887	88.81
385.112	107.81
385.337	109.81
385.562	97.81
385.787	108.81
386.013	115.81
386.238	114.81
386.463	106.81
386.688	104.81
386.913	84.81
387.138	91.81
387.363	107.81
387.588	90.81
387.813	100.81
388.038	103.81
388.263	115.81
388.488	110.81
388.713	91.81
388.938	85.81
389.163	97.81
389.387	94.81
389.612	95.81
389.837	91.81
390.062	92.81
390.287	100.81
390.512	82.81
390.736	86.81
390.961	93.81
391.186	79.81
391.411	83.81
391.636	96.81
391.86	95.81
392.085	85.81
392.31	85.81
392.534	75.81
392.759	84.81
392.984	82.81
393.208	93.81
393.433	82.81
393.658	86.81
393.882	88.81
394.107	88.81
394.331	87.81
394.556	81.81
394.78	95.81
395.005	90.81
395.229	81.81
395.454	83.81
395.678	94.81
395.903	95.81
396.127	90.81
396.352	87.81
396.576	80.81
396.801	84.81
397.025	71.81
397.249	89.81
397.474	92.81
397.698	94.81
397.922	99.81
398.147	82.81
398.371	91.81
398.595	66.81
398.82	74.81
399.044	84.81
399.268	96.81
399.492	74.81
399.717	92.81
399.941	82.81
400.165	100.81
400.389	85.81
400.613	94.81
400.837	90.81
401.062	81.81
401.286	95.81
401.51	87.81
401.734	74.81
401.958	93.81
402.182	118.81
402.406	167.81
402.63	127.81
402.854	86.81
403.078	87.81
403.302	102.81
403.526	90.81
403.75	90.81
403.974	86.81
404.198	91.81
404.422	95.81
404.645	77.81
404.869	91.81
405.093	96.81
405.317	102.81
405.541	109.81
405.765	100.81
405.988	112.81
406.212	184.81
406.436	243.81
406.66	164.81
406.883	112.81
407.107	107.81
407.331	97.81
407.555	103.81
407.778	96.81
408.002	87.81
408.226	95.81
408.449	87.81
408.673	105.81
408.896	91.81
409.12	100.81
409.344	98.81
409.567	88.81
409.791	85.81
410.014	91.81
410.238	85.81
410.461	82.81
410.685	88.81
410.908	98.81
411.132	111.81
411.355	92.81
411.578	85.81
411.802	79.81
412.025	89.81
412.249	86.81
412.472	100.81
412.695	102.81
412.919	102.81
413.142	81.81
413.365	97.81
413.589	94.81
413.812	87.81
414.035	92.81
414.258	73.81
414.482	82.81
414.705	94.81
414.928	87.81
415.151	76.81
415.374	89.81
415.597	76.81
415.821	88.81
416.044	83.81
416.267	95.81
416.49	89.81
416.713	94.81
416.936	87.81
417.159	85.81
417.382	88.81
417.605	82.81
417.828	105.81
418.051	92.81
418.274	85.81
418.497	87.81
418.72	79.81
418.943	89.81
419.166	84.81
419.389	93.81
419.611	98.81
419.834	98.81
420.057	88.81
420.28	73.81
420.503	83.81
420.726	84.81
420.948	101.81
421.171	91.81
421.394	73.81
421.617	89.81
421.839	72.81
422.062	91.81
422.285	97.81
422.507	90.81
422.73	95.81
422.953	87.81
423.175	92.81
423.398	69.81
423.621	86.81
423.843	84.81
424.066	85.81
424.288	84.81
424.511	93.81
424.733	104.81
424.956	97.81
425.178	93.81
425.401	98.81
425.623	116.81
425.846	95.81
426.068	104.81
426.291	90.81
426.513	90.81
426.735	84.81
426.958	75.81
427.18	105.81
427.402	129.81
427.625	154.81
427.847	136.81
428.069	120.81
428.292	98.81
428.514	88.81
428.736	95.81
428.958	71.81
429.181	89.81
429.403	94.81
429.625	95.81
429.847	82.81
430.069	95.81
430.292	96.81
430.514	82.81
430.736	90.81
430.958	83.81
431.18	88.81
431.402	75.81
431.624	79.81
431.846	83.81
432.068	92.81
432.29	77.81
432.512	93.81
432.734	91.81
432.956	92.81
433.178	104.81
433.4	85.81
433.622	78.81
433.844	84.81
434.066	90.81
434.287	75.81
434.509	83.81
434.731	95.81
434.953	83.81
435.175	90.81
435.397	97.81
435.618	96.81
435.84	109.81
436.062	122.81
436.284	108.81
436.505	101.81
436.727	82.81
436.949	102.81
437.17	90.81
437.392	87.81
437.614	90.81
437.835	107.81
438.057	125.81
438.278	113.81
438.5	103.81
438.721	115.81
438.943	96.81
439.165	93.81
439.386	75.81
439.608	87.81
439.829	102.81
440.05	105.81
440.272	139.81
440.493	92.81
440.715	80.81
440.936	105.81
441.158	88.81
441.379	105.81
441.6	89.81
441.822	95.81
442.043	84.81
442.264	105.81
442.486	87.81
442.707	98.81
442.928	102.81
443.149	125.81
443.371	128.81
443.592	127.81
443.813	113.81
444.034	111.81
444.255	96.81
444.476	95.81
444.698	88.81
444.919	100.81
445.14	129.81
445.361	135.81
445.582	112.81
445.803	134.81
446.024	147.81
446.245	125.81
446.466	110.81
446.687	93.81
446.908	101.81
447.129	85.81
447.35	79.81
447.571	84.81
447.792	85.81
448.013	95.81
448.234	105.81
448.455	113.81
448.675	118.81
448.896	110.81
449.117	106.81
449.338	110.81
449.559	128.81
449.779	128.81
450	101.81
450.221	84.81
450.442	94.81
450.662	100.81
450.883	127.81
451.104	120.81
451.324	91.81
451.545	81.81
451.766	83.81
451.986	82.81
452.207	88.81
452.428	104.81
452.648	111.81
452.869	113.81
453.089	114.81
453.31	114.81
453.53	80.81
453.751	70.81
453.971	116.81
454.192	113.81
454.412	102.81
454.633	94.81
454.853	103.81
455.073	90.81
455.294	95.81
455.514	87.81
455.734	108.81
455.955	86.81
456.175	95.81
456.395	95.81
456.616	88.81
456.836	86.81
457.056	90.81
457.276	83.81
457.497	86.81
457.717	86.81
457.937	83.81
458.157	76.81
458.377	93.81
458.598	110.81
458.818	152.81
459.038	167.81
459.258	115.81
459.478	74.81
459.698	75.81
459.918	81.81
460.138	76.81
460.358	89.81
460.578	94.81
460.798	72.81
461.018	94.81
461.238	87.81
461.458	81.81
461.678	88.81
461.898	81.81
462.118	96.81
462.338	81.81
462.558	96.81
462.777	69.81
462.997	71.81
463.217	88.81
463.437	87.81
463.657	76.81
463.876	94.81
464.096	78.81
464.316	99.81
464.536	91.81
464.755	81.81
464.975	87.81
465.195	164.81
465.414	178.81
465.634	115.81
465.854	86.81
466.073	91.81
466.293	87.81
466.512	83.81
466.732	83.81
466.951	86.81
467.171	98.81
467.391	100.81
467.61	113.81
467.829	94.81
468.049	142.81
468.268	160.81
468.488	97.81
468.707	69.81
468.927	81.81
469.146	90.81
469.365	87.81
469.585	95.81
469.804	103.81
470.023	96.81
470.243	94.81
470.462	84.81
470.681	119.81
470.901	77.81
471.12	88.81
471.339	84.81
471.558	89.81
471.777	86.81
471.997	102.81
472.216	182.81
472.435	312.81
472.654	130.81
472.873	96.81
473.092	103.81
473.311	88.81
473.53	91.81
473.749	93.81
473.968	89.81
474.187	103.81
474.406	84.81
474.625	93.81
474.844	85.81
475.063	79.81
475.282	93.81
475.501	86.81
475.72	89.81
475.939	70.81
476.158	90.81
476.377	85.81
476.596	89.81
476.814	94.81
477.033	88.81
477.252	96.81
477.471	89.81
477.69	79.81
477.908	85.81
478.127	94.81
478.346	78.81
478.564	99.81
478.783	102.81
479.002	84.81
479.22	75.81
479.439	105.81
479.658	94.81
479.876	100.81
480.095	84.81
480.313	92.81
480.532	99.81
480.751	114.81
480.969	190.81
481.188	494.81
481.406	341.81
481.624	123.81
481.843	105.81
482.061	85.81
482.28	80.81
482.498	81.81
482.717	91.81
482.935	92.81
483.153	104.81
483.372	94.81
483.59	93.81
483.808	101.81
484.027	101.81
484.245	88.81
484.463	95.81
484.681	73.81
484.9	92.81
485.118	89.81
485.336	92.81
485.554	94.81
485.772	100.81
485.99	91.81
486.209	94.81
486.427	106.81
486.645	115.81
486.863	114.81
487.081	101.81
487.299	95.81
487.517	91.81
487.735	98.81
487.953	94.81
488.171	96.81
488.389	91.81
488.607	104.81
488.825	99.81
489.043	88.81
489.261	84.81
489.479	89.81
489.696	91.81
489.914	83.81
490.132	92.81
490.35	82.81
490.568	69.81
490.786	81.81
491.003	88.81
491.221	103.81
491.439	77.81
491.657	91.81
491.874	82.81
492.092	97.81
492.31	73.81
492.527	88.81
492.745	74.81
492.963	96.81
493.18	82.81
493.398	77.81
493.615	87.81
493.833	78.81
494.05	88.81
494.268	91.81
494.485	81.81
494.703	96.81
494.92	78.81
495.138	86.81
495.355	97.81
495.573	94.81
495.79	86.81
496.008	97.81
496.225	97.81
496.442	95.81
496.66	84.81
496.877	87.81
497.094	82.81
497.312	86.81
497.529	88.81
497.746	94.81
497.963	86.81
498.181	85.81
498.398	97.81
498.615	106.81
498.832	103.81
499.049	89.81
499.267	90.81
499.484	96.81
499.701	92.81
499.918	90.81
500.135	86.81
500.352	95.81
500.569	92.81
500.786	87.81
501.003	87.81
501.22	85.81
501.437	90.81
501.654	100.81
501.871	129.81
502.088	96.81
502.305	89.81
502.522	91.81
502.739	100.81
502.956	99.81
503.172	96.81
503.389	112.81
503.606	102.81
503.823	88.81
504.04	88.81
504.256	89.81
504.473	81.81
504.69	85.81
504.907	106.81
505.123	91.81
505.34	85.81
505.557	83.81
505.773	83.81
505.99	89.81
506.207	91.81
506.423	89.81
506.64	82.81
506.856	91.81
507.073	95.81
507.289	76.81
507.506	88.81
507.722	131.81
507.939	106.81
508.155	100.81
508.372	81.81
508.588	94.81
508.805	94.81
509.021	77.81
509.238	103.81
509.454	89.81
509.67	105.81
509.887	122.81
510.103	142.81
510.319	202.81
510.536	794.81
510.752	2685.81
510.968	777.81
511.184	160.81
511.401	122.81
511.617	100.81
511.833	89.81
512.049	97.81
512.265	84.81
512.481	97.81
512.698	99.81
512.914	98.81
513.13	105.81
513.346	88.81
513.562	107.81
513.778	98.81
513.994	94.81
514.21	99.81
514.426	112.81
514.642	132.81
514.858	127.81
515.074	165.81
515.29	472.81
515.506	1661.81
515.721	644.81
