Data from Circ_2022_H10_HRD10591_00022.txt Node
Date: Wed Jan 03 09:53:42 EST 2024
User: Yrep
Spectrometer: HR+D1059
Trigger mode: 1
Integration Time (sec): 1.000000E-1
Scans to average: 1
Electric dark correction enabled: true
Nonlinearity correction enabled: false
Boxcar width: 0
XAxis mode: Wavelengths
Number of Pixels in Spectrum: 2048
>>>>>Begin Spectral Data<<<<<
223.165	-15.69
223.4	-15.69
223.635	-15.69
223.869	-14.69
224.104	-8.69
224.338	-21.69
224.573	-19.69
224.808	-13.69
225.042	-13.69
225.277	-10.69
225.511	-9.69
225.746	2.31
225.98	5.31
226.215	20.31
226.449	15.31
226.683	23.31
226.918	21.31
227.152	40.31
227.387	22.31
227.621	23.31
227.856	54.31
228.09	45.31
228.324	50.31
228.559	59.31
228.793	64.31
229.027	51.31
229.262	76.31
229.496	84.31
229.73	100.31
229.964	93.31
230.199	70.31
230.433	82.31
230.667	78.31
230.901	82.31
231.136	88.31
231.37	68.31
231.604	69.31
231.838	78.31
232.072	86.31
232.306	71.31
232.541	69.31
232.775	86.31
233.009	89.31
233.243	69.31
233.477	90.31
233.711	88.31
233.945	82.31
234.179	67.31
234.413	79.31
234.647	86.31
234.881	86.31
235.115	81.31
235.349	61.31
235.583	69.31
235.817	81.31
236.051	75.31
236.285	72.31
236.519	86.31
236.753	73.31
236.987	80.31
237.221	75.31
237.455	103.31
237.689	84.31
237.922	74.31
238.156	82.31
238.39	84.31
238.624	67.31
238.858	81.31
239.091	66.31
239.325	68.31
239.559	93.31
239.793	87.31
240.027	61.31
240.26	75.31
240.494	72.31
240.728	69.31
240.961	83.31
241.195	77.31
241.429	64.31
241.662	71.31
241.896	80.31
242.13	72.31
242.363	75.31
242.597	64.31
242.83	83.31
243.064	88.31
243.298	82.31
243.531	86.31
243.765	72.31
243.998	76.31
244.232	88.31
244.465	88.31
244.699	83.31
244.932	69.31
245.166	75.31
245.399	82.31
245.633	84.31
245.866	69.31
246.099	90.31
246.333	72.31
246.566	78.31
246.8	75.31
247.033	79.31
247.266	82.31
247.5	77.31
247.733	73.31
247.966	74.31
248.2	78.31
248.433	78.31
248.666	70.31
248.899	82.31
249.133	92.31
249.366	104.31
249.599	103.31
249.832	98.31
250.066	79.31
250.299	79.31
250.532	90.31
250.765	73.31
250.998	77.31
251.231	95.31
251.465	86.31
251.698	82.31
251.931	86.31
252.164	86.31
252.397	72.31
252.63	69.31
252.863	73.31
253.096	80.31
253.329	78.31
253.562	75.31
253.795	73.31
254.028	65.31
254.261	78.31
254.494	85.31
254.727	74.31
254.96	73.31
255.193	78.31
255.426	68.31
255.659	76.31
255.892	71.31
256.124	83.31
256.357	87.31
256.59	77.31
256.823	69.31
257.056	76.31
257.289	73.31
257.521	74.31
257.754	83.31
257.987	87.31
258.22	91.31
258.452	79.31
258.685	86.31
258.918	82.31
259.151	75.31
259.383	96.31
259.616	88.31
259.849	76.31
260.081	80.31
260.314	70.31
260.547	80.31
260.779	80.31
261.012	65.31
261.244	79.31
261.477	85.31
261.71	98.31
261.942	136.31
262.175	142.31
262.407	97.31
262.64	89.31
262.872	95.31
263.105	69.31
263.337	81.31
263.57	80.31
263.802	77.31
264.035	83.31
264.267	85.31
264.499	73.31
264.732	91.31
264.964	74.31
265.197	82.31
265.429	90.31
265.661	79.31
265.894	84.31
266.126	72.31
266.358	86.31
266.591	89.31
266.823	90.31
267.055	77.31
267.287	90.31
267.52	72.31
267.752	74.31
267.984	85.31
268.216	79.31
268.448	86.31
268.681	81.31
268.913	81.31
269.145	83.31
269.377	84.31
269.609	71.31
269.841	81.31
270.073	87.31
270.306	70.31
270.538	77.31
270.77	91.31
271.002	85.31
271.234	85.31
271.466	93.31
271.698	81.31
271.93	100.31
272.162	91.31
272.394	77.31
272.626	90.31
272.858	80.31
273.09	76.31
273.322	88.31
273.553	77.31
273.785	86.31
274.017	77.31
274.249	89.31
274.481	78.31
274.713	78.31
274.945	92.31
275.176	77.31
275.408	87.31
275.64	86.31
275.872	88.31
276.104	86.31
276.335	82.31
276.567	110.31
276.799	124.31
277.031	120.31
277.262	87.31
277.494	95.31
277.726	84.31
277.957	86.31
278.189	73.31
278.421	85.31
278.652	86.31
278.884	77.31
279.115	86.31
279.347	85.31
279.579	78.31
279.81	75.31
280.042	77.31
280.273	81.31
280.505	83.31
280.736	80.31
280.968	88.31
281.199	87.31
281.431	80.31
281.662	86.31
281.894	93.31
282.125	102.31
282.356	142.31
282.588	174.31
282.819	128.31
283.051	82.31
283.282	85.31
283.513	94.31
283.745	94.31
283.976	93.31
284.207	85.31
284.439	91.31
284.67	80.31
284.901	89.31
285.132	88.31
285.364	84.31
285.595	78.31
285.826	76.31
286.057	86.31
286.288	82.31
286.52	86.31
286.751	77.31
286.982	93.31
287.213	95.31
287.444	85.31
287.675	80.31
287.906	87.31
288.138	96.31
288.369	93.31
288.6	99.31
288.831	82.31
289.062	101.31
289.293	89.31
289.524	92.31
289.755	86.31
289.986	86.31
290.217	90.31
290.448	101.31
290.679	102.31
290.91	75.31
291.141	97.31
291.371	89.31
291.602	94.31
291.833	73.31
292.064	90.31
292.295	80.31
292.526	85.31
292.757	83.31
292.987	82.31
293.218	74.31
293.449	89.31
293.68	79.31
293.91	75.31
294.141	86.31
294.372	88.31
294.603	90.31
294.833	78.31
295.064	87.31
295.295	95.31
295.525	102.31
295.756	97.31
295.987	125.31
296.217	186.31
296.448	163.31
296.679	97.31
296.909	86.31
297.14	88.31
297.37	89.31
297.601	78.31
297.831	82.31
298.062	102.31
298.292	101.31
298.523	95.31
298.753	75.31
298.984	74.31
299.214	93.31
299.445	96.31
299.675	94.31
299.905	105.31
300.136	83.31
300.366	101.31
300.597	92.31
300.827	94.31
301.057	103.31
301.288	119.31
301.518	85.31
301.748	93.31
301.979	89.31
302.209	97.31
302.439	96.31
302.669	77.31
302.9	89.31
303.13	89.31
303.36	95.31
303.59	109.31
303.82	110.31
304.051	100.31
304.281	83.31
304.511	99.31
304.741	101.31
304.971	91.31
305.201	95.31
305.431	92.31
305.661	81.31
305.891	93.31
306.121	97.31
306.352	109.31
306.582	118.31
306.812	106.31
307.042	99.31
307.272	90.31
307.502	103.31
307.731	89.31
307.961	88.31
308.191	87.31
308.421	89.31
308.651	82.31
308.881	93.31
309.111	91.31
309.341	109.31
309.571	100.31
309.8	106.31
310.03	103.31
310.26	114.31
310.49	101.31
310.72	108.31
310.949	108.31
311.179	115.31
311.409	87.31
311.639	92.31
311.868	99.31
312.098	90.31
312.328	109.31
312.557	103.31
312.787	116.31
313.017	117.31
313.246	96.31
313.476	100.31
313.706	111.31
313.935	103.31
314.165	114.31
314.394	116.31
314.624	106.31
314.853	97.31
315.083	94.31
315.312	98.31
315.542	97.31
315.771	83.31
316.001	95.31
316.23	79.31
316.46	78.31
316.689	94.31
316.919	105.31
317.148	103.31
317.377	105.31
317.607	105.31
317.836	94.31
318.065	103.31
318.295	96.31
318.524	95.31
318.753	86.31
318.983	90.31
319.212	114.31
319.441	131.31
319.67	123.31
319.9	100.31
320.129	103.31
320.358	89.31
320.587	86.31
320.816	105.31
321.046	97.31
321.275	92.31
321.504	94.31
321.733	105.31
321.962	108.31
322.191	109.31
322.42	119.31
322.649	116.31
322.878	120.31
323.108	124.31
323.337	136.31
323.566	163.31
323.795	183.31
324.024	265.31
324.253	547.31
324.482	1203.31
324.71	2526.31
324.939	3383.31
325.168	1201.31
325.397	314.31
325.626	179.31
325.855	152.31
326.084	151.31
326.313	139.31
326.542	181.31
326.77	281.31
326.999	619.31
327.228	1306.31
327.457	2445.31
327.686	1974.31
327.914	511.31
328.143	249.31
328.372	182.31
328.6	160.31
328.829	138.31
329.058	180.31
329.287	158.31
329.515	125.31
329.744	108.31
329.972	105.31
330.201	117.31
330.43	133.31
330.658	160.31
330.887	200.31
331.115	153.31
331.344	117.31
331.572	104.31
331.801	129.31
332.03	113.31
332.258	96.31
332.486	95.31
332.715	100.31
332.943	103.31
333.172	84.31
333.4	99.31
333.629	115.31
333.857	126.31
334.085	102.31
334.314	105.31
334.542	127.31
334.771	129.31
334.999	102.31
335.227	105.31
335.455	83.31
335.684	92.31
335.912	97.31
336.14	103.31
336.369	110.31
336.597	113.31
336.825	102.31
337.053	83.31
337.281	87.31
337.51	111.31
337.738	101.31
337.966	90.31
338.194	93.31
338.422	96.31
338.65	109.31
338.878	113.31
339.106	95.31
339.334	94.31
339.562	86.31
339.79	91.31
340.018	84.31
340.246	89.31
340.474	100.31
340.702	89.31
340.93	102.31
341.158	91.31
341.386	111.31
341.614	96.31
341.842	101.31
342.07	102.31
342.298	87.31
342.526	90.31
342.754	93.31
342.981	91.31
343.209	79.31
343.437	97.31
343.665	97.31
343.893	96.31
344.12	102.31
344.348	98.31
344.576	102.31
344.804	89.31
345.031	109.31
345.259	108.31
345.487	94.31
345.714	87.31
345.942	96.31
346.17	78.31
346.397	97.31
346.625	77.31
346.853	98.31
347.08	89.31
347.308	100.31
347.535	113.31
347.763	97.31
347.99	96.31
348.218	110.31
348.445	113.31
348.673	118.31
348.9	100.31
349.128	100.31
349.355	89.31
349.583	88.31
349.81	85.31
350.037	93.31
350.265	93.31
350.492	90.31
350.72	98.31
350.947	103.31
351.174	114.31
351.402	119.31
351.629	110.31
351.856	98.31
352.083	109.31
352.311	101.31
352.538	121.31
352.765	106.31
352.992	115.31
353.22	118.31
353.447	109.31
353.674	95.31
353.901	96.31
354.128	93.31
354.355	89.31
354.583	96.31
354.81	90.31
355.037	89.31
355.264	101.31
355.491	88.31
355.718	83.31
355.945	89.31
356.172	95.31
356.399	101.31
356.626	81.31
356.853	104.31
357.08	81.31
357.307	92.31
357.534	74.31
357.761	99.31
357.988	87.31
358.215	87.31
358.441	88.31
358.668	97.31
358.895	89.31
359.122	87.31
359.349	82.31
359.576	99.31
359.802	105.31
360.029	143.31
360.256	143.31
360.483	115.31
360.709	86.31
360.936	87.31
361.163	106.31
361.39	87.31
361.616	101.31
361.843	90.31
362.07	94.31
362.296	99.31
362.523	97.31
362.749	88.31
362.976	96.31
363.203	87.31
363.429	87.31
363.656	79.31
363.882	102.31
364.109	87.31
364.335	101.31
364.562	87.31
364.788	101.31
365.015	106.31
365.241	107.31
365.468	116.31
365.694	120.31
365.92	107.31
366.147	98.31
366.373	102.31
366.599	96.31
366.826	67.31
367.052	71.31
367.278	98.31
367.505	93.31
367.731	95.31
367.957	79.31
368.184	98.31
368.41	110.31
368.636	112.31
368.862	134.31
369.089	117.31
369.315	109.31
369.541	90.31
369.767	84.31
369.993	98.31
370.219	96.31
370.445	89.31
370.672	87.31
370.898	86.31
371.124	73.31
371.35	88.31
371.576	97.31
371.802	79.31
372.028	83.31
372.254	96.31
372.48	95.31
372.706	93.31
372.932	81.31
373.158	90.31
373.384	85.31
373.61	98.31
373.835	95.31
374.061	95.31
374.287	84.31
374.513	91.31
374.739	94.31
374.965	89.31
375.191	97.31
375.416	71.31
375.642	87.31
375.868	79.31
376.094	81.31
376.319	79.31
376.545	93.31
376.771	89.31
376.997	73.31
377.222	91.31
377.448	97.31
377.674	94.31
377.899	94.31
378.125	100.31
378.35	99.31
378.576	84.31
378.802	92.31
379.027	97.31
379.253	106.31
379.478	80.31
379.704	87.31
379.929	83.31
380.155	88.31
380.38	107.31
380.606	106.31
380.831	89.31
381.057	103.31
381.282	87.31
381.507	100.31
381.733	95.31
381.958	104.31
382.184	102.31
382.409	114.31
382.634	101.31
382.86	89.31
383.085	97.31
383.31	100.31
383.535	85.31
383.761	105.31
383.986	110.31
384.211	105.31
384.436	99.31
384.662	105.31
384.887	114.31
385.112	103.31
385.337	95.31
385.562	104.31
385.787	91.31
386.013	112.31
386.238	129.31
386.463	109.31
386.688	115.31
386.913	113.31
387.138	91.31
387.363	112.31
387.588	84.31
387.813	89.31
388.038	110.31
388.263	116.31
388.488	95.31
388.713	88.31
388.938	98.31
389.163	99.31
389.387	102.31
389.612	99.31
389.837	92.31
390.062	94.31
390.287	88.31
390.512	85.31
390.736	82.31
390.961	87.31
391.186	88.31
391.411	89.31
391.636	85.31
391.86	96.31
392.085	79.31
392.31	93.31
392.534	88.31
392.759	86.31
392.984	88.31
393.208	81.31
393.433	86.31
393.658	92.31
393.882	81.31
394.107	77.31
394.331	74.31
394.556	87.31
394.78	80.31
395.005	89.31
395.229	79.31
395.454	79.31
395.678	92.31
395.903	91.31
396.127	85.31
396.352	87.31
396.576	93.31
396.801	89.31
397.025	84.31
397.249	79.31
397.474	80.31
397.698	79.31
397.922	100.31
398.147	86.31
398.371	83.31
398.595	84.31
398.82	81.31
399.044	87.31
399.268	97.31
399.492	74.31
399.717	87.31
399.941	91.31
400.165	91.31
400.389	99.31
400.613	88.31
400.837	98.31
401.062	80.31
401.286	99.31
401.51	86.31
401.734	97.31
401.958	112.31
402.182	158.31
402.406	217.31
402.63	165.31
402.854	96.31
403.078	83.31
403.302	96.31
403.526	84.31
403.75	84.31
403.974	98.31
404.198	93.31
404.422	81.31
404.645	86.31
404.869	96.31
405.093	95.31
405.317	109.31
405.541	109.31
405.765	111.31
405.988	153.31
406.212	243.31
406.436	341.31
406.66	214.31
406.883	111.31
407.107	117.31
407.331	103.31
407.555	95.31
407.778	100.31
408.002	88.31
408.226	104.31
408.449	103.31
408.673	82.31
408.896	86.31
409.12	101.31
409.344	75.31
409.567	110.31
409.791	89.31
410.014	82.31
410.238	95.31
410.461	96.31
410.685	100.31
410.908	102.31
411.132	99.31
411.355	113.31
411.578	93.31
411.802	90.31
412.025	93.31
412.249	101.31
412.472	79.31
412.695	93.31
412.919	94.31
413.142	100.31
413.365	87.31
413.589	107.31
413.812	92.31
414.035	95.31
414.258	78.31
414.482	97.31
414.705	96.31
414.928	100.31
415.151	84.31
415.374	95.31
415.597	97.31
415.821	94.31
416.044	83.31
416.267	76.31
416.49	75.31
416.713	88.31
416.936	98.31
417.159	65.31
417.382	91.31
417.605	94.31
417.828	86.31
418.051	97.31
418.274	86.31
418.497	85.31
418.72	74.31
418.943	70.31
419.166	96.31
419.389	99.31
419.611	87.31
419.834	83.31
420.057	80.31
420.28	93.31
420.503	80.31
420.726	81.31
420.948	96.31
421.171	101.31
421.394	97.31
421.617	90.31
421.839	93.31
422.062	102.31
422.285	110.31
422.507	105.31
422.73	117.31
422.953	91.31
423.175	96.31
423.398	90.31
423.621	73.31
423.843	99.31
424.066	93.31
424.288	90.31
424.511	102.31
424.733	112.31
424.956	122.31
425.178	102.31
425.401	122.31
425.623	110.31
425.846	102.31
426.068	106.31
426.291	93.31
426.513	96.31
426.735	88.31
426.958	104.31
427.18	131.31
427.402	179.31
427.625	247.31
427.847	167.31
428.069	122.31
428.292	94.31
428.514	87.31
428.736	98.31
428.958	101.31
429.181	94.31
429.403	74.31
429.625	95.31
429.847	97.31
430.069	101.31
430.292	99.31
430.514	83.31
430.736	93.31
430.958	90.31
431.18	85.31
431.402	90.31
431.624	73.31
431.846	83.31
432.068	87.31
432.29	105.31
432.512	87.31
432.734	81.31
432.956	91.31
433.178	111.31
433.4	95.31
433.622	87.31
433.844	82.31
434.066	102.31
434.287	94.31
434.509	102.31
434.731	78.31
434.953	82.31
435.175	90.31
435.397	86.31
435.618	86.31
435.84	126.31
436.062	134.31
436.284	135.31
436.505	118.31
436.727	114.31
436.949	102.31
437.17	82.31
437.392	80.31
437.614	103.31
437.835	126.31
438.057	152.31
438.278	113.31
438.5	124.31
438.721	138.31
438.943	101.31
439.165	88.31
439.386	94.31
439.608	100.31
439.829	129.31
440.05	154.31
440.272	191.31
440.493	116.31
440.715	81.31
440.936	93.31
441.158	85.31
441.379	87.31
441.6	93.31
441.822	111.31
442.043	93.31
442.264	115.31
442.486	132.31
442.707	96.31
442.928	124.31
443.149	185.31
443.371	154.31
443.592	133.31
443.813	114.31
444.034	129.31
444.255	88.31
444.476	89.31
444.698	84.31
444.919	87.31
445.14	138.31
445.361	141.31
445.582	140.31
445.803	198.31
446.024	161.31
446.245	174.31
446.466	138.31
446.687	99.31
446.908	96.31
447.129	98.31
447.35	99.31
447.571	91.31
447.792	90.31
448.013	114.31
448.234	123.31
448.455	110.31
448.675	128.31
448.896	148.31
449.117	110.31
449.338	103.31
449.559	155.31
449.779	163.31
450	104.31
450.221	95.31
450.442	98.31
450.662	111.31
450.883	123.31
451.104	133.31
451.324	115.31
451.545	102.31
451.766	74.31
451.986	91.31
452.207	77.31
452.428	89.31
452.648	107.31
452.869	137.31
453.089	123.31
453.31	146.31
453.53	113.31
453.751	110.31
453.971	123.31
454.192	143.31
454.412	93.31
454.633	90.31
454.853	94.31
455.073	93.31
455.294	100.31
455.514	118.31
455.734	97.31
455.955	74.31
456.175	83.31
456.395	86.31
456.616	99.31
456.836	89.31
457.056	102.31
457.276	82.31
457.497	92.31
457.717	91.31
457.937	93.31
458.157	96.31
458.377	102.31
458.598	128.31
458.818	217.31
459.038	221.31
459.258	146.31
459.478	101.31
459.698	91.31
459.918	97.31
460.138	78.31
460.358	85.31
460.578	78.31
460.798	105.31
461.018	102.31
461.238	97.31
461.458	92.31
461.678	94.31
461.898	79.31
462.118	84.31
462.338	90.31
462.558	68.31
462.777	104.31
462.997	93.31
463.217	77.31
463.437	86.31
463.657	95.31
463.876	88.31
464.096	82.31
464.316	84.31
464.536	111.31
464.755	123.31
464.975	113.31
465.195	229.31
465.414	234.31
465.634	125.31
465.854	86.31
466.073	92.31
466.293	92.31
466.512	98.31
466.732	83.31
466.951	88.31
467.171	96.31
467.391	95.31
467.61	98.31
467.829	93.31
468.049	103.31
468.268	88.31
468.488	83.31
468.707	87.31
468.927	98.31
469.146	83.31
469.365	85.31
469.585	95.31
469.804	99.31
470.023	99.31
470.243	101.31
470.462	119.31
470.681	127.31
470.901	73.31
471.12	91.31
471.339	77.31
471.558	92.31
471.777	87.31
471.997	93.31
472.216	99.31
472.435	133.31
472.654	86.31
472.873	91.31
473.092	80.31
473.311	73.31
473.53	86.31
473.749	86.31
473.968	95.31
474.187	129.31
474.406	100.31
474.625	86.31
474.844	96.31
475.063	73.31
475.282	85.31
475.501	90.31
475.72	90.31
475.939	93.31
476.158	83.31
476.377	79.31
476.596	80.31
476.814	101.31
477.033	88.31
477.252	86.31
477.471	95.31
477.69	108.31
477.908	86.31
478.127	93.31
478.346	95.31
478.564	103.31
478.783	88.31
479.002	104.31
479.22	99.31
479.439	106.31
479.658	130.31
479.876	89.31
480.095	90.31
480.313	86.31
480.532	95.31
480.751	107.31
480.969	113.31
481.188	158.31
481.406	145.31
481.624	91.31
481.843	86.31
482.061	101.31
482.28	85.31
482.498	86.31
482.717	92.31
482.935	85.31
483.153	89.31
483.372	82.31
483.59	91.31
483.808	93.31
484.027	98.31
484.245	104.31
484.463	96.31
484.681	99.31
484.9	82.31
485.118	87.31
485.336	92.31
485.554	97.31
485.772	98.31
485.99	113.31
486.209	97.31
486.427	111.31
486.645	104.31
486.863	105.31
487.081	93.31
487.299	89.31
487.517	90.31
487.735	95.31
487.953	86.31
488.171	72.31
488.389	100.31
488.607	102.31
488.825	97.31
489.043	98.31
489.261	112.31
489.479	84.31
489.696	88.31
489.914	84.31
490.132	97.31
490.35	86.31
490.568	99.31
490.786	93.31
491.003	83.31
491.221	97.31
491.439	90.31
491.657	94.31
491.874	97.31
492.092	89.31
492.31	99.31
492.527	101.31
492.745	80.31
492.963	96.31
493.18	81.31
493.398	92.31
493.615	88.31
493.833	99.31
494.05	90.31
494.268	87.31
494.485	99.31
494.703	88.31
494.92	73.31
495.138	92.31
495.355	88.31
495.573	96.31
495.79	91.31
496.008	85.31
496.225	104.31
496.442	74.31
496.66	83.31
496.877	65.31
497.094	98.31
497.312	88.31
497.529	80.31
497.746	84.31
497.963	97.31
498.181	99.31
498.398	104.31
498.615	110.31
498.832	101.31
499.049	91.31
499.267	89.31
499.484	87.31
499.701	91.31
499.918	94.31
500.135	90.31
500.352	93.31
500.569	71.31
500.786	90.31
501.003	96.31
501.22	75.31
501.437	87.31
501.654	98.31
501.871	114.31
502.088	97.31
502.305	100.31
502.522	99.31
502.739	86.31
502.956	88.31
503.172	89.31
503.389	90.31
503.606	113.31
503.823	109.31
504.04	82.31
504.256	88.31
504.473	74.31
504.69	84.31
504.907	89.31
505.123	87.31
505.34	84.31
505.557	91.31
505.773	92.31
505.99	91.31
506.207	99.31
506.423	88.31
506.64	77.31
506.856	88.31
507.073	99.31
507.289	82.31
507.506	91.31
507.722	150.31
507.939	154.31
508.155	106.31
508.372	79.31
508.588	93.31
508.805	93.31
509.021	106.31
509.238	105.31
509.454	117.31
509.67	102.31
509.887	119.31
510.103	159.31
510.319	264.31
510.536	1055.31
510.752	3877.31
510.968	1058.31
511.184	209.31
511.401	133.31
511.617	109.31
511.833	96.31
512.049	94.31
512.265	89.31
512.481	103.31
512.698	92.31
512.914	89.31
513.13	97.31
513.346	88.31
513.562	93.31
513.778	100.31
513.994	114.31
514.21	121.31
514.426	135.31
