Data from Circ_2022_H10_HRD10591_00001.txt Node
Date: Wed Jan 03 09:53:37 EST 2024
User: Yrep
Spectrometer: HR+D1059
Trigger mode: 1
Integration Time (sec): 1.000000E-1
Scans to average: 1
Electric dark correction enabled: true
Nonlinearity correction enabled: false
Boxcar width: 0
XAxis mode: Wavelengths
Number of Pixels in Spectrum: 2048
>>>>>Begin Spectral Data<<<<<
223.165	-4.31
223.4	-4.31
223.635	-4.31
223.869	-24.31
224.104	-14.31
224.338	-15.31
224.573	-8.31
224.808	-21.31
225.042	-11.31
225.277	-5.31
225.511	-8.31
225.746	-14.31
225.98	6.69
226.215	15.69
226.449	14.69
226.683	32.69
226.918	24.69
227.152	32.69
227.387	36.69
227.621	31.69
227.856	30.69
228.09	50.69
228.324	43.69
228.559	62.69
228.793	60.69
229.027	71.69
229.262	70.69
229.496	76.69
229.73	90.69
229.964	101.69
230.199	84.69
230.433	65.69
230.667	67.69
230.901	68.69
231.136	71.69
231.37	82.69
231.604	86.69
231.838	82.69
232.072	72.69
232.306	82.69
232.541	74.69
232.775	81.69
233.009	77.69
233.243	75.69
233.477	74.69
233.711	76.69
233.945	81.69
234.179	69.69
234.413	77.69
234.647	93.69
234.881	70.69
235.115	76.69
235.349	82.69
235.583	83.69
235.817	74.69
236.051	76.69
236.285	64.69
236.519	74.69
236.753	85.69
236.987	69.69
237.221	80.69
237.455	99.69
237.689	77.69
237.922	71.69
238.156	84.69
238.39	75.69
238.624	81.69
238.858	70.69
239.091	64.69
239.325	68.69
239.559	69.69
239.793	76.69
240.027	63.69
240.26	86.69
240.494	75.69
240.728	91.69
240.961	71.69
241.195	82.69
241.429	70.69
241.662	76.69
241.896	79.69
242.13	79.69
242.363	72.69
242.597	72.69
242.83	70.69
243.064	77.69
243.298	74.69
243.531	75.69
243.765	85.69
243.998	98.69
244.232	79.69
244.465	81.69
244.699	85.69
244.932	82.69
245.166	68.69
245.399	82.69
245.633	95.69
245.866	58.69
246.099	78.69
246.333	102.69
246.566	74.69
246.8	83.69
247.033	70.69
247.266	62.69
247.5	79.69
247.733	100.69
247.966	86.69
248.2	88.69
248.433	91.69
248.666	86.69
248.899	80.69
249.133	97.69
249.366	92.69
249.599	86.69
249.832	80.69
250.066	81.69
250.299	76.69
250.532	80.69
250.765	72.69
250.998	87.69
251.231	83.69
251.465	66.69
251.698	75.69
251.931	84.69
252.164	79.69
252.397	86.69
252.63	70.69
252.863	82.69
253.096	69.69
253.329	82.69
253.562	75.69
253.795	72.69
254.028	79.69
254.261	78.69
254.494	68.69
254.727	84.69
254.96	84.69
255.193	85.69
255.426	73.69
255.659	82.69
255.892	91.69
256.124	92.69
256.357	77.69
256.59	76.69
256.823	69.69
257.056	75.69
257.289	85.69
257.521	74.69
257.754	79.69
257.987	87.69
258.22	73.69
258.452	89.69
258.685	73.69
258.918	79.69
259.151	80.69
259.383	92.69
259.616	64.69
259.849	89.69
260.081	77.69
260.314	65.69
260.547	84.69
260.779	68.69
261.012	84.69
261.244	79.69
261.477	84.69
261.71	104.69
261.942	126.69
262.175	135.69
262.407	91.69
262.64	98.69
262.872	98.69
263.105	85.69
263.337	73.69
263.57	66.69
263.802	84.69
264.035	73.69
264.267	86.69
264.499	86.69
264.732	81.69
264.964	92.69
265.197	66.69
265.429	82.69
265.661	92.69
265.894	78.69
266.126	83.69
266.358	82.69
266.591	73.69
266.823	96.69
267.055	87.69
267.287	72.69
267.52	69.69
267.752	92.69
267.984	74.69
268.216	77.69
268.448	96.69
268.681	82.69
268.913	83.69
269.145	89.69
269.377	83.69
269.609	91.69
269.841	85.69
270.073	84.69
270.306	83.69
270.538	89.69
270.77	78.69
271.002	81.69
271.234	94.69
271.466	87.69
271.698	81.69
271.93	84.69
272.162	81.69
272.394	74.69
272.626	74.69
272.858	69.69
273.09	75.69
273.322	100.69
273.553	67.69
273.785	75.69
274.017	101.69
274.249	84.69
274.481	87.69
274.713	89.69
274.945	100.69
275.176	87.69
275.408	85.69
275.64	78.69
275.872	90.69
276.104	96.69
276.335	98.69
276.567	104.69
276.799	123.69
277.031	124.69
277.262	99.69
277.494	89.69
277.726	83.69
277.957	85.69
278.189	72.69
278.421	74.69
278.652	87.69
278.884	76.69
279.115	93.69
279.347	87.69
279.579	73.69
279.81	65.69
280.042	86.69
280.273	79.69
280.505	81.69
280.736	94.69
280.968	85.69
281.199	97.69
281.431	83.69
281.662	84.69
281.894	94.69
282.125	98.69
282.356	122.69
282.588	160.69
282.819	120.69
283.051	91.69
283.282	83.69
283.513	83.69
283.745	87.69
283.976	96.69
284.207	88.69
284.439	95.69
284.67	83.69
284.901	90.69
285.132	80.69
285.364	86.69
285.595	77.69
285.826	79.69
286.057	95.69
286.288	84.69
286.52	84.69
286.751	82.69
286.982	80.69
287.213	98.69
287.444	90.69
287.675	88.69
287.906	102.69
288.138	88.69
288.369	84.69
288.6	94.69
288.831	90.69
289.062	92.69
289.293	89.69
289.524	91.69
289.755	79.69
289.986	65.69
290.217	80.69
290.448	82.69
290.679	76.69
290.91	73.69
291.141	83.69
291.371	86.69
291.602	89.69
291.833	88.69
292.064	84.69
292.295	102.69
292.526	95.69
292.757	80.69
292.987	84.69
293.218	88.69
293.449	97.69
293.68	84.69
293.91	97.69
294.141	89.69
294.372	86.69
294.603	82.69
294.833	100.69
295.064	94.69
295.295	93.69
295.525	89.69
295.756	94.69
295.987	110.69
296.217	154.69
296.448	136.69
296.679	93.69
296.909	86.69
297.14	85.69
297.37	97.69
297.601	93.69
297.831	86.69
298.062	103.69
298.292	78.69
298.523	81.69
298.753	83.69
298.984	85.69
299.214	89.69
299.445	108.69
299.675	102.69
299.905	96.69
300.136	103.69
300.366	103.69
300.597	83.69
300.827	99.69
301.057	101.69
301.288	96.69
301.518	91.69
301.748	95.69
301.979	100.69
302.209	95.69
302.439	112.69
302.669	92.69
302.9	84.69
303.13	103.69
303.36	96.69
303.59	100.69
303.82	98.69
304.051	94.69
304.281	88.69
304.511	94.69
304.741	83.69
304.971	79.69
305.201	88.69
305.431	81.69
305.661	88.69
305.891	100.69
306.121	95.69
306.352	103.69
306.582	111.69
306.812	95.69
307.042	110.69
307.272	91.69
307.502	111.69
307.731	91.69
307.961	96.69
308.191	97.69
308.421	102.69
308.651	95.69
308.881	90.69
309.111	90.69
309.341	116.69
309.571	116.69
309.8	101.69
310.03	112.69
310.26	99.69
310.49	106.69
310.72	106.69
310.949	120.69
311.179	110.69
311.409	100.69
311.639	100.69
311.868	106.69
312.098	101.69
312.328	102.69
312.557	113.69
312.787	103.69
313.017	105.69
313.246	109.69
313.476	88.69
313.706	86.69
313.935	92.69
314.165	103.69
314.394	109.69
314.624	104.69
314.853	99.69
315.083	85.69
315.312	101.69
315.542	91.69
315.771	106.69
316.001	97.69
316.23	87.69
316.46	89.69
316.689	102.69
316.919	108.69
317.148	106.69
317.377	108.69
317.607	91.69
317.836	87.69
318.065	89.69
318.295	93.69
318.524	96.69
318.753	104.69
318.983	84.69
319.212	99.69
319.441	117.69
319.67	117.69
319.9	95.69
320.129	93.69
320.358	89.69
320.587	83.69
320.816	100.69
321.046	114.69
321.275	102.69
321.504	111.69
321.733	107.69
321.962	105.69
322.191	106.69
322.42	104.69
322.649	119.69
322.878	120.69
323.108	124.69
323.337	147.69
323.566	138.69
323.795	168.69
324.024	232.69
324.253	498.69
324.482	1034.69
324.71	2244.69
324.939	3082.69
325.168	1113.69
325.397	281.69
325.626	176.69
325.855	153.69
326.084	144.69
326.313	141.69
326.542	183.69
326.77	285.69
326.999	569.69
327.228	1232.69
327.457	2262.69
327.686	1841.69
327.914	481.69
328.143	239.69
328.372	178.69
328.6	140.69
328.829	137.69
329.058	141.69
329.287	170.69
329.515	136.69
329.744	135.69
329.972	100.69
330.201	102.69
330.43	118.69
330.658	139.69
330.887	182.69
331.115	159.69
331.344	98.69
331.572	110.69
331.801	118.69
332.03	110.69
332.258	103.69
332.486	102.69
332.715	99.69
332.943	95.69
333.172	83.69
333.4	117.69
333.629	110.69
333.857	108.69
334.085	114.69
334.314	97.69
334.542	94.69
334.771	97.69
334.999	107.69
335.227	95.69
335.455	110.69
335.684	81.69
335.912	101.69
336.14	92.69
336.369	106.69
336.597	99.69
336.825	105.69
337.053	87.69
337.281	92.69
337.51	96.69
337.738	117.69
337.966	95.69
338.194	104.69
338.422	107.69
338.65	92.69
338.878	83.69
339.106	99.69
339.334	100.69
339.562	92.69
339.79	75.69
340.018	85.69
340.246	104.69
340.474	90.69
340.702	104.69
340.93	94.69
341.158	98.69
341.386	92.69
341.614	96.69
341.842	96.69
342.07	110.69
342.298	94.69
342.526	91.69
342.754	105.69
342.981	84.69
343.209	99.69
343.437	102.69
343.665	97.69
343.893	76.69
344.12	91.69
344.348	83.69
344.576	84.69
344.804	102.69
345.031	98.69
345.259	125.69
345.487	111.69
345.714	103.69
345.942	102.69
346.17	99.69
346.397	98.69
346.625	102.69
346.853	98.69
347.08	95.69
347.308	96.69
347.535	104.69
347.763	101.69
347.99	101.69
348.218	112.69
348.445	115.69
348.673	91.69
348.9	97.69
349.128	98.69
349.355	96.69
349.583	102.69
349.81	105.69
350.037	104.69
350.265	91.69
350.492	98.69
350.72	97.69
350.947	94.69
351.174	124.69
351.402	130.69
351.629	105.69
351.856	101.69
352.083	113.69
352.311	117.69
352.538	126.69
352.765	128.69
352.992	110.69
353.22	119.69
353.447	103.69
353.674	117.69
353.901	96.69
354.128	95.69
354.355	96.69
354.583	107.69
354.81	115.69
355.037	91.69
355.264	86.69
355.491	104.69
355.718	93.69
355.945	114.69
356.172	100.69
356.399	110.69
356.626	100.69
356.853	90.69
357.08	93.69
357.307	110.69
357.534	89.69
357.761	86.69
357.988	94.69
358.215	100.69
358.441	105.69
358.668	110.69
358.895	99.69
359.122	90.69
359.349	88.69
359.576	99.69
359.802	106.69
360.029	136.69
360.256	124.69
360.483	103.69
360.709	92.69
360.936	91.69
361.163	84.69
361.39	98.69
361.616	97.69
361.843	90.69
362.07	90.69
362.296	103.69
362.523	91.69
362.749	99.69
362.976	105.69
363.203	97.69
363.429	92.69
363.656	102.69
363.882	97.69
364.109	81.69
364.335	90.69
364.562	98.69
364.788	93.69
365.015	101.69
365.241	98.69
365.468	108.69
365.694	106.69
365.92	100.69
366.147	94.69
366.373	89.69
366.599	93.69
366.826	92.69
367.052	94.69
367.278	96.69
367.505	86.69
367.731	94.69
367.957	91.69
368.184	90.69
368.41	105.69
368.636	125.69
368.862	117.69
369.089	120.69
369.315	102.69
369.541	92.69
369.767	97.69
369.993	106.69
370.219	99.69
370.445	86.69
370.672	84.69
370.898	86.69
371.124	96.69
371.35	86.69
371.576	88.69
371.802	97.69
372.028	82.69
372.254	83.69
372.48	87.69
372.706	77.69
372.932	84.69
373.158	93.69
373.384	96.69
373.61	82.69
373.835	80.69
374.061	91.69
374.287	88.69
374.513	94.69
374.739	79.69
374.965	89.69
375.191	73.69
375.416	94.69
375.642	83.69
375.868	87.69
376.094	85.69
376.319	108.69
376.545	108.69
376.771	90.69
376.997	102.69
377.222	107.69
377.448	85.69
377.674	92.69
377.899	107.69
378.125	93.69
378.35	89.69
378.576	106.69
378.802	82.69
379.027	85.69
379.253	99.69
379.478	93.69
379.704	99.69
379.929	98.69
380.155	98.69
380.38	99.69
380.606	114.69
380.831	87.69
381.057	117.69
381.282	91.69
381.507	92.69
381.733	110.69
381.958	99.69
382.184	99.69
382.409	110.69
382.634	114.69
382.86	106.69
383.085	107.69
383.31	96.69
383.535	100.69
383.761	114.69
383.986	108.69
384.211	104.69
384.436	103.69
384.662	106.69
384.887	122.69
385.112	116.69
385.337	113.69
385.562	149.69
385.787	122.69
386.013	131.69
386.238	148.69
386.463	126.69
386.688	123.69
386.913	129.69
387.138	107.69
387.363	123.69
387.588	116.69
387.813	127.69
388.038	113.69
388.263	129.69
388.488	130.69
388.713	107.69
388.938	83.69
389.163	90.69
389.387	93.69
389.612	88.69
389.837	89.69
390.062	88.69
390.287	104.69
390.512	93.69
390.736	94.69
390.961	85.69
391.186	94.69
391.411	100.69
391.636	83.69
391.86	86.69
392.085	84.69
392.31	90.69
392.534	90.69
392.759	83.69
392.984	99.69
393.208	105.69
393.433	113.69
393.658	89.69
393.882	92.69
394.107	88.69
394.331	89.69
394.556	94.69
394.78	87.69
395.005	76.69
395.229	86.69
395.454	85.69
395.678	100.69
395.903	92.69
396.127	92.69
396.352	93.69
396.576	89.69
396.801	93.69
397.025	110.69
397.249	100.69
397.474	105.69
397.698	82.69
397.922	88.69
398.147	84.69
398.371	86.69
398.595	90.69
398.82	84.69
399.044	76.69
399.268	97.69
399.492	93.69
399.717	90.69
399.941	91.69
400.165	102.69
400.389	99.69
400.613	93.69
400.837	92.69
401.062	84.69
401.286	87.69
401.51	96.69
401.734	82.69
401.958	113.69
402.182	136.69
402.406	197.69
402.63	135.69
402.854	104.69
403.078	86.69
403.302	94.69
403.526	93.69
403.75	86.69
403.974	84.69
404.198	97.69
404.422	104.69
404.645	79.69
404.869	95.69
405.093	107.69
405.317	123.69
405.541	105.69
405.765	96.69
405.988	128.69
406.212	205.69
406.436	297.69
406.66	172.69
406.883	127.69
407.107	93.69
407.331	100.69
407.555	116.69
407.778	105.69
408.002	91.69
408.226	77.69
408.449	92.69
408.673	95.69
408.896	93.69
409.12	84.69
409.344	98.69
409.567	91.69
409.791	78.69
410.014	98.69
410.238	96.69
410.461	97.69
410.685	99.69
410.908	98.69
411.132	93.69
411.355	100.69
411.578	91.69
411.802	93.69
412.025	100.69
412.249	86.69
412.472	86.69
412.695	86.69
412.919	90.69
413.142	100.69
413.365	101.69
413.589	86.69
413.812	81.69
414.035	97.69
414.258	99.69
414.482	105.69
414.705	96.69
414.928	89.69
415.151	88.69
415.374	77.69
415.597	93.69
415.821	99.69
416.044	84.69
416.267	87.69
416.49	86.69
416.713	82.69
416.936	93.69
417.159	82.69
417.382	100.69
417.605	90.69
417.828	93.69
418.051	106.69
418.274	95.69
418.497	94.69
418.72	81.69
418.943	98.69
419.166	75.69
419.389	87.69
419.611	95.69
419.834	98.69
420.057	113.69
420.28	79.69
420.503	91.69
420.726	83.69
420.948	101.69
421.171	116.69
421.394	90.69
421.617	75.69
421.839	89.69
422.062	91.69
422.285	92.69
422.507	98.69
422.73	121.69
422.953	98.69
423.175	100.69
423.398	82.69
423.621	98.69
423.843	95.69
424.066	88.69
424.288	93.69
424.511	104.69
424.733	113.69
424.956	131.69
425.178	122.69
425.401	130.69
425.623	98.69
425.846	78.69
426.068	88.69
426.291	101.69
426.513	92.69
426.735	90.69
426.958	109.69
427.18	132.69
427.402	169.69
427.625	204.69
427.847	160.69
428.069	123.69
428.292	86.69
428.514	82.69
428.736	76.69
428.958	83.69
429.181	82.69
429.403	87.69
429.625	89.69
429.847	105.69
430.069	113.69
430.292	96.69
430.514	91.69
430.736	95.69
430.958	90.69
431.18	92.69
431.402	94.69
431.624	86.69
431.846	78.69
432.068	90.69
432.29	96.69
432.512	84.69
432.734	78.69
432.956	104.69
433.178	98.69
433.4	103.69
433.622	86.69
433.844	91.69
434.066	90.69
434.287	86.69
434.509	89.69
434.731	87.69
434.953	86.69
435.175	92.69
435.397	97.69
435.618	87.69
435.84	103.69
436.062	151.69
436.284	158.69
436.505	125.69
436.727	96.69
436.949	98.69
437.17	93.69
437.392	80.69
437.614	117.69
437.835	118.69
438.057	133.69
438.278	125.69
438.5	102.69
438.721	154.69
438.943	116.69
439.165	88.69
439.386	102.69
439.608	94.69
439.829	117.69
440.05	137.69
440.272	190.69
440.493	117.69
440.715	91.69
440.936	93.69
441.158	95.69
441.379	79.69
441.6	88.69
441.822	103.69
442.043	97.69
442.264	135.69
442.486	124.69
442.707	96.69
442.928	113.69
443.149	153.69
443.371	146.69
443.592	112.69
443.813	142.69
444.034	135.69
444.255	93.69
444.476	96.69
444.698	95.69
444.919	80.69
445.14	138.69
445.361	130.69
445.582	132.69
445.803	170.69
446.024	176.69
446.245	180.69
446.466	128.69
446.687	91.69
446.908	90.69
447.129	84.69
447.35	79.69
447.571	95.69
447.792	91.69
448.013	97.69
448.234	122.69
448.455	110.69
448.675	117.69
448.896	151.69
449.117	105.69
449.338	123.69
449.559	154.69
449.779	170.69
450	100.69
450.221	87.69
450.442	98.69
450.662	112.69
450.883	123.69
451.104	125.69
451.324	102.69
451.545	78.69
451.766	88.69
451.986	79.69
452.207	91.69
452.428	97.69
452.648	110.69
452.869	110.69
453.089	113.69
453.31	145.69
453.53	104.69
453.751	86.69
453.971	122.69
454.192	129.69
454.412	98.69
454.633	98.69
454.853	94.69
455.073	97.69
455.294	80.69
455.514	107.69
455.734	104.69
455.955	84.69
456.175	83.69
456.395	92.69
456.616	87.69
456.836	80.69
457.056	98.69
457.276	82.69
457.497	82.69
457.717	84.69
457.937	95.69
458.157	96.69
458.377	107.69
458.598	111.69
458.818	200.69
459.038	185.69
459.258	139.69
459.478	93.69
459.698	92.69
459.918	87.69
460.138	84.69
460.358	105.69
460.578	82.69
460.798	95.69
461.018	87.69
461.238	87.69
461.458	83.69
461.678	61.69
461.898	89.69
462.118	99.69
462.338	95.69
462.558	85.69
462.777	85.69
462.997	86.69
463.217	84.69
463.437	96.69
463.657	80.69
463.876	80.69
464.096	87.69
464.316	89.69
464.536	88.69
464.755	114.69
464.975	129.69
465.195	204.69
465.414	214.69
465.634	119.69
465.854	81.69
466.073	94.69
466.293	94.69
466.512	84.69
466.732	94.69
466.951	86.69
467.171	86.69
467.391	99.69
467.61	110.69
467.829	105.69
468.049	100.69
468.268	89.69
468.488	80.69
468.707	84.69
468.927	87.69
469.146	93.69
469.365	92.69
469.585	87.69
469.804	100.69
470.023	104.69
470.243	85.69
470.462	97.69
470.681	126.69
470.901	88.69
471.12	82.69
471.339	95.69
471.558	97.69
471.777	83.69
471.997	94.69
472.216	82.69
472.435	99.69
472.654	82.69
472.873	110.69
473.092	96.69
473.311	76.69
473.53	89.69
473.749	85.69
473.968	90.69
474.187	106.69
474.406	105.69
474.625	98.69
474.844	84.69
475.063	94.69
475.282	93.69
475.501	92.69
475.72	100.69
475.939	78.69
476.158	94.69
476.377	84.69
476.596	97.69
476.814	91.69
477.033	97.69
477.252	95.69
477.471	96.69
477.69	91.69
477.908	73.69
478.127	85.69
478.346	87.69
478.564	104.69
478.783	98.69
479.002	98.69
479.22	77.69
479.439	98.69
479.658	122.69
479.876	103.69
480.095	89.69
480.313	88.69
480.532	89.69
480.751	81.69
480.969	98.69
481.188	85.69
481.406	96.69
481.624	90.69
481.843	86.69
482.061	90.69
482.28	84.69
482.498	92.69
482.717	88.69
482.935	95.69
483.153	86.69
483.372	90.69
483.59	84.69
483.808	81.69
484.027	89.69
484.245	86.69
484.463	98.69
484.681	83.69
484.9	96.69
485.118	96.69
485.336	87.69
485.554	88.69
485.772	115.69
485.99	106.69
486.209	105.69
486.427	112.69
486.645	114.69
486.863	133.69
487.081	120.69
487.299	100.69
487.517	93.69
487.735	94.69
487.953	96.69
488.171	77.69
488.389	103.69
488.607	92.69
488.825	88.69
489.043	87.69
489.261	92.69
489.479	82.69
489.696	82.69
489.914	96.69
490.132	92.69
490.35	96.69
490.568	99.69
490.786	84.69
491.003	83.69
491.221	91.69
491.439	92.69
491.657	87.69
491.874	106.69
492.092	91.69
492.31	94.69
492.527	83.69
492.745	83.69
492.963	95.69
493.18	86.69
493.398	92.69
493.615	100.69
493.833	107.69
494.05	87.69
494.268	75.69
494.485	82.69
494.703	87.69
494.92	92.69
495.138	91.69
495.355	74.69
495.573	82.69
495.79	80.69
496.008	105.69
496.225	89.69
496.442	91.69
496.66	78.69
496.877	85.69
497.094	87.69
497.312	88.69
497.529	91.69
497.746	104.69
497.963	82.69
498.181	83.69
498.398	103.69
498.615	118.69
498.832	110.69
499.049	100.69
499.267	96.69
499.484	91.69
499.701	85.69
499.918	88.69
500.135	77.69
500.352	99.69
500.569	95.69
500.786	83.69
501.003	98.69
501.22	103.69
501.437	100.69
501.654	108.69
501.871	129.69
502.088	96.69
502.305	82.69
502.522	94.69
502.739	84.69
502.956	106.69
503.172	86.69
503.389	86.69
503.606	100.69
503.823	105.69
504.04	110.69
504.256	97.69
504.473	96.69
504.69	78.69
504.907	83.69
505.123	85.69
505.34	95.69
505.557	96.69
505.773	106.69
505.99	107.69
506.207	87.69
506.423	107.69
506.64	88.69
506.856	87.69
507.073	92.69
507.289	105.69
507.506	102.69
507.722	113.69
507.939	122.69
508.155	94.69
508.372	98.69
508.588	92.69
508.805	97.69
509.021	101.69
509.238	96.69
509.454	94.69
509.67	105.69
509.887	113.69
510.103	143.69
510.319	236.69
510.536	942.69
510.752	3223.69
510.968	914.69
511.184	186.69
511.401	113.69
511.617	99.69
511.833	91.69
512.049	94.69
512.265	96.69
512.481	108.69
512.698	92.69
512.914	83.69
513.13	100.69
513.346	91.69
513.562	94.69
513.778	99.69
513.994	115.69
514.21	111.69
