Data from Circ_2022_H10_HRD10591_00048.txt Node
Date: Wed Jan 03 09:53:47 EST 2024
User: Yrep
Spectrometer: HR+D1059
Trigger mode: 1
Integration Time (sec): 1.000000E-1
Scans to average: 1
Electric dark correction enabled: true
Nonlinearity correction enabled: false
Boxcar width: 0
XAxis mode: Wavelengths
Number of Pixels in Spectrum: 2048
>>>>>Begin Spectral Data<<<<<
223.165	-31.19
223.4	-31.19
223.635	-31.19
223.869	-13.19
224.104	-12.19
224.338	-16.19
224.573	1.81
224.808	-13.19
225.042	-7.19
225.277	2.81
225.511	-13.19
225.746	7.81
225.98	4.81
226.215	8.81
226.449	4.81
226.683	26.81
226.918	14.81
227.152	33.81
227.387	29.81
227.621	29.81
227.856	44.81
228.09	60.81
228.324	52.81
228.559	66.81
228.793	65.81
229.027	48.81
229.262	56.81
229.496	80.81
229.73	86.81
229.964	90.81
230.199	52.81
230.433	82.81
230.667	76.81
230.901	87.81
231.136	74.81
231.37	68.81
231.604	76.81
231.838	78.81
232.072	83.81
232.306	79.81
232.541	81.81
232.775	74.81
233.009	84.81
233.243	69.81
233.477	63.81
233.711	85.81
233.945	67.81
234.179	87.81
234.413	74.81
234.647	89.81
234.881	72.81
235.115	78.81
235.349	75.81
235.583	69.81
235.817	81.81
236.051	85.81
236.285	63.81
236.519	95.81
236.753	66.81
236.987	74.81
237.221	80.81
237.455	77.81
237.689	76.81
237.922	75.81
238.156	77.81
238.39	90.81
238.624	73.81
238.858	80.81
239.091	85.81
239.325	64.81
239.559	82.81
239.793	66.81
240.027	79.81
240.26	63.81
240.494	80.81
240.728	82.81
240.961	74.81
241.195	67.81
241.429	70.81
241.662	72.81
241.896	72.81
242.13	83.81
242.363	64.81
242.597	60.81
242.83	74.81
243.064	79.81
243.298	75.81
243.531	74.81
243.765	83.81
243.998	79.81
244.232	80.81
244.465	75.81
244.699	69.81
244.932	86.81
245.166	77.81
245.399	66.81
245.633	72.81
245.866	80.81
246.099	77.81
246.333	80.81
246.566	82.81
246.8	75.81
247.033	67.81
247.266	69.81
247.5	74.81
247.733	67.81
247.966	66.81
248.2	58.81
248.433	78.81
248.666	79.81
248.899	82.81
249.133	78.81
249.366	87.81
249.599	100.81
249.832	83.81
250.066	65.81
250.299	79.81
250.532	80.81
250.765	86.81
250.998	79.81
251.231	76.81
251.465	71.81
251.698	69.81
251.931	77.81
252.164	80.81
252.397	82.81
252.63	85.81
252.863	93.81
253.096	73.81
253.329	72.81
253.562	77.81
253.795	61.81
254.028	92.81
254.261	80.81
254.494	81.81
254.727	74.81
254.96	80.81
255.193	84.81
255.426	86.81
255.659	79.81
255.892	88.81
256.124	92.81
256.357	91.81
256.59	79.81
256.823	82.81
257.056	79.81
257.289	87.81
257.521	87.81
257.754	69.81
257.987	72.81
258.22	83.81
258.452	70.81
258.685	67.81
258.918	69.81
259.151	78.81
259.383	82.81
259.616	87.81
259.849	72.81
260.081	70.81
260.314	68.81
260.547	57.81
260.779	79.81
261.012	69.81
261.244	81.81
261.477	87.81
261.71	83.81
261.942	108.81
262.175	129.81
262.407	77.81
262.64	76.81
262.872	75.81
263.105	71.81
263.337	85.81
263.57	77.81
263.802	80.81
264.035	84.81
264.267	81.81
264.499	75.81
264.732	69.81
264.964	81.81
265.197	79.81
265.429	86.81
265.661	78.81
265.894	80.81
266.126	88.81
266.358	96.81
266.591	84.81
266.823	79.81
267.055	69.81
267.287	79.81
267.52	87.81
267.752	92.81
267.984	71.81
268.216	87.81
268.448	83.81
268.681	74.81
268.913	83.81
269.145	71.81
269.377	76.81
269.609	83.81
269.841	78.81
270.073	81.81
270.306	85.81
270.538	79.81
270.77	76.81
271.002	79.81
271.234	67.81
271.466	80.81
271.698	86.81
271.93	75.81
272.162	75.81
272.394	89.81
272.626	96.81
272.858	84.81
273.09	61.81
273.322	93.81
273.553	84.81
273.785	79.81
274.017	76.81
274.249	81.81
274.481	77.81
274.713	90.81
274.945	84.81
275.176	66.81
275.408	82.81
275.64	72.81
275.872	83.81
276.104	71.81
276.335	86.81
276.567	89.81
276.799	107.81
277.031	103.81
277.262	80.81
277.494	91.81
277.726	74.81
277.957	79.81
278.189	82.81
278.421	80.81
278.652	79.81
278.884	78.81
279.115	94.81
279.347	79.81
279.579	96.81
279.81	81.81
280.042	95.81
280.273	83.81
280.505	83.81
280.736	82.81
280.968	85.81
281.199	78.81
281.431	76.81
281.662	86.81
281.894	100.81
282.125	99.81
282.356	139.81
282.588	119.81
282.819	125.81
283.051	82.81
283.282	82.81
283.513	93.81
283.745	70.81
283.976	87.81
284.207	80.81
284.439	86.81
284.67	71.81
284.901	83.81
285.132	59.81
285.364	92.81
285.595	79.81
285.826	76.81
286.057	70.81
286.288	79.81
286.52	86.81
286.751	92.81
286.982	91.81
287.213	82.81
287.444	86.81
287.675	87.81
287.906	87.81
288.138	83.81
288.369	85.81
288.6	71.81
288.831	84.81
289.062	81.81
289.293	94.81
289.524	82.81
289.755	80.81
289.986	77.81
290.217	88.81
290.448	95.81
290.679	84.81
290.91	83.81
291.141	79.81
291.371	90.81
291.602	80.81
291.833	68.81
292.064	83.81
292.295	82.81
292.526	97.81
292.757	91.81
292.987	84.81
293.218	91.81
293.449	79.81
293.68	85.81
293.91	73.81
294.141	85.81
294.372	78.81
294.603	84.81
294.833	81.81
295.064	82.81
295.295	86.81
295.525	91.81
295.756	111.81
295.987	120.81
296.217	165.81
296.448	127.81
296.679	91.81
296.909	86.81
297.14	85.81
297.37	83.81
297.601	87.81
297.831	81.81
298.062	95.81
298.292	75.81
298.523	95.81
298.753	79.81
298.984	95.81
299.214	87.81
299.445	85.81
299.675	106.81
299.905	98.81
300.136	76.81
300.366	85.81
300.597	93.81
300.827	98.81
301.057	84.81
301.288	94.81
301.518	86.81
301.748	90.81
301.979	104.81
302.209	84.81
302.439	92.81
302.669	79.81
302.9	89.81
303.13	76.81
303.36	87.81
303.59	97.81
303.82	99.81
304.051	88.81
304.281	86.81
304.511	85.81
304.741	85.81
304.971	83.81
305.201	87.81
305.431	90.81
305.661	79.81
305.891	77.81
306.121	99.81
306.352	96.81
306.582	106.81
306.812	97.81
307.042	97.81
307.272	95.81
307.502	100.81
307.731	99.81
307.961	95.81
308.191	91.81
308.421	95.81
308.651	80.81
308.881	90.81
309.111	84.81
309.341	103.81
309.571	103.81
309.8	75.81
310.03	91.81
310.26	95.81
310.49	100.81
310.72	92.81
310.949	106.81
311.179	106.81
311.409	89.81
311.639	88.81
311.868	93.81
312.098	87.81
312.328	88.81
312.557	82.81
312.787	105.81
313.017	98.81
313.246	97.81
313.476	90.81
313.706	99.81
313.935	87.81
314.165	87.81
314.394	93.81
314.624	92.81
314.853	80.81
315.083	106.81
315.312	81.81
315.542	94.81
315.771	79.81
316.001	79.81
316.23	82.81
316.46	87.81
316.689	89.81
316.919	80.81
317.148	93.81
317.377	91.81
317.607	86.81
317.836	85.81
318.065	90.81
318.295	76.81
318.524	81.81
318.753	90.81
318.983	99.81
319.212	86.81
319.441	100.81
319.67	95.81
319.9	85.81
320.129	75.81
320.358	83.81
320.587	106.81
320.816	97.81
321.046	101.81
321.275	90.81
321.504	97.81
321.733	103.81
321.962	106.81
322.191	99.81
322.42	93.81
322.649	99.81
322.878	112.81
323.108	115.81
323.337	120.81
323.566	140.81
323.795	152.81
324.024	210.81
324.253	402.81
324.482	854.81
324.71	1721.81
324.939	2276.81
325.168	859.81
325.397	242.81
325.626	134.81
325.855	138.81
326.084	124.81
326.313	125.81
326.542	146.81
326.77	238.81
326.999	442.81
327.228	903.81
327.457	1666.81
327.686	1371.81
327.914	377.81
328.143	226.81
328.372	169.81
328.6	137.81
328.829	109.81
329.058	129.81
329.287	133.81
329.515	107.81
329.744	97.81
329.972	106.81
330.201	136.81
330.43	140.81
330.658	145.81
330.887	156.81
331.115	149.81
331.344	114.81
331.572	100.81
331.801	114.81
332.03	101.81
332.258	84.81
332.486	99.81
332.715	96.81
332.943	106.81
333.172	109.81
333.4	94.81
333.629	118.81
333.857	107.81
334.085	116.81
334.314	115.81
334.542	157.81
334.771	163.81
334.999	101.81
335.227	111.81
335.455	88.81
335.684	87.81
335.912	84.81
336.14	99.81
336.369	96.81
336.597	98.81
336.825	89.81
337.053	101.81
337.281	91.81
337.51	87.81
337.738	84.81
337.966	98.81
338.194	99.81
338.422	92.81
338.65	87.81
338.878	79.81
339.106	89.81
339.334	95.81
339.562	89.81
339.79	97.81
340.018	80.81
340.246	84.81
340.474	94.81
340.702	92.81
340.93	97.81
341.158	85.81
341.386	95.81
341.614	88.81
341.842	102.81
342.07	84.81
342.298	95.81
342.526	96.81
342.754	88.81
342.981	83.81
343.209	93.81
343.437	95.81
343.665	84.81
343.893	83.81
344.12	88.81
344.348	86.81
344.576	89.81
344.804	107.81
345.031	83.81
345.259	89.81
345.487	87.81
345.714	102.81
345.942	78.81
346.17	94.81
346.397	93.81
346.625	87.81
346.853	88.81
347.08	92.81
347.308	95.81
347.535	109.81
347.763	100.81
347.99	85.81
348.218	94.81
348.445	117.81
348.673	108.81
348.9	84.81
349.128	80.81
349.355	87.81
349.583	84.81
349.81	101.81
350.037	79.81
350.265	91.81
350.492	88.81
350.72	91.81
350.947	100.81
351.174	98.81
351.402	107.81
351.629	97.81
351.856	103.81
352.083	116.81
352.311	90.81
352.538	95.81
352.765	103.81
352.992	112.81
353.22	102.81
353.447	101.81
353.674	98.81
353.901	92.81
354.128	81.81
354.355	103.81
354.583	79.81
354.81	95.81
355.037	88.81
355.264	82.81
355.491	85.81
355.718	81.81
355.945	89.81
356.172	93.81
356.399	84.81
356.626	93.81
356.853	83.81
357.08	93.81
357.307	84.81
357.534	93.81
357.761	83.81
357.988	108.81
358.215	100.81
358.441	85.81
358.668	93.81
358.895	81.81
359.122	76.81
359.349	69.81
359.576	82.81
359.802	81.81
360.029	107.81
360.256	108.81
360.483	91.81
360.709	82.81
360.936	87.81
361.163	92.81
361.39	88.81
361.616	93.81
361.843	85.81
362.07	89.81
362.296	90.81
362.523	89.81
362.749	80.81
362.976	99.81
363.203	103.81
363.429	83.81
363.656	77.81
363.882	82.81
364.109	88.81
364.335	95.81
364.562	94.81
364.788	73.81
365.015	90.81
365.241	108.81
365.468	102.81
365.694	107.81
365.92	98.81
366.147	90.81
366.373	77.81
366.599	70.81
366.826	87.81
367.052	84.81
367.278	97.81
367.505	84.81
367.731	94.81
367.957	89.81
368.184	74.81
368.41	97.81
368.636	114.81
368.862	132.81
369.089	103.81
369.315	87.81
369.541	99.81
369.767	73.81
369.993	98.81
370.219	91.81
370.445	75.81
370.672	92.81
370.898	91.81
371.124	94.81
371.35	74.81
371.576	84.81
371.802	80.81
372.028	81.81
372.254	82.81
372.48	80.81
372.706	72.81
372.932	66.81
373.158	83.81
373.384	91.81
373.61	80.81
373.835	68.81
374.061	83.81
374.287	85.81
374.513	80.81
374.739	80.81
374.965	74.81
375.191	67.81
375.416	77.81
375.642	75.81
375.868	89.81
376.094	82.81
376.319	87.81
376.545	83.81
376.771	90.81
376.997	79.81
377.222	87.81
377.448	77.81
377.674	81.81
377.899	92.81
378.125	85.81
378.35	87.81
378.576	94.81
378.802	78.81
379.027	82.81
379.253	79.81
379.478	80.81
379.704	93.81
379.929	76.81
380.155	88.81
380.38	75.81
380.606	92.81
380.831	88.81
381.057	90.81
381.282	78.81
381.507	90.81
381.733	79.81
381.958	96.81
382.184	86.81
382.409	108.81
382.634	106.81
382.86	89.81
383.085	93.81
383.31	112.81
383.535	90.81
383.761	94.81
383.986	83.81
384.211	86.81
384.436	87.81
384.662	88.81
384.887	99.81
385.112	95.81
385.337	98.81
385.562	83.81
385.787	103.81
386.013	102.81
386.238	106.81
386.463	112.81
386.688	100.81
386.913	91.81
387.138	99.81
387.363	84.81
387.588	96.81
387.813	108.81
388.038	103.81
388.263	100.81
388.488	106.81
388.713	78.81
388.938	84.81
389.163	75.81
389.387	77.81
389.612	84.81
389.837	95.81
390.062	70.81
390.287	77.81
390.512	92.81
390.736	88.81
390.961	90.81
391.186	89.81
391.411	87.81
391.636	82.81
391.86	80.81
392.085	90.81
392.31	75.81
392.534	93.81
392.759	83.81
392.984	89.81
393.208	73.81
393.433	99.81
393.658	82.81
393.882	86.81
394.107	62.81
394.331	84.81
394.556	84.81
394.78	96.81
395.005	94.81
395.229	79.81
395.454	79.81
395.678	84.81
395.903	69.81
396.127	89.81
396.352	83.81
396.576	74.81
396.801	78.81
397.025	82.81
397.249	76.81
397.474	88.81
397.698	69.81
397.922	79.81
398.147	71.81
398.371	89.81
398.595	82.81
398.82	72.81
399.044	99.81
399.268	104.81
399.492	88.81
399.717	77.81
399.941	95.81
400.165	98.81
400.389	82.81
400.613	85.81
400.837	65.81
401.062	85.81
401.286	83.81
401.51	92.81
401.734	91.81
401.958	100.81
402.182	124.81
402.406	183.81
402.63	130.81
402.854	103.81
403.078	89.81
403.302	77.81
403.526	93.81
403.75	74.81
403.974	81.81
404.198	72.81
404.422	86.81
404.645	84.81
404.869	88.81
405.093	93.81
405.317	109.81
405.541	96.81
405.765	100.81
405.988	127.81
406.212	185.81
406.436	268.81
406.66	153.81
406.883	88.81
407.107	102.81
407.331	89.81
407.555	94.81
407.778	96.81
408.002	76.81
408.226	82.81
408.449	82.81
408.673	72.81
408.896	90.81
409.12	87.81
409.344	96.81
409.567	80.81
409.791	82.81
410.014	89.81
410.238	67.81
410.461	96.81
410.685	92.81
410.908	110.81
411.132	109.81
411.355	96.81
411.578	84.81
411.802	88.81
412.025	70.81
412.249	85.81
412.472	94.81
412.695	97.81
412.919	92.81
413.142	80.81
413.365	90.81
413.589	78.81
413.812	86.81
414.035	87.81
414.258	72.81
414.482	96.81
414.705	95.81
414.928	91.81
415.151	81.81
415.374	81.81
415.597	72.81
415.821	85.81
416.044	83.81
416.267	77.81
416.49	92.81
416.713	85.81
416.936	92.81
417.159	92.81
417.382	84.81
417.605	94.81
417.828	76.81
418.051	75.81
418.274	94.81
418.497	92.81
418.72	77.81
418.943	89.81
419.166	77.81
419.389	71.81
419.611	78.81
419.834	86.81
420.057	92.81
420.28	88.81
420.503	72.81
420.726	76.81
420.948	82.81
421.171	91.81
421.394	78.81
421.617	84.81
421.839	92.81
422.062	75.81
422.285	86.81
422.507	83.81
422.73	93.81
422.953	80.81
423.175	91.81
423.398	72.81
423.621	80.81
423.843	87.81
424.066	82.81
424.288	80.81
424.511	86.81
424.733	80.81
424.956	101.81
425.178	91.81
425.401	101.81
425.623	109.81
425.846	99.81
426.068	82.81
426.291	90.81
426.513	93.81
426.735	83.81
426.958	94.81
427.18	101.81
427.402	141.81
427.625	162.81
427.847	151.81
428.069	126.81
428.292	85.81
428.514	80.81
428.736	81.81
428.958	83.81
429.181	86.81
429.403	85.81
429.625	91.81
429.847	86.81
430.069	90.81
430.292	87.81
430.514	94.81
430.736	79.81
430.958	82.81
431.18	73.81
431.402	77.81
431.624	81.81
431.846	95.81
432.068	79.81
432.29	81.81
432.512	84.81
432.734	73.81
432.956	85.81
433.178	100.81
433.4	99.81
433.622	101.81
433.844	83.81
434.066	77.81
434.287	90.81
434.509	73.81
434.731	87.81
434.953	80.81
435.175	89.81
435.397	75.81
435.618	93.81
435.84	97.81
436.062	107.81
436.284	92.81
436.505	96.81
436.727	78.81
436.949	105.81
437.17	86.81
437.392	87.81
437.614	90.81
437.835	102.81
438.057	103.81
438.278	100.81
438.5	106.81
438.721	112.81
438.943	101.81
439.165	88.81
439.386	87.81
439.608	87.81
439.829	89.81
440.05	110.81
440.272	133.81
440.493	90.81
440.715	93.81
440.936	76.81
441.158	79.81
441.379	93.81
441.6	79.81
441.822	81.81
442.043	93.81
442.264	104.81
442.486	99.81
442.707	78.81
442.928	107.81
443.149	139.81
443.371	133.81
443.592	118.81
443.813	92.81
444.034	108.81
444.255	100.81
444.476	72.81
444.698	92.81
444.919	91.81
445.14	125.81
445.361	110.81
445.582	116.81
445.803	132.81
446.024	125.81
446.245	126.81
446.466	125.81
446.687	84.81
446.908	85.81
447.129	83.81
447.35	88.81
447.571	76.81
447.792	82.81
448.013	98.81
448.234	113.81
448.455	98.81
448.675	96.81
448.896	114.81
449.117	94.81
449.338	93.81
449.559	109.81
449.779	126.81
450	85.81
450.221	87.81
450.442	85.81
450.662	99.81
450.883	120.81
451.104	110.81
451.324	99.81
451.545	76.81
451.766	81.81
451.986	88.81
452.207	79.81
452.428	94.81
452.648	102.81
452.869	106.81
453.089	103.81
453.31	125.81
453.53	82.81
453.751	90.81
453.971	94.81
454.192	101.81
454.412	79.81
454.633	91.81
454.853	72.81
455.073	84.81
455.294	89.81
455.514	103.81
455.734	106.81
455.955	86.81
456.175	72.81
456.395	78.81
456.616	74.81
456.836	77.81
457.056	74.81
457.276	80.81
457.497	86.81
457.717	92.81
457.937	76.81
458.157	89.81
458.377	90.81
458.598	98.81
458.818	148.81
459.038	154.81
459.258	112.81
459.478	96.81
459.698	89.81
459.918	69.81
460.138	77.81
460.358	81.81
460.578	81.81
460.798	78.81
461.018	91.81
461.238	74.81
461.458	103.81
461.678	84.81
461.898	72.81
462.118	66.81
462.338	73.81
462.558	78.81
462.777	77.81
462.997	70.81
463.217	79.81
463.437	86.81
463.657	81.81
463.876	89.81
464.096	88.81
464.316	101.81
464.536	81.81
464.755	95.81
464.975	118.81
465.195	176.81
465.414	159.81
465.634	88.81
465.854	80.81
466.073	95.81
466.293	93.81
466.512	96.81
466.732	92.81
466.951	76.81
467.171	87.81
467.391	94.81
467.61	107.81
467.829	97.81
468.049	100.81
468.268	114.81
468.488	98.81
468.707	79.81
468.927	77.81
469.146	78.81
469.365	91.81
469.585	93.81
469.804	109.81
470.023	99.81
470.243	81.81
470.462	107.81
470.681	110.81
470.901	88.81
471.12	67.81
471.339	76.81
471.558	83.81
471.777	83.81
471.997	97.81
472.216	133.81
472.435	182.81
472.654	106.81
472.873	84.81
473.092	99.81
473.311	73.81
473.53	86.81
473.749	85.81
473.968	85.81
474.187	105.81
474.406	79.81
474.625	86.81
474.844	93.81
475.063	76.81
475.282	97.81
475.501	91.81
475.72	93.81
475.939	83.81
476.158	84.81
476.377	74.81
476.596	79.81
476.814	86.81
477.033	91.81
477.252	84.81
477.471	87.81
477.69	75.81
477.908	84.81
478.127	97.81
478.346	88.81
478.564	90.81
478.783	93.81
479.002	84.81
479.22	98.81
479.439	92.81
479.658	116.81
479.876	101.81
480.095	83.81
480.313	97.81
480.532	93.81
480.751	96.81
480.969	129.81
481.188	271.81
481.406	202.81
481.624	87.81
481.843	84.81
482.061	86.81
482.28	77.81
482.498	90.81
482.717	94.81
482.935	82.81
483.153	85.81
483.372	78.81
483.59	77.81
483.808	90.81
484.027	79.81
484.245	94.81
484.463	99.81
484.681	88.81
484.9	86.81
485.118	78.81
485.336	91.81
485.554	83.81
485.772	94.81
485.99	91.81
486.209	113.81
486.427	114.81
486.645	98.81
486.863	112.81
487.081	108.81
487.299	94.81
487.517	96.81
487.735	85.81
487.953	90.81
488.171	75.81
488.389	90.81
488.607	97.81
488.825	84.81
489.043	102.81
489.261	99.81
489.479	93.81
489.696	91.81
489.914	88.81
490.132	78.81
490.35	76.81
490.568	93.81
490.786	79.81
491.003	77.81
491.221	87.81
491.439	88.81
491.657	94.81
491.874	96.81
492.092	82.81
492.31	79.81
492.527	90.81
492.745	80.81
492.963	86.81
493.18	69.81
493.398	72.81
493.615	98.81
493.833	95.81
494.05	91.81
494.268	92.81
494.485	84.81
494.703	75.81
494.92	101.81
495.138	102.81
495.355	92.81
495.573	96.81
495.79	95.81
496.008	91.81
496.225	81.81
496.442	82.81
496.66	91.81
496.877	89.81
497.094	80.81
497.312	92.81
497.529	79.81
497.746	77.81
497.963	73.81
498.181	91.81
498.398	93.81
498.615	111.81
498.832	104.81
499.049	85.81
499.267	87.81
499.484	104.81
499.701	90.81
499.918	94.81
500.135	79.81
500.352	103.81
500.569	89.81
500.786	77.81
501.003	93.81
501.22	81.81
501.437	96.81
501.654	93.81
501.871	90.81
502.088	93.81
502.305	88.81
502.522	81.81
502.739	75.81
502.956	82.81
503.172	85.81
503.389	87.81
503.606	108.81
503.823	92.81
504.04	85.81
504.256	101.81
504.473	92.81
504.69	76.81
504.907	88.81
505.123	76.81
505.34	94.81
505.557	82.81
505.773	90.81
505.99	78.81
506.207	83.81
506.423	94.81
506.64	86.81
506.856	80.81
507.073	88.81
507.289	87.81
507.506	90.81
507.722	108.81
507.939	106.81
508.155	91.81
508.372	86.81
508.588	83.81
508.805	100.81
509.021	87.81
509.238	96.81
509.454	111.81
509.67	99.81
509.887	108.81
510.103	133.81
510.319	239.81
510.536	898.81
510.752	3025.81
510.968	855.81
511.184	181.81
511.401	124.81
511.617	98.81
511.833	100.81
512.049	99.81
512.265	75.81
512.481	87.81
512.698	92.81
512.914	92.81
513.13	85.81
513.346	87.81
513.562	106.81
513.778	77.81
513.994	99.81
514.21	108.81
514.426	132.81
514.642	147.81
514.858	126.81
515.074	186.81
515.29	566.81
515.506	1994.81
515.721	762.81
515.937	196.81
516.153	115.81
516.369	86.81
516.585	91.81
516.801	84.81
