Data from Circ_2022_H10_HRD10591_00020.txt Node
Date: Wed Jan 03 09:53:41 EST 2024
User: Yrep
Spectrometer: HR+D1059
Trigger mode: 1
Integration Time (sec): 1.000000E-1
Scans to average: 1
Electric dark correction enabled: true
Nonlinearity correction enabled: false
Boxcar width: 0
XAxis mode: Wavelengths
Number of Pixels in Spectrum: 2048
>>>>>Begin Spectral Data<<<<<
223.165	-10.81
223.4	-10.81
223.635	-10.81
223.869	-23.81
224.104	-22.81
224.338	-9.81
224.573	-14.81
224.808	-0.81
225.042	-8.81
225.277	-3.81
225.511	-8.81
225.746	-4.81
225.98	0.19
226.215	13.19
226.449	19.19
226.683	15.19
226.918	39.19
227.152	22.19
227.387	47.19
227.621	29.19
227.856	41.19
228.09	47.19
228.324	44.19
228.559	41.19
228.793	47.19
229.027	55.19
229.262	66.19
229.496	77.19
229.73	91.19
229.964	90.19
230.199	84.19
230.433	76.19
230.667	73.19
230.901	77.19
231.136	74.19
231.37	81.19
231.604	81.19
231.838	71.19
232.072	76.19
232.306	74.19
232.541	73.19
232.775	87.19
233.009	81.19
233.243	80.19
233.477	74.19
233.711	62.19
233.945	84.19
234.179	82.19
234.413	75.19
234.647	82.19
234.881	86.19
235.115	63.19
235.349	77.19
235.583	73.19
235.817	79.19
236.051	82.19
236.285	87.19
236.519	72.19
236.753	69.19
236.987	65.19
237.221	92.19
237.455	81.19
237.689	53.19
237.922	82.19
238.156	70.19
238.39	77.19
238.624	79.19
238.858	72.19
239.091	85.19
239.325	70.19
239.559	88.19
239.793	71.19
240.027	69.19
240.26	79.19
240.494	72.19
240.728	72.19
240.961	84.19
241.195	82.19
241.429	73.19
241.662	77.19
241.896	79.19
242.13	84.19
242.363	79.19
242.597	79.19
242.83	72.19
243.064	78.19
243.298	73.19
243.531	68.19
243.765	81.19
243.998	76.19
244.232	82.19
244.465	82.19
244.699	102.19
244.932	79.19
245.166	82.19
245.399	69.19
245.633	87.19
245.866	74.19
246.099	77.19
246.333	69.19
246.566	91.19
246.8	73.19
247.033	86.19
247.266	64.19
247.5	87.19
247.733	67.19
247.966	73.19
248.2	76.19
248.433	74.19
248.666	79.19
248.899	77.19
249.133	83.19
249.366	93.19
249.599	91.19
249.832	76.19
250.066	81.19
250.299	84.19
250.532	79.19
250.765	76.19
250.998	67.19
251.231	68.19
251.465	92.19
251.698	88.19
251.931	79.19
252.164	88.19
252.397	63.19
252.63	72.19
252.863	73.19
253.096	79.19
253.329	73.19
253.562	80.19
253.795	76.19
254.028	77.19
254.261	78.19
254.494	91.19
254.727	92.19
254.96	84.19
255.193	77.19
255.426	79.19
255.659	68.19
255.892	70.19
256.124	60.19
256.357	72.19
256.59	81.19
256.823	77.19
257.056	98.19
257.289	86.19
257.521	83.19
257.754	74.19
257.987	90.19
258.22	88.19
258.452	81.19
258.685	63.19
258.918	74.19
259.151	78.19
259.383	69.19
259.616	84.19
259.849	79.19
260.081	98.19
260.314	86.19
260.547	75.19
260.779	81.19
261.012	80.19
261.244	71.19
261.477	101.19
261.71	92.19
261.942	114.19
262.175	127.19
262.407	94.19
262.64	78.19
262.872	79.19
263.105	100.19
263.337	77.19
263.57	89.19
263.802	79.19
264.035	95.19
264.267	63.19
264.499	73.19
264.732	59.19
264.964	88.19
265.197	79.19
265.429	80.19
265.661	85.19
265.894	73.19
266.126	84.19
266.358	71.19
266.591	80.19
266.823	73.19
267.055	85.19
267.287	83.19
267.52	96.19
267.752	81.19
267.984	73.19
268.216	90.19
268.448	80.19
268.681	83.19
268.913	93.19
269.145	81.19
269.377	94.19
269.609	77.19
269.841	88.19
270.073	91.19
270.306	81.19
270.538	86.19
270.77	87.19
271.002	87.19
271.234	89.19
271.466	87.19
271.698	73.19
271.93	74.19
272.162	84.19
272.394	96.19
272.626	82.19
272.858	75.19
273.09	79.19
273.322	78.19
273.553	58.19
273.785	77.19
274.017	84.19
274.249	86.19
274.481	85.19
274.713	76.19
274.945	73.19
275.176	80.19
275.408	72.19
275.64	93.19
275.872	81.19
276.104	84.19
276.335	86.19
276.567	88.19
276.799	109.19
277.031	118.19
277.262	87.19
277.494	80.19
277.726	84.19
277.957	86.19
278.189	91.19
278.421	86.19
278.652	76.19
278.884	83.19
279.115	87.19
279.347	81.19
279.579	63.19
279.81	78.19
280.042	89.19
280.273	89.19
280.505	90.19
280.736	76.19
280.968	82.19
281.199	102.19
281.431	86.19
281.662	86.19
281.894	82.19
282.125	115.19
282.356	115.19
282.588	154.19
282.819	146.19
283.051	88.19
283.282	83.19
283.513	88.19
283.745	88.19
283.976	86.19
284.207	69.19
284.439	79.19
284.67	101.19
284.901	84.19
285.132	90.19
285.364	84.19
285.595	77.19
285.826	96.19
286.057	81.19
286.288	80.19
286.52	72.19
286.751	85.19
286.982	97.19
287.213	84.19
287.444	83.19
287.675	98.19
287.906	87.19
288.138	90.19
288.369	87.19
288.6	88.19
288.831	80.19
289.062	87.19
289.293	78.19
289.524	79.19
289.755	84.19
289.986	79.19
290.217	79.19
290.448	76.19
290.679	82.19
290.91	79.19
291.141	84.19
291.371	91.19
291.602	86.19
291.833	73.19
292.064	75.19
292.295	91.19
292.526	85.19
292.757	91.19
292.987	92.19
293.218	91.19
293.449	83.19
293.68	77.19
293.91	79.19
294.141	101.19
294.372	78.19
294.603	73.19
294.833	89.19
295.064	83.19
295.295	74.19
295.525	98.19
295.756	92.19
295.987	123.19
296.217	161.19
296.448	146.19
296.679	87.19
296.909	94.19
297.14	69.19
297.37	76.19
297.601	92.19
297.831	79.19
298.062	87.19
298.292	83.19
298.523	82.19
298.753	81.19
298.984	74.19
299.214	85.19
299.445	74.19
299.675	99.19
299.905	96.19
300.136	99.19
300.366	89.19
300.597	87.19
300.827	94.19
301.057	94.19
301.288	103.19
301.518	90.19
301.748	103.19
301.979	103.19
302.209	84.19
302.439	99.19
302.669	92.19
302.9	78.19
303.13	85.19
303.36	98.19
303.59	103.19
303.82	108.19
304.051	89.19
304.281	84.19
304.511	87.19
304.741	82.19
304.971	87.19
305.201	92.19
305.431	72.19
305.661	94.19
305.891	76.19
306.121	103.19
306.352	102.19
306.582	116.19
306.812	104.19
307.042	95.19
307.272	89.19
307.502	104.19
307.731	93.19
307.961	90.19
308.191	82.19
308.421	90.19
308.651	72.19
308.881	80.19
309.111	88.19
309.341	99.19
309.571	97.19
309.8	99.19
310.03	102.19
310.26	89.19
310.49	89.19
310.72	104.19
310.949	101.19
311.179	107.19
311.409	96.19
311.639	97.19
311.868	108.19
312.098	99.19
312.328	93.19
312.557	97.19
312.787	116.19
313.017	111.19
313.246	91.19
313.476	88.19
313.706	85.19
313.935	92.19
314.165	97.19
314.394	100.19
314.624	116.19
314.853	109.19
315.083	98.19
315.312	92.19
315.542	93.19
315.771	73.19
316.001	83.19
316.23	89.19
316.46	91.19
316.689	85.19
316.919	90.19
317.148	78.19
317.377	106.19
317.607	98.19
317.836	94.19
318.065	93.19
318.295	82.19
318.524	85.19
318.753	82.19
318.983	87.19
319.212	106.19
319.441	108.19
319.67	108.19
319.9	90.19
320.129	87.19
320.358	95.19
320.587	95.19
320.816	96.19
321.046	99.19
321.275	103.19
321.504	107.19
321.733	95.19
321.962	98.19
322.191	105.19
322.42	104.19
322.649	98.19
322.878	121.19
323.108	123.19
323.337	137.19
323.566	144.19
323.795	168.19
324.024	248.19
324.253	473.19
324.482	1029.19
324.71	2135.19
324.939	2804.19
325.168	1064.19
325.397	297.19
325.626	158.19
325.855	135.19
326.084	126.19
326.313	142.19
326.542	169.19
326.77	251.19
326.999	550.19
327.228	1132.19
327.457	2059.19
327.686	1657.19
327.914	433.19
328.143	229.19
328.372	158.19
328.6	154.19
328.829	121.19
329.058	138.19
329.287	152.19
329.515	110.19
329.744	117.19
329.972	102.19
330.201	117.19
330.43	127.19
330.658	135.19
330.887	176.19
331.115	154.19
331.344	102.19
331.572	122.19
331.801	100.19
332.03	92.19
332.258	103.19
332.486	96.19
332.715	87.19
332.943	88.19
333.172	96.19
333.4	109.19
333.629	108.19
333.857	130.19
334.085	100.19
334.314	88.19
334.542	103.19
334.771	112.19
334.999	107.19
335.227	94.19
335.455	87.19
335.684	104.19
335.912	100.19
336.14	111.19
336.369	93.19
336.597	87.19
336.825	103.19
337.053	99.19
337.281	96.19
337.51	96.19
337.738	93.19
337.966	98.19
338.194	96.19
338.422	87.19
338.65	98.19
338.878	93.19
339.106	88.19
339.334	84.19
339.562	97.19
339.79	96.19
340.018	88.19
340.246	85.19
340.474	81.19
340.702	99.19
340.93	100.19
341.158	87.19
341.386	84.19
341.614	88.19
341.842	88.19
342.07	93.19
342.298	80.19
342.526	67.19
342.754	89.19
342.981	88.19
343.209	80.19
343.437	86.19
343.665	86.19
343.893	91.19
344.12	96.19
344.348	69.19
344.576	76.19
344.804	98.19
345.031	110.19
345.259	95.19
345.487	89.19
345.714	86.19
345.942	89.19
346.17	95.19
346.397	88.19
346.625	88.19
346.853	97.19
347.08	94.19
347.308	93.19
347.535	101.19
347.763	96.19
347.99	86.19
348.218	100.19
348.445	103.19
348.673	105.19
348.9	77.19
349.128	98.19
349.355	95.19
349.583	77.19
349.81	88.19
350.037	83.19
350.265	100.19
350.492	83.19
350.72	88.19
350.947	113.19
351.174	127.19
351.402	130.19
351.629	109.19
351.856	99.19
352.083	102.19
352.311	103.19
352.538	114.19
352.765	112.19
352.992	117.19
353.22	113.19
353.447	99.19
353.674	109.19
353.901	102.19
354.128	92.19
354.355	104.19
354.583	91.19
354.81	95.19
355.037	96.19
355.264	89.19
355.491	83.19
355.718	91.19
355.945	93.19
356.172	98.19
356.399	89.19
356.626	99.19
356.853	96.19
357.08	79.19
357.307	89.19
357.534	93.19
357.761	98.19
357.988	93.19
358.215	88.19
358.441	85.19
358.668	85.19
358.895	89.19
359.122	82.19
359.349	80.19
359.576	110.19
359.802	98.19
360.029	120.19
360.256	129.19
360.483	106.19
360.709	87.19
360.936	92.19
361.163	87.19
361.39	112.19
361.616	91.19
361.843	95.19
362.07	104.19
362.296	104.19
362.523	72.19
362.749	93.19
362.976	92.19
363.203	91.19
363.429	74.19
363.656	90.19
363.882	78.19
364.109	87.19
364.335	87.19
364.562	94.19
364.788	81.19
365.015	102.19
365.241	98.19
365.468	115.19
365.694	108.19
365.92	99.19
366.147	75.19
366.373	95.19
366.599	93.19
366.826	84.19
367.052	95.19
367.278	80.19
367.505	88.19
367.731	82.19
367.957	86.19
368.184	91.19
368.41	98.19
368.636	114.19
368.862	128.19
369.089	114.19
369.315	93.19
369.541	104.19
369.767	93.19
369.993	87.19
370.219	92.19
370.445	85.19
370.672	86.19
370.898	82.19
371.124	101.19
371.35	92.19
371.576	89.19
371.802	79.19
372.028	78.19
372.254	77.19
372.48	82.19
372.706	83.19
372.932	80.19
373.158	90.19
373.384	75.19
373.61	98.19
373.835	92.19
374.061	80.19
374.287	89.19
374.513	97.19
374.739	84.19
374.965	81.19
375.191	82.19
375.416	88.19
375.642	99.19
375.868	112.19
376.094	93.19
376.319	77.19
376.545	87.19
376.771	84.19
376.997	91.19
377.222	100.19
377.448	84.19
377.674	94.19
377.899	87.19
378.125	84.19
378.35	78.19
378.576	88.19
378.802	87.19
379.027	94.19
379.253	93.19
379.478	91.19
379.704	96.19
379.929	95.19
380.155	100.19
380.38	93.19
380.606	103.19
380.831	90.19
381.057	83.19
381.282	76.19
381.507	86.19
381.733	93.19
381.958	86.19
382.184	109.19
382.409	95.19
382.634	98.19
382.86	104.19
383.085	92.19
383.31	88.19
383.535	91.19
383.761	99.19
383.986	106.19
384.211	107.19
384.436	104.19
384.662	106.19
384.887	92.19
385.112	107.19
385.337	97.19
385.562	101.19
385.787	102.19
386.013	117.19
386.238	107.19
386.463	105.19
386.688	96.19
386.913	111.19
387.138	98.19
387.363	101.19
387.588	104.19
387.813	105.19
388.038	118.19
388.263	104.19
388.488	105.19
388.713	98.19
388.938	87.19
389.163	91.19
389.387	84.19
389.612	83.19
389.837	95.19
390.062	99.19
390.287	97.19
390.512	100.19
390.736	96.19
390.961	90.19
391.186	98.19
391.411	91.19
391.636	83.19
391.86	80.19
392.085	91.19
392.31	92.19
392.534	80.19
392.759	92.19
392.984	95.19
393.208	88.19
393.433	95.19
393.658	96.19
393.882	76.19
394.107	75.19
394.331	80.19
394.556	95.19
394.78	92.19
395.005	83.19
395.229	80.19
395.454	85.19
395.678	93.19
395.903	92.19
396.127	110.19
396.352	94.19
396.576	85.19
396.801	84.19
397.025	98.19
397.249	85.19
397.474	86.19
397.698	91.19
397.922	83.19
398.147	86.19
398.371	76.19
398.595	85.19
398.82	85.19
399.044	84.19
399.268	73.19
399.492	94.19
399.717	87.19
399.941	86.19
400.165	99.19
400.389	76.19
400.613	86.19
400.837	92.19
401.062	86.19
401.286	81.19
401.51	90.19
401.734	98.19
401.958	105.19
402.182	147.19
402.406	168.19
402.63	143.19
402.854	94.19
403.078	94.19
403.302	100.19
403.526	88.19
403.75	90.19
403.974	83.19
404.198	97.19
404.422	89.19
404.645	100.19
404.869	90.19
405.093	97.19
405.317	98.19
405.541	93.19
405.765	95.19
405.988	123.19
406.212	213.19
406.436	309.19
406.66	181.19
406.883	119.19
407.107	95.19
407.331	104.19
407.555	111.19
407.778	112.19
408.002	86.19
408.226	102.19
408.449	91.19
408.673	95.19
408.896	94.19
409.12	88.19
409.344	93.19
409.567	96.19
409.791	80.19
410.014	88.19
410.238	89.19
410.461	80.19
410.685	86.19
410.908	93.19
411.132	102.19
411.355	99.19
411.578	82.19
411.802	83.19
412.025	75.19
412.249	92.19
412.472	83.19
412.695	92.19
412.919	96.19
413.142	81.19
413.365	76.19
413.589	87.19
413.812	92.19
414.035	92.19
414.258	85.19
414.482	94.19
414.705	92.19
414.928	85.19
415.151	85.19
415.374	90.19
415.597	96.19
415.821	88.19
416.044	68.19
416.267	77.19
416.49	77.19
416.713	103.19
416.936	92.19
417.159	89.19
417.382	88.19
417.605	88.19
417.828	90.19
418.051	83.19
418.274	86.19
418.497	78.19
418.72	87.19
418.943	87.19
419.166	84.19
419.389	89.19
419.611	81.19
419.834	87.19
420.057	84.19
420.28	87.19
420.503	98.19
420.726	87.19
420.948	97.19
421.171	103.19
421.394	101.19
421.617	81.19
421.839	83.19
422.062	76.19
422.285	103.19
422.507	85.19
422.73	95.19
422.953	97.19
423.175	85.19
423.398	93.19
423.621	78.19
423.843	86.19
424.066	83.19
424.288	86.19
424.511	86.19
424.733	101.19
424.956	108.19
425.178	104.19
425.401	106.19
425.623	105.19
425.846	96.19
426.068	83.19
426.291	104.19
426.513	81.19
426.735	103.19
426.958	111.19
427.18	88.19
427.402	137.19
427.625	195.19
427.847	147.19
428.069	120.19
428.292	84.19
428.514	77.19
428.736	86.19
428.958	100.19
429.181	75.19
429.403	76.19
429.625	89.19
429.847	84.19
430.069	98.19
430.292	92.19
430.514	78.19
430.736	85.19
430.958	74.19
431.18	83.19
431.402	91.19
431.624	84.19
431.846	72.19
432.068	88.19
432.29	91.19
432.512	89.19
432.734	75.19
432.956	96.19
433.178	102.19
433.4	110.19
433.622	107.19
433.844	93.19
434.066	80.19
434.287	93.19
434.509	87.19
434.731	86.19
434.953	82.19
435.175	99.19
435.397	91.19
435.618	93.19
435.84	104.19
436.062	115.19
436.284	125.19
436.505	100.19
436.727	104.19
436.949	93.19
437.17	80.19
437.392	102.19
437.614	95.19
437.835	116.19
438.057	143.19
438.278	119.19
438.5	103.19
438.721	127.19
438.943	96.19
439.165	88.19
439.386	88.19
439.608	97.19
439.829	92.19
440.05	136.19
440.272	153.19
440.493	106.19
440.715	92.19
440.936	79.19
441.158	88.19
441.379	78.19
441.6	90.19
441.822	108.19
442.043	92.19
442.264	107.19
442.486	107.19
442.707	96.19
442.928	107.19
443.149	140.19
443.371	155.19
443.592	124.19
443.813	116.19
444.034	110.19
444.255	91.19
444.476	85.19
444.698	78.19
444.919	70.19
445.14	122.19
445.361	120.19
445.582	121.19
445.803	150.19
446.024	148.19
446.245	142.19
446.466	116.19
446.687	91.19
446.908	91.19
447.129	86.19
447.35	95.19
447.571	86.19
447.792	86.19
448.013	96.19
448.234	121.19
448.455	93.19
448.675	121.19
448.896	117.19
449.117	107.19
449.338	114.19
449.559	146.19
449.779	141.19
450	102.19
450.221	84.19
450.442	84.19
450.662	84.19
450.883	113.19
451.104	143.19
451.324	94.19
451.545	94.19
451.766	80.19
451.986	96.19
452.207	95.19
452.428	99.19
452.648	88.19
452.869	109.19
453.089	141.19
453.31	139.19
453.53	100.19
453.751	95.19
453.971	102.19
454.192	116.19
454.412	103.19
454.633	78.19
454.853	72.19
455.073	84.19
455.294	80.19
455.514	105.19
455.734	83.19
455.955	95.19
456.175	84.19
456.395	85.19
456.616	99.19
456.836	73.19
457.056	86.19
457.276	86.19
457.497	70.19
457.717	105.19
457.937	99.19
458.157	100.19
458.377	95.19
458.598	114.19
458.818	183.19
459.038	185.19
459.258	138.19
459.478	98.19
459.698	81.19
459.918	82.19
460.138	77.19
460.358	80.19
460.578	84.19
460.798	94.19
461.018	92.19
461.238	72.19
461.458	83.19
461.678	86.19
461.898	78.19
462.118	94.19
462.338	84.19
462.558	80.19
462.777	80.19
462.997	83.19
463.217	95.19
463.437	66.19
463.657	77.19
463.876	89.19
464.096	92.19
464.316	86.19
464.536	84.19
464.755	109.19
464.975	125.19
465.195	208.19
465.414	206.19
465.634	95.19
465.854	96.19
466.073	87.19
466.293	83.19
466.512	76.19
466.732	91.19
466.951	85.19
467.171	94.19
467.391	94.19
467.61	106.19
467.829	99.19
468.049	90.19
468.268	96.19
468.488	86.19
468.707	91.19
468.927	69.19
469.146	87.19
469.365	81.19
469.585	101.19
469.804	97.19
470.023	105.19
470.243	89.19
470.462	98.19
470.681	114.19
470.901	110.19
471.12	85.19
471.339	71.19
471.558	89.19
471.777	96.19
471.997	83.19
472.216	111.19
472.435	116.19
472.654	91.19
472.873	92.19
473.092	88.19
473.311	85.19
473.53	83.19
473.749	90.19
473.968	95.19
474.187	96.19
474.406	104.19
474.625	87.19
474.844	78.19
475.063	80.19
475.282	80.19
475.501	95.19
475.72	83.19
475.939	77.19
476.158	83.19
476.377	95.19
476.596	82.19
476.814	99.19
477.033	98.19
477.252	90.19
477.471	70.19
477.69	83.19
477.908	91.19
478.127	100.19
478.346	80.19
478.564	86.19
478.783	92.19
479.002	115.19
479.22	97.19
479.439	112.19
479.658	111.19
479.876	97.19
480.095	88.19
480.313	90.19
480.532	75.19
480.751	97.19
480.969	86.19
481.188	128.19
481.406	129.19
481.624	85.19
481.843	80.19
482.061	76.19
482.28	88.19
482.498	78.19
482.717	83.19
482.935	89.19
483.153	107.19
483.372	86.19
483.59	80.19
483.808	80.19
484.027	81.19
484.245	92.19
484.463	95.19
484.681	87.19
484.9	94.19
485.118	95.19
485.336	91.19
485.554	89.19
485.772	86.19
485.99	84.19
486.209	101.19
486.427	87.19
486.645	115.19
486.863	126.19
487.081	96.19
487.299	94.19
487.517	88.19
487.735	90.19
487.953	90.19
488.171	87.19
488.389	94.19
488.607	94.19
488.825	94.19
489.043	87.19
489.261	67.19
489.479	84.19
489.696	102.19
489.914	94.19
490.132	97.19
490.35	87.19
490.568	91.19
490.786	95.19
491.003	76.19
491.221	90.19
491.439	86.19
491.657	85.19
491.874	79.19
492.092	88.19
492.31	86.19
492.527	79.19
492.745	85.19
492.963	97.19
493.18	97.19
493.398	96.19
493.615	91.19
493.833	81.19
494.05	92.19
494.268	88.19
494.485	76.19
494.703	95.19
494.92	80.19
495.138	79.19
495.355	92.19
495.573	79.19
495.79	99.19
496.008	79.19
496.225	86.19
496.442	85.19
496.66	95.19
496.877	93.19
497.094	87.19
497.312	93.19
497.529	93.19
497.746	78.19
497.963	96.19
498.181	82.19
498.398	98.19
498.615	132.19
498.832	107.19
499.049	82.19
499.267	87.19
499.484	85.19
499.701	79.19
499.918	103.19
500.135	92.19
500.352	85.19
500.569	87.19
500.786	85.19
501.003	92.19
501.22	86.19
501.437	87.19
501.654	91.19
501.871	117.19
502.088	87.19
502.305	91.19
502.522	97.19
502.739	96.19
502.956	87.19
503.172	97.19
503.389	112.19
503.606	111.19
503.823	103.19
504.04	102.19
504.256	92.19
504.473	94.19
504.69	88.19
504.907	93.19
505.123	88.19
505.34	73.19
505.557	85.19
505.773	93.19
505.99	96.19
506.207	94.19
506.423	88.19
506.64	93.19
506.856	77.19
507.073	92.19
507.289	85.19
507.506	79.19
507.722	113.19
507.939	124.19
508.155	93.19
508.372	73.19
508.588	96.19
508.805	104.19
509.021	81.19
509.238	107.19
509.454	94.19
509.67	96.19
509.887	114.19
510.103	146.19
510.319	252.19
510.536	999.19
510.752	3514.19
510.968	977.19
511.184	175.19
511.401	114.19
511.617	93.19
511.833	99.19
512.049	83.19
512.265	99.19
512.481	79.19
512.698	89.19
512.914	91.19
513.13	89.19
513.346	84.19
513.562	88.19
513.778	98.19
513.994	101.19
514.21	103.19
514.426	142.19
514.642	156.19
514.858	152.19
515.074	213.19
515.29	645.19
515.506	2440.19
515.721	889.19
