Data from Circ_2022_H10_HRD10591_00095.txt Node
Date: Wed Jan 03 09:53:56 EST 2024
User: Yrep
Spectrometer: HR+D1059
Trigger mode: 1
Integration Time (sec): 1.000000E-1
Scans to average: 1
Electric dark correction enabled: true
Nonlinearity correction enabled: false
Boxcar width: 0
XAxis mode: Wavelengths
Number of Pixels in Spectrum: 2048
>>>>>Begin Spectral Data<<<<<
223.165	-3.19
223.4	-3.19
223.635	-3.19
223.869	-20.19
224.104	-22.19
224.338	-12.19
224.573	-25.19
224.808	-13.19
225.042	-21.19
225.277	-0.19
225.511	9.81
225.746	-3.19
225.98	4.81
226.215	5.81
226.449	22.81
226.683	23.81
226.918	29.81
227.152	23.81
227.387	37.81
227.621	36.81
227.856	54.81
228.09	60.81
228.324	49.81
228.559	58.81
228.793	63.81
229.027	62.81
229.262	65.81
229.496	63.81
229.73	98.81
229.964	92.81
230.199	71.81
230.433	71.81
230.667	76.81
230.901	80.81
231.136	87.81
231.37	84.81
231.604	81.81
231.838	70.81
232.072	62.81
232.306	89.81
232.541	82.81
232.775	87.81
233.009	80.81
233.243	81.81
233.477	91.81
233.711	92.81
233.945	79.81
234.179	76.81
234.413	97.81
234.647	85.81
234.881	76.81
235.115	82.81
235.349	79.81
235.583	77.81
235.817	87.81
236.051	89.81
236.285	71.81
236.519	97.81
236.753	81.81
236.987	89.81
237.221	97.81
237.455	102.81
237.689	89.81
237.922	77.81
238.156	83.81
238.39	83.81
238.624	89.81
238.858	66.81
239.091	68.81
239.325	72.81
239.559	85.81
239.793	84.81
240.027	85.81
240.26	77.81
240.494	96.81
240.728	88.81
240.961	66.81
241.195	78.81
241.429	90.81
241.662	77.81
241.896	76.81
242.13	77.81
242.363	92.81
242.597	72.81
242.83	84.81
243.064	81.81
243.298	86.81
243.531	91.81
243.765	89.81
243.998	94.81
244.232	98.81
244.465	95.81
244.699	86.81
244.932	73.81
245.166	72.81
245.399	71.81
245.633	69.81
245.866	88.81
246.099	75.81
246.333	88.81
246.566	76.81
246.8	80.81
247.033	80.81
247.266	75.81
247.5	71.81
247.733	89.81
247.966	80.81
248.2	90.81
248.433	95.81
248.666	87.81
248.899	95.81
249.133	89.81
249.366	107.81
249.599	112.81
249.832	78.81
250.066	92.81
250.299	87.81
250.532	93.81
250.765	92.81
250.998	94.81
251.231	95.81
251.465	85.81
251.698	79.81
251.931	84.81
252.164	81.81
252.397	64.81
252.63	84.81
252.863	87.81
253.096	89.81
253.329	87.81
253.562	80.81
253.795	84.81
254.028	84.81
254.261	83.81
254.494	88.81
254.727	83.81
254.96	85.81
255.193	92.81
255.426	76.81
255.659	80.81
255.892	72.81
256.124	85.81
256.357	83.81
256.59	79.81
256.823	86.81
257.056	85.81
257.289	85.81
257.521	73.81
257.754	86.81
257.987	88.81
258.22	77.81
258.452	75.81
258.685	97.81
258.918	100.81
259.151	79.81
259.383	103.81
259.616	77.81
259.849	94.81
260.081	93.81
260.314	81.81
260.547	88.81
260.779	92.81
261.012	101.81
261.244	91.81
261.477	99.81
261.71	106.81
261.942	127.81
262.175	132.81
262.407	96.81
262.64	95.81
262.872	88.81
263.105	98.81
263.337	82.81
263.57	77.81
263.802	97.81
264.035	86.81
264.267	87.81
264.499	94.81
264.732	84.81
264.964	85.81
265.197	93.81
265.429	80.81
265.661	89.81
265.894	88.81
266.126	81.81
266.358	91.81
266.591	81.81
266.823	89.81
267.055	83.81
267.287	82.81
267.52	89.81
267.752	76.81
267.984	91.81
268.216	70.81
268.448	90.81
268.681	94.81
268.913	79.81
269.145	84.81
269.377	97.81
269.609	75.81
269.841	89.81
270.073	90.81
270.306	85.81
270.538	69.81
270.77	84.81
271.002	91.81
271.234	90.81
271.466	96.81
271.698	93.81
271.93	98.81
272.162	100.81
272.394	101.81
272.626	86.81
272.858	84.81
273.09	98.81
273.322	86.81
273.553	89.81
273.785	78.81
274.017	92.81
274.249	89.81
274.481	89.81
274.713	88.81
274.945	88.81
275.176	90.81
275.408	97.81
275.64	90.81
275.872	96.81
276.104	92.81
276.335	100.81
276.567	108.81
276.799	113.81
277.031	125.81
277.262	95.81
277.494	91.81
277.726	104.81
277.957	102.81
278.189	92.81
278.421	86.81
278.652	95.81
278.884	98.81
279.115	91.81
279.347	106.81
279.579	83.81
279.81	95.81
280.042	117.81
280.273	127.81
280.505	113.81
280.736	107.81
280.968	87.81
281.199	86.81
281.431	106.81
281.662	78.81
281.894	95.81
282.125	113.81
282.356	145.81
282.588	173.81
282.819	134.81
283.051	99.81
283.282	91.81
283.513	101.81
283.745	94.81
283.976	77.81
284.207	88.81
284.439	85.81
284.67	78.81
284.901	82.81
285.132	82.81
285.364	84.81
285.595	88.81
285.826	98.81
286.057	101.81
286.288	93.81
286.52	101.81
286.751	89.81
286.982	93.81
287.213	84.81
287.444	88.81
287.675	84.81
287.906	90.81
288.138	96.81
288.369	103.81
288.6	102.81
288.831	75.81
289.062	92.81
289.293	92.81
289.524	76.81
289.755	102.81
289.986	95.81
290.217	83.81
290.448	92.81
290.679	101.81
290.91	100.81
291.141	81.81
291.371	92.81
291.602	104.81
291.833	84.81
292.064	97.81
292.295	90.81
292.526	96.81
292.757	93.81
292.987	96.81
293.218	88.81
293.449	97.81
293.68	93.81
293.91	98.81
294.141	94.81
294.372	85.81
294.603	91.81
294.833	95.81
295.064	96.81
295.295	87.81
295.525	86.81
295.756	90.81
295.987	127.81
296.217	181.81
296.448	152.81
296.679	102.81
296.909	91.81
297.14	95.81
297.37	82.81
297.601	76.81
297.831	88.81
298.062	89.81
298.292	115.81
298.523	95.81
298.753	82.81
298.984	95.81
299.214	100.81
299.445	92.81
299.675	89.81
299.905	101.81
300.136	100.81
300.366	96.81
300.597	98.81
300.827	93.81
301.057	104.81
301.288	100.81
301.518	88.81
301.748	84.81
301.979	100.81
302.209	103.81
302.439	87.81
302.669	85.81
302.9	97.81
303.13	101.81
303.36	113.81
303.59	111.81
303.82	119.81
304.051	103.81
304.281	95.81
304.511	96.81
304.741	97.81
304.971	91.81
305.201	90.81
305.431	93.81
305.661	81.81
305.891	97.81
306.121	79.81
306.352	107.81
306.582	129.81
306.812	94.81
307.042	111.81
307.272	109.81
307.502	97.81
307.731	114.81
307.961	91.81
308.191	90.81
308.421	93.81
308.651	98.81
308.881	88.81
309.111	101.81
309.341	108.81
309.571	121.81
309.8	103.81
310.03	101.81
310.26	101.81
310.49	96.81
310.72	98.81
310.949	97.81
311.179	112.81
311.409	105.81
311.639	102.81
311.868	101.81
312.098	95.81
312.328	99.81
312.557	104.81
312.787	108.81
313.017	120.81
313.246	91.81
313.476	84.81
313.706	98.81
313.935	105.81
314.165	89.81
314.394	101.81
314.624	107.81
314.853	98.81
315.083	87.81
315.312	85.81
315.542	89.81
315.771	98.81
316.001	101.81
316.23	96.81
316.46	91.81
316.689	88.81
316.919	95.81
317.148	90.81
317.377	90.81
317.607	96.81
317.836	90.81
318.065	103.81
318.295	99.81
318.524	91.81
318.753	95.81
318.983	99.81
319.212	101.81
319.441	117.81
319.67	115.81
319.9	107.81
320.129	98.81
320.358	86.81
320.587	91.81
320.816	108.81
321.046	106.81
321.275	105.81
321.504	100.81
321.733	92.81
321.962	104.81
322.191	98.81
322.42	111.81
322.649	123.81
322.878	120.81
323.108	120.81
323.337	151.81
323.566	151.81
323.795	179.81
324.024	253.81
324.253	480.81
324.482	1023.81
324.71	2123.81
324.939	2859.81
325.168	1058.81
325.397	312.81
325.626	165.81
325.855	141.81
326.084	139.81
326.313	143.81
326.542	179.81
326.77	247.81
326.999	520.81
327.228	1129.81
327.457	2084.81
327.686	1674.81
327.914	479.81
328.143	249.81
328.372	257.81
328.6	176.81
328.829	155.81
329.058	150.81
329.287	156.81
329.515	130.81
329.744	138.81
329.972	168.81
330.201	260.81
330.43	331.81
330.658	224.81
330.887	189.81
331.115	139.81
331.344	114.81
331.572	113.81
331.801	121.81
332.03	105.81
332.258	95.81
332.486	96.81
332.715	105.81
332.943	100.81
333.172	98.81
333.4	97.81
333.629	128.81
333.857	147.81
334.085	170.81
334.314	250.81
334.542	412.81
334.771	417.81
334.999	170.81
335.227	129.81
335.455	112.81
335.684	107.81
335.912	93.81
336.14	94.81
336.369	81.81
336.597	96.81
336.825	103.81
337.053	98.81
337.281	88.81
337.51	88.81
337.738	101.81
337.966	107.81
338.194	101.81
338.422	98.81
338.65	89.81
338.878	100.81
339.106	92.81
339.334	96.81
339.562	93.81
339.79	89.81
340.018	102.81
340.246	90.81
340.474	100.81
340.702	114.81
340.93	100.81
341.158	88.81
341.386	98.81
341.614	107.81
341.842	95.81
342.07	99.81
342.298	86.81
342.526	91.81
342.754	91.81
342.981	96.81
343.209	81.81
343.437	100.81
343.665	91.81
343.893	85.81
344.12	92.81
344.348	106.81
344.576	88.81
344.804	108.81
345.031	101.81
345.259	112.81
345.487	113.81
345.714	96.81
345.942	106.81
346.17	82.81
346.397	86.81
346.625	104.81
346.853	108.81
347.08	91.81
347.308	89.81
347.535	95.81
347.763	92.81
347.99	119.81
348.218	107.81
348.445	130.81
348.673	107.81
348.9	100.81
349.128	97.81
349.355	98.81
349.583	90.81
349.81	93.81
350.037	107.81
350.265	86.81
350.492	88.81
350.72	92.81
350.947	114.81
351.174	127.81
351.402	140.81
351.629	112.81
351.856	118.81
352.083	106.81
352.311	127.81
352.538	103.81
352.765	114.81
352.992	106.81
353.22	119.81
353.447	116.81
353.674	104.81
353.901	86.81
354.128	92.81
354.355	86.81
354.583	92.81
354.81	94.81
355.037	103.81
355.264	79.81
355.491	77.81
355.718	99.81
355.945	95.81
356.172	77.81
356.399	102.81
356.626	90.81
356.853	88.81
357.08	101.81
357.307	107.81
357.534	91.81
357.761	93.81
357.988	96.81
358.215	94.81
358.441	108.81
358.668	93.81
358.895	84.81
359.122	89.81
359.349	77.81
359.576	91.81
359.802	127.81
360.029	136.81
360.256	123.81
360.483	121.81
360.709	99.81
360.936	87.81
361.163	100.81
361.39	89.81
361.616	92.81
361.843	96.81
362.07	110.81
362.296	102.81
362.523	88.81
362.749	106.81
362.976	89.81
363.203	88.81
363.429	92.81
363.656	84.81
363.882	79.81
364.109	93.81
364.335	87.81
364.562	100.81
364.788	81.81
365.015	95.81
365.241	118.81
365.468	129.81
365.694	130.81
365.92	104.81
366.147	94.81
366.373	94.81
366.599	95.81
366.826	96.81
367.052	96.81
367.278	82.81
367.505	95.81
367.731	82.81
367.957	90.81
368.184	104.81
368.41	121.81
368.636	124.81
368.862	135.81
369.089	121.81
369.315	103.81
369.541	89.81
369.767	101.81
369.993	91.81
370.219	93.81
370.445	88.81
370.672	88.81
370.898	77.81
371.124	73.81
371.35	85.81
371.576	99.81
371.802	89.81
372.028	97.81
372.254	94.81
372.48	82.81
372.706	95.81
372.932	88.81
373.158	83.81
373.384	100.81
373.61	90.81
373.835	93.81
374.061	94.81
374.287	100.81
374.513	96.81
374.739	113.81
374.965	93.81
375.191	72.81
375.416	72.81
375.642	84.81
375.868	99.81
376.094	99.81
376.319	95.81
376.545	94.81
376.771	87.81
376.997	76.81
377.222	93.81
377.448	85.81
377.674	95.81
377.899	85.81
378.125	81.81
378.35	89.81
378.576	96.81
378.802	101.81
379.027	89.81
379.253	81.81
379.478	95.81
379.704	91.81
379.929	90.81
380.155	83.81
380.38	92.81
380.606	88.81
380.831	88.81
381.057	86.81
381.282	101.81
381.507	86.81
381.733	98.81
381.958	92.81
382.184	91.81
382.409	103.81
382.634	103.81
382.86	103.81
383.085	108.81
383.31	105.81
383.535	100.81
383.761	96.81
383.986	86.81
384.211	99.81
384.436	99.81
384.662	86.81
384.887	108.81
385.112	109.81
385.337	108.81
385.562	119.81
385.787	102.81
386.013	115.81
386.238	130.81
386.463	112.81
386.688	102.81
386.913	96.81
387.138	84.81
387.363	113.81
387.588	106.81
387.813	93.81
388.038	95.81
388.263	97.81
388.488	114.81
388.713	80.81
388.938	98.81
389.163	93.81
389.387	98.81
389.612	85.81
389.837	92.81
390.062	104.81
390.287	89.81
390.512	84.81
390.736	86.81
390.961	88.81
391.186	92.81
391.411	98.81
391.636	90.81
391.86	82.81
392.085	93.81
392.31	87.81
392.534	82.81
392.759	82.81
392.984	89.81
393.208	80.81
393.433	82.81
393.658	93.81
393.882	87.81
394.107	100.81
394.331	84.81
394.556	92.81
394.78	78.81
395.005	81.81
395.229	98.81
395.454	84.81
395.678	87.81
395.903	76.81
396.127	85.81
396.352	71.81
396.576	88.81
396.801	98.81
397.025	82.81
397.249	97.81
397.474	99.81
397.698	79.81
397.922	87.81
398.147	90.81
398.371	85.81
398.595	88.81
398.82	86.81
399.044	97.81
399.268	100.81
399.492	91.81
399.717	96.81
399.941	93.81
400.165	96.81
400.389	88.81
400.613	82.81
400.837	97.81
401.062	95.81
401.286	77.81
401.51	84.81
401.734	85.81
401.958	111.81
402.182	138.81
402.406	197.81
402.63	138.81
402.854	86.81
403.078	94.81
403.302	98.81
403.526	97.81
403.75	99.81
403.974	80.81
404.198	88.81
404.422	99.81
404.645	91.81
404.869	108.81
405.093	82.81
405.317	117.81
405.541	124.81
405.765	106.81
405.988	126.81
406.212	207.81
406.436	316.81
406.66	180.81
406.883	125.81
407.107	103.81
407.331	99.81
407.555	103.81
407.778	104.81
408.002	86.81
408.226	84.81
408.449	89.81
408.673	94.81
408.896	86.81
409.12	95.81
409.344	87.81
409.567	87.81
409.791	97.81
410.014	97.81
410.238	95.81
410.461	71.81
410.685	88.81
410.908	93.81
411.132	106.81
411.355	97.81
411.578	93.81
411.802	87.81
412.025	97.81
412.249	104.81
412.472	96.81
412.695	106.81
412.919	101.81
413.142	103.81
413.365	87.81
413.589	90.81
413.812	89.81
414.035	99.81
414.258	98.81
414.482	99.81
414.705	90.81
414.928	72.81
415.151	98.81
415.374	99.81
415.597	82.81
415.821	88.81
416.044	90.81
416.267	85.81
416.49	93.81
416.713	107.81
416.936	86.81
417.159	83.81
417.382	98.81
417.605	92.81
417.828	111.81
418.051	107.81
418.274	89.81
418.497	87.81
418.72	88.81
418.943	78.81
419.166	96.81
419.389	84.81
419.611	72.81
419.834	99.81
420.057	91.81
420.28	86.81
420.503	81.81
420.726	88.81
420.948	100.81
421.171	91.81
421.394	90.81
421.617	95.81
421.839	85.81
422.062	99.81
422.285	93.81
422.507	109.81
422.73	103.81
422.953	83.81
423.175	90.81
423.398	83.81
423.621	78.81
423.843	86.81
424.066	92.81
424.288	83.81
424.511	99.81
424.733	104.81
424.956	121.81
425.178	113.81
425.401	106.81
425.623	111.81
425.846	100.81
426.068	99.81
426.291	106.81
426.513	83.81
426.735	89.81
426.958	115.81
427.18	126.81
427.402	146.81
427.625	231.81
427.847	183.81
428.069	145.81
428.292	100.81
428.514	91.81
428.736	84.81
428.958	82.81
429.181	85.81
429.403	79.81
429.625	90.81
429.847	100.81
430.069	108.81
430.292	107.81
430.514	94.81
430.736	81.81
430.958	90.81
431.18	81.81
431.402	91.81
431.624	90.81
431.846	98.81
432.068	100.81
432.29	89.81
432.512	87.81
432.734	87.81
432.956	96.81
433.178	106.81
433.4	89.81
433.622	96.81
433.844	83.81
434.066	93.81
434.287	90.81
434.509	77.81
434.731	83.81
434.953	106.81
435.175	96.81
435.397	98.81
435.618	101.81
435.84	106.81
436.062	135.81
436.284	131.81
436.505	118.81
436.727	92.81
436.949	100.81
437.17	91.81
437.392	83.81
437.614	94.81
437.835	125.81
438.057	147.81
438.278	114.81
438.5	120.81
438.721	139.81
438.943	118.81
439.165	89.81
439.386	91.81
439.608	88.81
439.829	99.81
440.05	139.81
440.272	173.81
440.493	99.81
440.715	108.81
440.936	99.81
441.158	99.81
441.379	106.81
441.6	76.81
441.822	86.81
442.043	105.81
442.264	117.81
442.486	103.81
442.707	107.81
442.928	116.81
443.149	161.81
443.371	178.81
443.592	135.81
443.813	130.81
444.034	101.81
444.255	89.81
444.476	91.81
444.698	81.81
444.919	91.81
445.14	131.81
445.361	134.81
445.582	133.81
445.803	166.81
446.024	162.81
446.245	165.81
446.466	129.81
446.687	99.81
446.908	106.81
447.129	93.81
447.35	92.81
447.571	106.81
447.792	95.81
448.013	103.81
448.234	117.81
448.455	120.81
448.675	129.81
448.896	134.81
449.117	108.81
449.338	123.81
449.559	158.81
449.779	142.81
450	97.81
450.221	97.81
450.442	88.81
450.662	89.81
450.883	119.81
451.104	145.81
451.324	81.81
451.545	98.81
451.766	96.81
451.986	84.81
452.207	102.81
452.428	105.81
452.648	112.81
452.869	131.81
453.089	124.81
453.31	136.81
453.53	101.81
453.751	108.81
453.971	124.81
454.192	121.81
454.412	98.81
454.633	116.81
454.853	97.81
455.073	80.81
455.294	82.81
455.514	107.81
455.734	103.81
455.955	89.81
456.175	80.81
456.395	88.81
456.616	85.81
456.836	91.81
457.056	93.81
457.276	76.81
457.497	80.81
457.717	77.81
457.937	82.81
458.157	101.81
458.377	99.81
458.598	138.81
458.818	196.81
459.038	197.81
459.258	144.81
459.478	108.81
459.698	88.81
459.918	84.81
460.138	70.81
460.358	93.81
460.578	76.81
460.798	100.81
461.018	103.81
461.238	86.81
461.458	99.81
461.678	96.81
461.898	94.81
462.118	90.81
462.338	91.81
462.558	84.81
462.777	97.81
462.997	97.81
463.217	94.81
463.437	83.81
463.657	98.81
463.876	90.81
464.096	92.81
464.316	108.81
464.536	109.81
464.755	108.81
464.975	104.81
465.195	225.81
465.414	219.81
465.634	108.81
465.854	88.81
466.073	84.81
466.293	87.81
466.512	90.81
466.732	83.81
466.951	81.81
467.171	100.81
467.391	88.81
467.61	118.81
467.829	125.81
468.049	158.81
468.268	201.81
468.488	106.81
468.707	87.81
468.927	91.81
469.146	89.81
469.365	95.81
469.585	96.81
469.804	108.81
470.023	101.81
470.243	98.81
470.462	113.81
470.681	129.81
470.901	103.81
471.12	96.81
471.339	91.81
471.558	98.81
471.777	109.81
471.997	130.81
472.216	277.81
472.435	509.81
472.654	179.81
472.873	101.81
473.092	88.81
473.311	114.81
473.53	107.81
473.749	92.81
473.968	99.81
474.187	115.81
474.406	105.81
474.625	94.81
474.844	75.81
475.063	80.81
475.282	84.81
475.501	88.81
475.72	97.81
475.939	90.81
476.158	72.81
476.377	99.81
476.596	97.81
476.814	107.81
477.033	114.81
477.252	98.81
477.471	83.81
477.69	89.81
477.908	86.81
478.127	104.81
478.346	106.81
478.564	116.81
478.783	100.81
479.002	95.81
479.22	119.81
479.439	117.81
479.658	119.81
479.876	101.81
480.095	94.81
480.313	95.81
480.532	105.81
480.751	134.81
480.969	247.81
481.188	888.81
481.406	563.81
481.624	130.81
481.843	81.81
482.061	88.81
482.28	92.81
482.498	93.81
482.717	88.81
482.935	97.81
483.153	94.81
483.372	92.81
483.59	97.81
483.808	88.81
484.027	97.81
484.245	103.81
484.463	94.81
484.681	102.81
484.9	87.81
485.118	99.81
485.336	87.81
485.554	98.81
485.772	99.81
485.99	90.81
486.209	95.81
486.427	105.81
486.645	100.81
486.863	107.81
487.081	101.81
487.299	102.81
487.517	88.81
487.735	74.81
487.953	98.81
488.171	98.81
488.389	94.81
488.607	101.81
488.825	88.81
489.043	83.81
489.261	100.81
489.479	102.81
489.696	93.81
489.914	85.81
490.132	85.81
490.35	91.81
490.568	85.81
490.786	91.81
491.003	82.81
491.221	94.81
491.439	102.81
491.657	99.81
491.874	96.81
492.092	104.81
492.31	93.81
492.527	94.81
492.745	85.81
492.963	96.81
493.18	98.81
493.398	105.81
493.615	101.81
493.833	97.81
494.05	85.81
494.268	80.81
494.485	91.81
494.703	89.81
494.92	88.81
495.138	91.81
495.355	94.81
495.573	81.81
495.79	77.81
496.008	100.81
496.225	91.81
496.442	106.81
496.66	94.81
496.877	95.81
497.094	91.81
497.312	98.81
497.529	88.81
497.746	92.81
497.963	84.81
498.181	99.81
498.398	80.81
498.615	123.81
498.832	114.81
499.049	84.81
499.267	92.81
499.484	92.81
499.701	96.81
499.918	97.81
500.135	80.81
500.352	87.81
500.569	97.81
500.786	112.81
501.003	105.81
501.22	94.81
501.437	106.81
501.654	124.81
501.871	121.81
502.088	91.81
502.305	89.81
502.522	86.81
502.739	92.81
502.956	101.81
503.172	89.81
503.389	115.81
503.606	119.81
503.823	93.81
504.04	90.81
504.256	101.81
504.473	98.81
504.69	102.81
504.907	96.81
505.123	89.81
505.34	98.81
505.557	103.81
505.773	102.81
505.99	105.81
506.207	111.81
506.423	93.81
506.64	82.81
506.856	83.81
507.073	108.81
507.289	103.81
507.506	95.81
507.722	113.81
507.939	115.81
508.155	98.81
508.372	99.81
508.588	101.81
508.805	100.81
509.021	101.81
509.238	86.81
509.454	102.81
509.67	117.81
509.887	135.81
510.103	146.81
510.319	260.81
510.536	963.81
510.752	3351.81
510.968	941.81
511.184	195.81
511.401	134.81
511.617	96.81
511.833	91.81
512.049	108.81
512.265	93.81
512.481	95.81
512.698	104.81
512.914	89.81
513.13	99.81
513.346	96.81
513.562	86.81
513.778	95.81
