Data from Circ_2022_H10_HRD10591_00081.txt Node
Date: Wed Jan 03 09:53:53 EST 2024
User: Yrep
Spectrometer: HR+D1059
Trigger mode: 1
Integration Time (sec): 1.000000E-1
Scans to average: 1
Electric dark correction enabled: true
Nonlinearity correction enabled: false
Boxcar width: 0
XAxis mode: Wavelengths
Number of Pixels in Spectrum: 2048
>>>>>Begin Spectral Data<<<<<
223.165	-27.56
223.4	-27.56
223.635	-27.56
223.869	-26.56
224.104	-10.56
224.338	-7.56
224.573	-24.56
224.808	-5.56
225.042	-2.56
225.277	6.44
225.511	-2.56
225.746	1.44
225.98	9.44
226.215	18.44
226.449	15.44
226.683	8.44
226.918	18.44
227.152	29.44
227.387	40.44
227.621	33.44
227.856	39.44
228.09	51.44
228.324	78.44
228.559	60.44
228.793	57.44
229.027	58.44
229.262	74.44
229.496	81.44
229.73	91.44
229.964	73.44
230.199	71.44
230.433	86.44
230.667	94.44
230.901	69.44
231.136	88.44
231.37	91.44
231.604	84.44
231.838	72.44
232.072	76.44
232.306	89.44
232.541	85.44
232.775	92.44
233.009	77.44
233.243	86.44
233.477	75.44
233.711	93.44
233.945	84.44
234.179	73.44
234.413	68.44
234.647	86.44
234.881	87.44
235.115	84.44
235.349	79.44
235.583	91.44
235.817	78.44
236.051	85.44
236.285	79.44
236.519	90.44
236.753	83.44
236.987	82.44
237.221	86.44
237.455	94.44
237.689	86.44
237.922	85.44
238.156	77.44
238.39	66.44
238.624	73.44
238.858	76.44
239.091	71.44
239.325	91.44
239.559	84.44
239.793	79.44
240.027	83.44
240.26	93.44
240.494	87.44
240.728	83.44
240.961	75.44
241.195	76.44
241.429	70.44
241.662	87.44
241.896	67.44
242.13	78.44
242.363	72.44
242.597	83.44
242.83	91.44
243.064	90.44
243.298	72.44
243.531	82.44
243.765	83.44
243.998	60.44
244.232	69.44
244.465	83.44
244.699	88.44
244.932	81.44
245.166	76.44
245.399	93.44
245.633	76.44
245.866	93.44
246.099	79.44
246.333	70.44
246.566	93.44
246.8	73.44
247.033	76.44
247.266	77.44
247.5	80.44
247.733	90.44
247.966	79.44
248.2	84.44
248.433	69.44
248.666	85.44
248.899	77.44
249.133	94.44
249.366	99.44
249.599	84.44
249.832	86.44
250.066	90.44
250.299	90.44
250.532	91.44
250.765	90.44
250.998	83.44
251.231	101.44
251.465	89.44
251.698	74.44
251.931	80.44
252.164	68.44
252.397	71.44
252.63	86.44
252.863	78.44
253.096	83.44
253.329	91.44
253.562	80.44
253.795	95.44
254.028	85.44
254.261	84.44
254.494	98.44
254.727	92.44
254.96	85.44
255.193	86.44
255.426	83.44
255.659	95.44
255.892	90.44
256.124	67.44
256.357	83.44
256.59	80.44
256.823	86.44
257.056	89.44
257.289	97.44
257.521	78.44
257.754	84.44
257.987	97.44
258.22	79.44
258.452	79.44
258.685	74.44
258.918	82.44
259.151	76.44
259.383	93.44
259.616	89.44
259.849	83.44
260.081	88.44
260.314	88.44
260.547	93.44
260.779	85.44
261.012	85.44
261.244	79.44
261.477	93.44
261.71	85.44
261.942	123.44
262.175	135.44
262.407	79.44
262.64	99.44
262.872	88.44
263.105	90.44
263.337	94.44
263.57	76.44
263.802	86.44
264.035	89.44
264.267	99.44
264.499	87.44
264.732	105.44
264.964	82.44
265.197	85.44
265.429	92.44
265.661	88.44
265.894	86.44
266.126	78.44
266.358	89.44
266.591	93.44
266.823	79.44
267.055	81.44
267.287	89.44
267.52	86.44
267.752	84.44
267.984	77.44
268.216	74.44
268.448	88.44
268.681	87.44
268.913	98.44
269.145	93.44
269.377	86.44
269.609	86.44
269.841	98.44
270.073	93.44
270.306	78.44
270.538	77.44
270.77	79.44
271.002	84.44
271.234	77.44
271.466	96.44
271.698	76.44
271.93	88.44
272.162	89.44
272.394	101.44
272.626	90.44
272.858	92.44
273.09	81.44
273.322	82.44
273.553	85.44
273.785	89.44
274.017	87.44
274.249	95.44
274.481	98.44
274.713	92.44
274.945	91.44
275.176	83.44
275.408	85.44
275.64	95.44
275.872	88.44
276.104	87.44
276.335	97.44
276.567	111.44
276.799	130.44
277.031	117.44
277.262	107.44
277.494	95.44
277.726	94.44
277.957	82.44
278.189	86.44
278.421	83.44
278.652	95.44
278.884	81.44
279.115	87.44
279.347	91.44
279.579	73.44
279.81	91.44
280.042	106.44
280.273	98.44
280.505	98.44
280.736	94.44
280.968	82.44
281.199	96.44
281.431	98.44
281.662	90.44
281.894	98.44
282.125	111.44
282.356	134.44
282.588	148.44
282.819	124.44
283.051	95.44
283.282	98.44
283.513	89.44
283.745	75.44
283.976	76.44
284.207	94.44
284.439	89.44
284.67	98.44
284.901	80.44
285.132	103.44
285.364	86.44
285.595	77.44
285.826	90.44
286.057	94.44
286.288	83.44
286.52	94.44
286.751	69.44
286.982	83.44
287.213	97.44
287.444	91.44
287.675	93.44
287.906	93.44
288.138	96.44
288.369	107.44
288.6	104.44
288.831	88.44
289.062	85.44
289.293	100.44
289.524	93.44
289.755	87.44
289.986	79.44
290.217	98.44
290.448	89.44
290.679	95.44
290.91	101.44
291.141	86.44
291.371	97.44
291.602	93.44
291.833	93.44
292.064	92.44
292.295	96.44
292.526	100.44
292.757	97.44
292.987	86.44
293.218	91.44
293.449	97.44
293.68	98.44
293.91	84.44
294.141	89.44
294.372	83.44
294.603	88.44
294.833	86.44
295.064	104.44
295.295	87.44
295.525	100.44
295.756	114.44
295.987	137.44
296.217	154.44
296.448	132.44
296.679	94.44
296.909	93.44
297.14	110.44
297.37	103.44
297.601	94.44
297.831	95.44
298.062	93.44
298.292	90.44
298.523	90.44
298.753	94.44
298.984	92.44
299.214	97.44
299.445	102.44
299.675	110.44
299.905	95.44
300.136	95.44
300.366	93.44
300.597	101.44
300.827	102.44
301.057	113.44
301.288	102.44
301.518	99.44
301.748	103.44
301.979	107.44
302.209	90.44
302.439	106.44
302.669	100.44
302.9	98.44
303.13	88.44
303.36	97.44
303.59	105.44
303.82	107.44
304.051	116.44
304.281	87.44
304.511	94.44
304.741	88.44
304.971	86.44
305.201	89.44
305.431	86.44
305.661	90.44
305.891	100.44
306.121	101.44
306.352	116.44
306.582	114.44
306.812	93.44
307.042	97.44
307.272	106.44
307.502	97.44
307.731	109.44
307.961	93.44
308.191	79.44
308.421	91.44
308.651	98.44
308.881	88.44
309.111	98.44
309.341	98.44
309.571	103.44
309.8	106.44
310.03	110.44
310.26	108.44
310.49	101.44
310.72	117.44
310.949	98.44
311.179	95.44
311.409	81.44
311.639	101.44
311.868	99.44
312.098	90.44
312.328	94.44
312.557	97.44
312.787	110.44
313.017	88.44
313.246	100.44
313.476	94.44
313.706	86.44
313.935	95.44
314.165	110.44
314.394	116.44
314.624	93.44
314.853	111.44
315.083	93.44
315.312	89.44
315.542	101.44
315.771	82.44
316.001	84.44
316.23	83.44
316.46	93.44
316.689	107.44
316.919	101.44
317.148	101.44
317.377	115.44
317.607	97.44
317.836	100.44
318.065	91.44
318.295	85.44
318.524	87.44
318.753	98.44
318.983	114.44
319.212	118.44
319.441	124.44
319.67	119.44
319.9	89.44
320.129	92.44
320.358	81.44
320.587	105.44
320.816	109.44
321.046	114.44
321.275	90.44
321.504	95.44
321.733	99.44
321.962	97.44
322.191	104.44
322.42	105.44
322.649	112.44
322.878	115.44
323.108	127.44
323.337	126.44
323.566	149.44
323.795	171.44
324.024	220.44
324.253	447.44
324.482	979.44
324.71	1958.44
324.939	2554.44
325.168	985.44
325.397	281.44
325.626	161.44
325.855	134.44
326.084	139.44
326.313	143.44
326.542	168.44
326.77	257.44
326.999	513.44
327.228	1057.44
327.457	1897.44
327.686	1547.44
327.914	418.44
328.143	241.44
328.372	205.44
328.6	167.44
328.829	140.44
329.058	165.44
329.287	161.44
329.515	129.44
329.744	128.44
329.972	146.44
330.201	214.44
330.43	254.44
330.658	175.44
330.887	174.44
331.115	144.44
331.344	106.44
331.572	103.44
331.801	115.44
332.03	110.44
332.258	97.44
332.486	102.44
332.715	103.44
332.943	99.44
333.172	102.44
333.4	110.44
333.629	108.44
333.857	132.44
334.085	149.44
334.314	207.44
334.542	302.44
334.771	268.44
334.999	145.44
335.227	109.44
335.455	89.44
335.684	100.44
335.912	97.44
336.14	101.44
336.369	117.44
336.597	102.44
336.825	102.44
337.053	93.44
337.281	94.44
337.51	95.44
337.738	103.44
337.966	95.44
338.194	103.44
338.422	108.44
338.65	98.44
338.878	90.44
339.106	100.44
339.334	82.44
339.562	104.44
339.79	88.44
340.018	76.44
340.246	94.44
340.474	90.44
340.702	100.44
340.93	94.44
341.158	105.44
341.386	102.44
341.614	101.44
341.842	105.44
342.07	85.44
342.298	99.44
342.526	79.44
342.754	83.44
342.981	87.44
343.209	92.44
343.437	94.44
343.665	87.44
343.893	89.44
344.12	94.44
344.348	91.44
344.576	84.44
344.804	95.44
345.031	109.44
345.259	97.44
345.487	108.44
345.714	98.44
345.942	98.44
346.17	87.44
346.397	105.44
346.625	89.44
346.853	85.44
347.08	96.44
347.308	110.44
347.535	107.44
347.763	114.44
347.99	108.44
348.218	109.44
348.445	103.44
348.673	100.44
348.9	102.44
349.128	108.44
349.355	99.44
349.583	101.44
349.81	101.44
350.037	88.44
350.265	95.44
350.492	108.44
350.72	105.44
350.947	116.44
351.174	117.44
351.402	128.44
351.629	121.44
351.856	91.44
352.083	104.44
352.311	120.44
352.538	131.44
352.765	120.44
352.992	119.44
353.22	107.44
353.447	88.44
353.674	109.44
353.901	94.44
354.128	100.44
354.355	109.44
354.583	80.44
354.81	100.44
355.037	107.44
355.264	99.44
355.491	92.44
355.718	85.44
355.945	96.44
356.172	100.44
356.399	90.44
356.626	83.44
356.853	101.44
357.08	96.44
357.307	103.44
357.534	89.44
357.761	102.44
357.988	81.44
358.215	87.44
358.441	102.44
358.668	89.44
358.895	91.44
359.122	81.44
359.349	102.44
359.576	98.44
359.802	108.44
360.029	119.44
360.256	121.44
360.483	99.44
360.709	86.44
360.936	105.44
361.163	84.44
361.39	99.44
361.616	100.44
361.843	93.44
362.07	100.44
362.296	89.44
362.523	96.44
362.749	83.44
362.976	105.44
363.203	101.44
363.429	83.44
363.656	93.44
363.882	101.44
364.109	95.44
364.335	82.44
364.562	98.44
364.788	94.44
365.015	96.44
365.241	101.44
365.468	110.44
365.694	96.44
365.92	90.44
366.147	81.44
366.373	93.44
366.599	78.44
366.826	83.44
367.052	85.44
367.278	93.44
367.505	89.44
367.731	88.44
367.957	102.44
368.184	105.44
368.41	103.44
368.636	125.44
368.862	135.44
369.089	107.44
369.315	89.44
369.541	94.44
369.767	91.44
369.993	103.44
370.219	85.44
370.445	97.44
370.672	111.44
370.898	88.44
371.124	79.44
371.35	83.44
371.576	96.44
371.802	93.44
372.028	77.44
372.254	89.44
372.48	85.44
372.706	86.44
372.932	101.44
373.158	92.44
373.384	101.44
373.61	90.44
373.835	105.44
374.061	82.44
374.287	82.44
374.513	89.44
374.739	91.44
374.965	95.44
375.191	99.44
375.416	74.44
375.642	75.44
375.868	81.44
376.094	80.44
376.319	85.44
376.545	85.44
376.771	85.44
376.997	89.44
377.222	72.44
377.448	77.44
377.674	90.44
377.899	85.44
378.125	73.44
378.35	96.44
378.576	104.44
378.802	81.44
379.027	83.44
379.253	98.44
379.478	84.44
379.704	91.44
379.929	98.44
380.155	89.44
380.38	88.44
380.606	95.44
380.831	83.44
381.057	81.44
381.282	102.44
381.507	90.44
381.733	105.44
381.958	98.44
382.184	100.44
382.409	107.44
382.634	125.44
382.86	97.44
383.085	99.44
383.31	90.44
383.535	107.44
383.761	100.44
383.986	106.44
384.211	113.44
384.436	99.44
384.662	79.44
384.887	89.44
385.112	93.44
385.337	100.44
385.562	100.44
385.787	107.44
386.013	107.44
386.238	114.44
386.463	101.44
386.688	97.44
386.913	100.44
387.138	107.44
387.363	101.44
387.588	94.44
387.813	108.44
388.038	101.44
388.263	103.44
388.488	108.44
388.713	102.44
388.938	96.44
389.163	105.44
389.387	100.44
389.612	101.44
389.837	111.44
390.062	115.44
390.287	111.44
390.512	93.44
390.736	85.44
390.961	87.44
391.186	96.44
391.411	89.44
391.636	96.44
391.86	87.44
392.085	89.44
392.31	83.44
392.534	94.44
392.759	106.44
392.984	89.44
393.208	93.44
393.433	82.44
393.658	84.44
393.882	97.44
394.107	94.44
394.331	83.44
394.556	91.44
394.78	82.44
395.005	73.44
395.229	87.44
395.454	79.44
395.678	89.44
395.903	94.44
396.127	89.44
396.352	73.44
396.576	77.44
396.801	78.44
397.025	82.44
397.249	88.44
397.474	87.44
397.698	92.44
397.922	85.44
398.147	96.44
398.371	90.44
398.595	96.44
398.82	93.44
399.044	83.44
399.268	90.44
399.492	93.44
399.717	91.44
399.941	89.44
400.165	91.44
400.389	102.44
400.613	90.44
400.837	88.44
401.062	90.44
401.286	97.44
401.51	103.44
401.734	91.44
401.958	110.44
402.182	131.44
402.406	184.44
402.63	143.44
402.854	103.44
403.078	92.44
403.302	83.44
403.526	101.44
403.75	93.44
403.974	82.44
404.198	94.44
404.422	82.44
404.645	86.44
404.869	90.44
405.093	103.44
405.317	109.44
405.541	117.44
405.765	111.44
405.988	140.44
406.212	220.44
406.436	283.44
406.66	163.44
406.883	116.44
407.107	94.44
407.331	91.44
407.555	103.44
407.778	93.44
408.002	75.44
408.226	89.44
408.449	92.44
408.673	83.44
408.896	103.44
409.12	99.44
409.344	87.44
409.567	101.44
409.791	88.44
410.014	94.44
410.238	105.44
410.461	89.44
410.685	91.44
410.908	91.44
411.132	118.44
411.355	117.44
411.578	100.44
411.802	103.44
412.025	94.44
412.249	98.44
412.472	88.44
412.695	107.44
412.919	98.44
413.142	98.44
413.365	96.44
413.589	80.44
413.812	78.44
414.035	89.44
414.258	91.44
414.482	94.44
414.705	98.44
414.928	100.44
415.151	86.44
415.374	97.44
415.597	92.44
415.821	85.44
416.044	84.44
416.267	78.44
416.49	90.44
416.713	73.44
416.936	84.44
417.159	85.44
417.382	92.44
417.605	84.44
417.828	112.44
418.051	110.44
418.274	87.44
418.497	91.44
418.72	89.44
418.943	90.44
419.166	87.44
419.389	83.44
419.611	78.44
419.834	107.44
420.057	99.44
420.28	84.44
420.503	94.44
420.726	82.44
420.948	85.44
421.171	100.44
421.394	104.44
421.617	88.44
421.839	87.44
422.062	91.44
422.285	107.44
422.507	92.44
422.73	113.44
422.953	103.44
423.175	97.44
423.398	88.44
423.621	93.44
423.843	84.44
424.066	81.44
424.288	104.44
424.511	103.44
424.733	104.44
424.956	116.44
425.178	104.44
425.401	94.44
425.623	95.44
425.846	80.44
426.068	83.44
426.291	94.44
426.513	105.44
426.735	90.44
426.958	104.44
427.18	106.44
427.402	158.44
427.625	219.44
427.847	152.44
428.069	146.44
428.292	100.44
428.514	82.44
428.736	88.44
428.958	92.44
429.181	109.44
429.403	94.44
429.625	87.44
429.847	89.44
430.069	119.44
430.292	104.44
430.514	75.44
430.736	73.44
430.958	93.44
431.18	90.44
431.402	87.44
431.624	96.44
431.846	89.44
432.068	82.44
432.29	76.44
432.512	93.44
432.734	79.44
432.956	83.44
433.178	97.44
433.4	109.44
433.622	85.44
433.844	112.44
434.066	102.44
434.287	81.44
434.509	105.44
434.731	100.44
434.953	87.44
435.175	91.44
435.397	92.44
435.618	92.44
435.84	123.44
436.062	125.44
436.284	110.44
436.505	99.44
436.727	101.44
436.949	85.44
437.17	74.44
437.392	90.44
437.614	103.44
437.835	118.44
438.057	137.44
438.278	118.44
438.5	99.44
438.721	143.44
438.943	103.44
439.165	94.44
439.386	90.44
439.608	94.44
439.829	101.44
440.05	138.44
440.272	162.44
440.493	111.44
440.715	90.44
440.936	91.44
441.158	83.44
441.379	75.44
441.6	77.44
441.822	100.44
442.043	108.44
442.264	111.44
442.486	105.44
442.707	97.44
442.928	116.44
443.149	142.44
443.371	172.44
443.592	115.44
443.813	116.44
444.034	127.44
444.255	90.44
444.476	99.44
444.698	88.44
444.919	100.44
445.14	136.44
445.361	129.44
445.582	126.44
445.803	155.44
446.024	165.44
446.245	157.44
446.466	116.44
446.687	93.44
446.908	99.44
447.129	91.44
447.35	83.44
447.571	87.44
447.792	98.44
448.013	104.44
448.234	131.44
448.455	116.44
448.675	118.44
448.896	133.44
449.117	118.44
449.338	122.44
449.559	145.44
449.779	121.44
450	98.44
450.221	93.44
450.442	101.44
450.662	94.44
450.883	136.44
451.104	142.44
451.324	119.44
451.545	103.44
451.766	92.44
451.986	92.44
452.207	87.44
452.428	117.44
452.648	101.44
452.869	120.44
453.089	133.44
453.31	135.44
453.53	95.44
453.751	97.44
453.971	108.44
454.192	121.44
454.412	102.44
454.633	85.44
454.853	102.44
455.073	91.44
455.294	85.44
455.514	110.44
455.734	92.44
455.955	72.44
456.175	99.44
456.395	100.44
456.616	89.44
456.836	78.44
457.056	84.44
457.276	71.44
457.497	91.44
457.717	93.44
457.937	83.44
458.157	107.44
458.377	90.44
458.598	119.44
458.818	177.44
459.038	192.44
459.258	120.44
459.478	99.44
459.698	91.44
459.918	99.44
460.138	81.44
460.358	91.44
460.578	69.44
460.798	85.44
461.018	96.44
461.238	88.44
461.458	99.44
461.678	85.44
461.898	97.44
462.118	88.44
462.338	90.44
462.558	94.44
462.777	93.44
462.997	91.44
463.217	95.44
463.437	102.44
463.657	89.44
463.876	110.44
464.096	91.44
464.316	87.44
464.536	107.44
464.755	91.44
464.975	122.44
465.195	205.44
465.414	201.44
465.634	114.44
465.854	103.44
466.073	99.44
466.293	96.44
466.512	91.44
466.732	90.44
466.951	84.44
467.171	92.44
467.391	97.44
467.61	120.44
467.829	119.44
468.049	146.44
468.268	186.44
468.488	99.44
468.707	87.44
468.927	81.44
469.146	101.44
469.365	87.44
469.585	95.44
469.804	95.44
470.023	89.44
470.243	91.44
470.462	106.44
470.681	133.44
470.901	92.44
471.12	93.44
471.339	107.44
471.558	99.44
471.777	89.44
471.997	119.44
472.216	196.44
472.435	373.44
472.654	138.44
472.873	91.44
473.092	89.44
473.311	91.44
473.53	103.44
473.749	102.44
473.968	100.44
474.187	109.44
474.406	89.44
474.625	81.44
474.844	91.44
475.063	90.44
475.282	76.44
475.501	91.44
475.72	105.44
475.939	92.44
476.158	92.44
476.377	91.44
476.596	108.44
476.814	111.44
477.033	97.44
477.252	94.44
477.471	93.44
477.69	94.44
477.908	74.44
478.127	79.44
478.346	102.44
478.564	87.44
478.783	103.44
479.002	113.44
479.22	94.44
479.439	114.44
479.658	128.44
479.876	109.44
480.095	93.44
480.313	91.44
480.532	88.44
480.751	124.44
480.969	218.44
481.188	624.44
481.406	422.44
481.624	135.44
481.843	100.44
482.061	93.44
482.28	101.44
482.498	94.44
482.717	93.44
482.935	74.44
483.153	80.44
483.372	92.44
483.59	100.44
483.808	86.44
484.027	85.44
484.245	93.44
484.463	109.44
484.681	105.44
484.9	89.44
485.118	90.44
485.336	105.44
485.554	103.44
485.772	99.44
485.99	107.44
486.209	100.44
486.427	101.44
486.645	130.44
486.863	124.44
487.081	97.44
487.299	108.44
487.517	89.44
487.735	87.44
487.953	87.44
488.171	117.44
488.389	103.44
488.607	113.44
488.825	97.44
489.043	93.44
489.261	92.44
489.479	85.44
489.696	83.44
489.914	93.44
490.132	91.44
490.35	100.44
490.568	96.44
490.786	92.44
491.003	93.44
491.221	84.44
491.439	107.44
491.657	105.44
491.874	87.44
492.092	89.44
492.31	95.44
492.527	85.44
492.745	83.44
492.963	98.44
493.18	92.44
493.398	86.44
493.615	107.44
493.833	99.44
494.05	92.44
494.268	93.44
494.485	78.44
494.703	92.44
494.92	81.44
495.138	82.44
495.355	82.44
495.573	101.44
495.79	99.44
496.008	92.44
496.225	90.44
496.442	100.44
496.66	94.44
496.877	96.44
497.094	98.44
497.312	100.44
497.529	100.44
497.746	90.44
497.963	90.44
498.181	99.44
498.398	94.44
498.615	121.44
498.832	114.44
499.049	95.44
499.267	89.44
499.484	90.44
499.701	82.44
499.918	98.44
500.135	91.44
500.352	105.44
500.569	95.44
500.786	95.44
501.003	101.44
501.22	105.44
501.437	109.44
501.654	97.44
501.871	118.44
502.088	101.44
502.305	91.44
502.522	99.44
502.739	92.44
502.956	92.44
503.172	91.44
503.389	108.44
503.606	108.44
503.823	119.44
504.04	98.44
504.256	106.44
504.473	93.44
504.69	111.44
504.907	99.44
505.123	89.44
505.34	101.44
505.557	102.44
505.773	105.44
505.99	102.44
506.207	92.44
506.423	94.44
506.64	106.44
506.856	89.44
507.073	111.44
507.289	96.44
507.506	106.44
507.722	107.44
507.939	121.44
508.155	106.44
508.372	89.44
508.588	99.44
508.805	110.44
509.021	110.44
509.238	107.44
509.454	103.44
509.67	106.44
509.887	134.44
510.103	136.44
510.319	252.44
510.536	888.44
510.752	3144.44
510.968	894.44
511.184	193.44
511.401	120.44
511.617	98.44
511.833	105.44
512.049	103.44
512.265	114.44
512.481	101.44
512.698	96.44
512.914	95.44
513.13	99.44
513.346	96.44
513.562	113.44
