Data from Circ_2022_H10_HRD10591_00045.txt Node
Date: Wed Jan 03 09:53:46 EST 2024
User: Yrep
Spectrometer: HR+D1059
Trigger mode: 1
Integration Time (sec): 1.000000E-1
Scans to average: 1
Electric dark correction enabled: true
Nonlinearity correction enabled: false
Boxcar width: 0
XAxis mode: Wavelengths
Number of Pixels in Spectrum: 2048
>>>>>Begin Spectral Data<<<<<
223.165	-18.88
223.4	-18.88
223.635	-18.88
223.869	-22.88
224.104	-23.88
224.338	-12.88
224.573	-7.88
224.808	-3.88
225.042	-1.88
225.277	5.12
225.511	-10.88
225.746	13.12
225.98	8.12
226.215	10.12
226.449	11.12
226.683	22.12
226.918	9.12
227.152	24.12
227.387	33.12
227.621	53.12
227.856	43.12
228.09	50.12
228.324	63.12
228.559	64.12
228.793	60.12
229.027	69.12
229.262	52.12
229.496	83.12
229.73	84.12
229.964	91.12
230.199	86.12
230.433	90.12
230.667	70.12
230.901	71.12
231.136	90.12
231.37	77.12
231.604	88.12
231.838	85.12
232.072	71.12
232.306	78.12
232.541	73.12
232.775	83.12
233.009	89.12
233.243	74.12
233.477	80.12
233.711	84.12
233.945	89.12
234.179	64.12
234.413	81.12
234.647	78.12
234.881	83.12
235.115	58.12
235.349	75.12
235.583	85.12
235.817	82.12
236.051	91.12
236.285	86.12
236.519	85.12
236.753	64.12
236.987	83.12
237.221	88.12
237.455	99.12
237.689	75.12
237.922	69.12
238.156	71.12
238.39	79.12
238.624	82.12
238.858	88.12
239.091	87.12
239.325	79.12
239.559	73.12
239.793	76.12
240.027	84.12
240.26	83.12
240.494	69.12
240.728	74.12
240.961	71.12
241.195	66.12
241.429	84.12
241.662	67.12
241.896	78.12
242.13	82.12
242.363	76.12
242.597	83.12
242.83	81.12
243.064	67.12
243.298	80.12
243.531	72.12
243.765	74.12
243.998	83.12
244.232	84.12
244.465	85.12
244.699	85.12
244.932	66.12
245.166	89.12
245.399	82.12
245.633	88.12
245.866	75.12
246.099	66.12
246.333	79.12
246.566	74.12
246.8	91.12
247.033	87.12
247.266	84.12
247.5	90.12
247.733	92.12
247.966	76.12
248.2	75.12
248.433	65.12
248.666	62.12
248.899	78.12
249.133	83.12
249.366	85.12
249.599	99.12
249.832	90.12
250.066	80.12
250.299	76.12
250.532	92.12
250.765	77.12
250.998	90.12
251.231	85.12
251.465	84.12
251.698	95.12
251.931	78.12
252.164	80.12
252.397	75.12
252.63	78.12
252.863	86.12
253.096	72.12
253.329	88.12
253.562	76.12
253.795	67.12
254.028	88.12
254.261	92.12
254.494	79.12
254.727	89.12
254.96	61.12
255.193	76.12
255.426	78.12
255.659	67.12
255.892	82.12
256.124	89.12
256.357	85.12
256.59	75.12
256.823	79.12
257.056	77.12
257.289	79.12
257.521	76.12
257.754	96.12
257.987	96.12
258.22	101.12
258.452	82.12
258.685	91.12
258.918	93.12
259.151	86.12
259.383	86.12
259.616	76.12
259.849	85.12
260.081	80.12
260.314	76.12
260.547	100.12
260.779	82.12
261.012	88.12
261.244	83.12
261.477	88.12
261.71	101.12
261.942	130.12
262.175	136.12
262.407	92.12
262.64	80.12
262.872	89.12
263.105	76.12
263.337	92.12
263.57	85.12
263.802	88.12
264.035	89.12
264.267	94.12
264.499	90.12
264.732	95.12
264.964	80.12
265.197	65.12
265.429	86.12
265.661	98.12
265.894	82.12
266.126	91.12
266.358	77.12
266.591	90.12
266.823	77.12
267.055	77.12
267.287	77.12
267.52	78.12
267.752	78.12
267.984	91.12
268.216	77.12
268.448	91.12
268.681	88.12
268.913	84.12
269.145	84.12
269.377	85.12
269.609	78.12
269.841	83.12
270.073	75.12
270.306	86.12
270.538	73.12
270.77	78.12
271.002	72.12
271.234	100.12
271.466	92.12
271.698	82.12
271.93	106.12
272.162	95.12
272.394	89.12
272.626	85.12
272.858	82.12
273.09	88.12
273.322	85.12
273.553	83.12
273.785	75.12
274.017	77.12
274.249	80.12
274.481	77.12
274.713	101.12
274.945	86.12
275.176	82.12
275.408	91.12
275.64	95.12
275.872	85.12
276.104	77.12
276.335	97.12
276.567	117.12
276.799	114.12
277.031	110.12
277.262	95.12
277.494	86.12
277.726	73.12
277.957	84.12
278.189	88.12
278.421	81.12
278.652	89.12
278.884	84.12
279.115	85.12
279.347	72.12
279.579	88.12
279.81	101.12
280.042	85.12
280.273	94.12
280.505	88.12
280.736	91.12
280.968	92.12
281.199	88.12
281.431	96.12
281.662	82.12
281.894	93.12
282.125	103.12
282.356	128.12
282.588	153.12
282.819	108.12
283.051	90.12
283.282	76.12
283.513	97.12
283.745	81.12
283.976	90.12
284.207	87.12
284.439	102.12
284.67	79.12
284.901	98.12
285.132	85.12
285.364	70.12
285.595	92.12
285.826	95.12
286.057	78.12
286.288	87.12
286.52	81.12
286.751	76.12
286.982	97.12
287.213	97.12
287.444	97.12
287.675	78.12
287.906	96.12
288.138	96.12
288.369	97.12
288.6	101.12
288.831	96.12
289.062	91.12
289.293	84.12
289.524	88.12
289.755	82.12
289.986	88.12
290.217	83.12
290.448	76.12
290.679	92.12
290.91	79.12
291.141	81.12
291.371	76.12
291.602	80.12
291.833	88.12
292.064	96.12
292.295	86.12
292.526	92.12
292.757	77.12
292.987	83.12
293.218	98.12
293.449	93.12
293.68	94.12
293.91	95.12
294.141	94.12
294.372	98.12
294.603	96.12
294.833	90.12
295.064	76.12
295.295	91.12
295.525	98.12
295.756	100.12
295.987	109.12
296.217	163.12
296.448	140.12
296.679	101.12
296.909	88.12
297.14	98.12
297.37	97.12
297.601	101.12
297.831	85.12
298.062	79.12
298.292	96.12
298.523	100.12
298.753	80.12
298.984	90.12
299.214	89.12
299.445	85.12
299.675	99.12
299.905	106.12
300.136	97.12
300.366	85.12
300.597	90.12
300.827	91.12
301.057	98.12
301.288	112.12
301.518	100.12
301.748	105.12
301.979	97.12
302.209	93.12
302.439	89.12
302.669	97.12
302.9	90.12
303.13	95.12
303.36	79.12
303.59	98.12
303.82	107.12
304.051	92.12
304.281	89.12
304.511	98.12
304.741	86.12
304.971	91.12
305.201	85.12
305.431	73.12
305.661	93.12
305.891	102.12
306.121	101.12
306.352	107.12
306.582	98.12
306.812	88.12
307.042	90.12
307.272	110.12
307.502	102.12
307.731	108.12
307.961	89.12
308.191	95.12
308.421	89.12
308.651	95.12
308.881	93.12
309.111	100.12
309.341	102.12
309.571	79.12
309.8	103.12
310.03	82.12
310.26	100.12
310.49	96.12
310.72	80.12
310.949	104.12
311.179	98.12
311.409	87.12
311.639	96.12
311.868	94.12
312.098	96.12
312.328	94.12
312.557	112.12
312.787	116.12
313.017	117.12
313.246	97.12
313.476	100.12
313.706	101.12
313.935	98.12
314.165	99.12
314.394	107.12
314.624	112.12
314.853	104.12
315.083	89.12
315.312	94.12
315.542	99.12
315.771	110.12
316.001	97.12
316.23	106.12
316.46	84.12
316.689	83.12
316.919	99.12
317.148	105.12
317.377	98.12
317.607	88.12
317.836	88.12
318.065	89.12
318.295	91.12
318.524	94.12
318.753	106.12
318.983	94.12
319.212	114.12
319.441	121.12
319.67	134.12
319.9	98.12
320.129	93.12
320.358	89.12
320.587	81.12
320.816	97.12
321.046	106.12
321.275	95.12
321.504	93.12
321.733	105.12
321.962	116.12
322.191	100.12
322.42	120.12
322.649	133.12
322.878	116.12
323.108	118.12
323.337	130.12
323.566	140.12
323.795	158.12
324.024	237.12
324.253	446.12
324.482	939.12
324.71	1952.12
324.939	2624.12
325.168	952.12
325.397	274.12
325.626	172.12
325.855	141.12
326.084	132.12
326.313	141.12
326.542	171.12
326.77	264.12
326.999	524.12
327.228	1029.12
327.457	1901.12
327.686	1562.12
327.914	458.12
328.143	249.12
328.372	203.12
328.6	150.12
328.829	131.12
329.058	151.12
329.287	152.12
329.515	135.12
329.744	110.12
329.972	120.12
330.201	165.12
330.43	195.12
330.658	168.12
330.887	171.12
331.115	157.12
331.344	115.12
331.572	106.12
331.801	101.12
332.03	107.12
332.258	107.12
332.486	100.12
332.715	112.12
332.943	99.12
333.172	104.12
333.4	90.12
333.629	108.12
333.857	128.12
334.085	133.12
334.314	148.12
334.542	206.12
334.771	185.12
334.999	133.12
335.227	110.12
335.455	103.12
335.684	102.12
335.912	109.12
336.14	98.12
336.369	116.12
336.597	112.12
336.825	100.12
337.053	97.12
337.281	83.12
337.51	96.12
337.738	106.12
337.966	84.12
338.194	98.12
338.422	125.12
338.65	102.12
338.878	84.12
339.106	92.12
339.334	90.12
339.562	100.12
339.79	100.12
340.018	100.12
340.246	100.12
340.474	89.12
340.702	98.12
340.93	98.12
341.158	104.12
341.386	98.12
341.614	99.12
341.842	99.12
342.07	109.12
342.298	84.12
342.526	85.12
342.754	109.12
342.981	106.12
343.209	85.12
343.437	94.12
343.665	91.12
343.893	85.12
344.12	92.12
344.348	101.12
344.576	82.12
344.804	104.12
345.031	98.12
345.259	116.12
345.487	96.12
345.714	101.12
345.942	99.12
346.17	99.12
346.397	101.12
346.625	97.12
346.853	93.12
347.08	93.12
347.308	93.12
347.535	100.12
347.763	121.12
347.99	108.12
348.218	104.12
348.445	104.12
348.673	121.12
348.9	99.12
349.128	106.12
349.355	89.12
349.583	94.12
349.81	94.12
350.037	106.12
350.265	91.12
350.492	85.12
350.72	95.12
350.947	102.12
351.174	117.12
351.402	123.12
351.629	106.12
351.856	107.12
352.083	109.12
352.311	116.12
352.538	110.12
352.765	115.12
352.992	112.12
353.22	123.12
353.447	102.12
353.674	120.12
353.901	112.12
354.128	114.12
354.355	91.12
354.583	99.12
354.81	112.12
355.037	105.12
355.264	102.12
355.491	97.12
355.718	96.12
355.945	99.12
356.172	92.12
356.399	102.12
356.626	96.12
356.853	96.12
357.08	96.12
357.307	92.12
357.534	105.12
357.761	96.12
357.988	100.12
358.215	98.12
358.441	88.12
358.668	82.12
358.895	101.12
359.122	83.12
359.349	97.12
359.576	99.12
359.802	115.12
360.029	136.12
360.256	128.12
360.483	126.12
360.709	107.12
360.936	92.12
361.163	100.12
361.39	96.12
361.616	99.12
361.843	89.12
362.07	93.12
362.296	100.12
362.523	114.12
362.749	94.12
362.976	117.12
363.203	89.12
363.429	110.12
363.656	89.12
363.882	99.12
364.109	88.12
364.335	90.12
364.562	93.12
364.788	94.12
365.015	97.12
365.241	104.12
365.468	115.12
365.694	113.12
365.92	96.12
366.147	92.12
366.373	87.12
366.599	108.12
366.826	102.12
367.052	84.12
367.278	93.12
367.505	86.12
367.731	101.12
367.957	91.12
368.184	106.12
368.41	118.12
368.636	121.12
368.862	129.12
369.089	124.12
369.315	84.12
369.541	84.12
369.767	85.12
369.993	74.12
370.219	94.12
370.445	94.12
370.672	101.12
370.898	81.12
371.124	76.12
371.35	88.12
371.576	81.12
371.802	86.12
372.028	105.12
372.254	94.12
372.48	95.12
372.706	78.12
372.932	97.12
373.158	91.12
373.384	88.12
373.61	85.12
373.835	85.12
374.061	90.12
374.287	103.12
374.513	90.12
374.739	96.12
374.965	84.12
375.191	93.12
375.416	96.12
375.642	97.12
375.868	105.12
376.094	104.12
376.319	100.12
376.545	89.12
376.771	102.12
376.997	102.12
377.222	85.12
377.448	86.12
377.674	96.12
377.899	98.12
378.125	91.12
378.35	81.12
378.576	81.12
378.802	90.12
379.027	93.12
379.253	96.12
379.478	92.12
379.704	94.12
379.929	95.12
380.155	104.12
380.38	102.12
380.606	108.12
380.831	93.12
381.057	97.12
381.282	105.12
381.507	105.12
381.733	96.12
381.958	107.12
382.184	90.12
382.409	100.12
382.634	88.12
382.86	98.12
383.085	115.12
383.31	101.12
383.535	105.12
383.761	81.12
383.986	91.12
384.211	93.12
384.436	97.12
384.662	99.12
384.887	93.12
385.112	107.12
385.337	99.12
385.562	109.12
385.787	115.12
386.013	118.12
386.238	104.12
386.463	103.12
386.688	91.12
386.913	100.12
387.138	101.12
387.363	91.12
387.588	104.12
387.813	103.12
388.038	96.12
388.263	110.12
388.488	102.12
388.713	84.12
388.938	89.12
389.163	92.12
389.387	97.12
389.612	99.12
389.837	98.12
390.062	96.12
390.287	86.12
390.512	98.12
390.736	84.12
390.961	86.12
391.186	82.12
391.411	115.12
391.636	101.12
391.86	80.12
392.085	78.12
392.31	90.12
392.534	93.12
392.759	93.12
392.984	80.12
393.208	82.12
393.433	98.12
393.658	102.12
393.882	82.12
394.107	91.12
394.331	91.12
394.556	85.12
394.78	103.12
395.005	87.12
395.229	87.12
395.454	96.12
395.678	83.12
395.903	85.12
396.127	80.12
396.352	98.12
396.576	78.12
396.801	86.12
397.025	87.12
397.249	90.12
397.474	81.12
397.698	85.12
397.922	85.12
398.147	71.12
398.371	83.12
398.595	106.12
398.82	103.12
399.044	80.12
399.268	82.12
399.492	94.12
399.717	82.12
399.941	100.12
400.165	97.12
400.389	95.12
400.613	83.12
400.837	92.12
401.062	101.12
401.286	101.12
401.51	88.12
401.734	83.12
401.958	100.12
402.182	133.12
402.406	194.12
402.63	131.12
402.854	104.12
403.078	98.12
403.302	101.12
403.526	103.12
403.75	93.12
403.974	89.12
404.198	90.12
404.422	86.12
404.645	108.12
404.869	97.12
405.093	97.12
405.317	112.12
405.541	117.12
405.765	87.12
405.988	124.12
406.212	206.12
406.436	308.12
406.66	177.12
406.883	108.12
407.107	100.12
407.331	96.12
407.555	107.12
407.778	109.12
408.002	90.12
408.226	91.12
408.449	90.12
408.673	85.12
408.896	85.12
409.12	107.12
409.344	91.12
409.567	95.12
409.791	94.12
410.014	88.12
410.238	104.12
410.461	92.12
410.685	87.12
410.908	95.12
411.132	103.12
411.355	99.12
411.578	97.12
411.802	102.12
412.025	90.12
412.249	96.12
412.472	98.12
412.695	112.12
412.919	97.12
413.142	102.12
413.365	88.12
413.589	84.12
413.812	94.12
414.035	95.12
414.258	95.12
414.482	96.12
414.705	88.12
414.928	93.12
415.151	92.12
415.374	76.12
415.597	97.12
415.821	104.12
416.044	82.12
416.267	91.12
416.49	90.12
416.713	100.12
416.936	91.12
417.159	86.12
417.382	91.12
417.605	86.12
417.828	113.12
418.051	104.12
418.274	87.12
418.497	89.12
418.72	99.12
418.943	88.12
419.166	102.12
419.389	98.12
419.611	90.12
419.834	89.12
420.057	92.12
420.28	91.12
420.503	83.12
420.726	80.12
420.948	87.12
421.171	98.12
421.394	92.12
421.617	93.12
421.839	86.12
422.062	89.12
422.285	94.12
422.507	94.12
422.73	118.12
422.953	106.12
423.175	78.12
423.398	99.12
423.621	89.12
423.843	77.12
424.066	68.12
424.288	93.12
424.511	88.12
424.733	108.12
424.956	132.12
425.178	117.12
425.401	117.12
425.623	99.12
425.846	100.12
426.068	90.12
426.291	90.12
426.513	89.12
426.735	86.12
426.958	91.12
427.18	103.12
427.402	154.12
427.625	222.12
427.847	169.12
428.069	142.12
428.292	110.12
428.514	87.12
428.736	93.12
428.958	89.12
429.181	104.12
429.403	99.12
429.625	87.12
429.847	101.12
430.069	110.12
430.292	98.12
430.514	85.12
430.736	84.12
430.958	92.12
431.18	90.12
431.402	80.12
431.624	90.12
431.846	94.12
432.068	100.12
432.29	96.12
432.512	91.12
432.734	91.12
432.956	100.12
433.178	123.12
433.4	112.12
433.622	107.12
433.844	100.12
434.066	91.12
434.287	96.12
434.509	97.12
434.731	95.12
434.953	83.12
435.175	99.12
435.397	76.12
435.618	94.12
435.84	97.12
436.062	142.12
436.284	142.12
436.505	110.12
436.727	92.12
436.949	93.12
437.17	96.12
437.392	101.12
437.614	103.12
437.835	128.12
438.057	141.12
438.278	134.12
438.5	108.12
438.721	136.12
438.943	131.12
439.165	103.12
439.386	95.12
439.608	108.12
439.829	119.12
440.05	142.12
440.272	176.12
440.493	98.12
440.715	74.12
440.936	99.12
441.158	101.12
441.379	93.12
441.6	101.12
441.822	91.12
442.043	92.12
442.264	113.12
442.486	116.12
442.707	89.12
442.928	124.12
443.149	154.12
443.371	157.12
443.592	123.12
443.813	132.12
444.034	126.12
444.255	95.12
444.476	93.12
444.698	76.12
444.919	98.12
445.14	146.12
445.361	135.12
445.582	152.12
445.803	176.12
446.024	161.12
446.245	179.12
446.466	125.12
446.687	97.12
446.908	87.12
447.129	93.12
447.35	99.12
447.571	102.12
447.792	105.12
448.013	101.12
448.234	129.12
448.455	124.12
448.675	133.12
448.896	138.12
449.117	99.12
449.338	103.12
449.559	154.12
449.779	162.12
450	97.12
450.221	99.12
450.442	105.12
450.662	80.12
450.883	97.12
451.104	126.12
451.324	111.12
451.545	87.12
451.766	104.12
451.986	85.12
452.207	98.12
452.428	95.12
452.648	104.12
452.869	119.12
453.089	131.12
453.31	139.12
453.53	101.12
453.751	88.12
453.971	133.12
454.192	124.12
454.412	101.12
454.633	107.12
454.853	90.12
455.073	95.12
455.294	102.12
455.514	106.12
455.734	92.12
455.955	78.12
456.175	98.12
456.395	87.12
456.616	85.12
456.836	89.12
457.056	72.12
457.276	85.12
457.497	78.12
457.717	82.12
457.937	86.12
458.157	88.12
458.377	99.12
458.598	127.12
458.818	180.12
459.038	207.12
459.258	141.12
459.478	110.12
459.698	85.12
459.918	82.12
460.138	96.12
460.358	91.12
460.578	87.12
460.798	87.12
461.018	89.12
461.238	86.12
461.458	76.12
461.678	81.12
461.898	88.12
462.118	77.12
462.338	88.12
462.558	78.12
462.777	87.12
462.997	89.12
463.217	91.12
463.437	93.12
463.657	82.12
463.876	83.12
464.096	86.12
464.316	92.12
464.536	75.12
464.755	97.12
464.975	130.12
465.195	197.12
465.414	196.12
465.634	98.12
465.854	93.12
466.073	91.12
466.293	89.12
466.512	81.12
466.732	91.12
466.951	81.12
467.171	99.12
467.391	96.12
467.61	121.12
467.829	109.12
468.049	111.12
468.268	132.12
468.488	91.12
468.707	78.12
468.927	86.12
469.146	93.12
469.365	89.12
469.585	98.12
469.804	100.12
470.023	103.12
470.243	100.12
470.462	109.12
470.681	116.12
470.901	89.12
471.12	88.12
471.339	101.12
471.558	83.12
471.777	83.12
471.997	92.12
472.216	138.12
472.435	220.12
472.654	114.12
472.873	100.12
473.092	74.12
473.311	100.12
473.53	78.12
473.749	91.12
473.968	97.12
474.187	116.12
474.406	112.12
474.625	83.12
474.844	91.12
475.063	89.12
475.282	91.12
475.501	73.12
475.72	93.12
475.939	75.12
476.158	85.12
476.377	83.12
476.596	97.12
476.814	90.12
477.033	88.12
477.252	87.12
477.471	99.12
477.69	89.12
477.908	94.12
478.127	90.12
478.346	90.12
478.564	89.12
478.783	114.12
479.002	93.12
479.22	107.12
479.439	114.12
479.658	110.12
479.876	115.12
480.095	100.12
480.313	102.12
480.532	95.12
480.751	106.12
480.969	169.12
481.188	344.12
481.406	248.12
481.624	119.12
481.843	98.12
482.061	84.12
482.28	89.12
482.498	111.12
482.717	85.12
482.935	99.12
483.153	80.12
483.372	85.12
483.59	73.12
483.808	96.12
484.027	88.12
484.245	89.12
484.463	97.12
484.681	99.12
484.9	95.12
485.118	92.12
485.336	94.12
485.554	114.12
485.772	109.12
485.99	99.12
486.209	93.12
486.427	113.12
486.645	134.12
486.863	119.12
487.081	102.12
487.299	97.12
487.517	102.12
487.735	103.12
487.953	90.12
488.171	91.12
488.389	99.12
488.607	101.12
488.825	92.12
489.043	105.12
489.261	91.12
489.479	100.12
489.696	104.12
489.914	95.12
490.132	85.12
490.35	95.12
490.568	92.12
490.786	106.12
491.003	91.12
491.221	89.12
491.439	94.12
491.657	80.12
491.874	96.12
492.092	95.12
492.31	94.12
492.527	82.12
492.745	84.12
492.963	89.12
493.18	90.12
493.398	82.12
493.615	99.12
493.833	94.12
494.05	81.12
494.268	95.12
494.485	83.12
494.703	83.12
494.92	95.12
495.138	84.12
495.355	103.12
495.573	96.12
495.79	99.12
496.008	89.12
496.225	85.12
496.442	95.12
496.66	89.12
496.877	74.12
497.094	105.12
497.312	89.12
497.529	100.12
497.746	102.12
497.963	81.12
498.181	101.12
498.398	85.12
498.615	103.12
498.832	108.12
499.049	94.12
499.267	84.12
499.484	98.12
499.701	96.12
499.918	101.12
500.135	96.12
500.352	89.12
500.569	86.12
500.786	88.12
501.003	88.12
501.22	87.12
501.437	88.12
501.654	91.12
501.871	119.12
502.088	86.12
502.305	92.12
502.522	88.12
502.739	105.12
502.956	86.12
503.172	97.12
503.389	105.12
503.606	113.12
503.823	115.12
504.04	97.12
504.256	97.12
504.473	110.12
504.69	83.12
504.907	98.12
505.123	97.12
505.34	91.12
505.557	75.12
505.773	85.12
505.99	81.12
506.207	89.12
506.423	99.12
506.64	91.12
506.856	102.12
507.073	103.12
507.289	109.12
507.506	104.12
507.722	116.12
507.939	117.12
508.155	94.12
508.372	85.12
508.588	106.12
508.805	90.12
509.021	103.12
509.238	123.12
509.454	105.12
509.67	112.12
509.887	112.12
510.103	141.12
510.319	241.12
510.536	913.12
510.752	3211.12
510.968	897.12
511.184	198.12
511.401	132.12
511.617	114.12
511.833	98.12
512.049	94.12
512.265	98.12
512.481	90.12
512.698	98.12
512.914	90.12
513.13	106.12
513.346	107.12
513.562	93.12
513.778	98.12
513.994	101.12
