Data from Circ_2022_H10_HRD10591_00076.txt Node
Date: Wed Jan 03 09:53:52 EST 2024
User: Yrep
Spectrometer: HR+D1059
Trigger mode: 1
Integration Time (sec): 1.000000E-1
Scans to average: 1
Electric dark correction enabled: true
Nonlinearity correction enabled: false
Boxcar width: 0
XAxis mode: Wavelengths
Number of Pixels in Spectrum: 2048
>>>>>Begin Spectral Data<<<<<
223.165	-16.56
223.4	-16.56
223.635	-16.56
223.869	-18.56
224.104	-11.56
224.338	-23.56
224.573	-22.56
224.808	-22.56
225.042	-8.56
225.277	0.44
225.511	-0.56
225.746	5.44
225.98	14.44
226.215	20.44
226.449	21.44
226.683	12.44
226.918	17.44
227.152	32.44
227.387	39.44
227.621	50.44
227.856	37.44
228.09	46.44
228.324	56.44
228.559	53.44
228.793	60.44
229.027	58.44
229.262	79.44
229.496	82.44
229.73	72.44
229.964	92.44
230.199	76.44
230.433	83.44
230.667	70.44
230.901	85.44
231.136	86.44
231.37	93.44
231.604	71.44
231.838	66.44
232.072	85.44
232.306	78.44
232.541	83.44
232.775	73.44
233.009	76.44
233.243	74.44
233.477	77.44
233.711	75.44
233.945	80.44
234.179	74.44
234.413	87.44
234.647	78.44
234.881	84.44
235.115	76.44
235.349	69.44
235.583	71.44
235.817	73.44
236.051	81.44
236.285	82.44
236.519	92.44
236.753	75.44
236.987	81.44
237.221	84.44
237.455	97.44
237.689	95.44
237.922	66.44
238.156	73.44
238.39	90.44
238.624	76.44
238.858	78.44
239.091	74.44
239.325	93.44
239.559	87.44
239.793	79.44
240.027	82.44
240.26	68.44
240.494	70.44
240.728	78.44
240.961	83.44
241.195	73.44
241.429	76.44
241.662	69.44
241.896	62.44
242.13	74.44
242.363	79.44
242.597	66.44
242.83	76.44
243.064	74.44
243.298	83.44
243.531	69.44
243.765	80.44
243.998	80.44
244.232	92.44
244.465	94.44
244.699	95.44
244.932	80.44
245.166	74.44
245.399	80.44
245.633	74.44
245.866	84.44
246.099	73.44
246.333	76.44
246.566	81.44
246.8	77.44
247.033	69.44
247.266	81.44
247.5	74.44
247.733	83.44
247.966	86.44
248.2	86.44
248.433	83.44
248.666	76.44
248.899	81.44
249.133	83.44
249.366	101.44
249.599	97.44
249.832	84.44
250.066	75.44
250.299	87.44
250.532	75.44
250.765	91.44
250.998	85.44
251.231	87.44
251.465	78.44
251.698	79.44
251.931	75.44
252.164	87.44
252.397	70.44
252.63	76.44
252.863	74.44
253.096	70.44
253.329	58.44
253.562	78.44
253.795	84.44
254.028	78.44
254.261	84.44
254.494	77.44
254.727	80.44
254.96	75.44
255.193	80.44
255.426	86.44
255.659	82.44
255.892	80.44
256.124	79.44
256.357	71.44
256.59	98.44
256.823	83.44
257.056	80.44
257.289	86.44
257.521	76.44
257.754	72.44
257.987	91.44
258.22	95.44
258.452	100.44
258.685	88.44
258.918	93.44
259.151	85.44
259.383	64.44
259.616	90.44
259.849	80.44
260.081	97.44
260.314	91.44
260.547	82.44
260.779	87.44
261.012	84.44
261.244	73.44
261.477	85.44
261.71	100.44
261.942	129.44
262.175	130.44
262.407	100.44
262.64	75.44
262.872	86.44
263.105	88.44
263.337	82.44
263.57	72.44
263.802	89.44
264.035	94.44
264.267	75.44
264.499	77.44
264.732	69.44
264.964	81.44
265.197	83.44
265.429	91.44
265.661	95.44
265.894	86.44
266.126	83.44
266.358	79.44
266.591	67.44
266.823	78.44
267.055	83.44
267.287	80.44
267.52	85.44
267.752	81.44
267.984	80.44
268.216	97.44
268.448	95.44
268.681	77.44
268.913	84.44
269.145	83.44
269.377	81.44
269.609	83.44
269.841	78.44
270.073	69.44
270.306	76.44
270.538	93.44
270.77	82.44
271.002	96.44
271.234	74.44
271.466	87.44
271.698	96.44
271.93	84.44
272.162	67.44
272.394	84.44
272.626	105.44
272.858	85.44
273.09	78.44
273.322	82.44
273.553	85.44
273.785	84.44
274.017	80.44
274.249	78.44
274.481	97.44
274.713	96.44
274.945	78.44
275.176	90.44
275.408	97.44
275.64	84.44
275.872	94.44
276.104	86.44
276.335	110.44
276.567	107.44
276.799	112.44
277.031	103.44
277.262	108.44
277.494	95.44
277.726	88.44
277.957	99.44
278.189	85.44
278.421	75.44
278.652	71.44
278.884	77.44
279.115	84.44
279.347	96.44
279.579	75.44
279.81	104.44
280.042	91.44
280.273	118.44
280.505	92.44
280.736	97.44
280.968	75.44
281.199	79.44
281.431	72.44
281.662	83.44
281.894	80.44
282.125	103.44
282.356	142.44
282.588	167.44
282.819	128.44
283.051	100.44
283.282	79.44
283.513	91.44
283.745	85.44
283.976	82.44
284.207	92.44
284.439	95.44
284.67	85.44
284.901	70.44
285.132	87.44
285.364	82.44
285.595	91.44
285.826	90.44
286.057	92.44
286.288	79.44
286.52	84.44
286.751	64.44
286.982	86.44
287.213	97.44
287.444	74.44
287.675	92.44
287.906	94.44
288.138	88.44
288.369	88.44
288.6	91.44
288.831	87.44
289.062	92.44
289.293	86.44
289.524	86.44
289.755	93.44
289.986	90.44
290.217	84.44
290.448	97.44
290.679	89.44
290.91	94.44
291.141	84.44
291.371	96.44
291.602	97.44
291.833	82.44
292.064	89.44
292.295	79.44
292.526	84.44
292.757	97.44
292.987	75.44
293.218	83.44
293.449	100.44
293.68	103.44
293.91	91.44
294.141	83.44
294.372	87.44
294.603	106.44
294.833	86.44
295.064	91.44
295.295	92.44
295.525	96.44
295.756	100.44
295.987	133.44
296.217	152.44
296.448	135.44
296.679	85.44
296.909	91.44
297.14	107.44
297.37	84.44
297.601	100.44
297.831	75.44
298.062	96.44
298.292	95.44
298.523	100.44
298.753	92.44
298.984	95.44
299.214	99.44
299.445	83.44
299.675	99.44
299.905	107.44
300.136	87.44
300.366	72.44
300.597	90.44
300.827	84.44
301.057	103.44
301.288	112.44
301.518	88.44
301.748	86.44
301.979	94.44
302.209	107.44
302.439	83.44
302.669	80.44
302.9	89.44
303.13	90.44
303.36	97.44
303.59	96.44
303.82	117.44
304.051	85.44
304.281	89.44
304.511	85.44
304.741	82.44
304.971	88.44
305.201	91.44
305.431	96.44
305.661	101.44
305.891	99.44
306.121	104.44
306.352	124.44
306.582	118.44
306.812	92.44
307.042	96.44
307.272	105.44
307.502	102.44
307.731	100.44
307.961	100.44
308.191	99.44
308.421	85.44
308.651	96.44
308.881	95.44
309.111	116.44
309.341	83.44
309.571	92.44
309.8	107.44
310.03	109.44
310.26	103.44
310.49	111.44
310.72	98.44
310.949	109.44
311.179	129.44
311.409	87.44
311.639	105.44
311.868	109.44
312.098	104.44
312.328	117.44
312.557	105.44
312.787	113.44
313.017	125.44
313.246	95.44
313.476	91.44
313.706	103.44
313.935	96.44
314.165	112.44
314.394	107.44
314.624	105.44
314.853	116.44
315.083	99.44
315.312	86.44
315.542	90.44
315.771	84.44
316.001	76.44
316.23	84.44
316.46	88.44
316.689	76.44
316.919	89.44
317.148	86.44
317.377	101.44
317.607	97.44
317.836	88.44
318.065	81.44
318.295	82.44
318.524	85.44
318.753	92.44
318.983	88.44
319.212	110.44
319.441	123.44
319.67	123.44
319.9	94.44
320.129	106.44
320.358	94.44
320.587	90.44
320.816	102.44
321.046	110.44
321.275	89.44
321.504	110.44
321.733	92.44
321.962	105.44
322.191	102.44
322.42	100.44
322.649	118.44
322.878	118.44
323.108	129.44
323.337	158.44
323.566	145.44
323.795	172.44
324.024	238.44
324.253	462.44
324.482	984.44
324.71	2036.44
324.939	2748.44
325.168	1039.44
325.397	284.44
325.626	156.44
325.855	141.44
326.084	133.44
326.313	135.44
326.542	159.44
326.77	266.44
326.999	532.44
327.228	1054.44
327.457	1989.44
327.686	1669.44
327.914	442.44
328.143	274.44
328.372	229.44
328.6	176.44
328.829	134.44
329.058	169.44
329.287	165.44
329.515	125.44
329.744	130.44
329.972	140.44
330.201	239.44
330.43	303.44
330.658	233.44
330.887	212.44
331.115	162.44
331.344	119.44
331.572	121.44
331.801	101.44
332.03	118.44
332.258	91.44
332.486	106.44
332.715	98.44
332.943	103.44
333.172	99.44
333.4	113.44
333.629	127.44
333.857	131.44
334.085	163.44
334.314	226.44
334.542	375.44
334.771	375.44
334.999	157.44
335.227	125.44
335.455	110.44
335.684	98.44
335.912	108.44
336.14	92.44
336.369	99.44
336.597	95.44
336.825	100.44
337.053	106.44
337.281	107.44
337.51	95.44
337.738	88.44
337.966	106.44
338.194	114.44
338.422	103.44
338.65	103.44
338.878	98.44
339.106	91.44
339.334	104.44
339.562	98.44
339.79	94.44
340.018	81.44
340.246	102.44
340.474	101.44
340.702	98.44
340.93	94.44
341.158	105.44
341.386	82.44
341.614	106.44
341.842	94.44
342.07	85.44
342.298	106.44
342.526	87.44
342.754	80.44
342.981	80.44
343.209	85.44
343.437	85.44
343.665	84.44
343.893	88.44
344.12	80.44
344.348	89.44
344.576	94.44
344.804	111.44
345.031	91.44
345.259	110.44
345.487	93.44
345.714	115.44
345.942	97.44
346.17	90.44
346.397	90.44
346.625	91.44
346.853	89.44
347.08	98.44
347.308	92.44
347.535	104.44
347.763	100.44
347.99	102.44
348.218	102.44
348.445	113.44
348.673	122.44
348.9	97.44
349.128	99.44
349.355	98.44
349.583	84.44
349.81	85.44
350.037	89.44
350.265	94.44
350.492	83.44
350.72	83.44
350.947	102.44
351.174	128.44
351.402	121.44
351.629	104.44
351.856	97.44
352.083	106.44
352.311	115.44
352.538	110.44
352.765	117.44
352.992	133.44
353.22	126.44
353.447	101.44
353.674	106.44
353.901	90.44
354.128	87.44
354.355	95.44
354.583	90.44
354.81	107.44
355.037	87.44
355.264	97.44
355.491	91.44
355.718	96.44
355.945	102.44
356.172	94.44
356.399	91.44
356.626	92.44
356.853	82.44
357.08	81.44
357.307	100.44
357.534	88.44
357.761	77.44
357.988	82.44
358.215	100.44
358.441	107.44
358.668	104.44
358.895	85.44
359.122	82.44
359.349	87.44
359.576	92.44
359.802	126.44
360.029	138.44
360.256	146.44
360.483	105.44
360.709	83.44
360.936	94.44
361.163	97.44
361.39	102.44
361.616	106.44
361.843	90.44
362.07	103.44
362.296	106.44
362.523	100.44
362.749	100.44
362.976	106.44
363.203	94.44
363.429	88.44
363.656	103.44
363.882	99.44
364.109	112.44
364.335	92.44
364.562	86.44
364.788	88.44
365.015	108.44
365.241	115.44
365.468	116.44
365.694	103.44
365.92	101.44
366.147	100.44
366.373	87.44
366.599	97.44
366.826	89.44
367.052	88.44
367.278	91.44
367.505	88.44
367.731	103.44
367.957	97.44
368.184	95.44
368.41	112.44
368.636	136.44
368.862	143.44
369.089	119.44
369.315	94.44
369.541	90.44
369.767	91.44
369.993	99.44
370.219	118.44
370.445	106.44
370.672	83.44
370.898	97.44
371.124	95.44
371.35	81.44
371.576	96.44
371.802	96.44
372.028	84.44
372.254	85.44
372.48	86.44
372.706	83.44
372.932	100.44
373.158	99.44
373.384	95.44
373.61	82.44
373.835	92.44
374.061	94.44
374.287	85.44
374.513	76.44
374.739	82.44
374.965	80.44
375.191	83.44
375.416	84.44
375.642	87.44
375.868	91.44
376.094	88.44
376.319	87.44
376.545	72.44
376.771	89.44
376.997	88.44
377.222	88.44
377.448	84.44
377.674	104.44
377.899	83.44
378.125	88.44
378.35	86.44
378.576	96.44
378.802	82.44
379.027	86.44
379.253	94.44
379.478	82.44
379.704	87.44
379.929	96.44
380.155	99.44
380.38	91.44
380.606	94.44
380.831	86.44
381.057	99.44
381.282	90.44
381.507	94.44
381.733	99.44
381.958	96.44
382.184	100.44
382.409	93.44
382.634	97.44
382.86	85.44
383.085	108.44
383.31	100.44
383.535	121.44
383.761	94.44
383.986	101.44
384.211	96.44
384.436	95.44
384.662	91.44
384.887	96.44
385.112	99.44
385.337	94.44
385.562	106.44
385.787	104.44
386.013	102.44
386.238	113.44
386.463	100.44
386.688	118.44
386.913	108.44
387.138	110.44
387.363	98.44
387.588	91.44
387.813	89.44
388.038	96.44
388.263	110.44
388.488	107.44
388.713	102.44
388.938	82.44
389.163	88.44
389.387	101.44
389.612	90.44
389.837	104.44
390.062	94.44
390.287	83.44
390.512	82.44
390.736	89.44
390.961	94.44
391.186	96.44
391.411	92.44
391.636	85.44
391.86	95.44
392.085	79.44
392.31	84.44
392.534	87.44
392.759	107.44
392.984	81.44
393.208	93.44
393.433	94.44
393.658	92.44
393.882	85.44
394.107	76.44
394.331	59.44
394.556	95.44
394.78	95.44
395.005	79.44
395.229	98.44
395.454	74.44
395.678	74.44
395.903	89.44
396.127	78.44
396.352	88.44
396.576	84.44
396.801	80.44
397.025	91.44
397.249	91.44
397.474	86.44
397.698	103.44
397.922	90.44
398.147	83.44
398.371	94.44
398.595	77.44
398.82	78.44
399.044	95.44
399.268	86.44
399.492	87.44
399.717	86.44
399.941	79.44
400.165	99.44
400.389	92.44
400.613	92.44
400.837	93.44
401.062	104.44
401.286	87.44
401.51	93.44
401.734	94.44
401.958	97.44
402.182	158.44
402.406	197.44
402.63	140.44
402.854	96.44
403.078	105.44
403.302	91.44
403.526	90.44
403.75	95.44
403.974	87.44
404.198	94.44
404.422	87.44
404.645	86.44
404.869	92.44
405.093	104.44
405.317	115.44
405.541	108.44
405.765	111.44
405.988	128.44
406.212	227.44
406.436	332.44
406.66	192.44
406.883	116.44
407.107	109.44
407.331	95.44
407.555	101.44
407.778	98.44
408.002	94.44
408.226	97.44
408.449	80.44
408.673	96.44
408.896	91.44
409.12	91.44
409.344	89.44
409.567	83.44
409.791	82.44
410.014	92.44
410.238	94.44
410.461	94.44
410.685	89.44
410.908	103.44
411.132	98.44
411.355	95.44
411.578	90.44
411.802	97.44
412.025	75.44
412.249	102.44
412.472	96.44
412.695	100.44
412.919	86.44
413.142	93.44
413.365	97.44
413.589	77.44
413.812	82.44
414.035	96.44
414.258	87.44
414.482	104.44
414.705	96.44
414.928	83.44
415.151	99.44
415.374	83.44
415.597	81.44
415.821	78.44
416.044	92.44
416.267	90.44
416.49	89.44
416.713	85.44
416.936	101.44
417.159	85.44
417.382	82.44
417.605	74.44
417.828	102.44
418.051	112.44
418.274	96.44
418.497	99.44
418.72	94.44
418.943	88.44
419.166	82.44
419.389	84.44
419.611	87.44
419.834	94.44
420.057	84.44
420.28	92.44
420.503	85.44
420.726	84.44
420.948	104.44
421.171	95.44
421.394	100.44
421.617	82.44
421.839	84.44
422.062	84.44
422.285	94.44
422.507	88.44
422.73	109.44
422.953	94.44
423.175	94.44
423.398	103.44
423.621	76.44
423.843	84.44
424.066	73.44
424.288	97.44
424.511	88.44
424.733	98.44
424.956	116.44
425.178	103.44
425.401	96.44
425.623	98.44
425.846	103.44
426.068	91.44
426.291	96.44
426.513	93.44
426.735	83.44
426.958	91.44
427.18	107.44
427.402	157.44
427.625	220.44
427.847	184.44
428.069	149.44
428.292	89.44
428.514	90.44
428.736	67.44
428.958	67.44
429.181	105.44
429.403	79.44
429.625	95.44
429.847	102.44
430.069	116.44
430.292	89.44
430.514	93.44
430.736	86.44
430.958	79.44
431.18	84.44
431.402	89.44
431.624	89.44
431.846	87.44
432.068	98.44
432.29	80.44
432.512	90.44
432.734	81.44
432.956	91.44
433.178	110.44
433.4	104.44
433.622	100.44
433.844	85.44
434.066	95.44
434.287	95.44
434.509	102.44
434.731	98.44
434.953	84.44
435.175	81.44
435.397	96.44
435.618	108.44
435.84	104.44
436.062	136.44
436.284	107.44
436.505	110.44
436.727	102.44
436.949	92.44
437.17	84.44
437.392	107.44
437.614	91.44
437.835	108.44
438.057	141.44
438.278	104.44
438.5	107.44
438.721	119.44
438.943	103.44
439.165	95.44
439.386	92.44
439.608	95.44
439.829	102.44
440.05	129.44
440.272	170.44
440.493	113.44
440.715	104.44
440.936	91.44
441.158	83.44
441.379	104.44
441.6	96.44
441.822	102.44
442.043	100.44
442.264	108.44
442.486	119.44
442.707	106.44
442.928	114.44
443.149	154.44
443.371	161.44
443.592	121.44
443.813	125.44
444.034	120.44
444.255	97.44
444.476	91.44
444.698	91.44
444.919	105.44
445.14	134.44
445.361	143.44
445.582	147.44
445.803	163.44
446.024	150.44
446.245	163.44
446.466	126.44
446.687	86.44
446.908	78.44
447.129	94.44
447.35	87.44
447.571	92.44
447.792	100.44
448.013	98.44
448.234	116.44
448.455	112.44
448.675	117.44
448.896	133.44
449.117	98.44
449.338	107.44
449.559	130.44
449.779	148.44
450	99.44
450.221	101.44
450.442	92.44
450.662	99.44
450.883	117.44
451.104	132.44
451.324	101.44
451.545	94.44
451.766	86.44
451.986	84.44
452.207	90.44
452.428	94.44
452.648	105.44
452.869	118.44
453.089	118.44
453.31	128.44
453.53	105.44
453.751	99.44
453.971	115.44
454.192	130.44
454.412	102.44
454.633	91.44
454.853	89.44
455.073	87.44
455.294	83.44
455.514	99.44
455.734	108.44
455.955	92.44
456.175	103.44
456.395	89.44
456.616	78.44
456.836	90.44
457.056	91.44
457.276	97.44
457.497	69.44
457.717	87.44
457.937	82.44
458.157	91.44
458.377	99.44
458.598	127.44
458.818	186.44
459.038	209.44
459.258	153.44
459.478	96.44
459.698	97.44
459.918	85.44
460.138	73.44
460.358	80.44
460.578	91.44
460.798	96.44
461.018	75.44
461.238	86.44
461.458	77.44
461.678	91.44
461.898	85.44
462.118	91.44
462.338	83.44
462.558	82.44
462.777	91.44
462.997	80.44
463.217	85.44
463.437	83.44
463.657	88.44
463.876	96.44
464.096	92.44
464.316	91.44
464.536	98.44
464.755	100.44
464.975	120.44
465.195	216.44
465.414	229.44
465.634	114.44
465.854	87.44
466.073	93.44
466.293	94.44
466.512	89.44
466.732	88.44
466.951	79.44
467.171	91.44
467.391	104.44
467.61	120.44
467.829	119.44
468.049	155.44
468.268	189.44
468.488	112.44
468.707	91.44
468.927	89.44
469.146	79.44
469.365	92.44
469.585	94.44
469.804	106.44
470.023	90.44
470.243	110.44
470.462	108.44
470.681	116.44
470.901	106.44
471.12	91.44
471.339	74.44
471.558	90.44
471.777	91.44
471.997	126.44
472.216	231.44
472.435	477.44
472.654	167.44
472.873	117.44
473.092	92.44
473.311	87.44
473.53	83.44
473.749	76.44
473.968	104.44
474.187	127.44
474.406	111.44
474.625	89.44
474.844	84.44
475.063	98.44
475.282	91.44
475.501	86.44
475.72	92.44
475.939	87.44
476.158	82.44
476.377	89.44
476.596	106.44
476.814	88.44
477.033	103.44
477.252	100.44
477.471	89.44
477.69	102.44
477.908	83.44
478.127	84.44
478.346	97.44
478.564	84.44
478.783	99.44
479.002	99.44
479.22	101.44
479.439	115.44
479.658	121.44
479.876	115.44
480.095	104.44
480.313	100.44
480.532	113.44
480.751	125.44
480.969	256.44
481.188	776.44
481.406	532.44
481.624	148.44
481.843	106.44
482.061	83.44
482.28	88.44
482.498	93.44
482.717	91.44
482.935	85.44
483.153	79.44
483.372	93.44
483.59	93.44
483.808	79.44
484.027	98.44
484.245	102.44
484.463	90.44
484.681	94.44
484.9	87.44
485.118	107.44
485.336	86.44
485.554	99.44
485.772	102.44
485.99	105.44
486.209	97.44
486.427	105.44
486.645	120.44
486.863	117.44
487.081	98.44
487.299	78.44
487.517	92.44
487.735	95.44
487.953	113.44
488.171	90.44
488.389	105.44
488.607	103.44
488.825	96.44
489.043	91.44
489.261	100.44
489.479	97.44
489.696	88.44
489.914	95.44
490.132	91.44
490.35	88.44
490.568	82.44
490.786	85.44
491.003	100.44
491.221	87.44
491.439	83.44
491.657	95.44
491.874	93.44
492.092	84.44
492.31	83.44
492.527	71.44
492.745	86.44
492.963	80.44
493.18	88.44
493.398	91.44
493.615	86.44
493.833	82.44
494.05	91.44
494.268	98.44
494.485	81.44
494.703	76.44
494.92	117.44
495.138	99.44
495.355	90.44
495.573	72.44
495.79	102.44
496.008	90.44
496.225	75.44
496.442	94.44
496.66	101.44
496.877	88.44
497.094	100.44
497.312	91.44
497.529	105.44
497.746	88.44
497.963	102.44
498.181	99.44
498.398	86.44
498.615	113.44
498.832	94.44
499.049	92.44
499.267	84.44
499.484	87.44
499.701	92.44
499.918	81.44
500.135	110.44
500.352	93.44
500.569	99.44
500.786	88.44
501.003	94.44
501.22	82.44
501.437	105.44
501.654	98.44
501.871	110.44
502.088	106.44
502.305	89.44
502.522	102.44
502.739	86.44
502.956	90.44
503.172	97.44
503.389	106.44
503.606	97.44
503.823	95.44
504.04	88.44
504.256	91.44
504.473	90.44
504.69	88.44
504.907	94.44
505.123	91.44
505.34	68.44
505.557	98.44
505.773	86.44
505.99	75.44
506.207	70.44
506.423	93.44
506.64	93.44
506.856	90.44
507.073	92.44
507.289	99.44
507.506	96.44
507.722	127.44
507.939	114.44
508.155	104.44
508.372	95.44
508.588	90.44
508.805	101.44
509.021	96.44
509.238	95.44
509.454	93.44
509.67	105.44
509.887	123.44
510.103	136.44
510.319	236.44
510.536	953.44
510.752	3394.44
510.968	960.44
511.184	177.44
511.401	125.44
511.617	110.44
511.833	101.44
512.049	90.44
512.265	70.44
512.481	90.44
512.698	102.44
512.914	100.44
513.13	95.44
513.346	93.44
513.562	90.44
513.778	96.44
513.994	110.44
514.21	116.44
