Data from Circ_2022_H10_HRD10591_00031.txt Node
Date: Wed Jan 03 09:53:43 EST 2024
User: Yrep
Spectrometer: HR+D1059
Trigger mode: 1
Integration Time (sec): 1.000000E-1
Scans to average: 1
Electric dark correction enabled: true
Nonlinearity correction enabled: false
Boxcar width: 0
XAxis mode: Wavelengths
Number of Pixels in Spectrum: 2048
>>>>>Begin Spectral Data<<<<<
223.165	-15.75
223.4	-15.75
223.635	-15.75
223.869	-23.75
224.104	-15.75
224.338	-9.75
224.573	-27.75
224.808	-3.75
225.042	-14.75
225.277	-0.75
225.511	-0.75
225.746	4.25
225.98	-4.75
226.215	10.25
226.449	21.25
226.683	24.25
226.918	26.25
227.152	31.25
227.387	37.25
227.621	19.25
227.856	32.25
228.09	47.25
228.324	45.25
228.559	54.25
228.793	42.25
229.027	50.25
229.262	67.25
229.496	72.25
229.73	82.25
229.964	87.25
230.199	71.25
230.433	90.25
230.667	75.25
230.901	66.25
231.136	86.25
231.37	78.25
231.604	73.25
231.838	74.25
232.072	61.25
232.306	82.25
232.541	75.25
232.775	74.25
233.009	80.25
233.243	77.25
233.477	68.25
233.711	79.25
233.945	76.25
234.179	80.25
234.413	79.25
234.647	69.25
234.881	79.25
235.115	84.25
235.349	63.25
235.583	79.25
235.817	78.25
236.051	71.25
236.285	81.25
236.519	74.25
236.753	83.25
236.987	67.25
237.221	88.25
237.455	92.25
237.689	72.25
237.922	71.25
238.156	78.25
238.39	78.25
238.624	74.25
238.858	79.25
239.091	78.25
239.325	78.25
239.559	84.25
239.793	84.25
240.027	76.25
240.26	80.25
240.494	75.25
240.728	67.25
240.961	79.25
241.195	83.25
241.429	67.25
241.662	80.25
241.896	76.25
242.13	68.25
242.363	66.25
242.597	64.25
242.83	71.25
243.064	79.25
243.298	77.25
243.531	78.25
243.765	90.25
243.998	78.25
244.232	87.25
244.465	78.25
244.699	59.25
244.932	71.25
245.166	75.25
245.399	68.25
245.633	93.25
245.866	80.25
246.099	78.25
246.333	75.25
246.566	72.25
246.8	63.25
247.033	70.25
247.266	84.25
247.5	93.25
247.733	77.25
247.966	74.25
248.2	82.25
248.433	72.25
248.666	70.25
248.899	79.25
249.133	77.25
249.366	97.25
249.599	95.25
249.832	70.25
250.066	83.25
250.299	64.25
250.532	78.25
250.765	75.25
250.998	67.25
251.231	72.25
251.465	83.25
251.698	77.25
251.931	72.25
252.164	82.25
252.397	75.25
252.63	85.25
252.863	76.25
253.096	81.25
253.329	74.25
253.562	76.25
253.795	82.25
254.028	70.25
254.261	72.25
254.494	79.25
254.727	84.25
254.96	65.25
255.193	86.25
255.426	69.25
255.659	79.25
255.892	80.25
256.124	72.25
256.357	78.25
256.59	85.25
256.823	86.25
257.056	79.25
257.289	83.25
257.521	82.25
257.754	72.25
257.987	81.25
258.22	81.25
258.452	85.25
258.685	91.25
258.918	78.25
259.151	84.25
259.383	77.25
259.616	77.25
259.849	78.25
260.081	94.25
260.314	102.25
260.547	79.25
260.779	64.25
261.012	88.25
261.244	75.25
261.477	80.25
261.71	91.25
261.942	103.25
262.175	102.25
262.407	90.25
262.64	80.25
262.872	82.25
263.105	87.25
263.337	77.25
263.57	86.25
263.802	89.25
264.035	78.25
264.267	82.25
264.499	87.25
264.732	79.25
264.964	78.25
265.197	84.25
265.429	77.25
265.661	75.25
265.894	93.25
266.126	96.25
266.358	79.25
266.591	79.25
266.823	73.25
267.055	78.25
267.287	77.25
267.52	79.25
267.752	82.25
267.984	69.25
268.216	77.25
268.448	82.25
268.681	77.25
268.913	80.25
269.145	86.25
269.377	88.25
269.609	83.25
269.841	81.25
270.073	71.25
270.306	64.25
270.538	81.25
270.77	97.25
271.002	83.25
271.234	87.25
271.466	90.25
271.698	94.25
271.93	70.25
272.162	82.25
272.394	90.25
272.626	78.25
272.858	83.25
273.09	85.25
273.322	81.25
273.553	90.25
273.785	81.25
274.017	88.25
274.249	89.25
274.481	91.25
274.713	80.25
274.945	81.25
275.176	82.25
275.408	75.25
275.64	86.25
275.872	87.25
276.104	82.25
276.335	79.25
276.567	96.25
276.799	105.25
277.031	101.25
277.262	93.25
277.494	92.25
277.726	97.25
277.957	79.25
278.189	90.25
278.421	92.25
278.652	88.25
278.884	86.25
279.115	78.25
279.347	74.25
279.579	86.25
279.81	95.25
280.042	82.25
280.273	92.25
280.505	87.25
280.736	104.25
280.968	78.25
281.199	82.25
281.431	90.25
281.662	87.25
281.894	86.25
282.125	98.25
282.356	111.25
282.588	139.25
282.819	112.25
283.051	84.25
283.282	81.25
283.513	72.25
283.745	84.25
283.976	80.25
284.207	81.25
284.439	83.25
284.67	90.25
284.901	75.25
285.132	69.25
285.364	85.25
285.595	79.25
285.826	74.25
286.057	93.25
286.288	99.25
286.52	86.25
286.751	81.25
286.982	83.25
287.213	82.25
287.444	80.25
287.675	92.25
287.906	87.25
288.138	95.25
288.369	81.25
288.6	92.25
288.831	82.25
289.062	90.25
289.293	85.25
289.524	88.25
289.755	92.25
289.986	91.25
290.217	82.25
290.448	90.25
290.679	78.25
290.91	82.25
291.141	86.25
291.371	90.25
291.602	92.25
291.833	96.25
292.064	85.25
292.295	94.25
292.526	101.25
292.757	84.25
292.987	94.25
293.218	89.25
293.449	85.25
293.68	80.25
293.91	91.25
294.141	91.25
294.372	82.25
294.603	86.25
294.833	95.25
295.064	80.25
295.295	99.25
295.525	91.25
295.756	85.25
295.987	112.25
296.217	142.25
296.448	123.25
296.679	74.25
296.909	84.25
297.14	83.25
297.37	86.25
297.601	91.25
297.831	95.25
298.062	94.25
298.292	93.25
298.523	76.25
298.753	78.25
298.984	95.25
299.214	94.25
299.445	92.25
299.675	88.25
299.905	107.25
300.136	84.25
300.366	93.25
300.597	78.25
300.827	92.25
301.057	97.25
301.288	90.25
301.518	99.25
301.748	85.25
301.979	95.25
302.209	83.25
302.439	83.25
302.669	86.25
302.9	93.25
303.13	105.25
303.36	96.25
303.59	102.25
303.82	109.25
304.051	111.25
304.281	78.25
304.511	73.25
304.741	91.25
304.971	95.25
305.201	83.25
305.431	87.25
305.661	96.25
305.891	104.25
306.121	86.25
306.352	98.25
306.582	94.25
306.812	95.25
307.042	101.25
307.272	105.25
307.502	92.25
307.731	96.25
307.961	92.25
308.191	86.25
308.421	96.25
308.651	93.25
308.881	85.25
309.111	90.25
309.341	90.25
309.571	105.25
309.8	90.25
310.03	105.25
310.26	90.25
310.49	86.25
310.72	89.25
310.949	104.25
311.179	103.25
311.409	94.25
311.639	108.25
311.868	90.25
312.098	85.25
312.328	85.25
312.557	82.25
312.787	101.25
313.017	96.25
313.246	106.25
313.476	102.25
313.706	100.25
313.935	94.25
314.165	89.25
314.394	109.25
314.624	100.25
314.853	86.25
315.083	93.25
315.312	90.25
315.542	73.25
315.771	84.25
316.001	90.25
316.23	76.25
316.46	88.25
316.689	94.25
316.919	83.25
317.148	97.25
317.377	92.25
317.607	96.25
317.836	98.25
318.065	90.25
318.295	76.25
318.524	89.25
318.753	94.25
318.983	93.25
319.212	104.25
319.441	115.25
319.67	108.25
319.9	105.25
320.129	82.25
320.358	98.25
320.587	90.25
320.816	85.25
321.046	104.25
321.275	88.25
321.504	89.25
321.733	80.25
321.962	85.25
322.191	98.25
322.42	109.25
322.649	102.25
322.878	96.25
323.108	111.25
323.337	117.25
323.566	133.25
323.795	145.25
324.024	196.25
324.253	399.25
324.482	857.25
324.71	1742.25
324.939	2369.25
325.168	864.25
325.397	248.25
325.626	149.25
325.855	137.25
326.084	117.25
326.313	135.25
326.542	157.25
326.77	238.25
326.999	466.25
327.228	949.25
327.457	1756.25
327.686	1407.25
327.914	394.25
328.143	198.25
328.372	152.25
328.6	113.25
328.829	122.25
329.058	135.25
329.287	129.25
329.515	105.25
329.744	99.25
329.972	104.25
330.201	105.25
330.43	133.25
330.658	129.25
330.887	158.25
331.115	129.25
331.344	98.25
331.572	109.25
331.801	109.25
332.03	97.25
332.258	97.25
332.486	78.25
332.715	91.25
332.943	96.25
333.172	87.25
333.4	90.25
333.629	98.25
333.857	86.25
334.085	97.25
334.314	95.25
334.542	126.25
334.771	127.25
334.999	97.25
335.227	92.25
335.455	98.25
335.684	102.25
335.912	93.25
336.14	93.25
336.369	113.25
336.597	101.25
336.825	102.25
337.053	94.25
337.281	90.25
337.51	97.25
337.738	70.25
337.966	94.25
338.194	89.25
338.422	99.25
338.65	100.25
338.878	93.25
339.106	104.25
339.334	88.25
339.562	85.25
339.79	89.25
340.018	87.25
340.246	84.25
340.474	109.25
340.702	88.25
340.93	99.25
341.158	102.25
341.386	99.25
341.614	81.25
341.842	100.25
342.07	94.25
342.298	84.25
342.526	87.25
342.754	101.25
342.981	90.25
343.209	78.25
343.437	84.25
343.665	89.25
343.893	83.25
344.12	87.25
344.348	79.25
344.576	79.25
344.804	94.25
345.031	99.25
345.259	104.25
345.487	97.25
345.714	96.25
345.942	86.25
346.17	95.25
346.397	92.25
346.625	85.25
346.853	114.25
347.08	92.25
347.308	91.25
347.535	89.25
347.763	95.25
347.99	99.25
348.218	98.25
348.445	106.25
348.673	89.25
348.9	90.25
349.128	88.25
349.355	89.25
349.583	87.25
349.81	87.25
350.037	90.25
350.265	91.25
350.492	100.25
350.72	96.25
350.947	105.25
351.174	115.25
351.402	119.25
351.629	104.25
351.856	102.25
352.083	101.25
352.311	119.25
352.538	100.25
352.765	107.25
352.992	116.25
353.22	114.25
353.447	113.25
353.674	101.25
353.901	108.25
354.128	101.25
354.355	98.25
354.583	107.25
354.81	87.25
355.037	77.25
355.264	96.25
355.491	91.25
355.718	84.25
355.945	90.25
356.172	100.25
356.399	95.25
356.626	83.25
356.853	86.25
357.08	93.25
357.307	89.25
357.534	109.25
357.761	92.25
357.988	83.25
358.215	83.25
358.441	97.25
358.668	86.25
358.895	104.25
359.122	91.25
359.349	84.25
359.576	94.25
359.802	92.25
360.029	103.25
360.256	125.25
360.483	97.25
360.709	87.25
360.936	96.25
361.163	101.25
361.39	103.25
361.616	96.25
361.843	90.25
362.07	98.25
362.296	100.25
362.523	89.25
362.749	91.25
362.976	103.25
363.203	119.25
363.429	83.25
363.656	88.25
363.882	84.25
364.109	97.25
364.335	91.25
364.562	91.25
364.788	77.25
365.015	98.25
365.241	94.25
365.468	98.25
365.694	98.25
365.92	85.25
366.147	85.25
366.373	102.25
366.599	81.25
366.826	73.25
367.052	88.25
367.278	86.25
367.505	82.25
367.731	94.25
367.957	109.25
368.184	88.25
368.41	91.25
368.636	115.25
368.862	117.25
369.089	116.25
369.315	96.25
369.541	87.25
369.767	94.25
369.993	82.25
370.219	82.25
370.445	81.25
370.672	84.25
370.898	91.25
371.124	81.25
371.35	81.25
371.576	95.25
371.802	94.25
372.028	90.25
372.254	89.25
372.48	87.25
372.706	89.25
372.932	84.25
373.158	95.25
373.384	97.25
373.61	95.25
373.835	76.25
374.061	82.25
374.287	94.25
374.513	86.25
374.739	83.25
374.965	75.25
375.191	88.25
375.416	107.25
375.642	80.25
375.868	93.25
376.094	87.25
376.319	83.25
376.545	83.25
376.771	85.25
376.997	90.25
377.222	83.25
377.448	85.25
377.674	107.25
377.899	96.25
378.125	92.25
378.35	90.25
378.576	92.25
378.802	86.25
379.027	106.25
379.253	89.25
379.478	96.25
379.704	102.25
379.929	90.25
380.155	90.25
380.38	110.25
380.606	90.25
380.831	110.25
381.057	93.25
381.282	96.25
381.507	109.25
381.733	91.25
381.958	89.25
382.184	89.25
382.409	100.25
382.634	84.25
382.86	103.25
383.085	77.25
383.31	93.25
383.535	110.25
383.761	102.25
383.986	85.25
384.211	88.25
384.436	88.25
384.662	92.25
384.887	100.25
385.112	94.25
385.337	103.25
385.562	103.25
385.787	105.25
386.013	121.25
386.238	111.25
386.463	111.25
386.688	106.25
386.913	106.25
387.138	110.25
387.363	106.25
387.588	109.25
387.813	98.25
388.038	99.25
388.263	106.25
388.488	110.25
388.713	92.25
388.938	97.25
389.163	113.25
389.387	99.25
389.612	82.25
389.837	88.25
390.062	90.25
390.287	87.25
390.512	86.25
390.736	105.25
390.961	104.25
391.186	102.25
391.411	98.25
391.636	93.25
391.86	85.25
392.085	83.25
392.31	82.25
392.534	91.25
392.759	74.25
392.984	94.25
393.208	91.25
393.433	107.25
393.658	90.25
393.882	79.25
394.107	70.25
394.331	85.25
394.556	95.25
394.78	82.25
395.005	92.25
395.229	77.25
395.454	70.25
395.678	80.25
395.903	101.25
396.127	86.25
396.352	85.25
396.576	75.25
396.801	82.25
397.025	93.25
397.249	84.25
397.474	94.25
397.698	96.25
397.922	97.25
398.147	88.25
398.371	74.25
398.595	90.25
398.82	73.25
399.044	84.25
399.268	75.25
399.492	90.25
399.717	78.25
399.941	73.25
400.165	91.25
400.389	101.25
400.613	91.25
400.837	81.25
401.062	98.25
401.286	93.25
401.51	74.25
401.734	90.25
401.958	97.25
402.182	119.25
402.406	143.25
402.63	121.25
402.854	84.25
403.078	100.25
403.302	90.25
403.526	71.25
403.75	77.25
403.974	81.25
404.198	65.25
404.422	95.25
404.645	100.25
404.869	78.25
405.093	75.25
405.317	105.25
405.541	104.25
405.765	101.25
405.988	116.25
406.212	165.25
406.436	224.25
406.66	158.25
406.883	110.25
407.107	70.25
407.331	102.25
407.555	88.25
407.778	99.25
408.002	91.25
408.226	95.25
408.449	84.25
408.673	91.25
408.896	100.25
409.12	94.25
409.344	86.25
409.567	81.25
409.791	84.25
410.014	97.25
410.238	95.25
410.461	86.25
410.685	82.25
410.908	93.25
411.132	86.25
411.355	84.25
411.578	80.25
411.802	85.25
412.025	96.25
412.249	94.25
412.472	93.25
412.695	98.25
412.919	101.25
413.142	83.25
413.365	95.25
413.589	92.25
413.812	83.25
414.035	88.25
414.258	98.25
414.482	83.25
414.705	77.25
414.928	75.25
415.151	87.25
415.374	89.25
415.597	81.25
415.821	87.25
416.044	94.25
416.267	85.25
416.49	97.25
416.713	83.25
416.936	96.25
417.159	85.25
417.382	70.25
417.605	74.25
417.828	86.25
418.051	78.25
418.274	107.25
418.497	102.25
418.72	83.25
418.943	88.25
419.166	93.25
419.389	71.25
419.611	70.25
419.834	83.25
420.057	98.25
420.28	97.25
420.503	93.25
420.726	84.25
420.948	84.25
421.171	101.25
421.394	89.25
421.617	98.25
421.839	95.25
422.062	87.25
422.285	95.25
422.507	93.25
422.73	109.25
422.953	102.25
423.175	82.25
423.398	79.25
423.621	83.25
423.843	77.25
424.066	75.25
424.288	85.25
424.511	85.25
424.733	100.25
424.956	103.25
425.178	111.25
425.401	107.25
425.623	91.25
425.846	102.25
426.068	100.25
426.291	86.25
426.513	86.25
426.735	82.25
426.958	94.25
427.18	122.25
427.402	138.25
427.625	179.25
427.847	148.25
428.069	101.25
428.292	89.25
428.514	88.25
428.736	91.25
428.958	69.25
429.181	77.25
429.403	101.25
429.625	90.25
429.847	90.25
430.069	86.25
430.292	99.25
430.514	89.25
430.736	82.25
430.958	78.25
431.18	86.25
431.402	88.25
431.624	93.25
431.846	94.25
432.068	75.25
432.29	83.25
432.512	94.25
432.734	98.25
432.956	83.25
433.178	98.25
433.4	107.25
433.622	90.25
433.844	86.25
434.066	83.25
434.287	92.25
434.509	85.25
434.731	83.25
434.953	86.25
435.175	85.25
435.397	89.25
435.618	90.25
435.84	93.25
436.062	128.25
436.284	102.25
436.505	100.25
436.727	100.25
436.949	93.25
437.17	101.25
437.392	98.25
437.614	89.25
437.835	94.25
438.057	127.25
438.278	110.25
438.5	101.25
438.721	120.25
438.943	93.25
439.165	73.25
439.386	75.25
439.608	85.25
439.829	86.25
440.05	114.25
440.272	144.25
440.493	91.25
440.715	79.25
440.936	93.25
441.158	89.25
441.379	95.25
441.6	95.25
441.822	94.25
442.043	100.25
442.264	90.25
442.486	96.25
442.707	88.25
442.928	122.25
443.149	128.25
443.371	141.25
443.592	98.25
443.813	129.25
444.034	113.25
444.255	96.25
444.476	95.25
444.698	89.25
444.919	91.25
445.14	130.25
445.361	106.25
445.582	114.25
445.803	129.25
446.024	147.25
446.245	141.25
446.466	114.25
446.687	81.25
446.908	80.25
447.129	89.25
447.35	83.25
447.571	86.25
447.792	95.25
448.013	98.25
448.234	110.25
448.455	99.25
448.675	108.25
448.896	102.25
449.117	109.25
449.338	105.25
449.559	126.25
449.779	125.25
450	94.25
450.221	85.25
450.442	82.25
450.662	101.25
450.883	102.25
451.104	122.25
451.324	94.25
451.545	87.25
451.766	91.25
451.986	80.25
452.207	78.25
452.428	81.25
452.648	98.25
452.869	114.25
453.089	122.25
453.31	106.25
453.53	81.25
453.751	82.25
453.971	119.25
454.192	113.25
454.412	86.25
454.633	89.25
454.853	90.25
455.073	94.25
455.294	92.25
455.514	93.25
455.734	91.25
455.955	87.25
456.175	83.25
456.395	82.25
456.616	89.25
456.836	85.25
457.056	83.25
457.276	79.25
457.497	80.25
457.717	75.25
457.937	72.25
458.157	91.25
458.377	94.25
458.598	105.25
458.818	158.25
459.038	168.25
459.258	131.25
459.478	90.25
459.698	84.25
459.918	84.25
460.138	63.25
460.358	68.25
460.578	88.25
460.798	76.25
461.018	91.25
461.238	85.25
461.458	94.25
461.678	77.25
461.898	87.25
462.118	85.25
462.338	82.25
462.558	85.25
462.777	77.25
462.997	98.25
463.217	89.25
463.437	79.25
463.657	97.25
463.876	81.25
464.096	80.25
464.316	78.25
464.536	102.25
464.755	96.25
464.975	106.25
465.195	161.25
465.414	171.25
465.634	94.25
465.854	79.25
466.073	94.25
466.293	96.25
466.512	78.25
466.732	82.25
466.951	80.25
467.171	89.25
467.391	96.25
467.61	93.25
467.829	101.25
468.049	93.25
468.268	92.25
468.488	84.25
468.707	99.25
468.927	75.25
469.146	86.25
469.365	77.25
469.585	104.25
469.804	99.25
470.023	98.25
470.243	90.25
470.462	94.25
470.681	109.25
470.901	93.25
471.12	69.25
471.339	93.25
471.558	84.25
471.777	89.25
471.997	89.25
472.216	100.25
472.435	114.25
472.654	94.25
472.873	93.25
473.092	90.25
473.311	94.25
473.53	95.25
473.749	81.25
473.968	90.25
474.187	101.25
474.406	93.25
474.625	91.25
474.844	96.25
475.063	88.25
475.282	68.25
475.501	95.25
475.72	103.25
475.939	90.25
476.158	87.25
476.377	88.25
476.596	90.25
476.814	82.25
477.033	98.25
477.252	90.25
477.471	93.25
477.69	91.25
477.908	89.25
478.127	86.25
478.346	83.25
478.564	95.25
478.783	86.25
479.002	101.25
479.22	92.25
479.439	106.25
479.658	88.25
479.876	72.25
480.095	87.25
480.313	89.25
480.532	87.25
480.751	93.25
480.969	102.25
481.188	152.25
481.406	138.25
481.624	100.25
481.843	93.25
482.061	85.25
482.28	83.25
482.498	89.25
482.717	75.25
482.935	82.25
483.153	79.25
483.372	89.25
483.59	87.25
483.808	89.25
484.027	97.25
484.245	80.25
484.463	89.25
484.681	84.25
484.9	85.25
485.118	91.25
485.336	82.25
485.554	106.25
485.772	85.25
485.99	102.25
486.209	96.25
486.427	96.25
486.645	108.25
486.863	108.25
487.081	117.25
487.299	93.25
487.517	81.25
487.735	84.25
487.953	95.25
488.171	68.25
488.389	98.25
488.607	103.25
488.825	88.25
489.043	88.25
489.261	100.25
489.479	91.25
489.696	95.25
489.914	91.25
490.132	84.25
490.35	89.25
490.568	100.25
490.786	80.25
491.003	87.25
491.221	75.25
491.439	98.25
491.657	84.25
491.874	87.25
492.092	91.25
492.31	96.25
492.527	99.25
492.745	82.25
492.963	99.25
493.18	72.25
493.398	91.25
493.615	105.25
493.833	72.25
494.05	70.25
494.268	92.25
494.485	86.25
494.703	88.25
494.92	100.25
495.138	90.25
495.355	82.25
495.573	95.25
495.79	97.25
496.008	85.25
496.225	84.25
496.442	76.25
496.66	94.25
496.877	83.25
497.094	92.25
497.312	88.25
497.529	89.25
497.746	96.25
497.963	91.25
498.181	93.25
498.398	91.25
498.615	103.25
498.832	113.25
499.049	86.25
499.267	85.25
499.484	63.25
499.701	83.25
499.918	104.25
500.135	90.25
500.352	82.25
500.569	81.25
500.786	88.25
501.003	89.25
501.22	89.25
501.437	79.25
501.654	98.25
501.871	114.25
502.088	98.25
502.305	100.25
502.522	97.25
502.739	88.25
502.956	86.25
503.172	94.25
503.389	89.25
503.606	112.25
503.823	86.25
504.04	94.25
504.256	90.25
504.473	104.25
504.69	97.25
504.907	97.25
505.123	94.25
505.34	77.25
505.557	82.25
505.773	95.25
505.99	91.25
506.207	92.25
506.423	94.25
506.64	76.25
506.856	95.25
507.073	80.25
507.289	102.25
507.506	109.25
507.722	104.25
507.939	101.25
508.155	91.25
508.372	82.25
508.588	91.25
508.805	89.25
509.021	88.25
509.238	102.25
509.454	99.25
509.67	107.25
509.887	102.25
510.103	131.25
510.319	208.25
510.536	810.25
510.752	2658.25
510.968	773.25
511.184	167.25
511.401	109.25
511.617	87.25
511.833	84.25
512.049	86.25
512.265	83.25
512.481	94.25
512.698	80.25
512.914	86.25
513.13	93.25
513.346	91.25
513.562	85.25
513.778	91.25
513.994	94.25
514.21	88.25
514.426	120.25
514.642	140.25
514.858	135.25
515.074	171.25
515.29	468.25
515.506	1735.25
515.721	667.25
515.937	152.25
