Data from Circ_2022_H10_HRD10591_00066.txt Node
Date: Wed Jan 03 09:53:50 EST 2024
User: Yrep
Spectrometer: HR+D1059
Trigger mode: 1
Integration Time (sec): 1.000000E-1
Scans to average: 1
Electric dark correction enabled: true
Nonlinearity correction enabled: false
Boxcar width: 0
XAxis mode: Wavelengths
Number of Pixels in Spectrum: 2048
>>>>>Begin Spectral Data<<<<<
223.165	-11.81
223.4	-11.81
223.635	-11.81
223.869	-15.81
224.104	-5.81
224.338	-26.81
224.573	-6.81
224.808	-16.81
225.042	-7.81
225.277	-4.81
225.511	-5.81
225.746	-12.81
225.98	-2.81
226.215	15.19
226.449	22.19
226.683	30.19
226.918	21.19
227.152	29.19
227.387	44.19
227.621	24.19
227.856	50.19
228.09	43.19
228.324	38.19
228.559	48.19
228.793	71.19
229.027	56.19
229.262	40.19
229.496	64.19
229.73	80.19
229.964	86.19
230.199	78.19
230.433	89.19
230.667	73.19
230.901	80.19
231.136	72.19
231.37	79.19
231.604	72.19
231.838	65.19
232.072	80.19
232.306	81.19
232.541	67.19
232.775	62.19
233.009	74.19
233.243	74.19
233.477	80.19
233.711	69.19
233.945	77.19
234.179	83.19
234.413	89.19
234.647	67.19
234.881	82.19
235.115	72.19
235.349	77.19
235.583	84.19
235.817	78.19
236.051	86.19
236.285	72.19
236.519	74.19
236.753	67.19
236.987	71.19
237.221	73.19
237.455	59.19
237.689	92.19
237.922	81.19
238.156	70.19
238.39	71.19
238.624	64.19
238.858	75.19
239.091	64.19
239.325	75.19
239.559	76.19
239.793	92.19
240.027	76.19
240.26	68.19
240.494	81.19
240.728	80.19
240.961	77.19
241.195	80.19
241.429	77.19
241.662	79.19
241.896	84.19
242.13	64.19
242.363	68.19
242.597	100.19
242.83	62.19
243.064	73.19
243.298	68.19
243.531	77.19
243.765	84.19
243.998	88.19
244.232	91.19
244.465	92.19
244.699	87.19
244.932	72.19
245.166	79.19
245.399	68.19
245.633	78.19
245.866	64.19
246.099	84.19
246.333	68.19
246.566	65.19
246.8	72.19
247.033	56.19
247.266	86.19
247.5	72.19
247.733	69.19
247.966	79.19
248.2	83.19
248.433	69.19
248.666	61.19
248.899	83.19
249.133	76.19
249.366	92.19
249.599	89.19
249.832	83.19
250.066	70.19
250.299	74.19
250.532	72.19
250.765	70.19
250.998	67.19
251.231	75.19
251.465	64.19
251.698	82.19
251.931	62.19
252.164	73.19
252.397	83.19
252.63	70.19
252.863	83.19
253.096	79.19
253.329	73.19
253.562	75.19
253.795	70.19
254.028	72.19
254.261	78.19
254.494	81.19
254.727	77.19
254.96	86.19
255.193	73.19
255.426	94.19
255.659	79.19
255.892	73.19
256.124	88.19
256.357	84.19
256.59	78.19
256.823	84.19
257.056	85.19
257.289	71.19
257.521	69.19
257.754	76.19
257.987	83.19
258.22	93.19
258.452	82.19
258.685	83.19
258.918	70.19
259.151	79.19
259.383	71.19
259.616	70.19
259.849	77.19
260.081	76.19
260.314	79.19
260.547	86.19
260.779	73.19
261.012	67.19
261.244	73.19
261.477	96.19
261.71	85.19
261.942	109.19
262.175	119.19
262.407	101.19
262.64	85.19
262.872	80.19
263.105	74.19
263.337	82.19
263.57	80.19
263.802	91.19
264.035	78.19
264.267	70.19
264.499	72.19
264.732	85.19
264.964	64.19
265.197	84.19
265.429	66.19
265.661	70.19
265.894	93.19
266.126	86.19
266.358	79.19
266.591	77.19
266.823	75.19
267.055	79.19
267.287	76.19
267.52	71.19
267.752	93.19
267.984	88.19
268.216	80.19
268.448	90.19
268.681	91.19
268.913	84.19
269.145	87.19
269.377	78.19
269.609	79.19
269.841	78.19
270.073	68.19
270.306	78.19
270.538	77.19
270.77	74.19
271.002	87.19
271.234	77.19
271.466	83.19
271.698	92.19
271.93	75.19
272.162	79.19
272.394	90.19
272.626	92.19
272.858	72.19
273.09	91.19
273.322	84.19
273.553	65.19
273.785	76.19
274.017	62.19
274.249	82.19
274.481	68.19
274.713	99.19
274.945	85.19
275.176	77.19
275.408	82.19
275.64	92.19
275.872	87.19
276.104	81.19
276.335	82.19
276.567	90.19
276.799	109.19
277.031	95.19
277.262	93.19
277.494	83.19
277.726	88.19
277.957	68.19
278.189	86.19
278.421	87.19
278.652	88.19
278.884	76.19
279.115	79.19
279.347	85.19
279.579	82.19
279.81	99.19
280.042	87.19
280.273	85.19
280.505	96.19
280.736	89.19
280.968	81.19
281.199	62.19
281.431	85.19
281.662	71.19
281.894	86.19
282.125	96.19
282.356	135.19
282.588	144.19
282.819	103.19
283.051	91.19
283.282	84.19
283.513	79.19
283.745	77.19
283.976	75.19
284.207	70.19
284.439	84.19
284.67	87.19
284.901	70.19
285.132	87.19
285.364	80.19
285.595	91.19
285.826	91.19
286.057	100.19
286.288	84.19
286.52	90.19
286.751	84.19
286.982	82.19
287.213	87.19
287.444	75.19
287.675	87.19
287.906	89.19
288.138	86.19
288.369	80.19
288.6	84.19
288.831	84.19
289.062	81.19
289.293	82.19
289.524	93.19
289.755	85.19
289.986	83.19
290.217	87.19
290.448	76.19
290.679	72.19
290.91	92.19
291.141	97.19
291.371	79.19
291.602	77.19
291.833	77.19
292.064	79.19
292.295	93.19
292.526	67.19
292.757	77.19
292.987	77.19
293.218	86.19
293.449	84.19
293.68	84.19
293.91	91.19
294.141	91.19
294.372	92.19
294.603	72.19
294.833	77.19
295.064	77.19
295.295	88.19
295.525	93.19
295.756	104.19
295.987	99.19
296.217	124.19
296.448	131.19
296.679	86.19
296.909	85.19
297.14	85.19
297.37	79.19
297.601	88.19
297.831	85.19
298.062	84.19
298.292	76.19
298.523	88.19
298.753	81.19
298.984	85.19
299.214	82.19
299.445	93.19
299.675	83.19
299.905	92.19
300.136	102.19
300.366	86.19
300.597	93.19
300.827	91.19
301.057	93.19
301.288	109.19
301.518	79.19
301.748	87.19
301.979	94.19
302.209	91.19
302.439	74.19
302.669	85.19
302.9	91.19
303.13	89.19
303.36	76.19
303.59	94.19
303.82	119.19
304.051	74.19
304.281	83.19
304.511	81.19
304.741	75.19
304.971	84.19
305.201	92.19
305.431	87.19
305.661	81.19
305.891	87.19
306.121	83.19
306.352	91.19
306.582	103.19
306.812	86.19
307.042	89.19
307.272	96.19
307.502	98.19
307.731	83.19
307.961	94.19
308.191	91.19
308.421	84.19
308.651	89.19
308.881	90.19
309.111	85.19
309.341	97.19
309.571	89.19
309.8	97.19
310.03	96.19
310.26	99.19
310.49	82.19
310.72	90.19
310.949	96.19
311.179	93.19
311.409	91.19
311.639	82.19
311.868	107.19
312.098	92.19
312.328	83.19
312.557	89.19
312.787	90.19
313.017	94.19
313.246	85.19
313.476	93.19
313.706	79.19
313.935	94.19
314.165	97.19
314.394	104.19
314.624	87.19
314.853	97.19
315.083	98.19
315.312	94.19
315.542	80.19
315.771	93.19
316.001	84.19
316.23	72.19
316.46	95.19
316.689	84.19
316.919	95.19
317.148	88.19
317.377	93.19
317.607	97.19
317.836	103.19
318.065	98.19
318.295	92.19
318.524	81.19
318.753	94.19
318.983	82.19
319.212	110.19
319.441	95.19
319.67	96.19
319.9	91.19
320.129	84.19
320.358	78.19
320.587	82.19
320.816	93.19
321.046	92.19
321.275	93.19
321.504	94.19
321.733	90.19
321.962	105.19
322.191	82.19
322.42	82.19
322.649	107.19
322.878	96.19
323.108	104.19
323.337	117.19
323.566	145.19
323.795	152.19
324.024	199.19
324.253	391.19
324.482	799.19
324.71	1609.19
324.939	2137.19
325.168	795.19
325.397	233.19
325.626	147.19
325.855	122.19
326.084	120.19
326.313	120.19
326.542	142.19
326.77	225.19
326.999	428.19
327.228	883.19
327.457	1569.19
327.686	1253.19
327.914	366.19
328.143	205.19
328.372	168.19
328.6	134.19
328.829	119.19
329.058	130.19
329.287	127.19
329.515	95.19
329.744	107.19
329.972	120.19
330.201	161.19
330.43	183.19
330.658	155.19
330.887	139.19
331.115	123.19
331.344	91.19
331.572	92.19
331.801	97.19
332.03	95.19
332.258	96.19
332.486	92.19
332.715	94.19
332.943	88.19
333.172	94.19
333.4	87.19
333.629	116.19
333.857	112.19
334.085	121.19
334.314	148.19
334.542	204.19
334.771	198.19
334.999	112.19
335.227	88.19
335.455	115.19
335.684	115.19
335.912	83.19
336.14	83.19
336.369	92.19
336.597	104.19
336.825	87.19
337.053	107.19
337.281	88.19
337.51	84.19
337.738	79.19
337.966	90.19
338.194	88.19
338.422	97.19
338.65	99.19
338.878	80.19
339.106	81.19
339.334	91.19
339.562	93.19
339.79	90.19
340.018	94.19
340.246	93.19
340.474	98.19
340.702	84.19
340.93	83.19
341.158	99.19
341.386	85.19
341.614	112.19
341.842	94.19
342.07	86.19
342.298	92.19
342.526	78.19
342.754	87.19
342.981	91.19
343.209	96.19
343.437	85.19
343.665	90.19
343.893	79.19
344.12	88.19
344.348	89.19
344.576	94.19
344.804	73.19
345.031	84.19
345.259	83.19
345.487	88.19
345.714	72.19
345.942	86.19
346.17	82.19
346.397	89.19
346.625	112.19
346.853	86.19
347.08	93.19
347.308	74.19
347.535	85.19
347.763	86.19
347.99	95.19
348.218	81.19
348.445	92.19
348.673	100.19
348.9	112.19
349.128	89.19
349.355	104.19
349.583	78.19
349.81	101.19
350.037	100.19
350.265	88.19
350.492	93.19
350.72	104.19
350.947	94.19
351.174	86.19
351.402	112.19
351.629	100.19
351.856	100.19
352.083	102.19
352.311	108.19
352.538	113.19
352.765	109.19
352.992	100.19
353.22	111.19
353.447	94.19
353.674	91.19
353.901	104.19
354.128	81.19
354.355	88.19
354.583	93.19
354.81	90.19
355.037	95.19
355.264	86.19
355.491	70.19
355.718	78.19
355.945	99.19
356.172	85.19
356.399	100.19
356.626	85.19
356.853	96.19
357.08	95.19
357.307	92.19
357.534	92.19
357.761	71.19
357.988	99.19
358.215	102.19
358.441	82.19
358.668	84.19
358.895	76.19
359.122	83.19
359.349	79.19
359.576	95.19
359.802	87.19
360.029	101.19
360.256	111.19
360.483	108.19
360.709	95.19
360.936	94.19
361.163	92.19
361.39	80.19
361.616	100.19
361.843	81.19
362.07	101.19
362.296	88.19
362.523	97.19
362.749	96.19
362.976	79.19
363.203	82.19
363.429	78.19
363.656	94.19
363.882	98.19
364.109	95.19
364.335	93.19
364.562	89.19
364.788	86.19
365.015	95.19
365.241	111.19
365.468	105.19
365.694	111.19
365.92	96.19
366.147	71.19
366.373	99.19
366.599	72.19
366.826	94.19
367.052	90.19
367.278	84.19
367.505	87.19
367.731	88.19
367.957	83.19
368.184	89.19
368.41	97.19
368.636	110.19
368.862	125.19
369.089	102.19
369.315	82.19
369.541	96.19
369.767	92.19
369.993	91.19
370.219	65.19
370.445	73.19
370.672	80.19
370.898	88.19
371.124	88.19
371.35	81.19
371.576	86.19
371.802	83.19
372.028	91.19
372.254	85.19
372.48	88.19
372.706	71.19
372.932	80.19
373.158	83.19
373.384	85.19
373.61	85.19
373.835	84.19
374.061	91.19
374.287	93.19
374.513	82.19
374.739	76.19
374.965	103.19
375.191	80.19
375.416	89.19
375.642	78.19
375.868	92.19
376.094	85.19
376.319	84.19
376.545	94.19
376.771	83.19
376.997	80.19
377.222	84.19
377.448	91.19
377.674	82.19
377.899	88.19
378.125	95.19
378.35	79.19
378.576	100.19
378.802	98.19
379.027	77.19
379.253	82.19
379.478	103.19
379.704	87.19
379.929	97.19
380.155	103.19
380.38	92.19
380.606	69.19
380.831	94.19
381.057	111.19
381.282	94.19
381.507	99.19
381.733	83.19
381.958	93.19
382.184	96.19
382.409	100.19
382.634	102.19
382.86	89.19
383.085	95.19
383.31	104.19
383.535	89.19
383.761	92.19
383.986	102.19
384.211	94.19
384.436	97.19
384.662	88.19
384.887	99.19
385.112	91.19
385.337	96.19
385.562	104.19
385.787	105.19
386.013	101.19
386.238	119.19
386.463	100.19
386.688	95.19
386.913	99.19
387.138	83.19
387.363	95.19
387.588	94.19
387.813	92.19
388.038	115.19
388.263	92.19
388.488	107.19
388.713	91.19
388.938	93.19
389.163	92.19
389.387	98.19
389.612	85.19
389.837	92.19
390.062	95.19
390.287	82.19
390.512	80.19
390.736	89.19
390.961	93.19
391.186	94.19
391.411	89.19
391.636	88.19
391.86	89.19
392.085	80.19
392.31	79.19
392.534	90.19
392.759	94.19
392.984	87.19
393.208	86.19
393.433	91.19
393.658	97.19
393.882	86.19
394.107	91.19
394.331	72.19
394.556	95.19
394.78	88.19
395.005	88.19
395.229	91.19
395.454	86.19
395.678	85.19
395.903	89.19
396.127	81.19
396.352	89.19
396.576	75.19
396.801	89.19
397.025	91.19
397.249	76.19
397.474	77.19
397.698	75.19
397.922	77.19
398.147	93.19
398.371	76.19
398.595	97.19
398.82	83.19
399.044	82.19
399.268	84.19
399.492	73.19
399.717	77.19
399.941	89.19
400.165	73.19
400.389	85.19
400.613	77.19
400.837	78.19
401.062	73.19
401.286	83.19
401.51	83.19
401.734	83.19
401.958	85.19
402.182	136.19
402.406	155.19
402.63	114.19
402.854	96.19
403.078	99.19
403.302	80.19
403.526	85.19
403.75	85.19
403.974	94.19
404.198	96.19
404.422	102.19
404.645	93.19
404.869	80.19
405.093	96.19
405.317	95.19
405.541	98.19
405.765	108.19
405.988	131.19
406.212	201.19
406.436	255.19
406.66	155.19
406.883	98.19
407.107	91.19
407.331	81.19
407.555	86.19
407.778	81.19
408.002	95.19
408.226	86.19
408.449	72.19
408.673	77.19
408.896	91.19
409.12	94.19
409.344	83.19
409.567	90.19
409.791	92.19
410.014	82.19
410.238	86.19
410.461	99.19
410.685	88.19
410.908	91.19
411.132	98.19
411.355	96.19
411.578	76.19
411.802	82.19
412.025	80.19
412.249	88.19
412.472	75.19
412.695	108.19
412.919	93.19
413.142	94.19
413.365	94.19
413.589	87.19
413.812	73.19
414.035	91.19
414.258	79.19
414.482	93.19
414.705	80.19
414.928	87.19
415.151	82.19
415.374	85.19
415.597	95.19
415.821	97.19
416.044	90.19
416.267	86.19
416.49	83.19
416.713	83.19
416.936	83.19
417.159	79.19
417.382	91.19
417.605	76.19
417.828	90.19
418.051	91.19
418.274	72.19
418.497	99.19
418.72	85.19
418.943	89.19
419.166	82.19
419.389	72.19
419.611	78.19
419.834	93.19
420.057	89.19
420.28	83.19
420.503	73.19
420.726	62.19
420.948	82.19
421.171	103.19
421.394	102.19
421.617	82.19
421.839	86.19
422.062	93.19
422.285	85.19
422.507	102.19
422.73	95.19
422.953	100.19
423.175	91.19
423.398	86.19
423.621	79.19
423.843	73.19
424.066	85.19
424.288	97.19
424.511	91.19
424.733	82.19
424.956	99.19
425.178	98.19
425.401	99.19
425.623	104.19
425.846	80.19
426.068	77.19
426.291	90.19
426.513	90.19
426.735	94.19
426.958	93.19
427.18	109.19
427.402	124.19
427.625	164.19
427.847	147.19
428.069	132.19
428.292	98.19
428.514	88.19
428.736	73.19
428.958	86.19
429.181	78.19
429.403	85.19
429.625	88.19
429.847	88.19
430.069	90.19
430.292	85.19
430.514	86.19
430.736	81.19
430.958	76.19
431.18	84.19
431.402	79.19
431.624	82.19
431.846	73.19
432.068	86.19
432.29	88.19
432.512	88.19
432.734	87.19
432.956	82.19
433.178	91.19
433.4	87.19
433.622	96.19
433.844	73.19
434.066	85.19
434.287	80.19
434.509	93.19
434.731	107.19
434.953	83.19
435.175	96.19
435.397	89.19
435.618	85.19
435.84	91.19
436.062	99.19
436.284	114.19
436.505	101.19
436.727	81.19
436.949	90.19
437.17	83.19
437.392	99.19
437.614	73.19
437.835	101.19
438.057	114.19
438.278	114.19
438.5	95.19
438.721	117.19
438.943	94.19
439.165	73.19
439.386	82.19
439.608	90.19
439.829	92.19
440.05	107.19
440.272	145.19
440.493	102.19
440.715	86.19
440.936	89.19
441.158	83.19
441.379	88.19
441.6	83.19
441.822	82.19
442.043	99.19
442.264	92.19
442.486	84.19
442.707	79.19
442.928	107.19
443.149	131.19
443.371	135.19
443.592	108.19
443.813	97.19
444.034	102.19
444.255	105.19
444.476	93.19
444.698	89.19
444.919	96.19
445.14	131.19
445.361	111.19
445.582	127.19
445.803	128.19
446.024	136.19
446.245	135.19
446.466	91.19
446.687	89.19
446.908	85.19
447.129	78.19
447.35	94.19
447.571	90.19
447.792	96.19
448.013	88.19
448.234	112.19
448.455	103.19
448.675	111.19
448.896	108.19
449.117	77.19
449.338	76.19
449.559	116.19
449.779	133.19
450	96.19
450.221	81.19
450.442	86.19
450.662	77.19
450.883	111.19
451.104	118.19
451.324	104.19
451.545	92.19
451.766	84.19
451.986	81.19
452.207	79.19
452.428	81.19
452.648	98.19
452.869	115.19
453.089	112.19
453.31	117.19
453.53	89.19
453.751	98.19
453.971	115.19
454.192	123.19
454.412	85.19
454.633	77.19
454.853	78.19
455.073	80.19
455.294	88.19
455.514	94.19
455.734	84.19
455.955	79.19
456.175	83.19
456.395	84.19
456.616	84.19
456.836	77.19
457.056	92.19
457.276	86.19
457.497	84.19
457.717	69.19
457.937	83.19
458.157	81.19
458.377	80.19
458.598	110.19
458.818	157.19
459.038	155.19
459.258	112.19
459.478	88.19
459.698	82.19
459.918	83.19
460.138	82.19
460.358	68.19
460.578	85.19
460.798	84.19
461.018	80.19
461.238	84.19
461.458	86.19
461.678	80.19
461.898	78.19
462.118	90.19
462.338	75.19
462.558	85.19
462.777	98.19
462.997	87.19
463.217	80.19
463.437	86.19
463.657	74.19
463.876	94.19
464.096	82.19
464.316	80.19
464.536	96.19
464.755	85.19
464.975	108.19
465.195	154.19
465.414	166.19
465.634	88.19
465.854	97.19
466.073	73.19
466.293	84.19
466.512	79.19
466.732	87.19
466.951	79.19
467.171	92.19
467.391	83.19
467.61	88.19
467.829	110.19
468.049	111.19
468.268	125.19
468.488	94.19
468.707	92.19
468.927	79.19
469.146	73.19
469.365	87.19
469.585	86.19
469.804	99.19
470.023	89.19
470.243	78.19
470.462	94.19
470.681	95.19
470.901	87.19
471.12	72.19
471.339	71.19
471.558	78.19
471.777	83.19
471.997	100.19
472.216	160.19
472.435	238.19
472.654	127.19
472.873	88.19
473.092	72.19
473.311	86.19
473.53	82.19
473.749	86.19
473.968	93.19
474.187	103.19
474.406	92.19
474.625	80.19
474.844	84.19
475.063	82.19
475.282	90.19
475.501	94.19
475.72	104.19
475.939	86.19
476.158	75.19
476.377	80.19
476.596	86.19
476.814	83.19
477.033	92.19
477.252	87.19
477.471	96.19
477.69	94.19
477.908	77.19
478.127	78.19
478.346	81.19
478.564	83.19
478.783	114.19
479.002	84.19
479.22	89.19
479.439	87.19
479.658	118.19
479.876	79.19
480.095	86.19
480.313	72.19
480.532	104.19
480.751	107.19
480.969	148.19
481.188	394.19
481.406	251.19
481.624	104.19
481.843	84.19
482.061	97.19
482.28	96.19
482.498	78.19
482.717	85.19
482.935	82.19
483.153	78.19
483.372	71.19
483.59	90.19
483.808	81.19
484.027	86.19
484.245	99.19
484.463	79.19
484.681	96.19
484.9	91.19
485.118	84.19
485.336	91.19
485.554	87.19
485.772	81.19
485.99	88.19
486.209	93.19
486.427	95.19
486.645	103.19
486.863	115.19
487.081	95.19
487.299	88.19
487.517	84.19
487.735	92.19
487.953	87.19
488.171	81.19
488.389	99.19
488.607	102.19
488.825	100.19
489.043	95.19
489.261	97.19
489.479	96.19
489.696	91.19
489.914	88.19
490.132	89.19
490.35	96.19
490.568	90.19
490.786	87.19
491.003	102.19
491.221	96.19
491.439	77.19
491.657	93.19
491.874	72.19
492.092	80.19
492.31	80.19
492.527	84.19
492.745	91.19
492.963	73.19
493.18	81.19
493.398	91.19
493.615	96.19
493.833	94.19
494.05	79.19
494.268	84.19
494.485	98.19
494.703	99.19
494.92	96.19
495.138	87.19
495.355	89.19
495.573	92.19
495.79	75.19
496.008	70.19
496.225	72.19
496.442	68.19
496.66	94.19
496.877	96.19
497.094	89.19
497.312	87.19
497.529	94.19
497.746	88.19
497.963	94.19
498.181	86.19
498.398	104.19
498.615	102.19
498.832	105.19
499.049	93.19
499.267	88.19
499.484	81.19
499.701	85.19
499.918	93.19
500.135	92.19
500.352	100.19
500.569	89.19
500.786	93.19
501.003	85.19
501.22	76.19
501.437	77.19
501.654	81.19
501.871	121.19
502.088	100.19
502.305	79.19
502.522	86.19
502.739	97.19
502.956	96.19
503.172	87.19
503.389	85.19
503.606	110.19
503.823	86.19
504.04	91.19
504.256	82.19
504.473	103.19
504.69	77.19
504.907	89.19
505.123	96.19
505.34	83.19
505.557	74.19
505.773	81.19
505.99	75.19
506.207	87.19
506.423	88.19
506.64	97.19
506.856	96.19
507.073	84.19
507.289	84.19
507.506	96.19
507.722	125.19
507.939	119.19
508.155	84.19
508.372	86.19
508.588	81.19
508.805	80.19
509.021	84.19
509.238	104.19
509.454	103.19
509.67	96.19
509.887	123.19
510.103	141.19
510.319	222.19
510.536	858.19
510.752	2870.19
510.968	798.19
511.184	169.19
511.401	115.19
511.617	95.19
511.833	97.19
512.049	82.19
512.265	97.19
512.481	84.19
512.698	80.19
512.914	97.19
513.13	95.19
513.346	85.19
513.562	101.19
513.778	100.19
513.994	96.19
514.21	101.19
514.426	120.19
514.642	131.19
514.858	130.19
515.074	174.19
515.29	525.19
515.506	1781.19
515.721	655.19
515.937	178.19
516.153	117.19
516.369	105.19
516.585	73.19
516.801	93.19
