Data from Circ_2022_H10_HRD10591_00098.txt Node
Date: Wed Jan 03 09:53:57 EST 2024
User: Yrep
Spectrometer: HR+D1059
Trigger mode: 1
Integration Time (sec): 1.000000E-1
Scans to average: 1
Electric dark correction enabled: true
Nonlinearity correction enabled: false
Boxcar width: 0
XAxis mode: Wavelengths
Number of Pixels in Spectrum: 2048
>>>>>Begin Spectral Data<<<<<
223.165	-7.19
223.4	-7.19
223.635	-7.19
223.869	-15.19
224.104	-23.19
224.338	-9.19
224.573	-20.19
224.808	-25.19
225.042	-20.19
225.277	-15.19
225.511	-3.19
225.746	17.81
225.98	24.81
226.215	3.81
226.449	17.81
226.683	8.81
226.918	29.81
227.152	35.81
227.387	34.81
227.621	43.81
227.856	43.81
228.09	43.81
228.324	51.81
228.559	48.81
228.793	57.81
229.027	65.81
229.262	80.81
229.496	83.81
229.73	97.81
229.964	90.81
230.199	78.81
230.433	69.81
230.667	81.81
230.901	69.81
231.136	92.81
231.37	85.81
231.604	61.81
231.838	74.81
232.072	85.81
232.306	84.81
232.541	81.81
232.775	81.81
233.009	93.81
233.243	78.81
233.477	88.81
233.711	74.81
233.945	86.81
234.179	82.81
234.413	76.81
234.647	83.81
234.881	68.81
235.115	81.81
235.349	75.81
235.583	92.81
235.817	89.81
236.051	88.81
236.285	82.81
236.519	81.81
236.753	84.81
236.987	72.81
237.221	92.81
237.455	97.81
237.689	85.81
237.922	75.81
238.156	87.81
238.39	72.81
238.624	94.81
238.858	70.81
239.091	73.81
239.325	81.81
239.559	84.81
239.793	84.81
240.027	85.81
240.26	85.81
240.494	73.81
240.728	87.81
240.961	80.81
241.195	87.81
241.429	78.81
241.662	78.81
241.896	73.81
242.13	72.81
242.363	75.81
242.597	89.81
242.83	81.81
243.064	86.81
243.298	78.81
243.531	81.81
243.765	68.81
243.998	72.81
244.232	84.81
244.465	93.81
244.699	88.81
244.932	88.81
245.166	78.81
245.399	77.81
245.633	83.81
245.866	62.81
246.099	87.81
246.333	82.81
246.566	70.81
246.8	71.81
247.033	81.81
247.266	78.81
247.5	83.81
247.733	84.81
247.966	70.81
248.2	74.81
248.433	79.81
248.666	83.81
248.899	81.81
249.133	104.81
249.366	108.81
249.599	93.81
249.832	86.81
250.066	83.81
250.299	91.81
250.532	78.81
250.765	90.81
250.998	83.81
251.231	96.81
251.465	93.81
251.698	96.81
251.931	79.81
252.164	81.81
252.397	56.81
252.63	99.81
252.863	78.81
253.096	78.81
253.329	82.81
253.562	92.81
253.795	75.81
254.028	89.81
254.261	79.81
254.494	75.81
254.727	66.81
254.96	93.81
255.193	66.81
255.426	83.81
255.659	86.81
255.892	88.81
256.124	85.81
256.357	84.81
256.59	81.81
256.823	75.81
257.056	75.81
257.289	77.81
257.521	78.81
257.754	82.81
257.987	70.81
258.22	93.81
258.452	91.81
258.685	74.81
258.918	87.81
259.151	84.81
259.383	85.81
259.616	89.81
259.849	78.81
260.081	77.81
260.314	83.81
260.547	81.81
260.779	88.81
261.012	91.81
261.244	94.81
261.477	94.81
261.71	103.81
261.942	148.81
262.175	136.81
262.407	103.81
262.64	85.81
262.872	98.81
263.105	77.81
263.337	86.81
263.57	70.81
263.802	91.81
264.035	96.81
264.267	81.81
264.499	83.81
264.732	64.81
264.964	97.81
265.197	93.81
265.429	101.81
265.661	67.81
265.894	79.81
266.126	65.81
266.358	76.81
266.591	86.81
266.823	86.81
267.055	87.81
267.287	86.81
267.52	91.81
267.752	85.81
267.984	101.81
268.216	83.81
268.448	106.81
268.681	92.81
268.913	101.81
269.145	85.81
269.377	86.81
269.609	81.81
269.841	85.81
270.073	81.81
270.306	79.81
270.538	90.81
270.77	93.81
271.002	87.81
271.234	100.81
271.466	90.81
271.698	80.81
271.93	92.81
272.162	86.81
272.394	102.81
272.626	92.81
272.858	95.81
273.09	84.81
273.322	78.81
273.553	77.81
273.785	90.81
274.017	84.81
274.249	86.81
274.481	92.81
274.713	82.81
274.945	91.81
275.176	97.81
275.408	108.81
275.64	84.81
275.872	97.81
276.104	96.81
276.335	88.81
276.567	128.81
276.799	139.81
277.031	136.81
277.262	115.81
277.494	109.81
277.726	88.81
277.957	88.81
278.189	98.81
278.421	92.81
278.652	80.81
278.884	76.81
279.115	83.81
279.347	103.81
279.579	86.81
279.81	92.81
280.042	119.81
280.273	135.81
280.505	110.81
280.736	100.81
280.968	87.81
281.199	91.81
281.431	101.81
281.662	85.81
281.894	88.81
282.125	127.81
282.356	142.81
282.588	189.81
282.819	147.81
283.051	98.81
283.282	91.81
283.513	90.81
283.745	73.81
283.976	97.81
284.207	93.81
284.439	84.81
284.67	88.81
284.901	81.81
285.132	76.81
285.364	93.81
285.595	93.81
285.826	88.81
286.057	103.81
286.288	103.81
286.52	82.81
286.751	98.81
286.982	87.81
287.213	84.81
287.444	106.81
287.675	82.81
287.906	92.81
288.138	99.81
288.369	93.81
288.6	102.81
288.831	94.81
289.062	97.81
289.293	89.81
289.524	81.81
289.755	99.81
289.986	99.81
290.217	84.81
290.448	84.81
290.679	100.81
290.91	92.81
291.141	91.81
291.371	86.81
291.602	83.81
291.833	72.81
292.064	74.81
292.295	90.81
292.526	90.81
292.757	105.81
292.987	93.81
293.218	91.81
293.449	86.81
293.68	99.81
293.91	88.81
294.141	100.81
294.372	92.81
294.603	90.81
294.833	83.81
295.064	89.81
295.295	88.81
295.525	99.81
295.756	113.81
295.987	135.81
296.217	186.81
296.448	150.81
296.679	117.81
296.909	88.81
297.14	89.81
297.37	83.81
297.601	93.81
297.831	94.81
298.062	94.81
298.292	99.81
298.523	88.81
298.753	88.81
298.984	93.81
299.214	103.81
299.445	88.81
299.675	105.81
299.905	103.81
300.136	88.81
300.366	90.81
300.597	81.81
300.827	104.81
301.057	102.81
301.288	119.81
301.518	96.81
301.748	89.81
301.979	98.81
302.209	97.81
302.439	101.81
302.669	85.81
302.9	91.81
303.13	100.81
303.36	98.81
303.59	117.81
303.82	108.81
304.051	99.81
304.281	91.81
304.511	105.81
304.741	85.81
304.971	75.81
305.201	97.81
305.431	94.81
305.661	95.81
305.891	113.81
306.121	124.81
306.352	110.81
306.582	119.81
306.812	98.81
307.042	99.81
307.272	112.81
307.502	114.81
307.731	126.81
307.961	90.81
308.191	90.81
308.421	99.81
308.651	99.81
308.881	91.81
309.111	79.81
309.341	96.81
309.571	111.81
309.8	115.81
310.03	105.81
310.26	105.81
310.49	117.81
310.72	138.81
310.949	125.81
311.179	113.81
311.409	98.81
311.639	98.81
311.868	101.81
312.098	118.81
312.328	96.81
312.557	120.81
312.787	123.81
313.017	115.81
313.246	103.81
313.476	95.81
313.706	91.81
313.935	99.81
314.165	104.81
314.394	115.81
314.624	113.81
314.853	99.81
315.083	89.81
315.312	86.81
315.542	78.81
315.771	84.81
316.001	105.81
316.23	82.81
316.46	90.81
316.689	100.81
316.919	107.81
317.148	93.81
317.377	99.81
317.607	109.81
317.836	99.81
318.065	97.81
318.295	86.81
318.524	102.81
318.753	98.81
318.983	96.81
319.212	104.81
319.441	121.81
319.67	124.81
319.9	101.81
320.129	93.81
320.358	112.81
320.587	86.81
320.816	112.81
321.046	94.81
321.275	101.81
321.504	109.81
321.733	114.81
321.962	115.81
322.191	96.81
322.42	118.81
322.649	129.81
322.878	120.81
323.108	155.81
323.337	157.81
323.566	168.81
323.795	189.81
324.024	281.81
324.253	566.81
324.482	1228.81
324.71	2514.81
324.939	3303.81
325.168	1236.81
325.397	342.81
325.626	192.81
325.855	162.81
326.084	163.81
326.313	160.81
326.542	194.81
326.77	301.81
326.999	595.81
327.228	1289.81
327.457	2389.81
327.686	1924.81
327.914	540.81
328.143	334.81
328.372	305.81
328.6	206.81
328.829	159.81
329.058	171.81
329.287	172.81
329.515	146.81
329.744	153.81
329.972	208.81
330.201	334.81
330.43	424.81
330.658	261.81
330.887	229.81
331.115	168.81
331.344	107.81
331.572	120.81
331.801	123.81
332.03	128.81
332.258	110.81
332.486	106.81
332.715	102.81
332.943	130.81
333.172	111.81
333.4	116.81
333.629	142.81
333.857	158.81
334.085	208.81
334.314	320.81
334.542	532.81
334.771	485.81
334.999	202.81
335.227	122.81
335.455	84.81
335.684	105.81
335.912	99.81
336.14	112.81
336.369	99.81
336.597	128.81
336.825	102.81
337.053	107.81
337.281	102.81
337.51	99.81
337.738	102.81
337.966	97.81
338.194	112.81
338.422	108.81
338.65	96.81
338.878	104.81
339.106	91.81
339.334	88.81
339.562	91.81
339.79	94.81
340.018	104.81
340.246	84.81
340.474	107.81
340.702	106.81
340.93	89.81
341.158	96.81
341.386	114.81
341.614	124.81
341.842	104.81
342.07	107.81
342.298	94.81
342.526	104.81
342.754	103.81
342.981	97.81
343.209	100.81
343.437	102.81
343.665	93.81
343.893	100.81
344.12	78.81
344.348	93.81
344.576	90.81
344.804	91.81
345.031	99.81
345.259	100.81
345.487	103.81
345.714	100.81
345.942	98.81
346.17	95.81
346.397	95.81
346.625	83.81
346.853	86.81
347.08	95.81
347.308	118.81
347.535	101.81
347.763	104.81
347.99	103.81
348.218	106.81
348.445	121.81
348.673	130.81
348.9	105.81
349.128	91.81
349.355	100.81
349.583	100.81
349.81	93.81
350.037	104.81
350.265	107.81
350.492	85.81
350.72	109.81
350.947	101.81
351.174	120.81
351.402	138.81
351.629	115.81
351.856	97.81
352.083	115.81
352.311	120.81
352.538	126.81
352.765	110.81
352.992	119.81
353.22	131.81
353.447	116.81
353.674	97.81
353.901	85.81
354.128	99.81
354.355	98.81
354.583	106.81
354.81	102.81
355.037	89.81
355.264	93.81
355.491	91.81
355.718	96.81
355.945	98.81
356.172	97.81
356.399	90.81
356.626	101.81
356.853	98.81
357.08	95.81
357.307	105.81
357.534	108.81
357.761	78.81
357.988	88.81
358.215	99.81
358.441	95.81
358.668	84.81
358.895	101.81
359.122	90.81
359.349	74.81
359.576	104.81
359.802	117.81
360.029	135.81
360.256	136.81
360.483	120.81
360.709	99.81
360.936	98.81
361.163	98.81
361.39	106.81
361.616	102.81
361.843	106.81
362.07	107.81
362.296	96.81
362.523	117.81
362.749	115.81
362.976	98.81
363.203	84.81
363.429	91.81
363.656	92.81
363.882	87.81
364.109	97.81
364.335	99.81
364.562	78.81
364.788	91.81
365.015	103.81
365.241	112.81
365.468	129.81
365.694	128.81
365.92	111.81
366.147	106.81
366.373	104.81
366.599	86.81
366.826	109.81
367.052	96.81
367.278	94.81
367.505	105.81
367.731	93.81
367.957	98.81
368.184	103.81
368.41	125.81
368.636	131.81
368.862	153.81
369.089	126.81
369.315	115.81
369.541	92.81
369.767	90.81
369.993	98.81
370.219	103.81
370.445	97.81
370.672	93.81
370.898	92.81
371.124	92.81
371.35	87.81
371.576	88.81
371.802	97.81
372.028	97.81
372.254	103.81
372.48	94.81
372.706	88.81
372.932	90.81
373.158	81.81
373.384	100.81
373.61	88.81
373.835	97.81
374.061	85.81
374.287	92.81
374.513	102.81
374.739	99.81
374.965	98.81
375.191	78.81
375.416	94.81
375.642	94.81
375.868	97.81
376.094	81.81
376.319	91.81
376.545	96.81
376.771	87.81
376.997	94.81
377.222	104.81
377.448	91.81
377.674	101.81
377.899	86.81
378.125	113.81
378.35	102.81
378.576	96.81
378.802	78.81
379.027	101.81
379.253	96.81
379.478	97.81
379.704	97.81
379.929	90.81
380.155	93.81
380.38	91.81
380.606	102.81
380.831	100.81
381.057	106.81
381.282	97.81
381.507	100.81
381.733	96.81
381.958	103.81
382.184	89.81
382.409	92.81
382.634	110.81
382.86	93.81
383.085	98.81
383.31	93.81
383.535	102.81
383.761	95.81
383.986	107.81
384.211	92.81
384.436	93.81
384.662	103.81
384.887	98.81
385.112	103.81
385.337	119.81
385.562	106.81
385.787	99.81
386.013	102.81
386.238	111.81
386.463	108.81
386.688	106.81
386.913	99.81
387.138	104.81
387.363	113.81
387.588	105.81
387.813	101.81
388.038	116.81
388.263	96.81
388.488	105.81
388.713	104.81
388.938	101.81
389.163	92.81
389.387	84.81
389.612	92.81
389.837	89.81
390.062	100.81
390.287	89.81
390.512	88.81
390.736	97.81
390.961	85.81
391.186	88.81
391.411	93.81
391.636	111.81
391.86	83.81
392.085	88.81
392.31	82.81
392.534	98.81
392.759	82.81
392.984	66.81
393.208	102.81
393.433	89.81
393.658	99.81
393.882	95.81
394.107	80.81
394.331	86.81
394.556	82.81
394.78	81.81
395.005	80.81
395.229	89.81
395.454	90.81
395.678	91.81
395.903	94.81
396.127	104.81
396.352	107.81
396.576	86.81
396.801	87.81
397.025	94.81
397.249	88.81
397.474	91.81
397.698	100.81
397.922	108.81
398.147	103.81
398.371	98.81
398.595	87.81
398.82	91.81
399.044	93.81
399.268	89.81
399.492	89.81
399.717	92.81
399.941	96.81
400.165	91.81
400.389	101.81
400.613	93.81
400.837	97.81
401.062	81.81
401.286	90.81
401.51	106.81
401.734	99.81
401.958	119.81
402.182	145.81
402.406	219.81
402.63	148.81
402.854	96.81
403.078	91.81
403.302	97.81
403.526	96.81
403.75	89.81
403.974	88.81
404.198	97.81
404.422	92.81
404.645	68.81
404.869	95.81
405.093	98.81
405.317	103.81
405.541	115.81
405.765	116.81
405.988	133.81
406.212	241.81
406.436	337.81
406.66	216.81
406.883	120.81
407.107	99.81
407.331	120.81
407.555	114.81
407.778	114.81
408.002	96.81
408.226	93.81
408.449	76.81
408.673	95.81
408.896	104.81
409.12	105.81
409.344	90.81
409.567	81.81
409.791	103.81
410.014	102.81
410.238	100.81
410.461	81.81
410.685	107.81
410.908	109.81
411.132	117.81
411.355	93.81
411.578	95.81
411.802	89.81
412.025	70.81
412.249	96.81
412.472	104.81
412.695	122.81
412.919	106.81
413.142	90.81
413.365	96.81
413.589	97.81
413.812	85.81
414.035	94.81
414.258	91.81
414.482	84.81
414.705	95.81
414.928	100.81
415.151	83.81
415.374	90.81
415.597	99.81
415.821	91.81
416.044	84.81
416.267	71.81
416.49	84.81
416.713	80.81
416.936	100.81
417.159	100.81
417.382	88.81
417.605	92.81
417.828	116.81
418.051	92.81
418.274	84.81
418.497	93.81
418.72	87.81
418.943	98.81
419.166	96.81
419.389	88.81
419.611	95.81
419.834	104.81
420.057	95.81
420.28	86.81
420.503	81.81
420.726	84.81
420.948	94.81
421.171	94.81
421.394	101.81
421.617	74.81
421.839	78.81
422.062	77.81
422.285	94.81
422.507	120.81
422.73	113.81
422.953	94.81
423.175	96.81
423.398	80.81
423.621	98.81
423.843	74.81
424.066	71.81
424.288	94.81
424.511	105.81
424.733	103.81
424.956	126.81
425.178	117.81
425.401	127.81
425.623	105.81
425.846	88.81
426.068	106.81
426.291	104.81
426.513	97.81
426.735	94.81
426.958	90.81
427.18	106.81
427.402	180.81
427.625	249.81
427.847	200.81
428.069	167.81
428.292	105.81
428.514	100.81
428.736	101.81
428.958	95.81
429.181	97.81
429.403	91.81
429.625	92.81
429.847	99.81
430.069	115.81
430.292	109.81
430.514	99.81
430.736	98.81
430.958	93.81
431.18	78.81
431.402	84.81
431.624	91.81
431.846	91.81
432.068	91.81
432.29	86.81
432.512	90.81
432.734	79.81
432.956	99.81
433.178	99.81
433.4	115.81
433.622	104.81
433.844	98.81
434.066	91.81
434.287	101.81
434.509	91.81
434.731	91.81
434.953	100.81
435.175	83.81
435.397	91.81
435.618	96.81
435.84	103.81
436.062	137.81
436.284	148.81
436.505	114.81
436.727	106.81
436.949	91.81
437.17	99.81
437.392	92.81
437.614	95.81
437.835	113.81
438.057	159.81
438.278	142.81
438.5	108.81
438.721	142.81
438.943	114.81
439.165	101.81
439.386	96.81
439.608	101.81
439.829	125.81
440.05	152.81
440.272	183.81
440.493	112.81
440.715	88.81
440.936	94.81
441.158	93.81
441.379	86.81
441.6	88.81
441.822	115.81
442.043	106.81
442.264	130.81
442.486	110.81
442.707	106.81
442.928	135.81
443.149	171.81
443.371	158.81
443.592	131.81
443.813	132.81
444.034	117.81
444.255	104.81
444.476	104.81
444.698	91.81
444.919	82.81
445.14	125.81
445.361	132.81
445.582	146.81
445.803	190.81
446.024	196.81
446.245	172.81
446.466	120.81
446.687	93.81
446.908	89.81
447.129	94.81
447.35	102.81
447.571	101.81
447.792	104.81
448.013	97.81
448.234	124.81
448.455	112.81
448.675	128.81
448.896	141.81
449.117	117.81
449.338	129.81
449.559	140.81
449.779	164.81
450	102.81
450.221	96.81
450.442	102.81
450.662	100.81
450.883	123.81
451.104	140.81
451.324	111.81
451.545	90.81
451.766	92.81
451.986	84.81
452.207	82.81
452.428	112.81
452.648	104.81
452.869	126.81
453.089	142.81
453.31	145.81
453.53	107.81
453.751	101.81
453.971	118.81
454.192	147.81
454.412	95.81
454.633	93.81
454.853	89.81
455.073	93.81
455.294	102.81
455.514	102.81
455.734	86.81
455.955	94.81
456.175	92.81
456.395	78.81
456.616	83.81
456.836	103.81
457.056	83.81
457.276	106.81
457.497	86.81
457.717	95.81
457.937	94.81
458.157	96.81
458.377	88.81
458.598	143.81
458.818	216.81
459.038	247.81
459.258	153.81
459.478	89.81
459.698	85.81
459.918	100.81
460.138	91.81
460.358	75.81
460.578	100.81
460.798	104.81
461.018	98.81
461.238	89.81
461.458	71.81
461.678	73.81
461.898	85.81
462.118	88.81
462.338	94.81
462.558	90.81
462.777	84.81
462.997	102.81
463.217	82.81
463.437	88.81
463.657	84.81
463.876	88.81
464.096	98.81
464.316	101.81
464.536	128.81
464.755	109.81
464.975	116.81
465.195	238.81
465.414	252.81
465.634	104.81
465.854	76.81
466.073	86.81
466.293	95.81
466.512	86.81
466.732	77.81
466.951	86.81
467.171	86.81
467.391	106.81
467.61	137.81
467.829	135.81
468.049	195.81
468.268	265.81
468.488	122.81
468.707	94.81
468.927	88.81
469.146	93.81
469.365	103.81
469.585	96.81
469.804	104.81
470.023	114.81
470.243	104.81
470.462	127.81
470.681	124.81
470.901	108.81
471.12	93.81
471.339	106.81
471.558	91.81
471.777	120.81
471.997	137.81
472.216	347.81
472.435	676.81
472.654	203.81
472.873	92.81
473.092	103.81
473.311	88.81
473.53	91.81
473.749	96.81
473.968	103.81
474.187	106.81
474.406	107.81
474.625	99.81
474.844	92.81
475.063	87.81
475.282	100.81
475.501	86.81
475.72	90.81
475.939	85.81
476.158	78.81
476.377	89.81
476.596	90.81
476.814	75.81
477.033	103.81
477.252	97.81
477.471	96.81
477.69	96.81
477.908	89.81
478.127	96.81
478.346	100.81
478.564	109.81
478.783	96.81
479.002	112.81
479.22	97.81
479.439	115.81
479.658	131.81
479.876	121.81
480.095	93.81
480.313	112.81
480.532	112.81
480.751	140.81
480.969	319.81
481.188	1110.81
481.406	718.81
481.624	165.81
481.843	116.81
482.061	80.81
482.28	74.81
482.498	91.81
482.717	105.81
482.935	88.81
483.153	84.81
483.372	90.81
483.59	88.81
483.808	80.81
484.027	98.81
484.245	96.81
484.463	102.81
484.681	103.81
484.9	96.81
485.118	93.81
485.336	90.81
485.554	92.81
485.772	103.81
485.99	108.81
486.209	113.81
486.427	110.81
486.645	116.81
486.863	105.81
487.081	105.81
487.299	90.81
487.517	89.81
487.735	93.81
487.953	93.81
488.171	92.81
488.389	92.81
488.607	98.81
488.825	114.81
489.043	100.81
489.261	95.81
489.479	81.81
489.696	85.81
489.914	98.81
490.132	93.81
490.35	77.81
490.568	83.81
490.786	102.81
491.003	88.81
491.221	98.81
491.439	80.81
491.657	88.81
491.874	92.81
492.092	101.81
492.31	102.81
492.527	86.81
492.745	78.81
492.963	82.81
493.18	81.81
493.398	101.81
493.615	102.81
493.833	100.81
494.05	94.81
494.268	80.81
494.485	81.81
494.703	93.81
494.92	93.81
495.138	103.81
495.355	77.81
495.573	95.81
495.79	108.81
496.008	102.81
496.225	84.81
496.442	84.81
496.66	89.81
496.877	87.81
497.094	99.81
497.312	112.81
497.529	97.81
497.746	90.81
497.963	103.81
498.181	93.81
498.398	109.81
498.615	121.81
498.832	136.81
499.049	105.81
499.267	93.81
499.484	99.81
499.701	118.81
499.918	92.81
500.135	101.81
500.352	93.81
500.569	90.81
500.786	94.81
501.003	89.81
501.22	82.81
501.437	82.81
501.654	112.81
501.871	121.81
502.088	88.81
502.305	103.81
502.522	94.81
502.739	100.81
502.956	89.81
503.172	103.81
503.389	110.81
503.606	124.81
503.823	100.81
504.04	81.81
504.256	106.81
504.473	89.81
504.69	92.81
504.907	92.81
505.123	83.81
505.34	89.81
505.557	102.81
505.773	102.81
505.99	92.81
506.207	88.81
506.423	99.81
506.64	93.81
506.856	92.81
507.073	101.81
507.289	99.81
507.506	99.81
507.722	141.81
507.939	134.81
508.155	103.81
508.372	96.81
508.588	92.81
508.805	99.81
509.021	106.81
509.238	112.81
509.454	102.81
509.67	98.81
509.887	117.81
510.103	150.81
510.319	266.81
510.536	1101.81
510.752	3876.81
510.968	1036.81
511.184	202.81
511.401	134.81
511.617	121.81
511.833	112.81
512.049	105.81
512.265	102.81
512.481	101.81
512.698	109.81
