Data from Circ_2022_H10_HRD10591_00043.txt Node
Date: Wed Jan 03 09:53:46 EST 2024
User: Yrep
Spectrometer: HR+D1059
Trigger mode: 1
Integration Time (sec): 1.000000E-1
Scans to average: 1
Electric dark correction enabled: true
Nonlinearity correction enabled: false
Boxcar width: 0
XAxis mode: Wavelengths
Number of Pixels in Spectrum: 2048
>>>>>Begin Spectral Data<<<<<
223.165	-21.94
223.4	-21.94
223.635	-21.94
223.869	-18.94
224.104	-12.94
224.338	-10.94
224.573	-9.94
224.808	-19.94
225.042	-0.94
225.277	-9.94
225.511	1.06
225.746	2.06
225.98	1.06
226.215	4.06
226.449	12.06
226.683	23.06
226.918	26.06
227.152	36.06
227.387	30.06
227.621	49.06
227.856	51.06
228.09	38.06
228.324	45.06
228.559	59.06
228.793	64.06
229.027	70.06
229.262	66.06
229.496	77.06
229.73	77.06
229.964	83.06
230.199	63.06
230.433	81.06
230.667	74.06
230.901	88.06
231.136	73.06
231.37	69.06
231.604	73.06
231.838	78.06
232.072	76.06
232.306	96.06
232.541	74.06
232.775	88.06
233.009	100.06
233.243	75.06
233.477	72.06
233.711	74.06
233.945	80.06
234.179	84.06
234.413	84.06
234.647	90.06
234.881	79.06
235.115	82.06
235.349	76.06
235.583	78.06
235.817	73.06
236.051	85.06
236.285	75.06
236.519	97.06
236.753	80.06
236.987	74.06
237.221	73.06
237.455	85.06
237.689	79.06
237.922	80.06
238.156	63.06
238.39	70.06
238.624	62.06
238.858	85.06
239.091	77.06
239.325	92.06
239.559	87.06
239.793	77.06
240.027	94.06
240.26	80.06
240.494	93.06
240.728	67.06
240.961	72.06
241.195	72.06
241.429	80.06
241.662	85.06
241.896	72.06
242.13	85.06
242.363	77.06
242.597	84.06
242.83	76.06
243.064	71.06
243.298	74.06
243.531	75.06
243.765	68.06
243.998	85.06
244.232	84.06
244.465	81.06
244.699	91.06
244.932	74.06
245.166	65.06
245.399	77.06
245.633	69.06
245.866	79.06
246.099	84.06
246.333	88.06
246.566	84.06
246.8	74.06
247.033	85.06
247.266	81.06
247.5	71.06
247.733	83.06
247.966	78.06
248.2	82.06
248.433	83.06
248.666	94.06
248.899	78.06
249.133	93.06
249.366	89.06
249.599	101.06
249.832	86.06
250.066	86.06
250.299	95.06
250.532	86.06
250.765	79.06
250.998	84.06
251.231	82.06
251.465	82.06
251.698	78.06
251.931	86.06
252.164	80.06
252.397	58.06
252.63	94.06
252.863	79.06
253.096	86.06
253.329	81.06
253.562	80.06
253.795	68.06
254.028	82.06
254.261	86.06
254.494	74.06
254.727	84.06
254.96	85.06
255.193	79.06
255.426	80.06
255.659	72.06
255.892	95.06
256.124	84.06
256.357	93.06
256.59	72.06
256.823	79.06
257.056	76.06
257.289	78.06
257.521	74.06
257.754	85.06
257.987	93.06
258.22	80.06
258.452	95.06
258.685	85.06
258.918	70.06
259.151	75.06
259.383	87.06
259.616	67.06
259.849	85.06
260.081	84.06
260.314	76.06
260.547	66.06
260.779	83.06
261.012	86.06
261.244	102.06
261.477	83.06
261.71	94.06
261.942	111.06
262.175	104.06
262.407	93.06
262.64	87.06
262.872	83.06
263.105	66.06
263.337	81.06
263.57	87.06
263.802	72.06
264.035	79.06
264.267	92.06
264.499	81.06
264.732	87.06
264.964	75.06
265.197	91.06
265.429	93.06
265.661	76.06
265.894	88.06
266.126	95.06
266.358	91.06
266.591	78.06
266.823	81.06
267.055	94.06
267.287	80.06
267.52	91.06
267.752	73.06
267.984	86.06
268.216	78.06
268.448	86.06
268.681	96.06
268.913	86.06
269.145	85.06
269.377	83.06
269.609	89.06
269.841	83.06
270.073	82.06
270.306	101.06
270.538	98.06
270.77	103.06
271.002	91.06
271.234	67.06
271.466	90.06
271.698	82.06
271.93	105.06
272.162	87.06
272.394	74.06
272.626	89.06
272.858	89.06
273.09	84.06
273.322	88.06
273.553	88.06
273.785	77.06
274.017	96.06
274.249	82.06
274.481	90.06
274.713	92.06
274.945	79.06
275.176	88.06
275.408	89.06
275.64	86.06
275.872	100.06
276.104	99.06
276.335	119.06
276.567	94.06
276.799	111.06
277.031	103.06
277.262	82.06
277.494	71.06
277.726	73.06
277.957	83.06
278.189	91.06
278.421	89.06
278.652	82.06
278.884	78.06
279.115	95.06
279.347	75.06
279.579	80.06
279.81	84.06
280.042	85.06
280.273	91.06
280.505	92.06
280.736	98.06
280.968	89.06
281.199	87.06
281.431	83.06
281.662	80.06
281.894	96.06
282.125	104.06
282.356	139.06
282.588	140.06
282.819	125.06
283.051	103.06
283.282	98.06
283.513	98.06
283.745	103.06
283.976	83.06
284.207	89.06
284.439	87.06
284.67	91.06
284.901	71.06
285.132	87.06
285.364	77.06
285.595	100.06
285.826	81.06
286.057	93.06
286.288	76.06
286.52	68.06
286.751	86.06
286.982	95.06
287.213	70.06
287.444	85.06
287.675	93.06
287.906	98.06
288.138	91.06
288.369	102.06
288.6	99.06
288.831	83.06
289.062	92.06
289.293	94.06
289.524	94.06
289.755	84.06
289.986	97.06
290.217	92.06
290.448	95.06
290.679	74.06
290.91	76.06
291.141	83.06
291.371	85.06
291.602	89.06
291.833	86.06
292.064	94.06
292.295	91.06
292.526	92.06
292.757	72.06
292.987	89.06
293.218	87.06
293.449	93.06
293.68	91.06
293.91	96.06
294.141	88.06
294.372	87.06
294.603	96.06
294.833	97.06
295.064	101.06
295.295	98.06
295.525	67.06
295.756	101.06
295.987	131.06
296.217	152.06
296.448	140.06
296.679	82.06
296.909	91.06
297.14	99.06
297.37	85.06
297.601	75.06
297.831	73.06
298.062	90.06
298.292	80.06
298.523	101.06
298.753	97.06
298.984	88.06
299.214	88.06
299.445	90.06
299.675	88.06
299.905	98.06
300.136	101.06
300.366	85.06
300.597	91.06
300.827	87.06
301.057	101.06
301.288	98.06
301.518	92.06
301.748	85.06
301.979	111.06
302.209	95.06
302.439	86.06
302.669	90.06
302.9	93.06
303.13	90.06
303.36	105.06
303.59	115.06
303.82	111.06
304.051	113.06
304.281	109.06
304.511	113.06
304.741	94.06
304.971	79.06
305.201	84.06
305.431	98.06
305.661	88.06
305.891	91.06
306.121	97.06
306.352	105.06
306.582	99.06
306.812	91.06
307.042	83.06
307.272	79.06
307.502	105.06
307.731	81.06
307.961	88.06
308.191	84.06
308.421	89.06
308.651	96.06
308.881	93.06
309.111	88.06
309.341	103.06
309.571	110.06
309.8	98.06
310.03	104.06
310.26	103.06
310.49	106.06
310.72	93.06
310.949	109.06
311.179	103.06
311.409	88.06
311.639	99.06
311.868	122.06
312.098	95.06
312.328	88.06
312.557	93.06
312.787	111.06
313.017	86.06
313.246	90.06
313.476	93.06
313.706	97.06
313.935	103.06
314.165	108.06
314.394	100.06
314.624	94.06
314.853	100.06
315.083	90.06
315.312	104.06
315.542	91.06
315.771	98.06
316.001	85.06
316.23	92.06
316.46	84.06
316.689	90.06
316.919	80.06
317.148	96.06
317.377	98.06
317.607	96.06
317.836	101.06
318.065	87.06
318.295	79.06
318.524	83.06
318.753	101.06
318.983	103.06
319.212	99.06
319.441	126.06
319.67	120.06
319.9	95.06
320.129	90.06
320.358	84.06
320.587	104.06
320.816	113.06
321.046	106.06
321.275	91.06
321.504	96.06
321.733	107.06
321.962	92.06
322.191	97.06
322.42	105.06
322.649	103.06
322.878	96.06
323.108	113.06
323.337	127.06
323.566	140.06
323.795	137.06
324.024	210.06
324.253	396.06
324.482	867.06
324.71	1708.06
324.939	2243.06
325.168	854.06
325.397	248.06
325.626	143.06
325.855	127.06
326.084	140.06
326.313	115.06
326.542	151.06
326.77	233.06
326.999	453.06
327.228	908.06
327.457	1746.06
327.686	1396.06
327.914	401.06
328.143	205.06
328.372	159.06
328.6	130.06
328.829	127.06
329.058	131.06
329.287	130.06
329.515	106.06
329.744	103.06
329.972	97.06
330.201	134.06
330.43	145.06
330.658	135.06
330.887	161.06
331.115	132.06
331.344	112.06
331.572	107.06
331.801	108.06
332.03	113.06
332.258	123.06
332.486	92.06
332.715	104.06
332.943	97.06
333.172	89.06
333.4	91.06
333.629	102.06
333.857	115.06
334.085	114.06
334.314	137.06
334.542	165.06
334.771	155.06
334.999	104.06
335.227	95.06
335.455	89.06
335.684	105.06
335.912	114.06
336.14	99.06
336.369	106.06
336.597	104.06
336.825	95.06
337.053	88.06
337.281	101.06
337.51	87.06
337.738	98.06
337.966	95.06
338.194	92.06
338.422	101.06
338.65	89.06
338.878	101.06
339.106	91.06
339.334	88.06
339.562	92.06
339.79	97.06
340.018	87.06
340.246	91.06
340.474	88.06
340.702	103.06
340.93	96.06
341.158	106.06
341.386	113.06
341.614	100.06
341.842	64.06
342.07	88.06
342.298	89.06
342.526	86.06
342.754	93.06
342.981	91.06
343.209	88.06
343.437	106.06
343.665	91.06
343.893	98.06
344.12	106.06
344.348	96.06
344.576	89.06
344.804	97.06
345.031	97.06
345.259	90.06
345.487	86.06
345.714	104.06
345.942	103.06
346.17	88.06
346.397	87.06
346.625	100.06
346.853	91.06
347.08	92.06
347.308	98.06
347.535	97.06
347.763	89.06
347.99	95.06
348.218	91.06
348.445	123.06
348.673	101.06
348.9	88.06
349.128	95.06
349.355	96.06
349.583	92.06
349.81	113.06
350.037	101.06
350.265	92.06
350.492	98.06
350.72	112.06
350.947	102.06
351.174	111.06
351.402	125.06
351.629	110.06
351.856	95.06
352.083	105.06
352.311	115.06
352.538	113.06
352.765	115.06
352.992	115.06
353.22	101.06
353.447	105.06
353.674	89.06
353.901	101.06
354.128	98.06
354.355	94.06
354.583	105.06
354.81	112.06
355.037	112.06
355.264	96.06
355.491	89.06
355.718	77.06
355.945	92.06
356.172	89.06
356.399	104.06
356.626	88.06
356.853	94.06
357.08	95.06
357.307	100.06
357.534	96.06
357.761	90.06
357.988	88.06
358.215	99.06
358.441	89.06
358.668	95.06
358.895	85.06
359.122	88.06
359.349	77.06
359.576	105.06
359.802	96.06
360.029	110.06
360.256	133.06
360.483	100.06
360.709	80.06
360.936	91.06
361.163	92.06
361.39	84.06
361.616	95.06
361.843	88.06
362.07	98.06
362.296	105.06
362.523	94.06
362.749	98.06
362.976	81.06
363.203	88.06
363.429	94.06
363.656	103.06
363.882	103.06
364.109	100.06
364.335	91.06
364.562	92.06
364.788	87.06
365.015	100.06
365.241	89.06
365.468	101.06
365.694	115.06
365.92	109.06
366.147	102.06
366.373	83.06
366.599	79.06
366.826	78.06
367.052	105.06
367.278	82.06
367.505	84.06
367.731	85.06
367.957	101.06
368.184	94.06
368.41	100.06
368.636	105.06
368.862	132.06
369.089	112.06
369.315	103.06
369.541	93.06
369.767	79.06
369.993	83.06
370.219	107.06
370.445	85.06
370.672	87.06
370.898	90.06
371.124	81.06
371.35	93.06
371.576	105.06
371.802	89.06
372.028	79.06
372.254	105.06
372.48	77.06
372.706	94.06
372.932	91.06
373.158	99.06
373.384	94.06
373.61	91.06
373.835	75.06
374.061	86.06
374.287	91.06
374.513	85.06
374.739	91.06
374.965	88.06
375.191	86.06
375.416	87.06
375.642	102.06
375.868	88.06
376.094	82.06
376.319	87.06
376.545	89.06
376.771	85.06
376.997	99.06
377.222	84.06
377.448	93.06
377.674	92.06
377.899	83.06
378.125	82.06
378.35	96.06
378.576	92.06
378.802	85.06
379.027	95.06
379.253	101.06
379.478	90.06
379.704	80.06
379.929	89.06
380.155	96.06
380.38	91.06
380.606	93.06
380.831	92.06
381.057	105.06
381.282	116.06
381.507	100.06
381.733	86.06
381.958	97.06
382.184	98.06
382.409	92.06
382.634	107.06
382.86	86.06
383.085	108.06
383.31	113.06
383.535	99.06
383.761	97.06
383.986	99.06
384.211	109.06
384.436	107.06
384.662	94.06
384.887	95.06
385.112	95.06
385.337	87.06
385.562	109.06
385.787	103.06
386.013	100.06
386.238	115.06
386.463	100.06
386.688	131.06
386.913	97.06
387.138	107.06
387.363	107.06
387.588	101.06
387.813	100.06
388.038	102.06
388.263	123.06
388.488	100.06
388.713	90.06
388.938	108.06
389.163	96.06
389.387	92.06
389.612	109.06
389.837	99.06
390.062	99.06
390.287	89.06
390.512	89.06
390.736	74.06
390.961	96.06
391.186	95.06
391.411	92.06
391.636	100.06
391.86	94.06
392.085	89.06
392.31	95.06
392.534	88.06
392.759	84.06
392.984	89.06
393.208	86.06
393.433	83.06
393.658	91.06
393.882	100.06
394.107	84.06
394.331	83.06
394.556	80.06
394.78	86.06
395.005	93.06
395.229	78.06
395.454	79.06
395.678	87.06
395.903	84.06
396.127	84.06
396.352	96.06
396.576	80.06
396.801	96.06
397.025	94.06
397.249	86.06
397.474	82.06
397.698	89.06
397.922	78.06
398.147	75.06
398.371	91.06
398.595	91.06
398.82	89.06
399.044	103.06
399.268	86.06
399.492	98.06
399.717	74.06
399.941	97.06
400.165	97.06
400.389	87.06
400.613	107.06
400.837	98.06
401.062	92.06
401.286	95.06
401.51	87.06
401.734	89.06
401.958	108.06
402.182	144.06
402.406	176.06
402.63	140.06
402.854	107.06
403.078	87.06
403.302	95.06
403.526	82.06
403.75	106.06
403.974	97.06
404.198	93.06
404.422	91.06
404.645	87.06
404.869	87.06
405.093	92.06
405.317	85.06
405.541	111.06
405.765	100.06
405.988	122.06
406.212	183.06
406.436	259.06
406.66	155.06
406.883	115.06
407.107	83.06
407.331	96.06
407.555	98.06
407.778	87.06
408.002	99.06
408.226	90.06
408.449	93.06
408.673	72.06
408.896	88.06
409.12	97.06
409.344	89.06
409.567	83.06
409.791	91.06
410.014	88.06
410.238	112.06
410.461	108.06
410.685	92.06
410.908	91.06
411.132	105.06
411.355	95.06
411.578	91.06
411.802	84.06
412.025	92.06
412.249	98.06
412.472	111.06
412.695	97.06
412.919	88.06
413.142	85.06
413.365	85.06
413.589	88.06
413.812	87.06
414.035	97.06
414.258	98.06
414.482	76.06
414.705	92.06
414.928	84.06
415.151	106.06
415.374	86.06
415.597	91.06
415.821	81.06
416.044	87.06
416.267	101.06
416.49	82.06
416.713	78.06
416.936	83.06
417.159	78.06
417.382	87.06
417.605	91.06
417.828	102.06
418.051	83.06
418.274	83.06
418.497	99.06
418.72	98.06
418.943	82.06
419.166	103.06
419.389	92.06
419.611	87.06
419.834	85.06
420.057	92.06
420.28	91.06
420.503	91.06
420.726	78.06
420.948	91.06
421.171	83.06
421.394	100.06
421.617	91.06
421.839	83.06
422.062	83.06
422.285	87.06
422.507	98.06
422.73	104.06
422.953	84.06
423.175	85.06
423.398	73.06
423.621	95.06
423.843	86.06
424.066	90.06
424.288	91.06
424.511	88.06
424.733	106.06
424.956	103.06
425.178	103.06
425.401	104.06
425.623	99.06
425.846	88.06
426.068	97.06
426.291	87.06
426.513	107.06
426.735	89.06
426.958	97.06
427.18	114.06
427.402	133.06
427.625	164.06
427.847	134.06
428.069	136.06
428.292	101.06
428.514	93.06
428.736	76.06
428.958	90.06
429.181	96.06
429.403	80.06
429.625	94.06
429.847	72.06
430.069	86.06
430.292	96.06
430.514	80.06
430.736	77.06
430.958	87.06
431.18	90.06
431.402	98.06
431.624	82.06
431.846	89.06
432.068	75.06
432.29	77.06
432.512	80.06
432.734	88.06
432.956	97.06
433.178	97.06
433.4	86.06
433.622	90.06
433.844	87.06
434.066	75.06
434.287	83.06
434.509	100.06
434.731	72.06
434.953	96.06
435.175	94.06
435.397	87.06
435.618	98.06
435.84	98.06
436.062	112.06
436.284	100.06
436.505	103.06
436.727	110.06
436.949	95.06
437.17	85.06
437.392	85.06
437.614	96.06
437.835	111.06
438.057	133.06
438.278	111.06
438.5	105.06
438.721	120.06
438.943	112.06
439.165	86.06
439.386	98.06
439.608	105.06
439.829	97.06
440.05	128.06
440.272	152.06
440.493	91.06
440.715	92.06
440.936	109.06
441.158	105.06
441.379	84.06
441.6	82.06
441.822	95.06
442.043	75.06
442.264	92.06
442.486	98.06
442.707	105.06
442.928	95.06
443.149	142.06
443.371	136.06
443.592	122.06
443.813	117.06
444.034	100.06
444.255	82.06
444.476	88.06
444.698	93.06
444.919	85.06
445.14	126.06
445.361	131.06
445.582	107.06
445.803	137.06
446.024	129.06
446.245	122.06
446.466	99.06
446.687	91.06
446.908	88.06
447.129	100.06
447.35	87.06
447.571	89.06
447.792	86.06
448.013	88.06
448.234	107.06
448.455	100.06
448.675	112.06
448.896	117.06
449.117	97.06
449.338	97.06
449.559	120.06
449.779	135.06
450	94.06
450.221	84.06
450.442	96.06
450.662	100.06
450.883	112.06
451.104	102.06
451.324	99.06
451.545	105.06
451.766	92.06
451.986	89.06
452.207	95.06
452.428	82.06
452.648	99.06
452.869	122.06
453.089	117.06
453.31	106.06
453.53	87.06
453.751	93.06
453.971	97.06
454.192	97.06
454.412	99.06
454.633	107.06
454.853	85.06
455.073	87.06
455.294	96.06
455.514	105.06
455.734	98.06
455.955	89.06
456.175	81.06
456.395	90.06
456.616	88.06
456.836	75.06
457.056	79.06
457.276	76.06
457.497	78.06
457.717	89.06
457.937	84.06
458.157	91.06
458.377	90.06
458.598	114.06
458.818	159.06
459.038	175.06
459.258	113.06
459.478	93.06
459.698	99.06
459.918	88.06
460.138	85.06
460.358	79.06
460.578	90.06
460.798	87.06
461.018	87.06
461.238	94.06
461.458	84.06
461.678	76.06
461.898	86.06
462.118	99.06
462.338	88.06
462.558	75.06
462.777	84.06
462.997	80.06
463.217	76.06
463.437	88.06
463.657	88.06
463.876	91.06
464.096	101.06
464.316	83.06
464.536	82.06
464.755	108.06
464.975	105.06
465.195	189.06
465.414	183.06
465.634	109.06
465.854	94.06
466.073	69.06
466.293	94.06
466.512	76.06
466.732	89.06
466.951	83.06
467.171	104.06
467.391	94.06
467.61	96.06
467.829	113.06
468.049	116.06
468.268	87.06
468.488	74.06
468.707	71.06
468.927	105.06
469.146	95.06
469.365	90.06
469.585	90.06
469.804	85.06
470.023	79.06
470.243	86.06
470.462	105.06
470.681	116.06
470.901	93.06
471.12	96.06
471.339	76.06
471.558	89.06
471.777	101.06
471.997	91.06
472.216	118.06
472.435	171.06
472.654	98.06
472.873	83.06
473.092	93.06
473.311	83.06
473.53	88.06
473.749	81.06
473.968	81.06
474.187	99.06
474.406	92.06
474.625	89.06
474.844	85.06
475.063	99.06
475.282	79.06
475.501	84.06
475.72	83.06
475.939	64.06
476.158	89.06
476.377	83.06
476.596	85.06
476.814	86.06
477.033	84.06
477.252	90.06
477.471	92.06
477.69	101.06
477.908	95.06
478.127	89.06
478.346	98.06
478.564	85.06
478.783	93.06
479.002	88.06
479.22	99.06
479.439	100.06
479.658	104.06
479.876	92.06
480.095	93.06
480.313	91.06
480.532	102.06
480.751	93.06
480.969	107.06
481.188	247.06
481.406	201.06
481.624	112.06
481.843	90.06
482.061	85.06
482.28	91.06
482.498	96.06
482.717	92.06
482.935	83.06
483.153	96.06
483.372	89.06
483.59	83.06
483.808	103.06
484.027	91.06
484.245	94.06
484.463	94.06
484.681	109.06
484.9	84.06
485.118	74.06
485.336	80.06
485.554	87.06
485.772	97.06
485.99	90.06
486.209	98.06
486.427	87.06
486.645	107.06
486.863	108.06
487.081	93.06
487.299	96.06
487.517	101.06
487.735	88.06
487.953	94.06
488.171	83.06
488.389	87.06
488.607	93.06
488.825	102.06
489.043	97.06
489.261	95.06
489.479	91.06
489.696	71.06
489.914	76.06
490.132	90.06
490.35	90.06
490.568	87.06
490.786	80.06
491.003	71.06
491.221	94.06
491.439	84.06
491.657	88.06
491.874	93.06
492.092	87.06
492.31	96.06
492.527	88.06
492.745	94.06
492.963	93.06
493.18	93.06
493.398	85.06
493.615	92.06
493.833	99.06
494.05	77.06
494.268	80.06
494.485	98.06
494.703	84.06
494.92	92.06
495.138	97.06
495.355	103.06
495.573	92.06
495.79	87.06
496.008	85.06
496.225	97.06
496.442	105.06
496.66	93.06
496.877	101.06
497.094	98.06
497.312	112.06
497.529	90.06
497.746	87.06
497.963	88.06
498.181	88.06
498.398	107.06
498.615	115.06
498.832	115.06
499.049	83.06
499.267	99.06
499.484	98.06
499.701	85.06
499.918	81.06
500.135	98.06
500.352	87.06
500.569	86.06
500.786	97.06
501.003	90.06
501.22	92.06
501.437	98.06
501.654	103.06
501.871	111.06
502.088	95.06
502.305	94.06
502.522	99.06
502.739	95.06
502.956	86.06
503.172	75.06
503.389	103.06
503.606	87.06
503.823	90.06
504.04	100.06
504.256	83.06
504.473	93.06
504.69	100.06
504.907	83.06
505.123	82.06
505.34	90.06
505.557	83.06
505.773	85.06
505.99	96.06
506.207	91.06
506.423	92.06
506.64	92.06
506.856	95.06
507.073	98.06
507.289	90.06
507.506	90.06
507.722	113.06
507.939	122.06
508.155	99.06
508.372	101.06
508.588	108.06
508.805	87.06
509.021	105.06
509.238	116.06
509.454	101.06
509.67	93.06
509.887	109.06
510.103	139.06
510.319	227.06
510.536	827.06
510.752	2825.06
510.968	804.06
511.184	162.06
511.401	125.06
511.617	95.06
511.833	102.06
512.049	98.06
512.265	105.06
512.481	101.06
512.698	90.06
512.914	83.06
513.13	95.06
513.346	100.06
513.562	101.06
513.778	105.06
513.994	96.06
514.21	114.06
514.426	129.06
514.642	143.06
514.858	121.06
515.074	177.06
