Data from Circ_2022_H10_HRD10591_00034.txt Node
Date: Wed Jan 03 09:53:44 EST 2024
User: Yrep
Spectrometer: HR+D1059
Trigger mode: 1
Integration Time (sec): 1.000000E-1
Scans to average: 1
Electric dark correction enabled: true
Nonlinearity correction enabled: false
Boxcar width: 0
XAxis mode: Wavelengths
Number of Pixels in Spectrum: 2048
>>>>>Begin Spectral Data<<<<<
223.165	-18.75
223.4	-18.75
223.635	-18.75
223.869	-24.75
224.104	-12.75
224.338	-22.75
224.573	-17.75
224.808	-6.75
225.042	-9.75
225.277	-5.75
225.511	1.25
225.746	-8.75
225.98	9.25
226.215	19.25
226.449	20.25
226.683	27.25
226.918	19.25
227.152	31.25
227.387	20.25
227.621	38.25
227.856	41.25
228.09	47.25
228.324	34.25
228.559	57.25
228.793	58.25
229.027	64.25
229.262	60.25
229.496	73.25
229.73	83.25
229.964	79.25
230.199	71.25
230.433	74.25
230.667	73.25
230.901	71.25
231.136	78.25
231.37	79.25
231.604	89.25
231.838	79.25
232.072	80.25
232.306	84.25
232.541	74.25
232.775	81.25
233.009	73.25
233.243	79.25
233.477	76.25
233.711	80.25
233.945	70.25
234.179	87.25
234.413	90.25
234.647	74.25
234.881	73.25
235.115	87.25
235.349	71.25
235.583	76.25
235.817	67.25
236.051	80.25
236.285	93.25
236.519	90.25
236.753	73.25
236.987	56.25
237.221	82.25
237.455	90.25
237.689	67.25
237.922	81.25
238.156	81.25
238.39	70.25
238.624	71.25
238.858	78.25
239.091	75.25
239.325	72.25
239.559	91.25
239.793	79.25
240.027	71.25
240.26	78.25
240.494	62.25
240.728	77.25
240.961	69.25
241.195	60.25
241.429	89.25
241.662	72.25
241.896	74.25
242.13	59.25
242.363	70.25
242.597	65.25
242.83	69.25
243.064	62.25
243.298	83.25
243.531	84.25
243.765	87.25
243.998	75.25
244.232	76.25
244.465	94.25
244.699	77.25
244.932	79.25
245.166	80.25
245.399	87.25
245.633	77.25
245.866	90.25
246.099	83.25
246.333	64.25
246.566	76.25
246.8	82.25
247.033	89.25
247.266	78.25
247.5	66.25
247.733	83.25
247.966	79.25
248.2	69.25
248.433	79.25
248.666	71.25
248.899	79.25
249.133	85.25
249.366	86.25
249.599	97.25
249.832	93.25
250.066	78.25
250.299	79.25
250.532	67.25
250.765	68.25
250.998	66.25
251.231	59.25
251.465	75.25
251.698	75.25
251.931	88.25
252.164	80.25
252.397	68.25
252.63	76.25
252.863	78.25
253.096	67.25
253.329	78.25
253.562	75.25
253.795	74.25
254.028	76.25
254.261	72.25
254.494	86.25
254.727	66.25
254.96	72.25
255.193	95.25
255.426	71.25
255.659	89.25
255.892	81.25
256.124	87.25
256.357	73.25
256.59	74.25
256.823	79.25
257.056	71.25
257.289	79.25
257.521	84.25
257.754	79.25
257.987	96.25
258.22	77.25
258.452	75.25
258.685	74.25
258.918	82.25
259.151	70.25
259.383	85.25
259.616	73.25
259.849	75.25
260.081	74.25
260.314	88.25
260.547	88.25
260.779	79.25
261.012	65.25
261.244	83.25
261.477	82.25
261.71	97.25
261.942	122.25
262.175	140.25
262.407	89.25
262.64	89.25
262.872	82.25
263.105	72.25
263.337	74.25
263.57	90.25
263.802	89.25
264.035	90.25
264.267	80.25
264.499	76.25
264.732	81.25
264.964	73.25
265.197	82.25
265.429	84.25
265.661	85.25
265.894	78.25
266.126	80.25
266.358	91.25
266.591	78.25
266.823	77.25
267.055	66.25
267.287	93.25
267.52	80.25
267.752	84.25
267.984	76.25
268.216	82.25
268.448	89.25
268.681	94.25
268.913	95.25
269.145	77.25
269.377	74.25
269.609	86.25
269.841	78.25
270.073	86.25
270.306	83.25
270.538	97.25
270.77	94.25
271.002	68.25
271.234	73.25
271.466	90.25
271.698	79.25
271.93	78.25
272.162	93.25
272.394	78.25
272.626	98.25
272.858	75.25
273.09	79.25
273.322	79.25
273.553	75.25
273.785	99.25
274.017	84.25
274.249	76.25
274.481	84.25
274.713	91.25
274.945	86.25
275.176	74.25
275.408	74.25
275.64	84.25
275.872	77.25
276.104	73.25
276.335	96.25
276.567	95.25
276.799	109.25
277.031	103.25
277.262	88.25
277.494	86.25
277.726	87.25
277.957	94.25
278.189	78.25
278.421	102.25
278.652	84.25
278.884	65.25
279.115	70.25
279.347	89.25
279.579	75.25
279.81	102.25
280.042	93.25
280.273	95.25
280.505	81.25
280.736	95.25
280.968	99.25
281.199	84.25
281.431	91.25
281.662	91.25
281.894	99.25
282.125	102.25
282.356	142.25
282.588	154.25
282.819	114.25
283.051	101.25
283.282	102.25
283.513	99.25
283.745	81.25
283.976	73.25
284.207	82.25
284.439	81.25
284.67	77.25
284.901	73.25
285.132	89.25
285.364	85.25
285.595	85.25
285.826	90.25
286.057	80.25
286.288	85.25
286.52	89.25
286.751	79.25
286.982	90.25
287.213	93.25
287.444	98.25
287.675	95.25
287.906	73.25
288.138	80.25
288.369	79.25
288.6	96.25
288.831	97.25
289.062	88.25
289.293	79.25
289.524	89.25
289.755	81.25
289.986	85.25
290.217	94.25
290.448	73.25
290.679	83.25
290.91	87.25
291.141	81.25
291.371	82.25
291.602	93.25
291.833	95.25
292.064	97.25
292.295	93.25
292.526	81.25
292.757	74.25
292.987	82.25
293.218	90.25
293.449	87.25
293.68	94.25
293.91	97.25
294.141	88.25
294.372	84.25
294.603	87.25
294.833	75.25
295.064	83.25
295.295	91.25
295.525	105.25
295.756	106.25
295.987	121.25
296.217	137.25
296.448	150.25
296.679	100.25
296.909	79.25
297.14	78.25
297.37	81.25
297.601	87.25
297.831	98.25
298.062	99.25
298.292	88.25
298.523	86.25
298.753	87.25
298.984	88.25
299.214	85.25
299.445	92.25
299.675	90.25
299.905	73.25
300.136	101.25
300.366	94.25
300.597	78.25
300.827	93.25
301.057	112.25
301.288	108.25
301.518	90.25
301.748	96.25
301.979	102.25
302.209	86.25
302.439	102.25
302.669	80.25
302.9	93.25
303.13	87.25
303.36	101.25
303.59	98.25
303.82	112.25
304.051	101.25
304.281	85.25
304.511	80.25
304.741	73.25
304.971	81.25
305.201	81.25
305.431	89.25
305.661	84.25
305.891	88.25
306.121	108.25
306.352	98.25
306.582	106.25
306.812	92.25
307.042	83.25
307.272	102.25
307.502	94.25
307.731	93.25
307.961	97.25
308.191	82.25
308.421	97.25
308.651	92.25
308.881	99.25
309.111	106.25
309.341	113.25
309.571	109.25
309.8	100.25
310.03	115.25
310.26	96.25
310.49	103.25
310.72	105.25
310.949	120.25
311.179	106.25
311.409	88.25
311.639	90.25
311.868	104.25
312.098	92.25
312.328	101.25
312.557	109.25
312.787	86.25
313.017	101.25
313.246	91.25
313.476	90.25
313.706	100.25
313.935	82.25
314.165	99.25
314.394	98.25
314.624	98.25
314.853	98.25
315.083	95.25
315.312	102.25
315.542	97.25
315.771	102.25
316.001	84.25
316.23	81.25
316.46	96.25
316.689	99.25
316.919	83.25
317.148	98.25
317.377	88.25
317.607	95.25
317.836	97.25
318.065	83.25
318.295	88.25
318.524	110.25
318.753	89.25
318.983	94.25
319.212	94.25
319.441	132.25
319.67	117.25
319.9	106.25
320.129	90.25
320.358	92.25
320.587	84.25
320.816	107.25
321.046	97.25
321.275	94.25
321.504	100.25
321.733	103.25
321.962	94.25
322.191	103.25
322.42	107.25
322.649	113.25
322.878	110.25
323.108	115.25
323.337	128.25
323.566	137.25
323.795	167.25
324.024	213.25
324.253	439.25
324.482	946.25
324.71	1954.25
324.939	2588.25
325.168	969.25
325.397	275.25
325.626	152.25
325.855	128.25
326.084	127.25
326.313	143.25
326.542	160.25
326.77	261.25
326.999	523.25
327.228	1032.25
327.457	1915.25
327.686	1490.25
327.914	419.25
328.143	212.25
328.372	169.25
328.6	131.25
328.829	142.25
329.058	147.25
329.287	135.25
329.515	92.25
329.744	103.25
329.972	102.25
330.201	110.25
330.43	128.25
330.658	119.25
330.887	161.25
331.115	129.25
331.344	105.25
331.572	99.25
331.801	98.25
332.03	89.25
332.258	86.25
332.486	88.25
332.715	106.25
332.943	97.25
333.172	104.25
333.4	101.25
333.629	119.25
333.857	121.25
334.085	104.25
334.314	94.25
334.542	129.25
334.771	122.25
334.999	112.25
335.227	101.25
335.455	107.25
335.684	95.25
335.912	111.25
336.14	90.25
336.369	111.25
336.597	92.25
336.825	97.25
337.053	82.25
337.281	87.25
337.51	94.25
337.738	106.25
337.966	88.25
338.194	96.25
338.422	101.25
338.65	91.25
338.878	80.25
339.106	97.25
339.334	96.25
339.562	85.25
339.79	97.25
340.018	95.25
340.246	92.25
340.474	75.25
340.702	84.25
340.93	81.25
341.158	95.25
341.386	98.25
341.614	86.25
341.842	97.25
342.07	86.25
342.298	92.25
342.526	99.25
342.754	100.25
342.981	81.25
343.209	93.25
343.437	95.25
343.665	93.25
343.893	95.25
344.12	86.25
344.348	94.25
344.576	87.25
344.804	90.25
345.031	86.25
345.259	91.25
345.487	96.25
345.714	93.25
345.942	91.25
346.17	94.25
346.397	86.25
346.625	96.25
346.853	83.25
347.08	92.25
347.308	103.25
347.535	97.25
347.763	100.25
347.99	79.25
348.218	104.25
348.445	110.25
348.673	105.25
348.9	104.25
349.128	97.25
349.355	98.25
349.583	102.25
349.81	99.25
350.037	79.25
350.265	88.25
350.492	89.25
350.72	85.25
350.947	97.25
351.174	113.25
351.402	103.25
351.629	102.25
351.856	88.25
352.083	103.25
352.311	117.25
352.538	98.25
352.765	109.25
352.992	115.25
353.22	117.25
353.447	104.25
353.674	92.25
353.901	98.25
354.128	96.25
354.355	104.25
354.583	87.25
354.81	99.25
355.037	90.25
355.264	93.25
355.491	92.25
355.718	81.25
355.945	85.25
356.172	93.25
356.399	90.25
356.626	95.25
356.853	101.25
357.08	91.25
357.307	85.25
357.534	89.25
357.761	91.25
357.988	90.25
358.215	90.25
358.441	88.25
358.668	93.25
358.895	93.25
359.122	82.25
359.349	98.25
359.576	98.25
359.802	117.25
360.029	114.25
360.256	122.25
360.483	83.25
360.709	94.25
360.936	90.25
361.163	89.25
361.39	97.25
361.616	100.25
361.843	97.25
362.07	94.25
362.296	93.25
362.523	83.25
362.749	91.25
362.976	86.25
363.203	80.25
363.429	79.25
363.656	83.25
363.882	93.25
364.109	96.25
364.335	101.25
364.562	79.25
364.788	80.25
365.015	100.25
365.241	98.25
365.468	104.25
365.694	89.25
365.92	94.25
366.147	94.25
366.373	80.25
366.599	87.25
366.826	93.25
367.052	84.25
367.278	90.25
367.505	89.25
367.731	109.25
367.957	108.25
368.184	94.25
368.41	109.25
368.636	106.25
368.862	131.25
369.089	110.25
369.315	104.25
369.541	98.25
369.767	112.25
369.993	85.25
370.219	91.25
370.445	87.25
370.672	74.25
370.898	82.25
371.124	85.25
371.35	88.25
371.576	88.25
371.802	67.25
372.028	82.25
372.254	86.25
372.48	88.25
372.706	87.25
372.932	74.25
373.158	80.25
373.384	94.25
373.61	83.25
373.835	70.25
374.061	94.25
374.287	80.25
374.513	80.25
374.739	82.25
374.965	102.25
375.191	83.25
375.416	83.25
375.642	83.25
375.868	81.25
376.094	91.25
376.319	83.25
376.545	73.25
376.771	85.25
376.997	94.25
377.222	73.25
377.448	96.25
377.674	83.25
377.899	87.25
378.125	90.25
378.35	83.25
378.576	69.25
378.802	82.25
379.027	75.25
379.253	91.25
379.478	96.25
379.704	90.25
379.929	95.25
380.155	99.25
380.38	97.25
380.606	91.25
380.831	87.25
381.057	98.25
381.282	83.25
381.507	80.25
381.733	97.25
381.958	89.25
382.184	94.25
382.409	98.25
382.634	87.25
382.86	89.25
383.085	93.25
383.31	91.25
383.535	88.25
383.761	96.25
383.986	99.25
384.211	100.25
384.436	83.25
384.662	109.25
384.887	102.25
385.112	103.25
385.337	101.25
385.562	105.25
385.787	108.25
386.013	121.25
386.238	105.25
386.463	104.25
386.688	110.25
386.913	97.25
387.138	112.25
387.363	108.25
387.588	101.25
387.813	97.25
388.038	102.25
388.263	123.25
388.488	106.25
388.713	100.25
388.938	95.25
389.163	86.25
389.387	93.25
389.612	85.25
389.837	89.25
390.062	96.25
390.287	93.25
390.512	103.25
390.736	91.25
390.961	79.25
391.186	103.25
391.411	85.25
391.636	79.25
391.86	82.25
392.085	92.25
392.31	82.25
392.534	90.25
392.759	86.25
392.984	72.25
393.208	89.25
393.433	96.25
393.658	107.25
393.882	80.25
394.107	77.25
394.331	91.25
394.556	90.25
394.78	74.25
395.005	83.25
395.229	86.25
395.454	89.25
395.678	78.25
395.903	84.25
396.127	87.25
396.352	94.25
396.576	97.25
396.801	94.25
397.025	92.25
397.249	93.25
397.474	85.25
397.698	79.25
397.922	79.25
398.147	82.25
398.371	80.25
398.595	91.25
398.82	96.25
399.044	76.25
399.268	88.25
399.492	78.25
399.717	93.25
399.941	97.25
400.165	93.25
400.389	104.25
400.613	96.25
400.837	86.25
401.062	90.25
401.286	90.25
401.51	98.25
401.734	99.25
401.958	112.25
402.182	139.25
402.406	193.25
402.63	137.25
402.854	91.25
403.078	87.25
403.302	93.25
403.526	88.25
403.75	87.25
403.974	76.25
404.198	88.25
404.422	78.25
404.645	98.25
404.869	84.25
405.093	112.25
405.317	85.25
405.541	99.25
405.765	102.25
405.988	137.25
406.212	185.25
406.436	265.25
406.66	161.25
406.883	93.25
407.107	85.25
407.331	88.25
407.555	95.25
407.778	110.25
408.002	75.25
408.226	119.25
408.449	87.25
408.673	71.25
408.896	84.25
409.12	86.25
409.344	91.25
409.567	92.25
409.791	106.25
410.014	85.25
410.238	102.25
410.461	76.25
410.685	105.25
410.908	93.25
411.132	94.25
411.355	96.25
411.578	86.25
411.802	74.25
412.025	93.25
412.249	97.25
412.472	98.25
412.695	87.25
412.919	89.25
413.142	92.25
413.365	89.25
413.589	98.25
413.812	86.25
414.035	83.25
414.258	86.25
414.482	90.25
414.705	90.25
414.928	106.25
415.151	79.25
415.374	87.25
415.597	92.25
415.821	98.25
416.044	94.25
416.267	84.25
416.49	81.25
416.713	78.25
416.936	95.25
417.159	83.25
417.382	78.25
417.605	77.25
417.828	90.25
418.051	99.25
418.274	85.25
418.497	82.25
418.72	97.25
418.943	90.25
419.166	92.25
419.389	91.25
419.611	87.25
419.834	96.25
420.057	101.25
420.28	85.25
420.503	86.25
420.726	90.25
420.948	94.25
421.171	105.25
421.394	87.25
421.617	98.25
421.839	82.25
422.062	80.25
422.285	84.25
422.507	92.25
422.73	101.25
422.953	94.25
423.175	87.25
423.398	98.25
423.621	80.25
423.843	81.25
424.066	86.25
424.288	81.25
424.511	98.25
424.733	86.25
424.956	112.25
425.178	111.25
425.401	102.25
425.623	100.25
425.846	100.25
426.068	91.25
426.291	88.25
426.513	86.25
426.735	76.25
426.958	97.25
427.18	109.25
427.402	133.25
427.625	193.25
427.847	139.25
428.069	112.25
428.292	83.25
428.514	86.25
428.736	84.25
428.958	85.25
429.181	87.25
429.403	87.25
429.625	80.25
429.847	91.25
430.069	99.25
430.292	82.25
430.514	77.25
430.736	71.25
430.958	83.25
431.18	83.25
431.402	84.25
431.624	78.25
431.846	81.25
432.068	98.25
432.29	72.25
432.512	73.25
432.734	81.25
432.956	79.25
433.178	101.25
433.4	98.25
433.622	91.25
433.844	90.25
434.066	92.25
434.287	75.25
434.509	96.25
434.731	90.25
434.953	79.25
435.175	92.25
435.397	90.25
435.618	99.25
435.84	100.25
436.062	128.25
436.284	115.25
436.505	103.25
436.727	106.25
436.949	86.25
437.17	75.25
437.392	88.25
437.614	94.25
437.835	119.25
438.057	122.25
438.278	124.25
438.5	112.25
438.721	133.25
438.943	96.25
439.165	70.25
439.386	88.25
439.608	85.25
439.829	101.25
440.05	126.25
440.272	162.25
440.493	104.25
440.715	85.25
440.936	80.25
441.158	77.25
441.379	86.25
441.6	103.25
441.822	94.25
442.043	88.25
442.264	99.25
442.486	96.25
442.707	94.25
442.928	111.25
443.149	152.25
443.371	164.25
443.592	110.25
443.813	99.25
444.034	109.25
444.255	82.25
444.476	98.25
444.698	90.25
444.919	80.25
445.14	123.25
445.361	130.25
445.582	120.25
445.803	156.25
446.024	158.25
446.245	147.25
446.466	116.25
446.687	104.25
446.908	85.25
447.129	80.25
447.35	86.25
447.571	90.25
447.792	92.25
448.013	102.25
448.234	117.25
448.455	95.25
448.675	125.25
448.896	133.25
449.117	93.25
449.338	104.25
449.559	142.25
449.779	124.25
450	96.25
450.221	88.25
450.442	100.25
450.662	90.25
450.883	125.25
451.104	115.25
451.324	90.25
451.545	100.25
451.766	91.25
451.986	94.25
452.207	95.25
452.428	85.25
452.648	104.25
452.869	124.25
453.089	128.25
453.31	127.25
453.53	89.25
453.751	96.25
453.971	102.25
454.192	106.25
454.412	97.25
454.633	88.25
454.853	94.25
455.073	92.25
455.294	75.25
455.514	94.25
455.734	96.25
455.955	75.25
456.175	86.25
456.395	88.25
456.616	85.25
456.836	46.25
457.056	81.25
457.276	78.25
457.497	83.25
457.717	89.25
457.937	98.25
458.157	98.25
458.377	101.25
458.598	115.25
458.818	151.25
459.038	170.25
459.258	134.25
459.478	91.25
459.698	76.25
459.918	76.25
460.138	83.25
460.358	87.25
460.578	87.25
460.798	81.25
461.018	94.25
461.238	96.25
461.458	86.25
461.678	70.25
461.898	84.25
462.118	75.25
462.338	80.25
462.558	78.25
462.777	78.25
462.997	94.25
463.217	86.25
463.437	89.25
463.657	85.25
463.876	80.25
464.096	81.25
464.316	79.25
464.536	106.25
464.755	99.25
464.975	114.25
465.195	202.25
465.414	182.25
465.634	97.25
465.854	82.25
466.073	98.25
466.293	71.25
466.512	72.25
466.732	89.25
466.951	86.25
467.171	97.25
467.391	95.25
467.61	105.25
467.829	87.25
468.049	81.25
468.268	92.25
468.488	67.25
468.707	77.25
468.927	79.25
469.146	87.25
469.365	106.25
469.585	107.25
469.804	97.25
470.023	104.25
470.243	82.25
470.462	103.25
470.681	129.25
470.901	90.25
471.12	91.25
471.339	85.25
471.558	83.25
471.777	74.25
471.997	89.25
472.216	103.25
472.435	148.25
472.654	85.25
472.873	86.25
473.092	83.25
473.311	93.25
473.53	99.25
473.749	93.25
473.968	89.25
474.187	111.25
474.406	95.25
474.625	100.25
474.844	85.25
475.063	88.25
475.282	92.25
475.501	74.25
475.72	96.25
475.939	77.25
476.158	88.25
476.377	94.25
476.596	90.25
476.814	107.25
477.033	90.25
477.252	88.25
477.471	89.25
477.69	88.25
477.908	88.25
478.127	77.25
478.346	74.25
478.564	93.25
478.783	99.25
479.002	114.25
479.22	93.25
479.439	105.25
479.658	115.25
479.876	82.25
480.095	96.25
480.313	103.25
480.532	87.25
480.751	89.25
480.969	101.25
481.188	153.25
481.406	141.25
481.624	89.25
481.843	83.25
482.061	71.25
482.28	89.25
482.498	90.25
482.717	89.25
482.935	89.25
483.153	89.25
483.372	96.25
483.59	94.25
483.808	86.25
484.027	88.25
484.245	99.25
484.463	90.25
484.681	90.25
484.9	83.25
485.118	97.25
485.336	83.25
485.554	86.25
485.772	98.25
485.99	95.25
486.209	102.25
486.427	93.25
486.645	97.25
486.863	114.25
487.081	95.25
487.299	105.25
487.517	111.25
487.735	94.25
487.953	98.25
488.171	90.25
488.389	104.25
488.607	87.25
488.825	97.25
489.043	85.25
489.261	82.25
489.479	82.25
489.696	93.25
489.914	81.25
490.132	79.25
490.35	88.25
490.568	83.25
490.786	90.25
491.003	96.25
491.221	81.25
491.439	90.25
491.657	86.25
491.874	83.25
492.092	77.25
492.31	98.25
492.527	82.25
492.745	94.25
492.963	85.25
493.18	80.25
493.398	74.25
493.615	101.25
493.833	111.25
494.05	78.25
494.268	82.25
494.485	87.25
494.703	78.25
494.92	79.25
495.138	96.25
495.355	83.25
495.573	85.25
495.79	79.25
496.008	89.25
496.225	106.25
496.442	79.25
496.66	93.25
496.877	91.25
497.094	86.25
497.312	93.25
497.529	89.25
497.746	82.25
497.963	83.25
498.181	79.25
498.398	105.25
498.615	113.25
498.832	115.25
499.049	94.25
499.267	81.25
499.484	82.25
499.701	88.25
499.918	83.25
500.135	77.25
500.352	81.25
500.569	93.25
500.786	94.25
501.003	75.25
501.22	98.25
501.437	101.25
501.654	87.25
501.871	106.25
502.088	96.25
502.305	78.25
502.522	83.25
502.739	99.25
502.956	84.25
503.172	79.25
503.389	90.25
503.606	89.25
503.823	93.25
504.04	75.25
504.256	90.25
504.473	77.25
504.69	72.25
504.907	81.25
505.123	88.25
505.34	83.25
505.557	80.25
505.773	93.25
505.99	87.25
506.207	86.25
506.423	100.25
506.64	89.25
506.856	99.25
507.073	86.25
507.289	95.25
507.506	98.25
507.722	127.25
507.939	120.25
508.155	97.25
508.372	88.25
508.588	87.25
508.805	97.25
509.021	95.25
509.238	92.25
509.454	83.25
509.67	103.25
509.887	117.25
510.103	150.25
510.319	248.25
510.536	885.25
510.752	3107.25
510.968	909.25
511.184	174.25
511.401	125.25
511.617	101.25
511.833	87.25
512.049	89.25
512.265	88.25
512.481	99.25
512.698	82.25
512.914	94.25
513.13	102.25
513.346	88.25
513.562	97.25
513.778	99.25
513.994	92.25
514.21	104.25
514.426	122.25
514.642	137.25
514.858	130.25
515.074	186.25
515.29	536.25
515.506	2004.25
515.721	750.25
