Data from Circ_2022_H10_HRD10591_00005.txt Node
Date: Wed Jan 03 09:53:38 EST 2024
User: Yrep
Spectrometer: HR+D1059
Trigger mode: 1
Integration Time (sec): 1.000000E-1
Scans to average: 1
Electric dark correction enabled: true
Nonlinearity correction enabled: false
Boxcar width: 0
XAxis mode: Wavelengths
Number of Pixels in Spectrum: 2048
>>>>>Begin Spectral Data<<<<<
223.165	-10.5
223.4	-10.5
223.635	-10.5
223.869	-25.5
224.104	-12.5
224.338	-23.5
224.573	-19.5
224.808	-4.5
225.042	-1.5
225.277	10.5
225.511	-9.5
225.746	17.5
225.98	4.5
226.215	4.5
226.449	15.5
226.683	4.5
226.918	29.5
227.152	20.5
227.387	35.5
227.621	38.5
227.856	39.5
228.09	47.5
228.324	49.5
228.559	53.5
228.793	69.5
229.027	52.5
229.262	65.5
229.496	71.5
229.73	83.5
229.964	86.5
230.199	67.5
230.433	78.5
230.667	61.5
230.901	88.5
231.136	63.5
231.37	78.5
231.604	73.5
231.838	81.5
232.072	78.5
232.306	73.5
232.541	67.5
232.775	80.5
233.009	76.5
233.243	87.5
233.477	87.5
233.711	71.5
233.945	76.5
234.179	77.5
234.413	79.5
234.647	79.5
234.881	75.5
235.115	71.5
235.349	73.5
235.583	88.5
235.817	68.5
236.051	83.5
236.285	66.5
236.519	76.5
236.753	71.5
236.987	59.5
237.221	94.5
237.455	86.5
237.689	79.5
237.922	81.5
238.156	69.5
238.39	76.5
238.624	65.5
238.858	72.5
239.091	73.5
239.325	88.5
239.559	72.5
239.793	59.5
240.027	76.5
240.26	81.5
240.494	81.5
240.728	75.5
240.961	71.5
241.195	65.5
241.429	66.5
241.662	87.5
241.896	84.5
242.13	79.5
242.363	74.5
242.597	72.5
242.83	80.5
243.064	76.5
243.298	74.5
243.531	69.5
243.765	67.5
243.998	64.5
244.232	61.5
244.465	86.5
244.699	74.5
244.932	78.5
245.166	81.5
245.399	76.5
245.633	73.5
245.866	91.5
246.099	68.5
246.333	79.5
246.566	73.5
246.8	79.5
247.033	74.5
247.266	71.5
247.5	72.5
247.733	70.5
247.966	66.5
248.2	69.5
248.433	75.5
248.666	79.5
248.899	79.5
249.133	84.5
249.366	95.5
249.599	83.5
249.832	78.5
250.066	81.5
250.299	73.5
250.532	79.5
250.765	71.5
250.998	75.5
251.231	72.5
251.465	71.5
251.698	80.5
251.931	80.5
252.164	67.5
252.397	66.5
252.63	78.5
252.863	79.5
253.096	70.5
253.329	71.5
253.562	76.5
253.795	81.5
254.028	84.5
254.261	75.5
254.494	73.5
254.727	89.5
254.96	80.5
255.193	77.5
255.426	73.5
255.659	71.5
255.892	88.5
256.124	73.5
256.357	81.5
256.59	74.5
256.823	68.5
257.056	63.5
257.289	85.5
257.521	75.5
257.754	86.5
257.987	87.5
258.22	80.5
258.452	74.5
258.685	71.5
258.918	71.5
259.151	74.5
259.383	72.5
259.616	79.5
259.849	68.5
260.081	75.5
260.314	73.5
260.547	73.5
260.779	87.5
261.012	63.5
261.244	83.5
261.477	86.5
261.71	97.5
261.942	117.5
262.175	124.5
262.407	89.5
262.64	77.5
262.872	80.5
263.105	80.5
263.337	73.5
263.57	74.5
263.802	78.5
264.035	68.5
264.267	83.5
264.499	71.5
264.732	79.5
264.964	78.5
265.197	90.5
265.429	72.5
265.661	81.5
265.894	76.5
266.126	60.5
266.358	81.5
266.591	81.5
266.823	81.5
267.055	86.5
267.287	81.5
267.52	92.5
267.752	83.5
267.984	75.5
268.216	77.5
268.448	70.5
268.681	80.5
268.913	74.5
269.145	78.5
269.377	91.5
269.609	89.5
269.841	65.5
270.073	73.5
270.306	92.5
270.538	89.5
270.77	73.5
271.002	84.5
271.234	83.5
271.466	77.5
271.698	85.5
271.93	81.5
272.162	86.5
272.394	93.5
272.626	79.5
272.858	86.5
273.09	72.5
273.322	87.5
273.553	88.5
273.785	86.5
274.017	83.5
274.249	72.5
274.481	83.5
274.713	67.5
274.945	75.5
275.176	80.5
275.408	85.5
275.64	77.5
275.872	88.5
276.104	79.5
276.335	77.5
276.567	93.5
276.799	112.5
277.031	84.5
277.262	98.5
277.494	84.5
277.726	75.5
277.957	84.5
278.189	89.5
278.421	81.5
278.652	84.5
278.884	72.5
279.115	81.5
279.347	72.5
279.579	99.5
279.81	65.5
280.042	79.5
280.273	91.5
280.505	70.5
280.736	84.5
280.968	84.5
281.199	84.5
281.431	82.5
281.662	82.5
281.894	89.5
282.125	105.5
282.356	127.5
282.588	140.5
282.819	113.5
283.051	88.5
283.282	76.5
283.513	91.5
283.745	86.5
283.976	84.5
284.207	69.5
284.439	82.5
284.67	81.5
284.901	82.5
285.132	84.5
285.364	81.5
285.595	83.5
285.826	88.5
286.057	73.5
286.288	96.5
286.52	80.5
286.751	93.5
286.982	79.5
287.213	86.5
287.444	88.5
287.675	68.5
287.906	77.5
288.138	89.5
288.369	88.5
288.6	95.5
288.831	90.5
289.062	76.5
289.293	76.5
289.524	83.5
289.755	93.5
289.986	71.5
290.217	84.5
290.448	65.5
290.679	90.5
290.91	87.5
291.141	83.5
291.371	83.5
291.602	85.5
291.833	73.5
292.064	91.5
292.295	94.5
292.526	77.5
292.757	88.5
292.987	73.5
293.218	87.5
293.449	89.5
293.68	82.5
293.91	87.5
294.141	77.5
294.372	107.5
294.603	64.5
294.833	82.5
295.064	92.5
295.295	83.5
295.525	96.5
295.756	78.5
295.987	107.5
296.217	149.5
296.448	126.5
296.679	92.5
296.909	80.5
297.14	76.5
297.37	85.5
297.601	64.5
297.831	84.5
298.062	80.5
298.292	92.5
298.523	101.5
298.753	87.5
298.984	88.5
299.214	87.5
299.445	99.5
299.675	91.5
299.905	85.5
300.136	79.5
300.366	76.5
300.597	83.5
300.827	78.5
301.057	109.5
301.288	93.5
301.518	79.5
301.748	75.5
301.979	88.5
302.209	84.5
302.439	98.5
302.669	88.5
302.9	90.5
303.13	92.5
303.36	77.5
303.59	94.5
303.82	104.5
304.051	85.5
304.281	75.5
304.511	93.5
304.741	84.5
304.971	77.5
305.201	75.5
305.431	69.5
305.661	86.5
305.891	97.5
306.121	95.5
306.352	99.5
306.582	108.5
306.812	88.5
307.042	95.5
307.272	90.5
307.502	95.5
307.731	83.5
307.961	85.5
308.191	95.5
308.421	92.5
308.651	78.5
308.881	81.5
309.111	103.5
309.341	81.5
309.571	94.5
309.8	102.5
310.03	96.5
310.26	105.5
310.49	85.5
310.72	99.5
310.949	111.5
311.179	103.5
311.409	102.5
311.639	107.5
311.868	84.5
312.098	92.5
312.328	98.5
312.557	94.5
312.787	115.5
313.017	109.5
313.246	107.5
313.476	82.5
313.706	84.5
313.935	94.5
314.165	94.5
314.394	100.5
314.624	80.5
314.853	85.5
315.083	101.5
315.312	92.5
315.542	84.5
315.771	107.5
316.001	100.5
316.23	82.5
316.46	91.5
316.689	82.5
316.919	98.5
317.148	96.5
317.377	92.5
317.607	96.5
317.836	83.5
318.065	95.5
318.295	87.5
318.524	99.5
318.753	90.5
318.983	81.5
319.212	96.5
319.441	115.5
319.67	100.5
319.9	96.5
320.129	84.5
320.358	72.5
320.587	99.5
320.816	100.5
321.046	93.5
321.275	89.5
321.504	95.5
321.733	96.5
321.962	98.5
322.191	99.5
322.42	109.5
322.649	99.5
322.878	118.5
323.108	118.5
323.337	128.5
323.566	133.5
323.795	173.5
324.024	212.5
324.253	446.5
324.482	922.5
324.71	1957.5
324.939	2642.5
325.168	929.5
325.397	267.5
325.626	142.5
325.855	131.5
326.084	129.5
326.313	119.5
326.542	167.5
326.77	249.5
326.999	502.5
327.228	1056.5
327.457	1963.5
327.686	1546.5
327.914	412.5
328.143	193.5
328.372	155.5
328.6	137.5
328.829	117.5
329.058	134.5
329.287	120.5
329.515	106.5
329.744	92.5
329.972	87.5
330.201	105.5
330.43	116.5
330.658	128.5
330.887	156.5
331.115	140.5
331.344	93.5
331.572	100.5
331.801	94.5
332.03	94.5
332.258	95.5
332.486	100.5
332.715	92.5
332.943	101.5
333.172	99.5
333.4	99.5
333.629	103.5
333.857	120.5
334.085	102.5
334.314	100.5
334.542	106.5
334.771	95.5
334.999	106.5
335.227	96.5
335.455	99.5
335.684	86.5
335.912	83.5
336.14	94.5
336.369	97.5
336.597	122.5
336.825	105.5
337.053	88.5
337.281	88.5
337.51	98.5
337.738	83.5
337.966	84.5
338.194	87.5
338.422	96.5
338.65	82.5
338.878	103.5
339.106	91.5
339.334	91.5
339.562	89.5
339.79	93.5
340.018	102.5
340.246	82.5
340.474	100.5
340.702	104.5
340.93	85.5
341.158	92.5
341.386	95.5
341.614	92.5
341.842	85.5
342.07	81.5
342.298	87.5
342.526	93.5
342.754	78.5
342.981	87.5
343.209	83.5
343.437	89.5
343.665	79.5
343.893	96.5
344.12	107.5
344.348	86.5
344.576	96.5
344.804	102.5
345.031	83.5
345.259	90.5
345.487	103.5
345.714	88.5
345.942	95.5
346.17	102.5
346.397	79.5
346.625	99.5
346.853	94.5
347.08	93.5
347.308	93.5
347.535	88.5
347.763	108.5
347.99	75.5
348.218	98.5
348.445	105.5
348.673	111.5
348.9	102.5
349.128	94.5
349.355	93.5
349.583	87.5
349.81	90.5
350.037	93.5
350.265	100.5
350.492	105.5
350.72	98.5
350.947	109.5
351.174	104.5
351.402	104.5
351.629	96.5
351.856	100.5
352.083	102.5
352.311	104.5
352.538	117.5
352.765	107.5
352.992	115.5
353.22	110.5
353.447	104.5
353.674	94.5
353.901	91.5
354.128	85.5
354.355	92.5
354.583	102.5
354.81	88.5
355.037	102.5
355.264	79.5
355.491	93.5
355.718	98.5
355.945	85.5
356.172	89.5
356.399	90.5
356.626	112.5
356.853	95.5
357.08	96.5
357.307	89.5
357.534	104.5
357.761	94.5
357.988	92.5
358.215	85.5
358.441	85.5
358.668	91.5
358.895	88.5
359.122	90.5
359.349	81.5
359.576	85.5
359.802	110.5
360.029	137.5
360.256	118.5
360.483	100.5
360.709	91.5
360.936	85.5
361.163	93.5
361.39	102.5
361.616	101.5
361.843	90.5
362.07	86.5
362.296	102.5
362.523	96.5
362.749	85.5
362.976	91.5
363.203	85.5
363.429	87.5
363.656	82.5
363.882	84.5
364.109	82.5
364.335	97.5
364.562	77.5
364.788	81.5
365.015	91.5
365.241	92.5
365.468	118.5
365.694	93.5
365.92	96.5
366.147	89.5
366.373	89.5
366.599	96.5
366.826	93.5
367.052	93.5
367.278	88.5
367.505	86.5
367.731	86.5
367.957	94.5
368.184	97.5
368.41	99.5
368.636	113.5
368.862	114.5
369.089	121.5
369.315	100.5
369.541	82.5
369.767	90.5
369.993	83.5
370.219	79.5
370.445	83.5
370.672	71.5
370.898	80.5
371.124	91.5
371.35	85.5
371.576	84.5
371.802	92.5
372.028	97.5
372.254	89.5
372.48	84.5
372.706	94.5
372.932	80.5
373.158	87.5
373.384	96.5
373.61	95.5
373.835	79.5
374.061	81.5
374.287	88.5
374.513	83.5
374.739	79.5
374.965	87.5
375.191	94.5
375.416	104.5
375.642	85.5
375.868	96.5
376.094	99.5
376.319	102.5
376.545	92.5
376.771	99.5
376.997	76.5
377.222	93.5
377.448	101.5
377.674	83.5
377.899	69.5
378.125	70.5
378.35	81.5
378.576	91.5
378.802	107.5
379.027	84.5
379.253	95.5
379.478	79.5
379.704	92.5
379.929	112.5
380.155	88.5
380.38	105.5
380.606	96.5
380.831	101.5
381.057	119.5
381.282	85.5
381.507	98.5
381.733	103.5
381.958	89.5
382.184	97.5
382.409	92.5
382.634	97.5
382.86	97.5
383.085	114.5
383.31	105.5
383.535	91.5
383.761	98.5
383.986	103.5
384.211	93.5
384.436	114.5
384.662	109.5
384.887	121.5
385.112	118.5
385.337	113.5
385.562	94.5
385.787	107.5
386.013	117.5
386.238	141.5
386.463	115.5
386.688	123.5
386.913	122.5
387.138	127.5
387.363	134.5
387.588	96.5
387.813	109.5
388.038	111.5
388.263	126.5
388.488	110.5
388.713	104.5
388.938	96.5
389.163	87.5
389.387	107.5
389.612	97.5
389.837	100.5
390.062	92.5
390.287	86.5
390.512	101.5
390.736	94.5
390.961	93.5
391.186	90.5
391.411	84.5
391.636	80.5
391.86	70.5
392.085	94.5
392.31	87.5
392.534	64.5
392.759	80.5
392.984	77.5
393.208	93.5
393.433	110.5
393.658	98.5
393.882	72.5
394.107	90.5
394.331	91.5
394.556	75.5
394.78	86.5
395.005	87.5
395.229	84.5
395.454	92.5
395.678	75.5
395.903	83.5
396.127	78.5
396.352	89.5
396.576	82.5
396.801	85.5
397.025	111.5
397.249	95.5
397.474	99.5
397.698	84.5
397.922	82.5
398.147	91.5
398.371	95.5
398.595	92.5
398.82	96.5
399.044	80.5
399.268	85.5
399.492	70.5
399.717	90.5
399.941	88.5
400.165	83.5
400.389	87.5
400.613	91.5
400.837	85.5
401.062	80.5
401.286	93.5
401.51	82.5
401.734	102.5
401.958	111.5
402.182	132.5
402.406	155.5
402.63	119.5
402.854	89.5
403.078	92.5
403.302	94.5
403.526	92.5
403.75	92.5
403.974	90.5
404.198	91.5
404.422	87.5
404.645	86.5
404.869	76.5
405.093	94.5
405.317	92.5
405.541	88.5
405.765	110.5
405.988	110.5
406.212	184.5
406.436	244.5
406.66	151.5
406.883	103.5
407.107	97.5
407.331	101.5
407.555	98.5
407.778	99.5
408.002	78.5
408.226	93.5
408.449	83.5
408.673	87.5
408.896	102.5
409.12	110.5
409.344	81.5
409.567	89.5
409.791	82.5
410.014	105.5
410.238	88.5
410.461	68.5
410.685	72.5
410.908	82.5
411.132	102.5
411.355	99.5
411.578	91.5
411.802	78.5
412.025	91.5
412.249	92.5
412.472	85.5
412.695	94.5
412.919	88.5
413.142	91.5
413.365	78.5
413.589	107.5
413.812	84.5
414.035	98.5
414.258	92.5
414.482	94.5
414.705	79.5
414.928	96.5
415.151	96.5
415.374	96.5
415.597	93.5
415.821	96.5
416.044	87.5
416.267	93.5
416.49	82.5
416.713	94.5
416.936	75.5
417.159	88.5
417.382	85.5
417.605	94.5
417.828	101.5
418.051	72.5
418.274	88.5
418.497	99.5
418.72	88.5
418.943	96.5
419.166	86.5
419.389	93.5
419.611	87.5
419.834	73.5
420.057	68.5
420.28	106.5
420.503	78.5
420.726	84.5
420.948	79.5
421.171	93.5
421.394	81.5
421.617	94.5
421.839	104.5
422.062	88.5
422.285	91.5
422.507	88.5
422.73	102.5
422.953	102.5
423.175	84.5
423.398	83.5
423.621	82.5
423.843	84.5
424.066	85.5
424.288	96.5
424.511	83.5
424.733	97.5
424.956	103.5
425.178	101.5
425.401	99.5
425.623	108.5
425.846	87.5
426.068	88.5
426.291	96.5
426.513	94.5
426.735	76.5
426.958	83.5
427.18	100.5
427.402	144.5
427.625	191.5
427.847	151.5
428.069	94.5
428.292	81.5
428.514	77.5
428.736	86.5
428.958	73.5
429.181	77.5
429.403	84.5
429.625	80.5
429.847	94.5
430.069	104.5
430.292	89.5
430.514	94.5
430.736	83.5
430.958	78.5
431.18	73.5
431.402	73.5
431.624	70.5
431.846	87.5
432.068	93.5
432.29	78.5
432.512	92.5
432.734	77.5
432.956	93.5
433.178	97.5
433.4	88.5
433.622	80.5
433.844	71.5
434.066	86.5
434.287	91.5
434.509	94.5
434.731	80.5
434.953	89.5
435.175	84.5
435.397	85.5
435.618	94.5
435.84	116.5
436.062	124.5
436.284	127.5
436.505	111.5
436.727	107.5
436.949	84.5
437.17	91.5
437.392	80.5
437.614	87.5
437.835	112.5
438.057	127.5
438.278	127.5
438.5	99.5
438.721	128.5
438.943	100.5
439.165	84.5
439.386	71.5
439.608	88.5
439.829	100.5
440.05	132.5
440.272	166.5
440.493	96.5
440.715	80.5
440.936	88.5
441.158	89.5
441.379	83.5
441.6	96.5
441.822	105.5
442.043	94.5
442.264	113.5
442.486	99.5
442.707	86.5
442.928	107.5
443.149	136.5
443.371	134.5
443.592	124.5
443.813	136.5
444.034	113.5
444.255	89.5
444.476	86.5
444.698	72.5
444.919	89.5
445.14	146.5
445.361	135.5
445.582	134.5
445.803	157.5
446.024	151.5
446.245	138.5
446.466	116.5
446.687	94.5
446.908	96.5
447.129	97.5
447.35	76.5
447.571	88.5
447.792	101.5
448.013	108.5
448.234	96.5
448.455	112.5
448.675	123.5
448.896	119.5
449.117	108.5
449.338	97.5
449.559	132.5
449.779	139.5
450	89.5
450.221	92.5
450.442	88.5
450.662	101.5
450.883	102.5
451.104	126.5
451.324	96.5
451.545	84.5
451.766	89.5
451.986	78.5
452.207	92.5
452.428	82.5
452.648	104.5
452.869	124.5
453.089	119.5
453.31	111.5
453.53	105.5
453.751	88.5
453.971	91.5
454.192	108.5
454.412	98.5
454.633	95.5
454.853	82.5
455.073	83.5
455.294	94.5
455.514	93.5
455.734	83.5
455.955	85.5
456.175	77.5
456.395	95.5
456.616	80.5
456.836	76.5
457.056	81.5
457.276	76.5
457.497	75.5
457.717	72.5
457.937	77.5
458.157	107.5
458.377	102.5
458.598	106.5
458.818	160.5
459.038	194.5
459.258	130.5
459.478	89.5
459.698	96.5
459.918	92.5
460.138	98.5
460.358	89.5
460.578	74.5
460.798	87.5
461.018	87.5
461.238	83.5
461.458	82.5
461.678	95.5
461.898	98.5
462.118	99.5
462.338	89.5
462.558	73.5
462.777	85.5
462.997	71.5
463.217	82.5
463.437	75.5
463.657	85.5
463.876	76.5
464.096	98.5
464.316	111.5
464.536	77.5
464.755	94.5
464.975	117.5
465.195	200.5
465.414	192.5
465.634	86.5
465.854	81.5
466.073	72.5
466.293	77.5
466.512	69.5
466.732	88.5
466.951	92.5
467.171	95.5
467.391	90.5
467.61	95.5
467.829	86.5
468.049	76.5
468.268	79.5
468.488	78.5
468.707	73.5
468.927	89.5
469.146	71.5
469.365	88.5
469.585	80.5
469.804	94.5
470.023	111.5
470.243	93.5
470.462	87.5
470.681	109.5
470.901	92.5
471.12	78.5
471.339	76.5
471.558	88.5
471.777	96.5
471.997	81.5
472.216	85.5
472.435	84.5
472.654	74.5
472.873	70.5
473.092	70.5
473.311	88.5
473.53	83.5
473.749	83.5
473.968	105.5
474.187	108.5
474.406	92.5
474.625	92.5
474.844	90.5
475.063	87.5
475.282	81.5
475.501	84.5
475.72	91.5
475.939	82.5
476.158	80.5
476.377	74.5
476.596	87.5
476.814	78.5
477.033	92.5
477.252	93.5
477.471	90.5
477.69	74.5
477.908	63.5
478.127	77.5
478.346	86.5
478.564	72.5
478.783	95.5
479.002	92.5
479.22	91.5
479.439	107.5
479.658	113.5
479.876	99.5
480.095	71.5
480.313	75.5
480.532	88.5
480.751	87.5
480.969	101.5
481.188	96.5
481.406	101.5
481.624	88.5
481.843	88.5
482.061	87.5
482.28	89.5
482.498	82.5
482.717	90.5
482.935	76.5
483.153	87.5
483.372	87.5
483.59	77.5
483.808	87.5
484.027	83.5
484.245	87.5
484.463	92.5
484.681	85.5
484.9	83.5
485.118	93.5
485.336	83.5
485.554	85.5
485.772	100.5
485.99	99.5
486.209	95.5
486.427	95.5
486.645	107.5
486.863	118.5
487.081	93.5
487.299	91.5
487.517	80.5
487.735	116.5
487.953	103.5
488.171	101.5
488.389	87.5
488.607	91.5
488.825	92.5
489.043	78.5
489.261	85.5
489.479	85.5
489.696	89.5
489.914	89.5
490.132	99.5
490.35	91.5
490.568	83.5
490.786	76.5
491.003	88.5
491.221	102.5
491.439	81.5
491.657	88.5
491.874	83.5
492.092	78.5
492.31	102.5
492.527	86.5
492.745	92.5
492.963	80.5
493.18	84.5
493.398	75.5
493.615	98.5
493.833	76.5
494.05	84.5
494.268	76.5
494.485	87.5
494.703	96.5
494.92	91.5
495.138	83.5
495.355	84.5
495.573	93.5
495.79	92.5
496.008	96.5
496.225	82.5
496.442	92.5
496.66	95.5
496.877	87.5
497.094	98.5
497.312	91.5
497.529	80.5
497.746	84.5
497.963	88.5
498.181	96.5
498.398	97.5
498.615	104.5
498.832	97.5
499.049	81.5
499.267	85.5
499.484	92.5
499.701	100.5
499.918	82.5
500.135	85.5
500.352	104.5
500.569	83.5
500.786	82.5
501.003	85.5
501.22	81.5
501.437	88.5
501.654	96.5
501.871	113.5
502.088	98.5
502.305	84.5
502.522	83.5
502.739	69.5
502.956	76.5
503.172	96.5
503.389	108.5
503.606	115.5
503.823	94.5
504.04	92.5
504.256	80.5
504.473	79.5
504.69	79.5
504.907	91.5
505.123	72.5
505.34	88.5
505.557	83.5
505.773	88.5
505.99	86.5
506.207	86.5
506.423	92.5
506.64	102.5
506.856	93.5
507.073	84.5
507.289	88.5
507.506	100.5
507.722	125.5
507.939	109.5
508.155	84.5
508.372	83.5
508.588	93.5
508.805	112.5
509.021	94.5
509.238	91.5
509.454	80.5
509.67	113.5
509.887	113.5
510.103	137.5
510.319	203.5
510.536	828.5
510.752	2837.5
510.968	830.5
511.184	181.5
511.401	102.5
511.617	96.5
511.833	87.5
512.049	77.5
512.265	93.5
512.481	87.5
512.698	83.5
512.914	91.5
513.13	91.5
513.346	82.5
513.562	100.5
513.778	96.5
513.994	114.5
514.21	106.5
514.426	125.5
514.642	146.5
514.858	129.5
515.074	179.5
515.29	547.5
515.506	1923.5
515.721	732.5
515.937	192.5
516.153	125.5
516.369	100.5
516.585	104.5
516.801	98.5
517.016	91.5
517.232	93.5
517.448	85.5
517.664	97.5
517.879	104.5
518.095	89.5
518.311	91.5
518.527	91.5
518.742	80.5
518.958	98.5
519.173	98.5
519.389	88.5
519.605	101.5
519.82	99.5
520.036	96.5
520.251	133.5
520.467	128.5
520.682	107.5
520.898	104.5
521.113	113.5
521.329	145.5
521.544	230.5
521.76	681.5
521.975	3161.5
522.19	1975.5
522.406	417.5
522.621	121.5
522.836	106.5
523.052	94.5
523.267	86.5
523.482	90.5
523.698	99.5
523.913	113.5
524.128	102.5
524.343	87.5
524.559	96.5
524.774	90.5
524.989	99.5
525.204	98.5
525.419	103.5
525.634	96.5
525.849	107.5
526.064	85.5
526.28	92.5
526.495	89.5
526.71	60.5
526.925	82.5
527.14	80.5
527.355	84.5
527.57	84.5
527.785	74.5
527.999	96.5
528.214	91.5
528.429	107.5
528.644	93.5
528.859	93.5
529.074	89.5
529.289	131.5
529.503	213.5
529.718	99.5
529.933	93.5
530.148	97.5
530.363	88.5
530.577	92.5
530.792	96.5
531.007	78.5
531.221	92.5
531.436	89.5
531.651	85.5
531.865	87.5
532.08	93.5
532.295	97.5
532.509	86.5
532.724	99.5
532.938	81.5
533.153	102.5
533.367	87.5
533.582	85.5
533.796	80.5
534.011	92.5
534.225	94.5
534.44	92.5
534.654	102.5
534.868	94.5
535.083	92.5
535.297	80.5
535.511	92.5
535.726	95.5
