Data from Circ_2022_H10_HRD10591_00069.txt Node
Date: Wed Jan 03 09:53:51 EST 2024
User: Yrep
Spectrometer: HR+D1059
Trigger mode: 1
Integration Time (sec): 1.000000E-1
Scans to average: 1
Electric dark correction enabled: true
Nonlinearity correction enabled: false
Boxcar width: 0
XAxis mode: Wavelengths
Number of Pixels in Spectrum: 2048
>>>>>Begin Spectral Data<<<<<
223.165	-15.44
223.4	-15.44
223.635	-15.44
223.869	-15.44
224.104	-20.44
224.338	-23.44
224.573	-4.44
224.808	-12.44
225.042	-2.44
225.277	-0.44
225.511	-3.44
225.746	-0.44
225.98	-0.44
226.215	16.56
226.449	15.56
226.683	13.56
226.918	24.56
227.152	28.56
227.387	33.56
227.621	61.56
227.856	49.56
228.09	57.56
228.324	52.56
228.559	57.56
228.793	60.56
229.027	59.56
229.262	43.56
229.496	79.56
229.73	99.56
229.964	77.56
230.199	75.56
230.433	80.56
230.667	67.56
230.901	79.56
231.136	81.56
231.37	80.56
231.604	70.56
231.838	90.56
232.072	77.56
232.306	80.56
232.541	81.56
232.775	87.56
233.009	87.56
233.243	98.56
233.477	82.56
233.711	90.56
233.945	80.56
234.179	76.56
234.413	81.56
234.647	72.56
234.881	81.56
235.115	86.56
235.349	84.56
235.583	89.56
235.817	79.56
236.051	85.56
236.285	98.56
236.519	74.56
236.753	86.56
236.987	88.56
237.221	87.56
237.455	100.56
237.689	76.56
237.922	77.56
238.156	88.56
238.39	79.56
238.624	85.56
238.858	72.56
239.091	76.56
239.325	80.56
239.559	95.56
239.793	88.56
240.027	84.56
240.26	75.56
240.494	94.56
240.728	80.56
240.961	77.56
241.195	87.56
241.429	72.56
241.662	90.56
241.896	75.56
242.13	80.56
242.363	73.56
242.597	91.56
242.83	75.56
243.064	80.56
243.298	88.56
243.531	89.56
243.765	75.56
243.998	85.56
244.232	86.56
244.465	93.56
244.699	82.56
244.932	82.56
245.166	74.56
245.399	89.56
245.633	98.56
245.866	92.56
246.099	84.56
246.333	87.56
246.566	85.56
246.8	76.56
247.033	88.56
247.266	95.56
247.5	72.56
247.733	85.56
247.966	77.56
248.2	87.56
248.433	83.56
248.666	83.56
248.899	82.56
249.133	99.56
249.366	97.56
249.599	100.56
249.832	84.56
250.066	77.56
250.299	67.56
250.532	80.56
250.765	78.56
250.998	67.56
251.231	83.56
251.465	84.56
251.698	77.56
251.931	82.56
252.164	77.56
252.397	99.56
252.63	79.56
252.863	87.56
253.096	79.56
253.329	80.56
253.562	89.56
253.795	96.56
254.028	92.56
254.261	88.56
254.494	67.56
254.727	81.56
254.96	81.56
255.193	84.56
255.426	74.56
255.659	84.56
255.892	77.56
256.124	93.56
256.357	88.56
256.59	90.56
256.823	88.56
257.056	93.56
257.289	85.56
257.521	85.56
257.754	80.56
257.987	94.56
258.22	85.56
258.452	83.56
258.685	88.56
258.918	94.56
259.151	97.56
259.383	67.56
259.616	84.56
259.849	89.56
260.081	84.56
260.314	81.56
260.547	98.56
260.779	91.56
261.012	84.56
261.244	95.56
261.477	104.56
261.71	101.56
261.942	125.56
262.175	138.56
262.407	85.56
262.64	74.56
262.872	77.56
263.105	93.56
263.337	101.56
263.57	75.56
263.802	82.56
264.035	76.56
264.267	83.56
264.499	81.56
264.732	81.56
264.964	89.56
265.197	80.56
265.429	77.56
265.661	90.56
265.894	89.56
266.126	67.56
266.358	92.56
266.591	86.56
266.823	74.56
267.055	87.56
267.287	85.56
267.52	90.56
267.752	75.56
267.984	103.56
268.216	97.56
268.448	74.56
268.681	92.56
268.913	94.56
269.145	103.56
269.377	97.56
269.609	55.56
269.841	99.56
270.073	90.56
270.306	89.56
270.538	78.56
270.77	76.56
271.002	99.56
271.234	77.56
271.466	108.56
271.698	96.56
271.93	91.56
272.162	96.56
272.394	92.56
272.626	86.56
272.858	82.56
273.09	83.56
273.322	100.56
273.553	92.56
273.785	73.56
274.017	81.56
274.249	83.56
274.481	91.56
274.713	107.56
274.945	97.56
275.176	103.56
275.408	92.56
275.64	87.56
275.872	92.56
276.104	84.56
276.335	90.56
276.567	106.56
276.799	120.56
277.031	121.56
277.262	103.56
277.494	101.56
277.726	85.56
277.957	92.56
278.189	87.56
278.421	87.56
278.652	108.56
278.884	85.56
279.115	75.56
279.347	72.56
279.579	88.56
279.81	94.56
280.042	95.56
280.273	113.56
280.505	100.56
280.736	78.56
280.968	75.56
281.199	90.56
281.431	98.56
281.662	81.56
281.894	90.56
282.125	107.56
282.356	131.56
282.588	177.56
282.819	132.56
283.051	83.56
283.282	75.56
283.513	91.56
283.745	91.56
283.976	95.56
284.207	84.56
284.439	82.56
284.67	106.56
284.901	97.56
285.132	83.56
285.364	85.56
285.595	81.56
285.826	84.56
286.057	97.56
286.288	92.56
286.52	89.56
286.751	90.56
286.982	88.56
287.213	76.56
287.444	92.56
287.675	88.56
287.906	90.56
288.138	91.56
288.369	87.56
288.6	98.56
288.831	84.56
289.062	93.56
289.293	83.56
289.524	90.56
289.755	92.56
289.986	85.56
290.217	93.56
290.448	91.56
290.679	86.56
290.91	89.56
291.141	101.56
291.371	93.56
291.602	92.56
291.833	83.56
292.064	90.56
292.295	96.56
292.526	100.56
292.757	96.56
292.987	89.56
293.218	90.56
293.449	84.56
293.68	88.56
293.91	82.56
294.141	82.56
294.372	103.56
294.603	97.56
294.833	102.56
295.064	94.56
295.295	80.56
295.525	88.56
295.756	107.56
295.987	135.56
296.217	181.56
296.448	159.56
296.679	98.56
296.909	101.56
297.14	99.56
297.37	82.56
297.601	109.56
297.831	90.56
298.062	95.56
298.292	98.56
298.523	90.56
298.753	94.56
298.984	88.56
299.214	90.56
299.445	91.56
299.675	96.56
299.905	91.56
300.136	95.56
300.366	91.56
300.597	100.56
300.827	89.56
301.057	92.56
301.288	105.56
301.518	98.56
301.748	81.56
301.979	97.56
302.209	111.56
302.439	97.56
302.669	93.56
302.9	84.56
303.13	80.56
303.36	84.56
303.59	110.56
303.82	119.56
304.051	105.56
304.281	89.56
304.511	87.56
304.741	93.56
304.971	76.56
305.201	76.56
305.431	92.56
305.661	78.56
305.891	90.56
306.121	108.56
306.352	112.56
306.582	109.56
306.812	95.56
307.042	96.56
307.272	103.56
307.502	100.56
307.731	100.56
307.961	117.56
308.191	99.56
308.421	103.56
308.651	95.56
308.881	97.56
309.111	95.56
309.341	98.56
309.571	94.56
309.8	111.56
310.03	101.56
310.26	91.56
310.49	92.56
310.72	100.56
310.949	93.56
311.179	107.56
311.409	87.56
311.639	106.56
311.868	119.56
312.098	92.56
312.328	105.56
312.557	118.56
312.787	123.56
313.017	111.56
313.246	100.56
313.476	98.56
313.706	113.56
313.935	101.56
314.165	90.56
314.394	103.56
314.624	94.56
314.853	96.56
315.083	94.56
315.312	95.56
315.542	88.56
315.771	96.56
316.001	98.56
316.23	104.56
316.46	73.56
316.689	87.56
316.919	92.56
317.148	85.56
317.377	84.56
317.607	104.56
317.836	101.56
318.065	96.56
318.295	94.56
318.524	101.56
318.753	97.56
318.983	89.56
319.212	97.56
319.441	104.56
319.67	112.56
319.9	103.56
320.129	100.56
320.358	87.56
320.587	83.56
320.816	101.56
321.046	102.56
321.275	96.56
321.504	112.56
321.733	96.56
321.962	111.56
322.191	98.56
322.42	100.56
322.649	125.56
322.878	137.56
323.108	136.56
323.337	144.56
323.566	169.56
323.795	174.56
324.024	264.56
324.253	507.56
324.482	1072.56
324.71	2280.56
324.939	3036.56
325.168	1112.56
325.397	312.56
325.626	184.56
325.855	153.56
326.084	134.56
326.313	149.56
326.542	167.56
326.77	263.56
326.999	537.56
327.228	1185.56
327.457	2189.56
327.686	1770.56
327.914	476.56
328.143	288.56
328.372	243.56
328.6	185.56
328.829	138.56
329.058	168.56
329.287	180.56
329.515	125.56
329.744	128.56
329.972	178.56
330.201	237.56
330.43	315.56
330.658	214.56
330.887	205.56
331.115	151.56
331.344	119.56
331.572	104.56
331.801	123.56
332.03	121.56
332.258	103.56
332.486	96.56
332.715	104.56
332.943	116.56
333.172	101.56
333.4	125.56
333.629	122.56
333.857	142.56
334.085	175.56
334.314	217.56
334.542	371.56
334.771	338.56
334.999	169.56
335.227	96.56
335.455	95.56
335.684	97.56
335.912	111.56
336.14	96.56
336.369	85.56
336.597	104.56
336.825	103.56
337.053	87.56
337.281	95.56
337.51	89.56
337.738	92.56
337.966	85.56
338.194	90.56
338.422	96.56
338.65	101.56
338.878	90.56
339.106	84.56
339.334	87.56
339.562	98.56
339.79	87.56
340.018	96.56
340.246	98.56
340.474	107.56
340.702	105.56
340.93	103.56
341.158	98.56
341.386	99.56
341.614	112.56
341.842	91.56
342.07	93.56
342.298	90.56
342.526	76.56
342.754	82.56
342.981	87.56
343.209	82.56
343.437	90.56
343.665	104.56
343.893	101.56
344.12	90.56
344.348	91.56
344.576	100.56
344.804	95.56
345.031	110.56
345.259	109.56
345.487	97.56
345.714	89.56
345.942	96.56
346.17	90.56
346.397	100.56
346.625	100.56
346.853	111.56
347.08	91.56
347.308	97.56
347.535	103.56
347.763	117.56
347.99	105.56
348.218	111.56
348.445	116.56
348.673	122.56
348.9	88.56
349.128	95.56
349.355	92.56
349.583	88.56
349.81	95.56
350.037	103.56
350.265	92.56
350.492	98.56
350.72	96.56
350.947	115.56
351.174	115.56
351.402	113.56
351.629	101.56
351.856	129.56
352.083	105.56
352.311	111.56
352.538	118.56
352.765	121.56
352.992	108.56
353.22	126.56
353.447	105.56
353.674	98.56
353.901	99.56
354.128	105.56
354.355	98.56
354.583	98.56
354.81	104.56
355.037	99.56
355.264	90.56
355.491	97.56
355.718	86.56
355.945	72.56
356.172	93.56
356.399	102.56
356.626	103.56
356.853	102.56
357.08	93.56
357.307	100.56
357.534	91.56
357.761	89.56
357.988	91.56
358.215	101.56
358.441	92.56
358.668	101.56
358.895	87.56
359.122	89.56
359.349	67.56
359.576	89.56
359.802	106.56
360.029	135.56
360.256	125.56
360.483	112.56
360.709	93.56
360.936	88.56
361.163	114.56
361.39	99.56
361.616	113.56
361.843	92.56
362.07	102.56
362.296	96.56
362.523	97.56
362.749	90.56
362.976	89.56
363.203	82.56
363.429	93.56
363.656	98.56
363.882	88.56
364.109	105.56
364.335	86.56
364.562	99.56
364.788	100.56
365.015	105.56
365.241	92.56
365.468	114.56
365.694	117.56
365.92	102.56
366.147	97.56
366.373	95.56
366.599	95.56
366.826	103.56
367.052	90.56
367.278	90.56
367.505	99.56
367.731	80.56
367.957	99.56
368.184	107.56
368.41	107.56
368.636	131.56
368.862	144.56
369.089	132.56
369.315	108.56
369.541	92.56
369.767	102.56
369.993	104.56
370.219	93.56
370.445	71.56
370.672	89.56
370.898	85.56
371.124	88.56
371.35	77.56
371.576	83.56
371.802	80.56
372.028	98.56
372.254	106.56
372.48	101.56
372.706	81.56
372.932	80.56
373.158	89.56
373.384	82.56
373.61	84.56
373.835	98.56
374.061	100.56
374.287	89.56
374.513	102.56
374.739	88.56
374.965	99.56
375.191	96.56
375.416	82.56
375.642	80.56
375.868	88.56
376.094	95.56
376.319	98.56
376.545	85.56
376.771	80.56
376.997	82.56
377.222	86.56
377.448	95.56
377.674	91.56
377.899	89.56
378.125	87.56
378.35	91.56
378.576	84.56
378.802	94.56
379.027	99.56
379.253	92.56
379.478	81.56
379.704	93.56
379.929	103.56
380.155	87.56
380.38	91.56
380.606	108.56
380.831	100.56
381.057	91.56
381.282	83.56
381.507	81.56
381.733	89.56
381.958	96.56
382.184	97.56
382.409	87.56
382.634	95.56
382.86	108.56
383.085	91.56
383.31	95.56
383.535	101.56
383.761	98.56
383.986	103.56
384.211	90.56
384.436	96.56
384.662	100.56
384.887	103.56
385.112	107.56
385.337	95.56
385.562	107.56
385.787	97.56
386.013	111.56
386.238	125.56
386.463	116.56
386.688	107.56
386.913	108.56
387.138	104.56
387.363	105.56
387.588	88.56
387.813	92.56
388.038	92.56
388.263	112.56
388.488	94.56
388.713	96.56
388.938	94.56
389.163	94.56
389.387	103.56
389.612	72.56
389.837	91.56
390.062	83.56
390.287	77.56
390.512	92.56
390.736	84.56
390.961	92.56
391.186	86.56
391.411	85.56
391.636	90.56
391.86	93.56
392.085	81.56
392.31	82.56
392.534	84.56
392.759	88.56
392.984	93.56
393.208	100.56
393.433	104.56
393.658	96.56
393.882	89.56
394.107	82.56
394.331	95.56
394.556	72.56
394.78	92.56
395.005	92.56
395.229	90.56
395.454	93.56
395.678	94.56
395.903	89.56
396.127	88.56
396.352	97.56
396.576	82.56
396.801	91.56
397.025	98.56
397.249	96.56
397.474	91.56
397.698	96.56
397.922	91.56
398.147	83.56
398.371	94.56
398.595	95.56
398.82	74.56
399.044	72.56
399.268	86.56
399.492	79.56
399.717	100.56
399.941	86.56
400.165	96.56
400.389	96.56
400.613	85.56
400.837	81.56
401.062	85.56
401.286	98.56
401.51	97.56
401.734	95.56
401.958	107.56
402.182	133.56
402.406	197.56
402.63	141.56
402.854	108.56
403.078	86.56
403.302	85.56
403.526	77.56
403.75	89.56
403.974	91.56
404.198	88.56
404.422	86.56
404.645	93.56
404.869	92.56
405.093	120.56
405.317	128.56
405.541	131.56
405.765	118.56
405.988	133.56
406.212	201.56
406.436	315.56
406.66	203.56
406.883	124.56
407.107	101.56
407.331	100.56
407.555	97.56
407.778	124.56
408.002	100.56
408.226	93.56
408.449	96.56
408.673	101.56
408.896	88.56
409.12	89.56
409.344	97.56
409.567	77.56
409.791	100.56
410.014	89.56
410.238	97.56
410.461	93.56
410.685	88.56
410.908	92.56
411.132	102.56
411.355	111.56
411.578	86.56
411.802	82.56
412.025	86.56
412.249	97.56
412.472	111.56
412.695	102.56
412.919	91.56
413.142	85.56
413.365	69.56
413.589	76.56
413.812	92.56
414.035	106.56
414.258	92.56
414.482	98.56
414.705	84.56
414.928	102.56
415.151	96.56
415.374	90.56
415.597	81.56
415.821	94.56
416.044	84.56
416.267	87.56
416.49	91.56
416.713	101.56
416.936	90.56
417.159	95.56
417.382	85.56
417.605	91.56
417.828	111.56
418.051	87.56
418.274	84.56
418.497	81.56
418.72	95.56
418.943	104.56
419.166	94.56
419.389	87.56
419.611	91.56
419.834	91.56
420.057	98.56
420.28	90.56
420.503	82.56
420.726	91.56
420.948	74.56
421.171	102.56
421.394	88.56
421.617	96.56
421.839	86.56
422.062	85.56
422.285	91.56
422.507	114.56
422.73	118.56
422.953	105.56
423.175	85.56
423.398	76.56
423.621	93.56
423.843	87.56
424.066	84.56
424.288	90.56
424.511	84.56
424.733	100.56
424.956	108.56
425.178	111.56
425.401	105.56
425.623	114.56
425.846	92.56
426.068	106.56
426.291	95.56
426.513	79.56
426.735	87.56
426.958	93.56
427.18	106.56
427.402	169.56
427.625	241.56
427.847	196.56
428.069	147.56
428.292	111.56
428.514	103.56
428.736	91.56
428.958	83.56
429.181	88.56
429.403	79.56
429.625	92.56
429.847	100.56
430.069	114.56
430.292	97.56
430.514	87.56
430.736	69.56
430.958	84.56
431.18	83.56
431.402	95.56
431.624	81.56
431.846	76.56
432.068	90.56
432.29	92.56
432.512	104.56
432.734	91.56
432.956	112.56
433.178	101.56
433.4	94.56
433.622	86.56
433.844	97.56
434.066	96.56
434.287	91.56
434.509	100.56
434.731	85.56
434.953	89.56
435.175	84.56
435.397	91.56
435.618	94.56
435.84	107.56
436.062	143.56
436.284	118.56
436.505	110.56
436.727	100.56
436.949	98.56
437.17	92.56
437.392	83.56
437.614	108.56
437.835	120.56
438.057	144.56
438.278	145.56
438.5	111.56
438.721	138.56
438.943	112.56
439.165	92.56
439.386	93.56
439.608	99.56
439.829	117.56
440.05	138.56
440.272	183.56
440.493	106.56
440.715	99.56
440.936	70.56
441.158	85.56
441.379	69.56
441.6	91.56
441.822	91.56
442.043	98.56
442.264	96.56
442.486	117.56
442.707	98.56
442.928	118.56
443.149	174.56
443.371	177.56
443.592	136.56
443.813	135.56
444.034	116.56
444.255	95.56
444.476	83.56
444.698	93.56
444.919	95.56
445.14	154.56
445.361	147.56
445.582	147.56
445.803	180.56
446.024	176.56
446.245	164.56
446.466	139.56
446.687	93.56
446.908	94.56
447.129	89.56
447.35	100.56
447.571	103.56
447.792	95.56
448.013	97.56
448.234	129.56
448.455	109.56
448.675	140.56
448.896	147.56
449.117	115.56
449.338	108.56
449.559	142.56
449.779	151.56
450	118.56
450.221	81.56
450.442	100.56
450.662	116.56
450.883	136.56
451.104	132.56
451.324	98.56
451.545	88.56
451.766	76.56
451.986	95.56
452.207	104.56
452.428	91.56
452.648	113.56
452.869	141.56
453.089	135.56
453.31	132.56
453.53	95.56
453.751	103.56
453.971	113.56
454.192	133.56
454.412	115.56
454.633	87.56
454.853	98.56
455.073	95.56
455.294	101.56
455.514	118.56
455.734	95.56
455.955	79.56
456.175	91.56
456.395	81.56
456.616	87.56
456.836	97.56
457.056	88.56
457.276	77.56
457.497	85.56
457.717	89.56
457.937	89.56
458.157	89.56
458.377	107.56
458.598	123.56
458.818	195.56
459.038	223.56
459.258	141.56
459.478	97.56
459.698	91.56
459.918	92.56
460.138	105.56
460.358	87.56
460.578	93.56
460.798	80.56
461.018	85.56
461.238	92.56
461.458	77.56
461.678	88.56
461.898	83.56
462.118	78.56
462.338	86.56
462.558	103.56
462.777	84.56
462.997	89.56
463.217	87.56
463.437	78.56
463.657	95.56
463.876	89.56
464.096	106.56
464.316	99.56
464.536	89.56
464.755	90.56
464.975	114.56
465.195	210.56
465.414	226.56
465.634	101.56
465.854	89.56
466.073	74.56
466.293	91.56
466.512	90.56
466.732	79.56
466.951	87.56
467.171	101.56
467.391	94.56
467.61	118.56
467.829	131.56
468.049	160.56
468.268	192.56
468.488	100.56
468.707	77.56
468.927	93.56
469.146	79.56
469.365	87.56
469.585	93.56
469.804	111.56
470.023	112.56
470.243	96.56
470.462	116.56
470.681	142.56
470.901	100.56
471.12	109.56
471.339	94.56
471.558	87.56
471.777	83.56
471.997	107.56
472.216	253.56
472.435	427.56
472.654	175.56
472.873	92.56
473.092	81.56
473.311	101.56
473.53	79.56
473.749	89.56
473.968	102.56
474.187	138.56
474.406	100.56
474.625	80.56
474.844	87.56
475.063	90.56
475.282	92.56
475.501	87.56
475.72	96.56
475.939	102.56
476.158	74.56
476.377	82.56
476.596	79.56
476.814	102.56
477.033	101.56
477.252	105.56
477.471	96.56
477.69	92.56
477.908	82.56
478.127	91.56
478.346	100.56
478.564	92.56
478.783	104.56
479.002	94.56
479.22	87.56
479.439	116.56
479.658	114.56
479.876	106.56
480.095	107.56
480.313	99.56
480.532	113.56
480.751	115.56
480.969	241.56
481.188	717.56
481.406	493.56
481.624	148.56
481.843	101.56
482.061	82.56
482.28	103.56
482.498	95.56
482.717	91.56
482.935	95.56
483.153	92.56
483.372	90.56
483.59	97.56
483.808	98.56
484.027	91.56
484.245	103.56
484.463	100.56
484.681	103.56
484.9	90.56
485.118	90.56
485.336	88.56
485.554	86.56
485.772	88.56
485.99	117.56
486.209	112.56
486.427	106.56
486.645	100.56
486.863	128.56
487.081	116.56
487.299	85.56
487.517	92.56
487.735	97.56
487.953	104.56
488.171	105.56
488.389	101.56
488.607	111.56
488.825	83.56
489.043	97.56
489.261	93.56
489.479	93.56
489.696	86.56
489.914	78.56
490.132	95.56
490.35	93.56
490.568	78.56
490.786	92.56
491.003	94.56
491.221	83.56
491.439	105.56
491.657	99.56
491.874	93.56
492.092	98.56
492.31	92.56
492.527	92.56
492.745	88.56
492.963	89.56
493.18	86.56
493.398	85.56
493.615	85.56
493.833	89.56
494.05	93.56
494.268	87.56
494.485	96.56
494.703	79.56
494.92	90.56
495.138	83.56
495.355	94.56
495.573	101.56
495.79	92.56
496.008	88.56
496.225	92.56
496.442	93.56
496.66	100.56
496.877	94.56
497.094	86.56
497.312	96.56
497.529	90.56
497.746	82.56
497.963	93.56
498.181	85.56
498.398	88.56
498.615	127.56
498.832	125.56
499.049	97.56
499.267	91.56
499.484	99.56
499.701	86.56
499.918	98.56
500.135	88.56
500.352	104.56
500.569	93.56
500.786	82.56
501.003	87.56
501.22	101.56
501.437	72.56
501.654	94.56
501.871	113.56
502.088	97.56
502.305	85.56
502.522	99.56
502.739	84.56
502.956	82.56
503.172	96.56
503.389	93.56
503.606	145.56
503.823	93.56
504.04	97.56
504.256	100.56
504.473	97.56
504.69	82.56
504.907	109.56
505.123	84.56
505.34	97.56
505.557	84.56
505.773	104.56
505.99	87.56
506.207	90.56
506.423	94.56
506.64	97.56
506.856	100.56
507.073	94.56
507.289	97.56
507.506	102.56
507.722	130.56
507.939	155.56
508.155	103.56
508.372	98.56
508.588	100.56
508.805	90.56
509.021	100.56
509.238	101.56
509.454	87.56
509.67	120.56
509.887	115.56
510.103	145.56
510.319	259.56
510.536	1021.56
510.752	3556.56
510.968	991.56
511.184	193.56
511.401	135.56
511.617	115.56
511.833	88.56
512.049	96.56
512.265	90.56
512.481	91.56
512.698	110.56
512.914	94.56
513.13	86.56
513.346	98.56
513.562	96.56
513.778	84.56
513.994	98.56
