Data from Circ_2022_H10_HRD10591_00040.txt Node
Date: Wed Jan 03 09:53:45 EST 2024
User: Yrep
Spectrometer: HR+D1059
Trigger mode: 1
Integration Time (sec): 1.000000E-1
Scans to average: 1
Electric dark correction enabled: true
Nonlinearity correction enabled: false
Boxcar width: 0
XAxis mode: Wavelengths
Number of Pixels in Spectrum: 2048
>>>>>Begin Spectral Data<<<<<
223.165	-8.31
223.4	-8.31
223.635	-8.31
223.869	-23.31
224.104	-20.31
224.338	-8.31
224.573	-14.31
224.808	-15.31
225.042	-5.31
225.277	-12.31
225.511	18.69
225.746	14.69
225.98	4.69
226.215	-3.31
226.449	13.69
226.683	17.69
226.918	4.69
227.152	36.69
227.387	31.69
227.621	44.69
227.856	42.69
228.09	50.69
228.324	54.69
228.559	63.69
228.793	51.69
229.027	57.69
229.262	79.69
229.496	83.69
229.73	76.69
229.964	85.69
230.199	66.69
230.433	59.69
230.667	74.69
230.901	90.69
231.136	71.69
231.37	70.69
231.604	79.69
231.838	86.69
232.072	72.69
232.306	64.69
232.541	73.69
232.775	84.69
233.009	78.69
233.243	85.69
233.477	86.69
233.711	83.69
233.945	84.69
234.179	87.69
234.413	74.69
234.647	75.69
234.881	80.69
235.115	71.69
235.349	84.69
235.583	91.69
235.817	90.69
236.051	71.69
236.285	74.69
236.519	84.69
236.753	79.69
236.987	80.69
237.221	85.69
237.455	81.69
237.689	85.69
237.922	74.69
238.156	83.69
238.39	75.69
238.624	75.69
238.858	76.69
239.091	65.69
239.325	80.69
239.559	75.69
239.793	76.69
240.027	62.69
240.26	75.69
240.494	67.69
240.728	75.69
240.961	72.69
241.195	84.69
241.429	71.69
241.662	84.69
241.896	93.69
242.13	84.69
242.363	88.69
242.597	77.69
242.83	72.69
243.064	76.69
243.298	82.69
243.531	83.69
243.765	83.69
243.998	84.69
244.232	81.69
244.465	81.69
244.699	66.69
244.932	72.69
245.166	82.69
245.399	78.69
245.633	82.69
245.866	79.69
246.099	85.69
246.333	72.69
246.566	77.69
246.8	76.69
247.033	80.69
247.266	84.69
247.5	90.69
247.733	83.69
247.966	93.69
248.2	86.69
248.433	64.69
248.666	78.69
248.899	93.69
249.133	87.69
249.366	98.69
249.599	90.69
249.832	87.69
250.066	83.69
250.299	98.69
250.532	79.69
250.765	84.69
250.998	86.69
251.231	84.69
251.465	85.69
251.698	89.69
251.931	71.69
252.164	79.69
252.397	77.69
252.63	72.69
252.863	75.69
253.096	92.69
253.329	85.69
253.562	58.69
253.795	101.69
254.028	80.69
254.261	90.69
254.494	78.69
254.727	83.69
254.96	88.69
255.193	95.69
255.426	76.69
255.659	79.69
255.892	96.69
256.124	69.69
256.357	67.69
256.59	93.69
256.823	82.69
257.056	92.69
257.289	95.69
257.521	79.69
257.754	89.69
257.987	88.69
258.22	81.69
258.452	74.69
258.685	76.69
258.918	71.69
259.151	71.69
259.383	82.69
259.616	69.69
259.849	78.69
260.081	96.69
260.314	79.69
260.547	74.69
260.779	88.69
261.012	74.69
261.244	80.69
261.477	90.69
261.71	93.69
261.942	112.69
262.175	107.69
262.407	90.69
262.64	82.69
262.872	79.69
263.105	82.69
263.337	86.69
263.57	80.69
263.802	85.69
264.035	78.69
264.267	86.69
264.499	91.69
264.732	78.69
264.964	75.69
265.197	88.69
265.429	78.69
265.661	78.69
265.894	82.69
266.126	88.69
266.358	81.69
266.591	83.69
266.823	93.69
267.055	88.69
267.287	83.69
267.52	86.69
267.752	73.69
267.984	75.69
268.216	79.69
268.448	80.69
268.681	74.69
268.913	72.69
269.145	72.69
269.377	90.69
269.609	85.69
269.841	73.69
270.073	75.69
270.306	89.69
270.538	94.69
270.77	74.69
271.002	90.69
271.234	88.69
271.466	74.69
271.698	82.69
271.93	76.69
272.162	98.69
272.394	101.69
272.626	86.69
272.858	91.69
273.09	82.69
273.322	82.69
273.553	89.69
273.785	103.69
274.017	89.69
274.249	79.69
274.481	103.69
274.713	84.69
274.945	71.69
275.176	90.69
275.408	85.69
275.64	78.69
275.872	92.69
276.104	83.69
276.335	98.69
276.567	99.69
276.799	110.69
277.031	85.69
277.262	104.69
277.494	99.69
277.726	67.69
277.957	74.69
278.189	88.69
278.421	89.69
278.652	94.69
278.884	92.69
279.115	79.69
279.347	82.69
279.579	84.69
279.81	93.69
280.042	92.69
280.273	102.69
280.505	105.69
280.736	83.69
280.968	94.69
281.199	87.69
281.431	96.69
281.662	94.69
281.894	82.69
282.125	79.69
282.356	123.69
282.588	146.69
282.819	110.69
283.051	110.69
283.282	93.69
283.513	89.69
283.745	95.69
283.976	83.69
284.207	90.69
284.439	96.69
284.67	102.69
284.901	89.69
285.132	86.69
285.364	98.69
285.595	82.69
285.826	99.69
286.057	72.69
286.288	85.69
286.52	81.69
286.751	85.69
286.982	96.69
287.213	87.69
287.444	87.69
287.675	86.69
287.906	82.69
288.138	91.69
288.369	73.69
288.6	94.69
288.831	76.69
289.062	92.69
289.293	79.69
289.524	76.69
289.755	84.69
289.986	83.69
290.217	98.69
290.448	96.69
290.679	75.69
290.91	93.69
291.141	88.69
291.371	72.69
291.602	84.69
291.833	85.69
292.064	84.69
292.295	90.69
292.526	83.69
292.757	77.69
292.987	83.69
293.218	71.69
293.449	66.69
293.68	87.69
293.91	88.69
294.141	88.69
294.372	86.69
294.603	95.69
294.833	81.69
295.064	87.69
295.295	89.69
295.525	96.69
295.756	107.69
295.987	138.69
296.217	165.69
296.448	135.69
296.679	87.69
296.909	88.69
297.14	92.69
297.37	88.69
297.601	83.69
297.831	87.69
298.062	81.69
298.292	84.69
298.523	91.69
298.753	79.69
298.984	86.69
299.214	78.69
299.445	79.69
299.675	90.69
299.905	95.69
300.136	95.69
300.366	96.69
300.597	104.69
300.827	96.69
301.057	94.69
301.288	110.69
301.518	94.69
301.748	94.69
301.979	85.69
302.209	99.69
302.439	89.69
302.669	85.69
302.9	94.69
303.13	104.69
303.36	88.69
303.59	107.69
303.82	107.69
304.051	96.69
304.281	92.69
304.511	95.69
304.741	92.69
304.971	79.69
305.201	90.69
305.431	91.69
305.661	78.69
305.891	90.69
306.121	99.69
306.352	103.69
306.582	112.69
306.812	105.69
307.042	88.69
307.272	76.69
307.502	104.69
307.731	97.69
307.961	90.69
308.191	96.69
308.421	101.69
308.651	92.69
308.881	88.69
309.111	83.69
309.341	105.69
309.571	93.69
309.8	88.69
310.03	90.69
310.26	99.69
310.49	88.69
310.72	100.69
310.949	103.69
311.179	114.69
311.409	87.69
311.639	104.69
311.868	80.69
312.098	106.69
312.328	103.69
312.557	98.69
312.787	102.69
313.017	90.69
313.246	86.69
313.476	92.69
313.706	83.69
313.935	98.69
314.165	99.69
314.394	100.69
314.624	91.69
314.853	85.69
315.083	100.69
315.312	104.69
315.542	91.69
315.771	96.69
316.001	91.69
316.23	91.69
316.46	91.69
316.689	95.69
316.919	85.69
317.148	91.69
317.377	105.69
317.607	82.69
317.836	95.69
318.065	80.69
318.295	90.69
318.524	92.69
318.753	103.69
318.983	103.69
319.212	106.69
319.441	108.69
319.67	102.69
319.9	87.69
320.129	98.69
320.358	88.69
320.587	85.69
320.816	87.69
321.046	103.69
321.275	81.69
321.504	104.69
321.733	95.69
321.962	114.69
322.191	105.69
322.42	108.69
322.649	127.69
322.878	112.69
323.108	123.69
323.337	126.69
323.566	138.69
323.795	148.69
324.024	214.69
324.253	422.69
324.482	831.69
324.71	1732.69
324.939	2251.69
325.168	846.69
325.397	270.69
325.626	148.69
325.855	147.69
326.084	133.69
326.313	126.69
326.542	145.69
326.77	210.69
326.999	449.69
327.228	903.69
327.457	1663.69
327.686	1326.69
327.914	392.69
328.143	202.69
328.372	160.69
328.6	125.69
328.829	132.69
329.058	119.69
329.287	124.69
329.515	107.69
329.744	106.69
329.972	111.69
330.201	128.69
330.43	141.69
330.658	148.69
330.887	146.69
331.115	145.69
331.344	103.69
331.572	97.69
331.801	116.69
332.03	93.69
332.258	91.69
332.486	92.69
332.715	91.69
332.943	110.69
333.172	98.69
333.4	89.69
333.629	107.69
333.857	111.69
334.085	105.69
334.314	126.69
334.542	143.69
334.771	144.69
334.999	98.69
335.227	91.69
335.455	97.69
335.684	107.69
335.912	93.69
336.14	95.69
336.369	95.69
336.597	108.69
336.825	87.69
337.053	90.69
337.281	83.69
337.51	88.69
337.738	99.69
337.966	90.69
338.194	100.69
338.422	104.69
338.65	92.69
338.878	90.69
339.106	95.69
339.334	75.69
339.562	81.69
339.79	104.69
340.018	103.69
340.246	96.69
340.474	90.69
340.702	104.69
340.93	93.69
341.158	99.69
341.386	99.69
341.614	89.69
341.842	83.69
342.07	96.69
342.298	105.69
342.526	91.69
342.754	88.69
342.981	81.69
343.209	84.69
343.437	97.69
343.665	83.69
343.893	104.69
344.12	83.69
344.348	82.69
344.576	106.69
344.804	86.69
345.031	98.69
345.259	107.69
345.487	97.69
345.714	106.69
345.942	90.69
346.17	98.69
346.397	107.69
346.625	95.69
346.853	94.69
347.08	87.69
347.308	101.69
347.535	100.69
347.763	99.69
347.99	94.69
348.218	107.69
348.445	84.69
348.673	96.69
348.9	108.69
349.128	76.69
349.355	94.69
349.583	93.69
349.81	89.69
350.037	89.69
350.265	92.69
350.492	99.69
350.72	88.69
350.947	98.69
351.174	104.69
351.402	107.69
351.629	97.69
351.856	107.69
352.083	107.69
352.311	105.69
352.538	111.69
352.765	116.69
352.992	111.69
353.22	104.69
353.447	96.69
353.674	110.69
353.901	106.69
354.128	94.69
354.355	90.69
354.583	105.69
354.81	105.69
355.037	108.69
355.264	85.69
355.491	87.69
355.718	83.69
355.945	96.69
356.172	96.69
356.399	105.69
356.626	87.69
356.853	91.69
357.08	92.69
357.307	86.69
357.534	98.69
357.761	106.69
357.988	88.69
358.215	91.69
358.441	95.69
358.668	88.69
358.895	90.69
359.122	95.69
359.349	80.69
359.576	84.69
359.802	97.69
360.029	110.69
360.256	114.69
360.483	115.69
360.709	89.69
360.936	88.69
361.163	103.69
361.39	107.69
361.616	91.69
361.843	99.69
362.07	86.69
362.296	105.69
362.523	80.69
362.749	91.69
362.976	78.69
363.203	95.69
363.429	92.69
363.656	89.69
363.882	86.69
364.109	90.69
364.335	99.69
364.562	89.69
364.788	94.69
365.015	105.69
365.241	96.69
365.468	112.69
365.694	109.69
365.92	95.69
366.147	92.69
366.373	88.69
366.599	92.69
366.826	73.69
367.052	82.69
367.278	92.69
367.505	95.69
367.731	83.69
367.957	102.69
368.184	88.69
368.41	99.69
368.636	126.69
368.862	131.69
369.089	105.69
369.315	85.69
369.541	91.69
369.767	97.69
369.993	82.69
370.219	86.69
370.445	95.69
370.672	82.69
370.898	98.69
371.124	97.69
371.35	87.69
371.576	91.69
371.802	91.69
372.028	83.69
372.254	78.69
372.48	82.69
372.706	73.69
372.932	78.69
373.158	87.69
373.384	100.69
373.61	92.69
373.835	81.69
374.061	90.69
374.287	100.69
374.513	85.69
374.739	104.69
374.965	88.69
375.191	75.69
375.416	83.69
375.642	89.69
375.868	102.69
376.094	91.69
376.319	87.69
376.545	77.69
376.771	71.69
376.997	97.69
377.222	85.69
377.448	84.69
377.674	106.69
377.899	99.69
378.125	102.69
378.35	86.69
378.576	96.69
378.802	89.69
379.027	93.69
379.253	91.69
379.478	91.69
379.704	83.69
379.929	90.69
380.155	85.69
380.38	83.69
380.606	71.69
380.831	105.69
381.057	95.69
381.282	106.69
381.507	85.69
381.733	90.69
381.958	88.69
382.184	98.69
382.409	94.69
382.634	96.69
382.86	102.69
383.085	112.69
383.31	94.69
383.535	102.69
383.761	98.69
383.986	88.69
384.211	93.69
384.436	96.69
384.662	106.69
384.887	74.69
385.112	97.69
385.337	99.69
385.562	96.69
385.787	115.69
386.013	103.69
386.238	126.69
386.463	102.69
386.688	107.69
386.913	100.69
387.138	115.69
387.363	125.69
387.588	82.69
387.813	100.69
388.038	102.69
388.263	105.69
388.488	122.69
388.713	112.69
388.938	107.69
389.163	111.69
389.387	99.69
389.612	86.69
389.837	80.69
390.062	78.69
390.287	93.69
390.512	91.69
390.736	88.69
390.961	84.69
391.186	104.69
391.411	103.69
391.636	75.69
391.86	95.69
392.085	95.69
392.31	86.69
392.534	85.69
392.759	98.69
392.984	88.69
393.208	97.69
393.433	95.69
393.658	103.69
393.882	92.69
394.107	78.69
394.331	86.69
394.556	82.69
394.78	97.69
395.005	91.69
395.229	89.69
395.454	94.69
395.678	92.69
395.903	88.69
396.127	108.69
396.352	75.69
396.576	92.69
396.801	91.69
397.025	88.69
397.249	83.69
397.474	81.69
397.698	101.69
397.922	104.69
398.147	99.69
398.371	90.69
398.595	69.69
398.82	76.69
399.044	88.69
399.268	70.69
399.492	87.69
399.717	88.69
399.941	81.69
400.165	90.69
400.389	90.69
400.613	81.69
400.837	90.69
401.062	75.69
401.286	79.69
401.51	79.69
401.734	92.69
401.958	103.69
402.182	134.69
402.406	170.69
402.63	131.69
402.854	89.69
403.078	92.69
403.302	91.69
403.526	94.69
403.75	84.69
403.974	90.69
404.198	95.69
404.422	92.69
404.645	91.69
404.869	91.69
405.093	87.69
405.317	105.69
405.541	112.69
405.765	105.69
405.988	128.69
406.212	188.69
406.436	256.69
406.66	156.69
406.883	90.69
407.107	94.69
407.331	92.69
407.555	97.69
407.778	95.69
408.002	94.69
408.226	83.69
408.449	82.69
408.673	77.69
408.896	80.69
409.12	94.69
409.344	75.69
409.567	84.69
409.791	101.69
410.014	97.69
410.238	89.69
410.461	89.69
410.685	87.69
410.908	108.69
411.132	107.69
411.355	100.69
411.578	94.69
411.802	84.69
412.025	91.69
412.249	90.69
412.472	88.69
412.695	90.69
412.919	87.69
413.142	82.69
413.365	98.69
413.589	86.69
413.812	78.69
414.035	98.69
414.258	93.69
414.482	78.69
414.705	78.69
414.928	88.69
415.151	87.69
415.374	91.69
415.597	100.69
415.821	91.69
416.044	90.69
416.267	92.69
416.49	89.69
416.713	92.69
416.936	90.69
417.159	80.69
417.382	85.69
417.605	98.69
417.828	94.69
418.051	87.69
418.274	78.69
418.497	80.69
418.72	88.69
418.943	77.69
419.166	96.69
419.389	93.69
419.611	85.69
419.834	83.69
420.057	75.69
420.28	82.69
420.503	82.69
420.726	91.69
420.948	80.69
421.171	90.69
421.394	103.69
421.617	86.69
421.839	79.69
422.062	86.69
422.285	100.69
422.507	105.69
422.73	124.69
422.953	101.69
423.175	92.69
423.398	76.69
423.621	84.69
423.843	92.69
424.066	87.69
424.288	104.69
424.511	97.69
424.733	95.69
424.956	102.69
425.178	104.69
425.401	96.69
425.623	100.69
425.846	100.69
426.068	90.69
426.291	75.69
426.513	83.69
426.735	89.69
426.958	96.69
427.18	109.69
427.402	137.69
427.625	173.69
427.847	131.69
428.069	122.69
428.292	92.69
428.514	83.69
428.736	91.69
428.958	82.69
429.181	81.69
429.403	80.69
429.625	83.69
429.847	82.69
430.069	103.69
430.292	96.69
430.514	90.69
430.736	85.69
430.958	76.69
431.18	83.69
431.402	75.69
431.624	69.69
431.846	71.69
432.068	90.69
432.29	77.69
432.512	69.69
432.734	95.69
432.956	98.69
433.178	82.69
433.4	80.69
433.622	89.69
433.844	101.69
434.066	86.69
434.287	82.69
434.509	83.69
434.731	85.69
434.953	87.69
435.175	89.69
435.397	98.69
435.618	97.69
435.84	103.69
436.062	122.69
436.284	124.69
436.505	91.69
436.727	92.69
436.949	87.69
437.17	87.69
437.392	88.69
437.614	100.69
437.835	99.69
438.057	122.69
438.278	116.69
438.5	88.69
438.721	118.69
438.943	94.69
439.165	85.69
439.386	87.69
439.608	105.69
439.829	88.69
440.05	110.69
440.272	135.69
440.493	102.69
440.715	70.69
440.936	98.69
441.158	81.69
441.379	88.69
441.6	103.69
441.822	100.69
442.043	83.69
442.264	97.69
442.486	100.69
442.707	86.69
442.928	112.69
443.149	136.69
443.371	132.69
443.592	122.69
443.813	103.69
444.034	96.69
444.255	85.69
444.476	74.69
444.698	66.69
444.919	90.69
445.14	127.69
445.361	111.69
445.582	103.69
445.803	122.69
446.024	144.69
446.245	134.69
446.466	104.69
446.687	86.69
446.908	80.69
447.129	79.69
447.35	99.69
447.571	104.69
447.792	82.69
448.013	113.69
448.234	114.69
448.455	89.69
448.675	110.69
448.896	117.69
449.117	101.69
449.338	104.69
449.559	118.69
449.779	113.69
450	95.69
450.221	91.69
450.442	95.69
450.662	97.69
450.883	103.69
451.104	108.69
451.324	98.69
451.545	85.69
451.766	79.69
451.986	87.69
452.207	81.69
452.428	82.69
452.648	90.69
452.869	123.69
453.089	114.69
453.31	126.69
453.53	96.69
453.751	101.69
453.971	112.69
454.192	99.69
454.412	92.69
454.633	79.69
454.853	89.69
455.073	86.69
455.294	94.69
455.514	90.69
455.734	88.69
455.955	82.69
456.175	77.69
456.395	83.69
456.616	88.69
456.836	76.69
457.056	76.69
457.276	75.69
457.497	79.69
457.717	75.69
457.937	72.69
458.157	80.69
458.377	83.69
458.598	97.69
458.818	162.69
459.038	158.69
459.258	117.69
459.478	82.69
459.698	89.69
459.918	70.69
460.138	87.69
460.358	73.69
460.578	93.69
460.798	79.69
461.018	95.69
461.238	87.69
461.458	95.69
461.678	79.69
461.898	84.69
462.118	83.69
462.338	69.69
462.558	94.69
462.777	105.69
462.997	97.69
463.217	104.69
463.437	91.69
463.657	81.69
463.876	91.69
464.096	94.69
464.316	96.69
464.536	102.69
464.755	91.69
464.975	109.69
465.195	181.69
465.414	171.69
465.634	93.69
465.854	86.69
466.073	88.69
466.293	82.69
466.512	83.69
466.732	98.69
466.951	90.69
467.171	95.69
467.391	93.69
467.61	107.69
467.829	95.69
468.049	97.69
468.268	88.69
468.488	84.69
468.707	93.69
468.927	88.69
469.146	88.69
469.365	97.69
469.585	105.69
469.804	106.69
470.023	87.69
470.243	103.69
470.462	102.69
470.681	117.69
470.901	96.69
471.12	93.69
471.339	91.69
471.558	90.69
471.777	96.69
471.997	83.69
472.216	132.69
472.435	160.69
472.654	98.69
472.873	89.69
473.092	96.69
473.311	92.69
473.53	85.69
473.749	88.69
473.968	100.69
474.187	97.69
474.406	112.69
474.625	94.69
474.844	81.69
475.063	71.69
475.282	85.69
475.501	93.69
475.72	84.69
475.939	97.69
476.158	97.69
476.377	76.69
476.596	100.69
476.814	92.69
477.033	95.69
477.252	99.69
477.471	83.69
477.69	78.69
477.908	103.69
478.127	88.69
478.346	76.69
478.564	80.69
478.783	100.69
479.002	92.69
479.22	80.69
479.439	105.69
479.658	103.69
479.876	89.69
480.095	97.69
480.313	97.69
480.532	99.69
480.751	94.69
480.969	117.69
481.188	225.69
481.406	187.69
481.624	110.69
481.843	90.69
482.061	71.69
482.28	80.69
482.498	80.69
482.717	69.69
482.935	100.69
483.153	92.69
483.372	68.69
483.59	94.69
483.808	86.69
484.027	83.69
484.245	89.69
484.463	98.69
484.681	86.69
484.9	97.69
485.118	83.69
485.336	88.69
485.554	95.69
485.772	95.69
485.99	93.69
486.209	82.69
486.427	94.69
486.645	108.69
486.863	116.69
487.081	105.69
487.299	108.69
487.517	102.69
487.735	97.69
487.953	88.69
488.171	94.69
488.389	88.69
488.607	92.69
488.825	105.69
489.043	96.69
489.261	84.69
489.479	86.69
489.696	82.69
489.914	78.69
490.132	76.69
490.35	90.69
490.568	87.69
490.786	82.69
491.003	92.69
491.221	89.69
491.439	95.69
491.657	97.69
491.874	91.69
492.092	92.69
492.31	93.69
492.527	84.69
492.745	89.69
492.963	91.69
493.18	91.69
493.398	86.69
493.615	98.69
493.833	90.69
494.05	95.69
494.268	83.69
494.485	76.69
494.703	92.69
494.92	95.69
495.138	83.69
495.355	84.69
495.573	77.69
495.79	84.69
496.008	101.69
496.225	88.69
496.442	93.69
496.66	103.69
496.877	100.69
497.094	81.69
497.312	91.69
497.529	100.69
497.746	101.69
497.963	100.69
498.181	87.69
498.398	95.69
498.615	108.69
498.832	117.69
499.049	88.69
499.267	69.69
499.484	77.69
499.701	87.69
499.918	88.69
500.135	100.69
500.352	102.69
500.569	85.69
500.786	90.69
501.003	83.69
501.22	89.69
501.437	95.69
501.654	95.69
501.871	104.69
502.088	90.69
502.305	95.69
502.522	98.69
502.739	88.69
502.956	82.69
503.172	101.69
503.389	104.69
503.606	102.69
503.823	99.69
504.04	76.69
504.256	97.69
504.473	90.69
504.69	90.69
504.907	99.69
505.123	80.69
505.34	81.69
505.557	89.69
505.773	96.69
505.99	78.69
506.207	99.69
506.423	96.69
506.64	92.69
506.856	102.69
507.073	97.69
507.289	97.69
507.506	98.69
507.722	132.69
507.939	126.69
508.155	121.69
508.372	97.69
508.588	84.69
508.805	99.69
509.021	92.69
509.238	106.69
509.454	103.69
509.67	116.69
509.887	119.69
510.103	139.69
510.319	228.69
510.536	886.69
510.752	2956.69
510.968	841.69
511.184	169.69
511.401	126.69
511.617	112.69
511.833	100.69
512.049	106.69
512.265	109.69
512.481	85.69
512.698	92.69
512.914	89.69
513.13	88.69
513.346	93.69
513.562	88.69
513.778	105.69
513.994	90.69
514.21	113.69
514.426	102.69
514.642	141.69
514.858	146.69
515.074	185.69
515.29	542.69
515.506	1911.69
