Data from Circ_2022_H10_HRD10591_00016.txt Node
Date: Wed Jan 03 09:53:40 EST 2024
User: Yrep
Spectrometer: HR+D1059
Trigger mode: 1
Integration Time (sec): 1.000000E-1
Scans to average: 1
Electric dark correction enabled: true
Nonlinearity correction enabled: false
Boxcar width: 0
XAxis mode: Wavelengths
Number of Pixels in Spectrum: 2048
>>>>>Begin Spectral Data<<<<<
223.165	-18.19
223.4	-18.19
223.635	-18.19
223.869	-14.19
224.104	-7.19
224.338	-20.19
224.573	-19.19
224.808	0.81
225.042	-2.19
225.277	-13.19
225.511	0.81
225.746	0.81
225.98	7.81
226.215	8.81
226.449	15.81
226.683	26.81
226.918	12.81
227.152	19.81
227.387	19.81
227.621	29.81
227.856	39.81
228.09	65.81
228.324	44.81
228.559	54.81
228.793	43.81
229.027	64.81
229.262	59.81
229.496	78.81
229.73	100.81
229.964	101.81
230.199	70.81
230.433	78.81
230.667	91.81
230.901	70.81
231.136	64.81
231.37	84.81
231.604	83.81
231.838	91.81
232.072	88.81
232.306	85.81
232.541	85.81
232.775	87.81
233.009	80.81
233.243	72.81
233.477	88.81
233.711	82.81
233.945	77.81
234.179	78.81
234.413	81.81
234.647	75.81
234.881	76.81
235.115	80.81
235.349	80.81
235.583	70.81
235.817	77.81
236.051	75.81
236.285	80.81
236.519	72.81
236.753	77.81
236.987	88.81
237.221	101.81
237.455	100.81
237.689	78.81
237.922	69.81
238.156	79.81
238.39	73.81
238.624	70.81
238.858	76.81
239.091	80.81
239.325	90.81
239.559	90.81
239.793	94.81
240.027	91.81
240.26	77.81
240.494	78.81
240.728	82.81
240.961	65.81
241.195	94.81
241.429	82.81
241.662	80.81
241.896	80.81
242.13	82.81
242.363	74.81
242.597	88.81
242.83	100.81
243.064	70.81
243.298	78.81
243.531	83.81
243.765	94.81
243.998	84.81
244.232	84.81
244.465	102.81
244.699	61.81
244.932	78.81
245.166	85.81
245.399	79.81
245.633	83.81
245.866	88.81
246.099	77.81
246.333	84.81
246.566	85.81
246.8	80.81
247.033	80.81
247.266	75.81
247.5	94.81
247.733	78.81
247.966	76.81
248.2	80.81
248.433	80.81
248.666	75.81
248.899	88.81
249.133	74.81
249.366	105.81
249.599	110.81
249.832	89.81
250.066	68.81
250.299	77.81
250.532	78.81
250.765	77.81
250.998	84.81
251.231	82.81
251.465	83.81
251.698	82.81
251.931	80.81
252.164	83.81
252.397	82.81
252.63	78.81
252.863	85.81
253.096	77.81
253.329	78.81
253.562	73.81
253.795	72.81
254.028	83.81
254.261	84.81
254.494	81.81
254.727	68.81
254.96	88.81
255.193	69.81
255.426	81.81
255.659	91.81
255.892	86.81
256.124	79.81
256.357	90.81
256.59	77.81
256.823	86.81
257.056	78.81
257.289	89.81
257.521	91.81
257.754	77.81
257.987	74.81
258.22	91.81
258.452	79.81
258.685	77.81
258.918	80.81
259.151	77.81
259.383	72.81
259.616	89.81
259.849	78.81
260.081	87.81
260.314	84.81
260.547	73.81
260.779	75.81
261.012	84.81
261.244	91.81
261.477	89.81
261.71	93.81
261.942	128.81
262.175	147.81
262.407	94.81
262.64	74.81
262.872	90.81
263.105	84.81
263.337	81.81
263.57	79.81
263.802	96.81
264.035	84.81
264.267	87.81
264.499	77.81
264.732	82.81
264.964	85.81
265.197	88.81
265.429	85.81
265.661	86.81
265.894	89.81
266.126	74.81
266.358	77.81
266.591	91.81
266.823	75.81
267.055	97.81
267.287	96.81
267.52	100.81
267.752	75.81
267.984	72.81
268.216	82.81
268.448	89.81
268.681	88.81
268.913	87.81
269.145	89.81
269.377	95.81
269.609	86.81
269.841	86.81
270.073	77.81
270.306	91.81
270.538	83.81
270.77	89.81
271.002	83.81
271.234	86.81
271.466	93.81
271.698	82.81
271.93	92.81
272.162	86.81
272.394	95.81
272.626	92.81
272.858	103.81
273.09	88.81
273.322	85.81
273.553	73.81
273.785	94.81
274.017	85.81
274.249	83.81
274.481	86.81
274.713	92.81
274.945	91.81
275.176	81.81
275.408	105.81
275.64	86.81
275.872	93.81
276.104	97.81
276.335	93.81
276.567	108.81
276.799	104.81
277.031	115.81
277.262	113.81
277.494	87.81
277.726	90.81
277.957	81.81
278.189	84.81
278.421	88.81
278.652	96.81
278.884	92.81
279.115	82.81
279.347	98.81
279.579	93.81
279.81	93.81
280.042	90.81
280.273	103.81
280.505	76.81
280.736	87.81
280.968	92.81
281.199	90.81
281.431	88.81
281.662	86.81
281.894	102.81
282.125	112.81
282.356	155.81
282.588	178.81
282.819	136.81
283.051	108.81
283.282	97.81
283.513	83.81
283.745	93.81
283.976	90.81
284.207	84.81
284.439	80.81
284.67	78.81
284.901	79.81
285.132	95.81
285.364	73.81
285.595	101.81
285.826	85.81
286.057	85.81
286.288	83.81
286.52	84.81
286.751	88.81
286.982	92.81
287.213	99.81
287.444	91.81
287.675	91.81
287.906	93.81
288.138	88.81
288.369	113.81
288.6	97.81
288.831	89.81
289.062	105.81
289.293	97.81
289.524	99.81
289.755	79.81
289.986	93.81
290.217	96.81
290.448	75.81
290.679	85.81
290.91	84.81
291.141	97.81
291.371	89.81
291.602	91.81
291.833	81.81
292.064	96.81
292.295	100.81
292.526	97.81
292.757	97.81
292.987	91.81
293.218	89.81
293.449	92.81
293.68	88.81
293.91	90.81
294.141	105.81
294.372	96.81
294.603	88.81
294.833	103.81
295.064	86.81
295.295	102.81
295.525	104.81
295.756	103.81
295.987	137.81
296.217	176.81
296.448	152.81
296.679	102.81
296.909	101.81
297.14	96.81
297.37	97.81
297.601	85.81
297.831	96.81
298.062	91.81
298.292	99.81
298.523	97.81
298.753	102.81
298.984	91.81
299.214	92.81
299.445	99.81
299.675	91.81
299.905	100.81
300.136	100.81
300.366	110.81
300.597	94.81
300.827	96.81
301.057	106.81
301.288	123.81
301.518	95.81
301.748	94.81
301.979	92.81
302.209	101.81
302.439	85.81
302.669	97.81
302.9	95.81
303.13	102.81
303.36	107.81
303.59	118.81
303.82	120.81
304.051	102.81
304.281	93.81
304.511	100.81
304.741	84.81
304.971	91.81
305.201	82.81
305.431	96.81
305.661	102.81
305.891	92.81
306.121	95.81
306.352	93.81
306.582	112.81
306.812	90.81
307.042	85.81
307.272	95.81
307.502	96.81
307.731	100.81
307.961	83.81
308.191	89.81
308.421	93.81
308.651	89.81
308.881	101.81
309.111	91.81
309.341	94.81
309.571	108.81
309.8	106.81
310.03	109.81
310.26	121.81
310.49	109.81
310.72	95.81
310.949	112.81
311.179	119.81
311.409	100.81
311.639	84.81
311.868	99.81
312.098	103.81
312.328	91.81
312.557	101.81
312.787	123.81
313.017	107.81
313.246	95.81
313.476	92.81
313.706	88.81
313.935	94.81
314.165	107.81
314.394	126.81
314.624	112.81
314.853	115.81
315.083	90.81
315.312	104.81
315.542	100.81
315.771	89.81
316.001	85.81
316.23	88.81
316.46	96.81
316.689	96.81
316.919	86.81
317.148	92.81
317.377	100.81
317.607	93.81
317.836	93.81
318.065	83.81
318.295	93.81
318.524	102.81
318.753	102.81
318.983	109.81
319.212	114.81
319.441	135.81
319.67	119.81
319.9	99.81
320.129	105.81
320.358	94.81
320.587	99.81
320.816	109.81
321.046	125.81
321.275	106.81
321.504	90.81
321.733	93.81
321.962	117.81
322.191	122.81
322.42	116.81
322.649	114.81
322.878	135.81
323.108	132.81
323.337	141.81
323.566	172.81
323.795	183.81
324.024	267.81
324.253	566.81
324.482	1251.81
324.71	2594.81
324.939	3514.81
325.168	1268.81
325.397	350.81
325.626	209.81
325.855	152.81
326.084	151.81
326.313	144.81
326.542	194.81
326.77	298.81
326.999	634.81
327.228	1351.81
327.457	2521.81
327.686	2065.81
327.914	545.81
328.143	252.81
328.372	196.81
328.6	147.81
328.829	149.81
329.058	168.81
329.287	182.81
329.515	136.81
329.744	110.81
329.972	114.81
330.201	115.81
330.43	134.81
330.658	148.81
330.887	212.81
331.115	184.81
331.344	107.81
331.572	107.81
331.801	122.81
332.03	142.81
332.258	114.81
332.486	99.81
332.715	92.81
332.943	103.81
333.172	104.81
333.4	114.81
333.629	126.81
333.857	136.81
334.085	132.81
334.314	108.81
334.542	131.81
334.771	108.81
334.999	114.81
335.227	101.81
335.455	105.81
335.684	90.81
335.912	94.81
336.14	98.81
336.369	102.81
336.597	124.81
336.825	102.81
337.053	86.81
337.281	84.81
337.51	98.81
337.738	101.81
337.966	102.81
338.194	115.81
338.422	104.81
338.65	88.81
338.878	96.81
339.106	93.81
339.334	90.81
339.562	96.81
339.79	90.81
340.018	94.81
340.246	99.81
340.474	120.81
340.702	110.81
340.93	104.81
341.158	106.81
341.386	108.81
341.614	94.81
341.842	94.81
342.07	86.81
342.298	95.81
342.526	108.81
342.754	101.81
342.981	99.81
343.209	77.81
343.437	102.81
343.665	96.81
343.893	96.81
344.12	87.81
344.348	80.81
344.576	98.81
344.804	100.81
345.031	115.81
345.259	118.81
345.487	92.81
345.714	103.81
345.942	94.81
346.17	100.81
346.397	87.81
346.625	97.81
346.853	93.81
347.08	92.81
347.308	117.81
347.535	112.81
347.763	113.81
347.99	120.81
348.218	122.81
348.445	115.81
348.673	87.81
348.9	84.81
349.128	101.81
349.355	94.81
349.583	101.81
349.81	102.81
350.037	117.81
350.265	100.81
350.492	104.81
350.72	108.81
350.947	93.81
351.174	102.81
351.402	118.81
351.629	103.81
351.856	114.81
352.083	112.81
352.311	128.81
352.538	147.81
352.765	117.81
352.992	128.81
353.22	133.81
353.447	118.81
353.674	116.81
353.901	89.81
354.128	105.81
354.355	99.81
354.583	100.81
354.81	103.81
355.037	96.81
355.264	101.81
355.491	96.81
355.718	85.81
355.945	105.81
356.172	102.81
356.399	102.81
356.626	91.81
356.853	93.81
357.08	92.81
357.307	106.81
357.534	98.81
357.761	91.81
357.988	79.81
358.215	91.81
358.441	104.81
358.668	98.81
358.895	84.81
359.122	89.81
359.349	98.81
359.576	105.81
359.802	108.81
360.029	136.81
360.256	138.81
360.483	119.81
360.709	76.81
360.936	81.81
361.163	107.81
361.39	99.81
361.616	99.81
361.843	98.81
362.07	114.81
362.296	104.81
362.523	98.81
362.749	101.81
362.976	90.81
363.203	96.81
363.429	85.81
363.656	97.81
363.882	92.81
364.109	102.81
364.335	112.81
364.562	85.81
364.788	96.81
365.015	115.81
365.241	110.81
365.468	129.81
365.694	125.81
365.92	120.81
366.147	112.81
366.373	89.81
366.599	99.81
366.826	108.81
367.052	81.81
367.278	89.81
367.505	98.81
367.731	102.81
367.957	95.81
368.184	99.81
368.41	106.81
368.636	138.81
368.862	140.81
369.089	127.81
369.315	107.81
369.541	108.81
369.767	94.81
369.993	109.81
370.219	103.81
370.445	97.81
370.672	84.81
370.898	88.81
371.124	97.81
371.35	94.81
371.576	96.81
371.802	95.81
372.028	98.81
372.254	70.81
372.48	92.81
372.706	89.81
372.932	88.81
373.158	93.81
373.384	88.81
373.61	97.81
373.835	92.81
374.061	94.81
374.287	108.81
374.513	102.81
374.739	96.81
374.965	81.81
375.191	98.81
375.416	86.81
375.642	90.81
375.868	95.81
376.094	93.81
376.319	72.81
376.545	92.81
376.771	90.81
376.997	92.81
377.222	92.81
377.448	104.81
377.674	77.81
377.899	102.81
378.125	99.81
378.35	92.81
378.576	108.81
378.802	90.81
379.027	86.81
379.253	95.81
379.478	98.81
379.704	89.81
379.929	106.81
380.155	79.81
380.38	99.81
380.606	109.81
380.831	92.81
381.057	111.81
381.282	100.81
381.507	93.81
381.733	109.81
381.958	95.81
382.184	101.81
382.409	106.81
382.634	107.81
382.86	121.81
383.085	99.81
383.31	111.81
383.535	102.81
383.761	105.81
383.986	88.81
384.211	95.81
384.436	91.81
384.662	121.81
384.887	106.81
385.112	94.81
385.337	98.81
385.562	108.81
385.787	114.81
386.013	114.81
386.238	126.81
386.463	109.81
386.688	114.81
386.913	105.81
387.138	106.81
387.363	115.81
387.588	107.81
387.813	107.81
388.038	111.81
388.263	136.81
388.488	116.81
388.713	103.81
388.938	92.81
389.163	108.81
389.387	108.81
389.612	93.81
389.837	107.81
390.062	90.81
390.287	101.81
390.512	99.81
390.736	91.81
390.961	94.81
391.186	97.81
391.411	100.81
391.636	89.81
391.86	88.81
392.085	87.81
392.31	94.81
392.534	89.81
392.759	83.81
392.984	84.81
393.208	104.81
393.433	93.81
393.658	106.81
393.882	80.81
394.107	96.81
394.331	77.81
394.556	81.81
394.78	88.81
395.005	100.81
395.229	87.81
395.454	83.81
395.678	89.81
395.903	68.81
396.127	86.81
396.352	96.81
396.576	91.81
396.801	105.81
397.025	96.81
397.249	88.81
397.474	97.81
397.698	91.81
397.922	78.81
398.147	95.81
398.371	87.81
398.595	87.81
398.82	86.81
399.044	97.81
399.268	89.81
399.492	91.81
399.717	88.81
399.941	93.81
400.165	122.81
400.389	102.81
400.613	89.81
400.837	91.81
401.062	90.81
401.286	83.81
401.51	95.81
401.734	103.81
401.958	113.81
402.182	170.81
402.406	223.81
402.63	153.81
402.854	100.81
403.078	101.81
403.302	82.81
403.526	84.81
403.75	101.81
403.974	88.81
404.198	91.81
404.422	89.81
404.645	85.81
404.869	92.81
405.093	101.81
405.317	114.81
405.541	120.81
405.765	113.81
405.988	143.81
406.212	236.81
406.436	358.81
406.66	212.81
406.883	123.81
407.107	105.81
407.331	106.81
407.555	110.81
407.778	113.81
408.002	85.81
408.226	78.81
408.449	98.81
408.673	94.81
408.896	114.81
409.12	117.81
409.344	96.81
409.567	98.81
409.791	104.81
410.014	94.81
410.238	94.81
410.461	100.81
410.685	98.81
410.908	85.81
411.132	109.81
411.355	115.81
411.578	94.81
411.802	88.81
412.025	92.81
412.249	93.81
412.472	98.81
412.695	93.81
412.919	99.81
413.142	91.81
413.365	87.81
413.589	89.81
413.812	92.81
414.035	85.81
414.258	99.81
414.482	86.81
414.705	95.81
414.928	103.81
415.151	106.81
415.374	97.81
415.597	87.81
415.821	88.81
416.044	102.81
416.267	87.81
416.49	83.81
416.713	85.81
416.936	105.81
417.159	88.81
417.382	81.81
417.605	97.81
417.828	102.81
418.051	89.81
418.274	100.81
418.497	79.81
418.72	88.81
418.943	109.81
419.166	85.81
419.389	91.81
419.611	87.81
419.834	105.81
420.057	91.81
420.28	90.81
420.503	96.81
420.726	100.81
420.948	101.81
421.171	100.81
421.394	93.81
421.617	82.81
421.839	85.81
422.062	95.81
422.285	94.81
422.507	111.81
422.73	114.81
422.953	88.81
423.175	89.81
423.398	85.81
423.621	100.81
423.843	83.81
424.066	86.81
424.288	91.81
424.511	94.81
424.733	113.81
424.956	130.81
425.178	100.81
425.401	123.81
425.623	137.81
425.846	102.81
426.068	109.81
426.291	87.81
426.513	90.81
426.735	95.81
426.958	84.81
427.18	120.81
427.402	175.81
427.625	244.81
427.847	168.81
428.069	106.81
428.292	74.81
428.514	81.81
428.736	86.81
428.958	99.81
429.181	84.81
429.403	99.81
429.625	101.81
429.847	103.81
430.069	94.81
430.292	94.81
430.514	86.81
430.736	88.81
430.958	90.81
431.18	97.81
431.402	95.81
431.624	80.81
431.846	89.81
432.068	81.81
432.29	92.81
432.512	94.81
432.734	84.81
432.956	92.81
433.178	113.81
433.4	110.81
433.622	96.81
433.844	99.81
434.066	91.81
434.287	90.81
434.509	92.81
434.731	91.81
434.953	101.81
435.175	112.81
435.397	103.81
435.618	93.81
435.84	119.81
436.062	145.81
436.284	139.81
436.505	118.81
436.727	120.81
436.949	86.81
437.17	97.81
437.392	87.81
437.614	97.81
437.835	119.81
438.057	158.81
438.278	144.81
438.5	108.81
438.721	144.81
438.943	112.81
439.165	88.81
439.386	87.81
439.608	100.81
439.829	120.81
440.05	165.81
440.272	196.81
440.493	123.81
440.715	92.81
440.936	89.81
441.158	97.81
441.379	107.81
441.6	104.81
441.822	125.81
442.043	112.81
442.264	118.81
442.486	141.81
442.707	103.81
442.928	133.81
443.149	178.81
443.371	186.81
443.592	120.81
443.813	125.81
444.034	132.81
444.255	82.81
444.476	86.81
444.698	105.81
444.919	90.81
445.14	140.81
445.361	139.81
445.582	149.81
445.803	187.81
446.024	191.81
446.245	169.81
446.466	139.81
446.687	98.81
446.908	104.81
447.129	85.81
447.35	97.81
447.571	103.81
447.792	94.81
448.013	116.81
448.234	129.81
448.455	113.81
448.675	134.81
448.896	155.81
449.117	105.81
449.338	120.81
449.559	168.81
449.779	157.81
450	108.81
450.221	88.81
450.442	88.81
450.662	88.81
450.883	127.81
451.104	124.81
451.324	110.81
451.545	101.81
451.766	99.81
451.986	96.81
452.207	90.81
452.428	96.81
452.648	114.81
452.869	137.81
453.089	149.81
453.31	142.81
453.53	109.81
453.751	105.81
453.971	114.81
454.192	135.81
454.412	98.81
454.633	82.81
454.853	84.81
455.073	89.81
455.294	102.81
455.514	108.81
455.734	106.81
455.955	72.81
456.175	82.81
456.395	92.81
456.616	87.81
456.836	86.81
457.056	81.81
457.276	89.81
457.497	93.81
457.717	93.81
457.937	100.81
458.157	93.81
458.377	104.81
458.598	127.81
458.818	241.81
459.038	256.81
459.258	173.81
459.478	106.81
459.698	84.81
459.918	85.81
460.138	64.81
460.358	93.81
460.578	93.81
460.798	90.81
461.018	96.81
461.238	88.81
461.458	79.81
461.678	89.81
461.898	81.81
462.118	80.81
462.338	90.81
462.558	89.81
462.777	80.81
462.997	75.81
463.217	90.81
463.437	93.81
463.657	76.81
463.876	112.81
464.096	94.81
464.316	98.81
464.536	105.81
464.755	93.81
464.975	133.81
465.195	246.81
465.414	258.81
465.634	107.81
465.854	104.81
466.073	113.81
466.293	91.81
466.512	88.81
466.732	95.81
466.951	89.81
467.171	98.81
467.391	101.81
467.61	131.81
467.829	104.81
468.049	101.81
468.268	118.81
468.488	80.81
468.707	90.81
468.927	83.81
469.146	83.81
469.365	80.81
469.585	74.81
469.804	101.81
470.023	98.81
470.243	97.81
470.462	103.81
470.681	146.81
470.901	101.81
471.12	89.81
471.339	87.81
471.558	91.81
471.777	80.81
471.997	98.81
472.216	91.81
472.435	101.81
472.654	92.81
472.873	96.81
473.092	85.81
473.311	96.81
473.53	96.81
473.749	107.81
473.968	114.81
474.187	131.81
474.406	115.81
474.625	86.81
474.844	91.81
475.063	91.81
475.282	98.81
475.501	88.81
475.72	99.81
475.939	78.81
476.158	75.81
476.377	89.81
476.596	85.81
476.814	116.81
477.033	96.81
477.252	105.81
477.471	82.81
477.69	81.81
477.908	84.81
478.127	90.81
478.346	86.81
478.564	98.81
478.783	106.81
479.002	109.81
479.22	100.81
479.439	110.81
479.658	117.81
479.876	112.81
480.095	101.81
480.313	97.81
480.532	81.81
480.751	97.81
480.969	106.81
481.188	137.81
481.406	105.81
481.624	93.81
481.843	91.81
482.061	83.81
482.28	89.81
482.498	66.81
482.717	89.81
482.935	92.81
483.153	78.81
483.372	101.81
483.59	90.81
483.808	88.81
484.027	96.81
484.245	97.81
484.463	88.81
484.681	96.81
484.9	92.81
485.118	106.81
485.336	88.81
485.554	100.81
485.772	98.81
485.99	108.81
486.209	89.81
486.427	103.81
486.645	122.81
486.863	136.81
487.081	115.81
487.299	92.81
487.517	100.81
487.735	105.81
487.953	89.81
488.171	96.81
488.389	104.81
488.607	112.81
488.825	91.81
489.043	87.81
489.261	101.81
489.479	107.81
489.696	85.81
489.914	95.81
490.132	86.81
490.35	109.81
490.568	96.81
490.786	79.81
491.003	87.81
491.221	89.81
491.439	104.81
491.657	81.81
491.874	83.81
492.092	93.81
492.31	98.81
492.527	92.81
492.745	93.81
492.963	104.81
493.18	113.81
493.398	90.81
493.615	76.81
493.833	86.81
494.05	77.81
494.268	95.81
494.485	92.81
494.703	98.81
494.92	98.81
495.138	76.81
495.355	89.81
495.573	98.81
495.79	94.81
496.008	95.81
496.225	95.81
496.442	97.81
496.66	101.81
496.877	86.81
497.094	77.81
497.312	90.81
497.529	98.81
497.746	107.81
497.963	94.81
498.181	91.81
498.398	101.81
498.615	127.81
498.832	117.81
499.049	82.81
499.267	83.81
499.484	103.81
499.701	86.81
499.918	67.81
500.135	91.81
500.352	90.81
500.569	83.81
500.786	91.81
501.003	89.81
501.22	98.81
501.437	80.81
501.654	96.81
501.871	133.81
502.088	93.81
502.305	101.81
502.522	102.81
502.739	83.81
502.956	104.81
503.172	91.81
503.389	107.81
503.606	113.81
503.823	119.81
504.04	101.81
504.256	91.81
504.473	94.81
504.69	80.81
504.907	105.81
505.123	85.81
505.34	103.81
505.557	99.81
505.773	100.81
505.99	84.81
506.207	99.81
506.423	91.81
506.64	100.81
506.856	88.81
507.073	96.81
507.289	87.81
507.506	106.81
507.722	132.81
507.939	145.81
508.155	118.81
508.372	92.81
508.588	100.81
508.805	100.81
509.021	105.81
509.238	118.81
509.454	115.81
509.67	123.81
509.887	133.81
510.103	149.81
510.319	284.81
510.536	1109.81
510.752	4009.81
510.968	1125.81
511.184	212.81
511.401	137.81
511.617	108.81
511.833	122.81
512.049	100.81
512.265	93.81
512.481	96.81
512.698	88.81
512.914	99.81
513.13	102.81
