Data from Circ_2022_H10_HRD10591_00050.txt Node
Date: Wed Jan 03 09:53:47 EST 2024
User: Yrep
Spectrometer: HR+D1059
Trigger mode: 1
Integration Time (sec): 1.000000E-1
Scans to average: 1
Electric dark correction enabled: true
Nonlinearity correction enabled: false
Boxcar width: 0
XAxis mode: Wavelengths
Number of Pixels in Spectrum: 2048
>>>>>Begin Spectral Data<<<<<
223.165	-20.44
223.4	-20.44
223.635	-20.44
223.869	-19.44
224.104	-24.44
224.338	-21.44
224.573	-13.44
224.808	-15.44
225.042	-13.44
225.277	-8.44
225.511	-5.44
225.746	0.56
225.98	10.56
226.215	25.56
226.449	9.56
226.683	32.56
226.918	22.56
227.152	40.56
227.387	42.56
227.621	32.56
227.856	40.56
228.09	44.56
228.324	42.56
228.559	71.56
228.793	55.56
229.027	50.56
229.262	62.56
229.496	67.56
229.73	91.56
229.964	101.56
230.199	67.56
230.433	74.56
230.667	81.56
230.901	84.56
231.136	70.56
231.37	80.56
231.604	84.56
231.838	75.56
232.072	73.56
232.306	69.56
232.541	68.56
232.775	78.56
233.009	81.56
233.243	72.56
233.477	67.56
233.711	70.56
233.945	71.56
234.179	73.56
234.413	76.56
234.647	78.56
234.881	69.56
235.115	83.56
235.349	84.56
235.583	74.56
235.817	77.56
236.051	63.56
236.285	77.56
236.519	72.56
236.753	83.56
236.987	79.56
237.221	90.56
237.455	95.56
237.689	78.56
237.922	79.56
238.156	69.56
238.39	68.56
238.624	73.56
238.858	84.56
239.091	70.56
239.325	71.56
239.559	93.56
239.793	70.56
240.027	90.56
240.26	82.56
240.494	81.56
240.728	80.56
240.961	92.56
241.195	64.56
241.429	73.56
241.662	71.56
241.896	75.56
242.13	81.56
242.363	72.56
242.597	73.56
242.83	76.56
243.064	64.56
243.298	77.56
243.531	64.56
243.765	78.56
243.998	79.56
244.232	82.56
244.465	86.56
244.699	77.56
244.932	73.56
245.166	72.56
245.399	75.56
245.633	76.56
245.866	61.56
246.099	84.56
246.333	77.56
246.566	85.56
246.8	83.56
247.033	75.56
247.266	78.56
247.5	79.56
247.733	66.56
247.966	79.56
248.2	70.56
248.433	78.56
248.666	82.56
248.899	79.56
249.133	83.56
249.366	99.56
249.599	109.56
249.832	85.56
250.066	74.56
250.299	69.56
250.532	79.56
250.765	80.56
250.998	76.56
251.231	84.56
251.465	79.56
251.698	66.56
251.931	73.56
252.164	90.56
252.397	85.56
252.63	87.56
252.863	83.56
253.096	87.56
253.329	79.56
253.562	69.56
253.795	82.56
254.028	79.56
254.261	75.56
254.494	70.56
254.727	95.56
254.96	71.56
255.193	85.56
255.426	72.56
255.659	77.56
255.892	93.56
256.124	92.56
256.357	84.56
256.59	85.56
256.823	77.56
257.056	66.56
257.289	85.56
257.521	89.56
257.754	80.56
257.987	89.56
258.22	80.56
258.452	81.56
258.685	80.56
258.918	91.56
259.151	76.56
259.383	85.56
259.616	73.56
259.849	74.56
260.081	85.56
260.314	71.56
260.547	70.56
260.779	69.56
261.012	82.56
261.244	76.56
261.477	79.56
261.71	95.56
261.942	110.56
262.175	129.56
262.407	105.56
262.64	74.56
262.872	77.56
263.105	89.56
263.337	82.56
263.57	85.56
263.802	77.56
264.035	78.56
264.267	82.56
264.499	72.56
264.732	74.56
264.964	79.56
265.197	72.56
265.429	88.56
265.661	70.56
265.894	89.56
266.126	76.56
266.358	78.56
266.591	80.56
266.823	95.56
267.055	77.56
267.287	82.56
267.52	74.56
267.752	74.56
267.984	93.56
268.216	69.56
268.448	62.56
268.681	85.56
268.913	87.56
269.145	91.56
269.377	108.56
269.609	85.56
269.841	73.56
270.073	83.56
270.306	80.56
270.538	89.56
270.77	62.56
271.002	81.56
271.234	78.56
271.466	94.56
271.698	88.56
271.93	82.56
272.162	78.56
272.394	84.56
272.626	80.56
272.858	84.56
273.09	92.56
273.322	97.56
273.553	82.56
273.785	80.56
274.017	72.56
274.249	83.56
274.481	72.56
274.713	78.56
274.945	84.56
275.176	90.56
275.408	88.56
275.64	84.56
275.872	69.56
276.104	84.56
276.335	85.56
276.567	102.56
276.799	121.56
277.031	118.56
277.262	98.56
277.494	89.56
277.726	86.56
277.957	85.56
278.189	73.56
278.421	78.56
278.652	72.56
278.884	66.56
279.115	86.56
279.347	76.56
279.579	86.56
279.81	85.56
280.042	86.56
280.273	105.56
280.505	101.56
280.736	87.56
280.968	77.56
281.199	85.56
281.431	68.56
281.662	80.56
281.894	99.56
282.125	104.56
282.356	124.56
282.588	151.56
282.819	124.56
283.051	92.56
283.282	97.56
283.513	72.56
283.745	99.56
283.976	87.56
284.207	84.56
284.439	66.56
284.67	78.56
284.901	98.56
285.132	76.56
285.364	74.56
285.595	73.56
285.826	90.56
286.057	96.56
286.288	80.56
286.52	89.56
286.751	66.56
286.982	81.56
287.213	93.56
287.444	76.56
287.675	87.56
287.906	90.56
288.138	98.56
288.369	102.56
288.6	94.56
288.831	86.56
289.062	86.56
289.293	97.56
289.524	72.56
289.755	93.56
289.986	96.56
290.217	88.56
290.448	103.56
290.679	74.56
290.91	93.56
291.141	77.56
291.371	93.56
291.602	85.56
291.833	92.56
292.064	90.56
292.295	93.56
292.526	87.56
292.757	85.56
292.987	77.56
293.218	85.56
293.449	83.56
293.68	87.56
293.91	78.56
294.141	76.56
294.372	86.56
294.603	95.56
294.833	92.56
295.064	80.56
295.295	99.56
295.525	83.56
295.756	115.56
295.987	129.56
296.217	163.56
296.448	114.56
296.679	86.56
296.909	74.56
297.14	81.56
297.37	91.56
297.601	97.56
297.831	88.56
298.062	93.56
298.292	97.56
298.523	97.56
298.753	87.56
298.984	73.56
299.214	84.56
299.445	94.56
299.675	90.56
299.905	89.56
300.136	80.56
300.366	84.56
300.597	80.56
300.827	94.56
301.057	110.56
301.288	109.56
301.518	107.56
301.748	85.56
301.979	103.56
302.209	93.56
302.439	104.56
302.669	86.56
302.9	73.56
303.13	87.56
303.36	102.56
303.59	96.56
303.82	103.56
304.051	111.56
304.281	95.56
304.511	88.56
304.741	79.56
304.971	85.56
305.201	100.56
305.431	82.56
305.661	92.56
305.891	89.56
306.121	86.56
306.352	106.56
306.582	105.56
306.812	103.56
307.042	89.56
307.272	88.56
307.502	95.56
307.731	102.56
307.961	103.56
308.191	93.56
308.421	88.56
308.651	89.56
308.881	83.56
309.111	88.56
309.341	96.56
309.571	104.56
309.8	87.56
310.03	87.56
310.26	114.56
310.49	102.56
310.72	101.56
310.949	90.56
311.179	103.56
311.409	105.56
311.639	92.56
311.868	92.56
312.098	76.56
312.328	104.56
312.557	103.56
312.787	112.56
313.017	104.56
313.246	100.56
313.476	93.56
313.706	89.56
313.935	98.56
314.165	96.56
314.394	82.56
314.624	99.56
314.853	98.56
315.083	87.56
315.312	94.56
315.542	95.56
315.771	92.56
316.001	88.56
316.23	98.56
316.46	97.56
316.689	94.56
316.919	92.56
317.148	99.56
317.377	94.56
317.607	101.56
317.836	108.56
318.065	82.56
318.295	88.56
318.524	88.56
318.753	78.56
318.983	83.56
319.212	121.56
319.441	116.56
319.67	124.56
319.9	95.56
320.129	94.56
320.358	92.56
320.587	97.56
320.816	99.56
321.046	105.56
321.275	123.56
321.504	92.56
321.733	96.56
321.962	99.56
322.191	106.56
322.42	102.56
322.649	104.56
322.878	113.56
323.108	113.56
323.337	133.56
323.566	149.56
323.795	154.56
324.024	205.56
324.253	419.56
324.482	896.56
324.71	1865.56
324.939	2520.56
325.168	933.56
325.397	279.56
325.626	167.56
325.855	134.56
326.084	126.56
326.313	147.56
326.542	153.56
326.77	228.56
326.999	485.56
327.228	1001.56
327.457	1812.56
327.686	1511.56
327.914	421.56
328.143	233.56
328.372	184.56
328.6	135.56
328.829	128.56
329.058	143.56
329.287	143.56
329.515	113.56
329.744	98.56
329.972	119.56
330.201	146.56
330.43	200.56
330.658	160.56
330.887	188.56
331.115	133.56
331.344	112.56
331.572	103.56
331.801	101.56
332.03	108.56
332.258	110.56
332.486	102.56
332.715	94.56
332.943	79.56
333.172	97.56
333.4	111.56
333.629	120.56
333.857	113.56
334.085	133.56
334.314	152.56
334.542	232.56
334.771	208.56
334.999	127.56
335.227	101.56
335.455	89.56
335.684	116.56
335.912	102.56
336.14	82.56
336.369	105.56
336.597	93.56
336.825	102.56
337.053	99.56
337.281	98.56
337.51	94.56
337.738	96.56
337.966	88.56
338.194	95.56
338.422	105.56
338.65	85.56
338.878	92.56
339.106	72.56
339.334	100.56
339.562	81.56
339.79	89.56
340.018	92.56
340.246	84.56
340.474	98.56
340.702	94.56
340.93	80.56
341.158	92.56
341.386	95.56
341.614	98.56
341.842	89.56
342.07	96.56
342.298	94.56
342.526	103.56
342.754	76.56
342.981	91.56
343.209	90.56
343.437	86.56
343.665	80.56
343.893	74.56
344.12	87.56
344.348	68.56
344.576	91.56
344.804	86.56
345.031	101.56
345.259	100.56
345.487	105.56
345.714	104.56
345.942	97.56
346.17	103.56
346.397	82.56
346.625	82.56
346.853	87.56
347.08	86.56
347.308	89.56
347.535	104.56
347.763	113.56
347.99	102.56
348.218	118.56
348.445	103.56
348.673	105.56
348.9	107.56
349.128	100.56
349.355	92.56
349.583	111.56
349.81	87.56
350.037	98.56
350.265	99.56
350.492	80.56
350.72	96.56
350.947	108.56
351.174	114.56
351.402	113.56
351.629	106.56
351.856	113.56
352.083	104.56
352.311	115.56
352.538	109.56
352.765	119.56
352.992	118.56
353.22	114.56
353.447	116.56
353.674	98.56
353.901	101.56
354.128	102.56
354.355	84.56
354.583	91.56
354.81	94.56
355.037	91.56
355.264	113.56
355.491	97.56
355.718	86.56
355.945	81.56
356.172	86.56
356.399	95.56
356.626	97.56
356.853	83.56
357.08	88.56
357.307	85.56
357.534	74.56
357.761	97.56
357.988	88.56
358.215	80.56
358.441	82.56
358.668	97.56
358.895	92.56
359.122	80.56
359.349	80.56
359.576	95.56
359.802	104.56
360.029	123.56
360.256	126.56
360.483	121.56
360.709	103.56
360.936	88.56
361.163	95.56
361.39	105.56
361.616	101.56
361.843	79.56
362.07	100.56
362.296	106.56
362.523	86.56
362.749	95.56
362.976	87.56
363.203	92.56
363.429	102.56
363.656	84.56
363.882	84.56
364.109	94.56
364.335	99.56
364.562	82.56
364.788	90.56
365.015	91.56
365.241	100.56
365.468	96.56
365.694	103.56
365.92	108.56
366.147	83.56
366.373	89.56
366.599	100.56
366.826	90.56
367.052	84.56
367.278	87.56
367.505	94.56
367.731	96.56
367.957	99.56
368.184	87.56
368.41	96.56
368.636	118.56
368.862	128.56
369.089	105.56
369.315	95.56
369.541	85.56
369.767	93.56
369.993	108.56
370.219	93.56
370.445	74.56
370.672	86.56
370.898	88.56
371.124	93.56
371.35	84.56
371.576	82.56
371.802	87.56
372.028	88.56
372.254	79.56
372.48	83.56
372.706	97.56
372.932	71.56
373.158	83.56
373.384	81.56
373.61	79.56
373.835	81.56
374.061	78.56
374.287	91.56
374.513	93.56
374.739	98.56
374.965	73.56
375.191	88.56
375.416	100.56
375.642	93.56
375.868	90.56
376.094	78.56
376.319	81.56
376.545	76.56
376.771	77.56
376.997	101.56
377.222	99.56
377.448	86.56
377.674	93.56
377.899	85.56
378.125	91.56
378.35	97.56
378.576	97.56
378.802	90.56
379.027	90.56
379.253	78.56
379.478	85.56
379.704	108.56
379.929	71.56
380.155	81.56
380.38	89.56
380.606	95.56
380.831	91.56
381.057	104.56
381.282	89.56
381.507	101.56
381.733	101.56
381.958	100.56
382.184	95.56
382.409	86.56
382.634	105.56
382.86	103.56
383.085	90.56
383.31	92.56
383.535	97.56
383.761	97.56
383.986	83.56
384.211	93.56
384.436	93.56
384.662	102.56
384.887	98.56
385.112	92.56
385.337	90.56
385.562	88.56
385.787	95.56
386.013	114.56
386.238	113.56
386.463	109.56
386.688	100.56
386.913	95.56
387.138	99.56
387.363	98.56
387.588	105.56
387.813	98.56
388.038	105.56
388.263	109.56
388.488	100.56
388.713	93.56
388.938	76.56
389.163	96.56
389.387	92.56
389.612	87.56
389.837	92.56
390.062	98.56
390.287	81.56
390.512	98.56
390.736	96.56
390.961	88.56
391.186	88.56
391.411	96.56
391.636	82.56
391.86	83.56
392.085	89.56
392.31	89.56
392.534	84.56
392.759	91.56
392.984	81.56
393.208	86.56
393.433	94.56
393.658	94.56
393.882	91.56
394.107	88.56
394.331	77.56
394.556	85.56
394.78	80.56
395.005	87.56
395.229	76.56
395.454	95.56
395.678	83.56
395.903	85.56
396.127	89.56
396.352	89.56
396.576	74.56
396.801	78.56
397.025	92.56
397.249	89.56
397.474	78.56
397.698	89.56
397.922	83.56
398.147	81.56
398.371	95.56
398.595	93.56
398.82	94.56
399.044	94.56
399.268	87.56
399.492	85.56
399.717	89.56
399.941	81.56
400.165	90.56
400.389	93.56
400.613	88.56
400.837	88.56
401.062	95.56
401.286	74.56
401.51	84.56
401.734	101.56
401.958	108.56
402.182	138.56
402.406	187.56
402.63	134.56
402.854	83.56
403.078	94.56
403.302	80.56
403.526	92.56
403.75	96.56
403.974	83.56
404.198	62.56
404.422	83.56
404.645	92.56
404.869	93.56
405.093	102.56
405.317	97.56
405.541	108.56
405.765	96.56
405.988	141.56
406.212	202.56
406.436	292.56
406.66	180.56
406.883	111.56
407.107	106.56
407.331	104.56
407.555	104.56
407.778	97.56
408.002	98.56
408.226	84.56
408.449	80.56
408.673	85.56
408.896	84.56
409.12	93.56
409.344	80.56
409.567	75.56
409.791	80.56
410.014	94.56
410.238	91.56
410.461	96.56
410.685	110.56
410.908	83.56
411.132	94.56
411.355	101.56
411.578	97.56
411.802	90.56
412.025	81.56
412.249	74.56
412.472	94.56
412.695	102.56
412.919	93.56
413.142	82.56
413.365	89.56
413.589	90.56
413.812	84.56
414.035	99.56
414.258	95.56
414.482	85.56
414.705	84.56
414.928	88.56
415.151	78.56
415.374	83.56
415.597	82.56
415.821	78.56
416.044	83.56
416.267	97.56
416.49	85.56
416.713	90.56
416.936	87.56
417.159	77.56
417.382	72.56
417.605	92.56
417.828	112.56
418.051	82.56
418.274	80.56
418.497	86.56
418.72	95.56
418.943	77.56
419.166	95.56
419.389	88.56
419.611	80.56
419.834	88.56
420.057	92.56
420.28	71.56
420.503	69.56
420.726	84.56
420.948	87.56
421.171	95.56
421.394	96.56
421.617	83.56
421.839	74.56
422.062	85.56
422.285	80.56
422.507	85.56
422.73	98.56
422.953	93.56
423.175	87.56
423.398	90.56
423.621	95.56
423.843	94.56
424.066	80.56
424.288	82.56
424.511	92.56
424.733	87.56
424.956	89.56
425.178	98.56
425.401	94.56
425.623	101.56
425.846	85.56
426.068	82.56
426.291	93.56
426.513	86.56
426.735	96.56
426.958	109.56
427.18	95.56
427.402	169.56
427.625	190.56
427.847	171.56
428.069	128.56
428.292	93.56
428.514	79.56
428.736	92.56
428.958	76.56
429.181	82.56
429.403	84.56
429.625	93.56
429.847	92.56
430.069	105.56
430.292	109.56
430.514	100.56
430.736	78.56
430.958	76.56
431.18	93.56
431.402	81.56
431.624	93.56
431.846	73.56
432.068	79.56
432.29	87.56
432.512	65.56
432.734	82.56
432.956	91.56
433.178	107.56
433.4	101.56
433.622	94.56
433.844	88.56
434.066	80.56
434.287	89.56
434.509	88.56
434.731	98.56
434.953	83.56
435.175	92.56
435.397	84.56
435.618	82.56
435.84	97.56
436.062	133.56
436.284	122.56
436.505	112.56
436.727	108.56
436.949	92.56
437.17	84.56
437.392	90.56
437.614	99.56
437.835	118.56
438.057	146.56
438.278	122.56
438.5	106.56
438.721	111.56
438.943	113.56
439.165	75.56
439.386	74.56
439.608	93.56
439.829	96.56
440.05	133.56
440.272	175.56
440.493	85.56
440.715	97.56
440.936	83.56
441.158	95.56
441.379	75.56
441.6	90.56
441.822	88.56
442.043	100.56
442.264	107.56
442.486	101.56
442.707	78.56
442.928	124.56
443.149	138.56
443.371	162.56
443.592	107.56
443.813	111.56
444.034	104.56
444.255	77.56
444.476	98.56
444.698	94.56
444.919	86.56
445.14	127.56
445.361	118.56
445.582	120.56
445.803	144.56
446.024	136.56
446.245	158.56
446.466	108.56
446.687	86.56
446.908	85.56
447.129	89.56
447.35	82.56
447.571	88.56
447.792	93.56
448.013	99.56
448.234	113.56
448.455	99.56
448.675	105.56
448.896	125.56
449.117	93.56
449.338	100.56
449.559	145.56
449.779	134.56
450	102.56
450.221	83.56
450.442	70.56
450.662	103.56
450.883	112.56
451.104	109.56
451.324	101.56
451.545	102.56
451.766	86.56
451.986	87.56
452.207	101.56
452.428	92.56
452.648	108.56
452.869	126.56
453.089	126.56
453.31	138.56
453.53	80.56
453.751	96.56
453.971	99.56
454.192	122.56
454.412	83.56
454.633	83.56
454.853	72.56
455.073	94.56
455.294	92.56
455.514	121.56
455.734	92.56
455.955	91.56
456.175	74.56
456.395	71.56
456.616	92.56
456.836	79.56
457.056	84.56
457.276	85.56
457.497	76.56
457.717	86.56
457.937	93.56
458.157	98.56
458.377	90.56
458.598	120.56
458.818	178.56
459.038	193.56
459.258	145.56
459.478	105.56
459.698	87.56
459.918	69.56
460.138	85.56
460.358	86.56
460.578	93.56
460.798	78.56
461.018	80.56
461.238	81.56
461.458	83.56
461.678	87.56
461.898	86.56
462.118	89.56
462.338	83.56
462.558	86.56
462.777	74.56
462.997	75.56
463.217	76.56
463.437	78.56
463.657	98.56
463.876	85.56
464.096	89.56
464.316	98.56
464.536	84.56
464.755	89.56
464.975	119.56
465.195	202.56
465.414	185.56
465.634	96.56
465.854	78.56
466.073	93.56
466.293	88.56
466.512	86.56
466.732	91.56
466.951	76.56
467.171	74.56
467.391	97.56
467.61	92.56
467.829	124.56
468.049	122.56
468.268	128.56
468.488	96.56
468.707	94.56
468.927	92.56
469.146	92.56
469.365	87.56
469.585	94.56
469.804	85.56
470.023	99.56
470.243	99.56
470.462	105.56
470.681	116.56
470.901	89.56
471.12	81.56
471.339	90.56
471.558	95.56
471.777	88.56
471.997	90.56
472.216	145.56
472.435	224.56
472.654	126.56
472.873	86.56
473.092	87.56
473.311	77.56
473.53	83.56
473.749	87.56
473.968	89.56
474.187	120.56
474.406	110.56
474.625	88.56
474.844	86.56
475.063	73.56
475.282	86.56
475.501	88.56
475.72	80.56
475.939	79.56
476.158	83.56
476.377	83.56
476.596	81.56
476.814	98.56
477.033	83.56
477.252	86.56
477.471	90.56
477.69	90.56
477.908	89.56
478.127	78.56
478.346	94.56
478.564	92.56
478.783	94.56
479.002	86.56
479.22	87.56
479.439	121.56
479.658	106.56
479.876	104.56
480.095	108.56
480.313	109.56
480.532	98.56
480.751	105.56
480.969	151.56
481.188	408.56
481.406	289.56
481.624	100.56
481.843	83.56
482.061	87.56
482.28	84.56
482.498	92.56
482.717	88.56
482.935	90.56
483.153	92.56
483.372	69.56
483.59	97.56
483.808	87.56
484.027	92.56
484.245	93.56
484.463	86.56
484.681	79.56
484.9	72.56
485.118	98.56
485.336	105.56
485.554	82.56
485.772	97.56
485.99	96.56
486.209	101.56
486.427	112.56
486.645	114.56
486.863	120.56
487.081	109.56
487.299	87.56
487.517	82.56
487.735	86.56
487.953	77.56
488.171	97.56
488.389	101.56
488.607	105.56
488.825	82.56
489.043	77.56
489.261	75.56
489.479	88.56
489.696	80.56
489.914	78.56
490.132	86.56
490.35	90.56
490.568	112.56
490.786	77.56
491.003	88.56
491.221	77.56
491.439	81.56
491.657	86.56
491.874	80.56
492.092	95.56
492.31	86.56
492.527	89.56
492.745	80.56
492.963	85.56
493.18	98.56
493.398	80.56
493.615	91.56
493.833	96.56
494.05	97.56
494.268	96.56
494.485	89.56
494.703	82.56
494.92	94.56
495.138	91.56
495.355	100.56
495.573	86.56
495.79	94.56
496.008	85.56
496.225	81.56
496.442	84.56
496.66	88.56
496.877	78.56
497.094	72.56
497.312	90.56
497.529	86.56
497.746	86.56
497.963	85.56
498.181	92.56
498.398	88.56
498.615	100.56
498.832	102.56
499.049	97.56
499.267	92.56
499.484	90.56
499.701	86.56
499.918	89.56
500.135	80.56
500.352	90.56
500.569	82.56
500.786	79.56
501.003	82.56
501.22	87.56
501.437	84.56
501.654	105.56
501.871	117.56
502.088	75.56
502.305	85.56
502.522	99.56
502.739	86.56
502.956	87.56
503.172	99.56
503.389	96.56
503.606	131.56
503.823	108.56
504.04	92.56
504.256	97.56
504.473	104.56
504.69	81.56
504.907	88.56
505.123	93.56
505.34	77.56
505.557	94.56
505.773	95.56
505.99	90.56
506.207	102.56
506.423	88.56
506.64	87.56
506.856	89.56
507.073	85.56
507.289	90.56
507.506	89.56
507.722	127.56
507.939	111.56
508.155	103.56
508.372	96.56
508.588	96.56
508.805	110.56
509.021	96.56
509.238	95.56
509.454	97.56
509.67	101.56
509.887	112.56
510.103	150.56
510.319	237.56
510.536	922.56
510.752	3363.56
510.968	922.56
511.184	189.56
511.401	116.56
511.617	109.56
511.833	91.56
512.049	94.56
512.265	95.56
512.481	97.56
512.698	85.56
512.914	85.56
513.13	87.56
513.346	90.56
513.562	102.56
513.778	87.56
513.994	99.56
514.21	114.56
514.426	141.56
514.642	169.56
514.858	146.56
515.074	211.56
515.29	592.56
515.506	2308.56
