Data from Circ_2022_H10_HRD10591_00035.txt Node
Date: Wed Jan 03 09:53:44 EST 2024
User: Yrep
Spectrometer: HR+D1059
Trigger mode: 1
Integration Time (sec): 1.000000E-1
Scans to average: 1
Electric dark correction enabled: true
Nonlinearity correction enabled: false
Boxcar width: 0
XAxis mode: Wavelengths
Number of Pixels in Spectrum: 2048
>>>>>Begin Spectral Data<<<<<
223.165	-23.94
223.4	-23.94
223.635	-23.94
223.869	-16.94
224.104	-21.94
224.338	3.06
224.573	-15.94
224.808	-9.94
225.042	-3.94
225.277	5.06
225.511	-7.94
225.746	4.06
225.98	14.06
226.215	-4.94
226.449	12.06
226.683	7.06
226.918	16.06
227.152	44.06
227.387	34.06
227.621	28.06
227.856	52.06
228.09	41.06
228.324	42.06
228.559	44.06
228.793	71.06
229.027	77.06
229.262	68.06
229.496	69.06
229.73	94.06
229.964	83.06
230.199	61.06
230.433	71.06
230.667	79.06
230.901	85.06
231.136	79.06
231.37	86.06
231.604	99.06
231.838	95.06
232.072	83.06
232.306	72.06
232.541	82.06
232.775	76.06
233.009	70.06
233.243	72.06
233.477	81.06
233.711	85.06
233.945	60.06
234.179	84.06
234.413	82.06
234.647	72.06
234.881	74.06
235.115	83.06
235.349	83.06
235.583	96.06
235.817	74.06
236.051	85.06
236.285	80.06
236.519	83.06
236.753	74.06
236.987	82.06
237.221	83.06
237.455	89.06
237.689	88.06
237.922	71.06
238.156	68.06
238.39	81.06
238.624	66.06
238.858	85.06
239.091	67.06
239.325	85.06
239.559	95.06
239.793	83.06
240.027	85.06
240.26	76.06
240.494	72.06
240.728	81.06
240.961	96.06
241.195	78.06
241.429	83.06
241.662	85.06
241.896	81.06
242.13	80.06
242.363	80.06
242.597	65.06
242.83	79.06
243.064	71.06
243.298	83.06
243.531	84.06
243.765	82.06
243.998	75.06
244.232	91.06
244.465	71.06
244.699	76.06
244.932	75.06
245.166	85.06
245.399	80.06
245.633	62.06
245.866	85.06
246.099	79.06
246.333	81.06
246.566	88.06
246.8	64.06
247.033	88.06
247.266	61.06
247.5	62.06
247.733	81.06
247.966	82.06
248.2	77.06
248.433	83.06
248.666	86.06
248.899	88.06
249.133	86.06
249.366	107.06
249.599	94.06
249.832	86.06
250.066	82.06
250.299	60.06
250.532	71.06
250.765	77.06
250.998	74.06
251.231	75.06
251.465	98.06
251.698	80.06
251.931	78.06
252.164	83.06
252.397	81.06
252.63	91.06
252.863	77.06
253.096	79.06
253.329	82.06
253.562	88.06
253.795	71.06
254.028	88.06
254.261	88.06
254.494	76.06
254.727	72.06
254.96	98.06
255.193	81.06
255.426	92.06
255.659	75.06
255.892	73.06
256.124	84.06
256.357	93.06
256.59	80.06
256.823	87.06
257.056	74.06
257.289	90.06
257.521	78.06
257.754	82.06
257.987	83.06
258.22	88.06
258.452	77.06
258.685	71.06
258.918	67.06
259.151	90.06
259.383	83.06
259.616	90.06
259.849	90.06
260.081	89.06
260.314	86.06
260.547	88.06
260.779	74.06
261.012	80.06
261.244	101.06
261.477	85.06
261.71	108.06
261.942	130.06
262.175	127.06
262.407	93.06
262.64	83.06
262.872	81.06
263.105	80.06
263.337	86.06
263.57	89.06
263.802	88.06
264.035	85.06
264.267	91.06
264.499	90.06
264.732	83.06
264.964	75.06
265.197	100.06
265.429	74.06
265.661	80.06
265.894	81.06
266.126	78.06
266.358	77.06
266.591	87.06
266.823	96.06
267.055	86.06
267.287	91.06
267.52	98.06
267.752	91.06
267.984	89.06
268.216	77.06
268.448	74.06
268.681	76.06
268.913	85.06
269.145	76.06
269.377	88.06
269.609	92.06
269.841	77.06
270.073	89.06
270.306	80.06
270.538	82.06
270.77	88.06
271.002	86.06
271.234	85.06
271.466	83.06
271.698	81.06
271.93	99.06
272.162	87.06
272.394	79.06
272.626	88.06
272.858	94.06
273.09	93.06
273.322	94.06
273.553	98.06
273.785	101.06
274.017	75.06
274.249	77.06
274.481	77.06
274.713	95.06
274.945	85.06
275.176	86.06
275.408	88.06
275.64	88.06
275.872	90.06
276.104	64.06
276.335	85.06
276.567	104.06
276.799	119.06
277.031	101.06
277.262	97.06
277.494	80.06
277.726	93.06
277.957	77.06
278.189	83.06
278.421	81.06
278.652	94.06
278.884	77.06
279.115	88.06
279.347	77.06
279.579	84.06
279.81	91.06
280.042	92.06
280.273	81.06
280.505	85.06
280.736	91.06
280.968	88.06
281.199	97.06
281.431	86.06
281.662	99.06
281.894	105.06
282.125	96.06
282.356	134.06
282.588	167.06
282.819	131.06
283.051	94.06
283.282	82.06
283.513	90.06
283.745	98.06
283.976	86.06
284.207	91.06
284.439	88.06
284.67	81.06
284.901	81.06
285.132	103.06
285.364	100.06
285.595	93.06
285.826	95.06
286.057	88.06
286.288	81.06
286.52	79.06
286.751	93.06
286.982	95.06
287.213	76.06
287.444	99.06
287.675	77.06
287.906	86.06
288.138	102.06
288.369	99.06
288.6	103.06
288.831	87.06
289.062	88.06
289.293	114.06
289.524	88.06
289.755	101.06
289.986	84.06
290.217	91.06
290.448	92.06
290.679	77.06
290.91	91.06
291.141	99.06
291.371	83.06
291.602	89.06
291.833	92.06
292.064	86.06
292.295	104.06
292.526	80.06
292.757	94.06
292.987	94.06
293.218	95.06
293.449	88.06
293.68	87.06
293.91	76.06
294.141	75.06
294.372	83.06
294.603	83.06
294.833	88.06
295.064	89.06
295.295	85.06
295.525	77.06
295.756	99.06
295.987	150.06
296.217	169.06
296.448	138.06
296.679	94.06
296.909	95.06
297.14	96.06
297.37	97.06
297.601	100.06
297.831	108.06
298.062	94.06
298.292	76.06
298.523	108.06
298.753	69.06
298.984	85.06
299.214	87.06
299.445	98.06
299.675	95.06
299.905	89.06
300.136	82.06
300.366	93.06
300.597	84.06
300.827	80.06
301.057	97.06
301.288	106.06
301.518	90.06
301.748	98.06
301.979	113.06
302.209	97.06
302.439	79.06
302.669	84.06
302.9	83.06
303.13	109.06
303.36	100.06
303.59	108.06
303.82	108.06
304.051	101.06
304.281	96.06
304.511	89.06
304.741	97.06
304.971	91.06
305.201	83.06
305.431	90.06
305.661	84.06
305.891	86.06
306.121	80.06
306.352	105.06
306.582	110.06
306.812	98.06
307.042	98.06
307.272	106.06
307.502	92.06
307.731	98.06
307.961	95.06
308.191	75.06
308.421	85.06
308.651	85.06
308.881	92.06
309.111	94.06
309.341	99.06
309.571	116.06
309.8	98.06
310.03	107.06
310.26	87.06
310.49	97.06
310.72	97.06
310.949	104.06
311.179	102.06
311.409	90.06
311.639	101.06
311.868	103.06
312.098	98.06
312.328	98.06
312.557	115.06
312.787	108.06
313.017	114.06
313.246	97.06
313.476	88.06
313.706	99.06
313.935	93.06
314.165	89.06
314.394	112.06
314.624	111.06
314.853	101.06
315.083	96.06
315.312	89.06
315.542	89.06
315.771	102.06
316.001	94.06
316.23	86.06
316.46	96.06
316.689	81.06
316.919	103.06
317.148	96.06
317.377	84.06
317.607	98.06
317.836	82.06
318.065	93.06
318.295	82.06
318.524	84.06
318.753	88.06
318.983	95.06
319.212	95.06
319.441	102.06
319.67	107.06
319.9	114.06
320.129	101.06
320.358	98.06
320.587	94.06
320.816	102.06
321.046	101.06
321.275	103.06
321.504	102.06
321.733	92.06
321.962	101.06
322.191	104.06
322.42	103.06
322.649	102.06
322.878	133.06
323.108	136.06
323.337	141.06
323.566	158.06
323.795	165.06
324.024	220.06
324.253	455.06
324.482	934.06
324.71	1960.06
324.939	2562.06
325.168	961.06
325.397	264.06
325.626	166.06
325.855	137.06
326.084	127.06
326.313	137.06
326.542	160.06
326.77	248.06
326.999	482.06
327.228	1030.06
327.457	1883.06
327.686	1515.06
327.914	420.06
328.143	224.06
328.372	183.06
328.6	145.06
328.829	121.06
329.058	161.06
329.287	156.06
329.515	115.06
329.744	102.06
329.972	105.06
330.201	113.06
330.43	144.06
330.658	128.06
330.887	159.06
331.115	132.06
331.344	100.06
331.572	108.06
331.801	106.06
332.03	115.06
332.258	92.06
332.486	99.06
332.715	102.06
332.943	97.06
333.172	89.06
333.4	91.06
333.629	101.06
333.857	119.06
334.085	129.06
334.314	115.06
334.542	135.06
334.771	136.06
334.999	100.06
335.227	101.06
335.455	102.06
335.684	93.06
335.912	106.06
336.14	98.06
336.369	108.06
336.597	109.06
336.825	112.06
337.053	96.06
337.281	89.06
337.51	91.06
337.738	96.06
337.966	100.06
338.194	106.06
338.422	98.06
338.65	95.06
338.878	89.06
339.106	104.06
339.334	94.06
339.562	80.06
339.79	94.06
340.018	107.06
340.246	99.06
340.474	104.06
340.702	96.06
340.93	102.06
341.158	90.06
341.386	98.06
341.614	106.06
341.842	92.06
342.07	86.06
342.298	97.06
342.526	101.06
342.754	88.06
342.981	76.06
343.209	87.06
343.437	91.06
343.665	92.06
343.893	83.06
344.12	88.06
344.348	90.06
344.576	95.06
344.804	105.06
345.031	99.06
345.259	96.06
345.487	105.06
345.714	97.06
345.942	95.06
346.17	101.06
346.397	97.06
346.625	100.06
346.853	92.06
347.08	87.06
347.308	86.06
347.535	108.06
347.763	103.06
347.99	102.06
348.218	123.06
348.445	107.06
348.673	101.06
348.9	107.06
349.128	105.06
349.355	99.06
349.583	94.06
349.81	99.06
350.037	95.06
350.265	95.06
350.492	93.06
350.72	112.06
350.947	107.06
351.174	129.06
351.402	119.06
351.629	119.06
351.856	106.06
352.083	90.06
352.311	109.06
352.538	114.06
352.765	118.06
352.992	124.06
353.22	133.06
353.447	100.06
353.674	114.06
353.901	109.06
354.128	114.06
354.355	111.06
354.583	120.06
354.81	71.06
355.037	93.06
355.264	79.06
355.491	104.06
355.718	97.06
355.945	98.06
356.172	87.06
356.399	91.06
356.626	85.06
356.853	93.06
357.08	89.06
357.307	92.06
357.534	82.06
357.761	95.06
357.988	100.06
358.215	117.06
358.441	108.06
358.668	92.06
358.895	67.06
359.122	76.06
359.349	102.06
359.576	102.06
359.802	124.06
360.029	140.06
360.256	127.06
360.483	109.06
360.709	87.06
360.936	98.06
361.163	89.06
361.39	102.06
361.616	79.06
361.843	84.06
362.07	89.06
362.296	92.06
362.523	91.06
362.749	95.06
362.976	91.06
363.203	85.06
363.429	105.06
363.656	81.06
363.882	95.06
364.109	82.06
364.335	96.06
364.562	81.06
364.788	97.06
365.015	93.06
365.241	106.06
365.468	119.06
365.694	123.06
365.92	111.06
366.147	98.06
366.373	93.06
366.599	93.06
366.826	84.06
367.052	90.06
367.278	98.06
367.505	91.06
367.731	109.06
367.957	96.06
368.184	96.06
368.41	105.06
368.636	123.06
368.862	138.06
369.089	120.06
369.315	109.06
369.541	102.06
369.767	100.06
369.993	86.06
370.219	94.06
370.445	93.06
370.672	104.06
370.898	99.06
371.124	90.06
371.35	87.06
371.576	96.06
371.802	85.06
372.028	83.06
372.254	95.06
372.48	84.06
372.706	83.06
372.932	85.06
373.158	92.06
373.384	105.06
373.61	88.06
373.835	84.06
374.061	88.06
374.287	79.06
374.513	88.06
374.739	83.06
374.965	97.06
375.191	94.06
375.416	90.06
375.642	87.06
375.868	97.06
376.094	111.06
376.319	105.06
376.545	86.06
376.771	103.06
376.997	87.06
377.222	99.06
377.448	77.06
377.674	98.06
377.899	91.06
378.125	77.06
378.35	100.06
378.576	102.06
378.802	99.06
379.027	100.06
379.253	103.06
379.478	96.06
379.704	85.06
379.929	87.06
380.155	96.06
380.38	82.06
380.606	97.06
380.831	112.06
381.057	100.06
381.282	89.06
381.507	110.06
381.733	100.06
381.958	90.06
382.184	113.06
382.409	101.06
382.634	96.06
382.86	104.06
383.085	92.06
383.31	94.06
383.535	98.06
383.761	81.06
383.986	100.06
384.211	91.06
384.436	101.06
384.662	98.06
384.887	118.06
385.112	116.06
385.337	92.06
385.562	112.06
385.787	108.06
386.013	101.06
386.238	116.06
386.463	105.06
386.688	111.06
386.913	104.06
387.138	105.06
387.363	113.06
387.588	103.06
387.813	89.06
388.038	99.06
388.263	106.06
388.488	124.06
388.713	109.06
388.938	99.06
389.163	94.06
389.387	96.06
389.612	94.06
389.837	92.06
390.062	89.06
390.287	104.06
390.512	104.06
390.736	104.06
390.961	89.06
391.186	91.06
391.411	83.06
391.636	92.06
391.86	89.06
392.085	92.06
392.31	84.06
392.534	76.06
392.759	84.06
392.984	82.06
393.208	77.06
393.433	88.06
393.658	101.06
393.882	81.06
394.107	80.06
394.331	89.06
394.556	98.06
394.78	81.06
395.005	91.06
395.229	92.06
395.454	90.06
395.678	99.06
395.903	85.06
396.127	95.06
396.352	88.06
396.576	84.06
396.801	102.06
397.025	98.06
397.249	81.06
397.474	84.06
397.698	81.06
397.922	90.06
398.147	94.06
398.371	89.06
398.595	95.06
398.82	79.06
399.044	81.06
399.268	68.06
399.492	89.06
399.717	93.06
399.941	84.06
400.165	94.06
400.389	91.06
400.613	94.06
400.837	93.06
401.062	93.06
401.286	90.06
401.51	84.06
401.734	90.06
401.958	100.06
402.182	141.06
402.406	198.06
402.63	129.06
402.854	86.06
403.078	91.06
403.302	91.06
403.526	91.06
403.75	82.06
403.974	93.06
404.198	82.06
404.422	79.06
404.645	87.06
404.869	93.06
405.093	113.06
405.317	101.06
405.541	106.06
405.765	107.06
405.988	126.06
406.212	206.06
406.436	303.06
406.66	178.06
406.883	111.06
407.107	95.06
407.331	96.06
407.555	99.06
407.778	93.06
408.002	92.06
408.226	83.06
408.449	88.06
408.673	89.06
408.896	93.06
409.12	92.06
409.344	88.06
409.567	104.06
409.791	96.06
410.014	108.06
410.238	87.06
410.461	91.06
410.685	96.06
410.908	104.06
411.132	95.06
411.355	97.06
411.578	104.06
411.802	86.06
412.025	100.06
412.249	88.06
412.472	98.06
412.695	103.06
412.919	94.06
413.142	84.06
413.365	85.06
413.589	104.06
413.812	86.06
414.035	108.06
414.258	78.06
414.482	86.06
414.705	86.06
414.928	75.06
415.151	72.06
415.374	82.06
415.597	83.06
415.821	96.06
416.044	82.06
416.267	90.06
416.49	84.06
416.713	82.06
416.936	87.06
417.159	80.06
417.382	89.06
417.605	93.06
417.828	80.06
418.051	107.06
418.274	81.06
418.497	80.06
418.72	83.06
418.943	77.06
419.166	93.06
419.389	85.06
419.611	99.06
419.834	81.06
420.057	96.06
420.28	85.06
420.503	95.06
420.726	88.06
420.948	97.06
421.171	106.06
421.394	100.06
421.617	97.06
421.839	97.06
422.062	102.06
422.285	83.06
422.507	95.06
422.73	87.06
422.953	117.06
423.175	97.06
423.398	89.06
423.621	96.06
423.843	91.06
424.066	89.06
424.288	90.06
424.511	93.06
424.733	98.06
424.956	112.06
425.178	106.06
425.401	87.06
425.623	105.06
425.846	99.06
426.068	98.06
426.291	100.06
426.513	95.06
426.735	93.06
426.958	92.06
427.18	107.06
427.402	150.06
427.625	182.06
427.847	156.06
428.069	130.06
428.292	86.06
428.514	103.06
428.736	87.06
428.958	101.06
429.181	86.06
429.403	79.06
429.625	84.06
429.847	95.06
430.069	106.06
430.292	87.06
430.514	88.06
430.736	92.06
430.958	70.06
431.18	90.06
431.402	92.06
431.624	83.06
431.846	93.06
432.068	86.06
432.29	90.06
432.512	87.06
432.734	100.06
432.956	97.06
433.178	95.06
433.4	105.06
433.622	97.06
433.844	91.06
434.066	108.06
434.287	101.06
434.509	90.06
434.731	71.06
434.953	83.06
435.175	77.06
435.397	81.06
435.618	88.06
435.84	111.06
436.062	123.06
436.284	124.06
436.505	98.06
436.727	108.06
436.949	94.06
437.17	90.06
437.392	79.06
437.614	97.06
437.835	105.06
438.057	135.06
438.278	111.06
438.5	117.06
438.721	124.06
438.943	117.06
439.165	92.06
439.386	94.06
439.608	95.06
439.829	133.06
440.05	140.06
440.272	142.06
440.493	123.06
440.715	104.06
440.936	83.06
441.158	82.06
441.379	87.06
441.6	91.06
441.822	92.06
442.043	109.06
442.264	119.06
442.486	100.06
442.707	98.06
442.928	107.06
443.149	150.06
443.371	151.06
443.592	100.06
443.813	111.06
444.034	104.06
444.255	99.06
444.476	92.06
444.698	89.06
444.919	88.06
445.14	135.06
445.361	134.06
445.582	119.06
445.803	148.06
446.024	125.06
446.245	151.06
446.466	114.06
446.687	92.06
446.908	114.06
447.129	98.06
447.35	90.06
447.571	94.06
447.792	93.06
448.013	105.06
448.234	107.06
448.455	108.06
448.675	110.06
448.896	116.06
449.117	98.06
449.338	101.06
449.559	115.06
449.779	129.06
450	101.06
450.221	88.06
450.442	98.06
450.662	106.06
450.883	125.06
451.104	126.06
451.324	101.06
451.545	89.06
451.766	102.06
451.986	96.06
452.207	103.06
452.428	100.06
452.648	96.06
452.869	118.06
453.089	138.06
453.31	137.06
453.53	89.06
453.751	101.06
453.971	111.06
454.192	127.06
454.412	96.06
454.633	86.06
454.853	78.06
455.073	92.06
455.294	95.06
455.514	90.06
455.734	97.06
455.955	96.06
456.175	76.06
456.395	73.06
456.616	97.06
456.836	84.06
457.056	97.06
457.276	92.06
457.497	87.06
457.717	95.06
457.937	76.06
458.157	89.06
458.377	93.06
458.598	126.06
458.818	191.06
459.038	204.06
459.258	124.06
459.478	91.06
459.698	91.06
459.918	80.06
460.138	92.06
460.358	91.06
460.578	95.06
460.798	87.06
461.018	100.06
461.238	87.06
461.458	87.06
461.678	85.06
461.898	97.06
462.118	90.06
462.338	75.06
462.558	79.06
462.777	77.06
462.997	106.06
463.217	99.06
463.437	81.06
463.657	86.06
463.876	93.06
464.096	89.06
464.316	90.06
464.536	97.06
464.755	91.06
464.975	120.06
465.195	207.06
465.414	206.06
465.634	103.06
465.854	83.06
466.073	102.06
466.293	87.06
466.512	84.06
466.732	78.06
466.951	91.06
467.171	98.06
467.391	109.06
467.61	111.06
467.829	103.06
468.049	111.06
468.268	113.06
468.488	100.06
468.707	88.06
468.927	90.06
469.146	101.06
469.365	90.06
469.585	96.06
469.804	108.06
470.023	103.06
470.243	113.06
470.462	116.06
470.681	108.06
470.901	97.06
471.12	83.06
471.339	76.06
471.558	83.06
471.777	85.06
471.997	82.06
472.216	121.06
472.435	156.06
472.654	103.06
472.873	88.06
473.092	89.06
473.311	79.06
473.53	91.06
473.749	83.06
473.968	88.06
474.187	113.06
474.406	103.06
474.625	79.06
474.844	82.06
475.063	97.06
475.282	102.06
475.501	100.06
475.72	96.06
475.939	90.06
476.158	87.06
476.377	93.06
476.596	104.06
476.814	99.06
477.033	84.06
477.252	80.06
477.471	85.06
477.69	94.06
477.908	85.06
478.127	93.06
478.346	85.06
478.564	91.06
478.783	97.06
479.002	94.06
479.22	93.06
479.439	101.06
479.658	117.06
479.876	75.06
480.095	99.06
480.313	88.06
480.532	87.06
480.751	102.06
480.969	103.06
481.188	193.06
481.406	149.06
481.624	111.06
481.843	91.06
482.061	86.06
482.28	102.06
482.498	101.06
482.717	89.06
482.935	98.06
483.153	88.06
483.372	85.06
483.59	87.06
483.808	81.06
484.027	96.06
484.245	91.06
484.463	85.06
484.681	117.06
484.9	96.06
485.118	112.06
485.336	82.06
485.554	104.06
485.772	92.06
485.99	94.06
486.209	106.06
486.427	107.06
486.645	117.06
486.863	106.06
487.081	105.06
487.299	101.06
487.517	99.06
487.735	94.06
487.953	97.06
488.171	91.06
488.389	96.06
488.607	99.06
488.825	96.06
489.043	96.06
489.261	82.06
489.479	83.06
489.696	77.06
489.914	76.06
490.132	102.06
490.35	83.06
490.568	99.06
490.786	107.06
491.003	88.06
491.221	87.06
491.439	92.06
491.657	101.06
491.874	91.06
492.092	95.06
492.31	96.06
492.527	86.06
492.745	84.06
492.963	98.06
493.18	97.06
493.398	99.06
493.615	84.06
493.833	107.06
494.05	91.06
494.268	95.06
494.485	88.06
494.703	82.06
494.92	80.06
495.138	95.06
495.355	105.06
495.573	91.06
495.79	90.06
496.008	85.06
496.225	86.06
496.442	90.06
496.66	86.06
496.877	91.06
497.094	112.06
497.312	76.06
497.529	95.06
497.746	97.06
497.963	94.06
498.181	86.06
498.398	103.06
498.615	123.06
498.832	114.06
499.049	99.06
499.267	91.06
499.484	99.06
499.701	91.06
499.918	86.06
500.135	88.06
500.352	112.06
500.569	91.06
500.786	87.06
501.003	105.06
501.22	72.06
501.437	89.06
501.654	93.06
501.871	117.06
502.088	92.06
502.305	90.06
502.522	92.06
502.739	87.06
502.956	89.06
503.172	91.06
503.389	100.06
503.606	113.06
503.823	102.06
504.04	91.06
504.256	99.06
504.473	93.06
504.69	91.06
504.907	91.06
505.123	78.06
505.34	83.06
505.557	92.06
505.773	85.06
505.99	93.06
506.207	84.06
506.423	85.06
506.64	83.06
506.856	86.06
507.073	95.06
507.289	98.06
507.506	117.06
507.722	106.06
507.939	120.06
508.155	96.06
508.372	101.06
508.588	92.06
508.805	104.06
509.021	104.06
509.238	114.06
509.454	107.06
509.67	120.06
509.887	119.06
510.103	146.06
510.319	252.06
510.536	980.06
510.752	3336.06
510.968	937.06
511.184	198.06
511.401	116.06
511.617	105.06
511.833	93.06
512.049	96.06
512.265	100.06
512.481	106.06
512.698	89.06
512.914	93.06
513.13	98.06
513.346	97.06
513.562	110.06
513.778	99.06
513.994	96.06
514.21	119.06
514.426	111.06
