Data from Circ_2022_H10_HRD10591_00058.txt Node
Date: Wed Jan 03 09:53:49 EST 2024
User: Yrep
Spectrometer: HR+D1059
Trigger mode: 1
Integration Time (sec): 1.000000E-1
Scans to average: 1
Electric dark correction enabled: true
Nonlinearity correction enabled: false
Boxcar width: 0
XAxis mode: Wavelengths
Number of Pixels in Spectrum: 2048
>>>>>Begin Spectral Data<<<<<
223.165	-12.75
223.4	-12.75
223.635	-12.75
223.869	-19.75
224.104	-27.75
224.338	-24.75
224.573	-29.75
224.808	-6.75
225.042	-6.75
225.277	0.25
225.511	-5.75
225.746	3.25
225.98	2.25
226.215	7.25
226.449	13.25
226.683	28.25
226.918	39.25
227.152	40.25
227.387	39.25
227.621	36.25
227.856	43.25
228.09	53.25
228.324	54.25
228.559	49.25
228.793	67.25
229.027	66.25
229.262	62.25
229.496	87.25
229.73	78.25
229.964	84.25
230.199	88.25
230.433	80.25
230.667	75.25
230.901	77.25
231.136	91.25
231.37	101.25
231.604	96.25
231.838	83.25
232.072	72.25
232.306	89.25
232.541	73.25
232.775	95.25
233.009	85.25
233.243	84.25
233.477	73.25
233.711	77.25
233.945	86.25
234.179	67.25
234.413	78.25
234.647	88.25
234.881	71.25
235.115	66.25
235.349	86.25
235.583	91.25
235.817	76.25
236.051	70.25
236.285	71.25
236.519	72.25
236.753	64.25
236.987	84.25
237.221	90.25
237.455	94.25
237.689	83.25
237.922	81.25
238.156	79.25
238.39	79.25
238.624	87.25
238.858	78.25
239.091	83.25
239.325	76.25
239.559	72.25
239.793	80.25
240.027	90.25
240.26	87.25
240.494	82.25
240.728	78.25
240.961	91.25
241.195	85.25
241.429	79.25
241.662	76.25
241.896	82.25
242.13	78.25
242.363	74.25
242.597	85.25
242.83	80.25
243.064	75.25
243.298	65.25
243.531	63.25
243.765	56.25
243.998	77.25
244.232	90.25
244.465	93.25
244.699	90.25
244.932	69.25
245.166	80.25
245.399	82.25
245.633	76.25
245.866	73.25
246.099	74.25
246.333	70.25
246.566	76.25
246.8	72.25
247.033	66.25
247.266	79.25
247.5	67.25
247.733	83.25
247.966	62.25
248.2	74.25
248.433	80.25
248.666	81.25
248.899	83.25
249.133	96.25
249.366	92.25
249.599	83.25
249.832	67.25
250.066	88.25
250.299	75.25
250.532	83.25
250.765	86.25
250.998	86.25
251.231	82.25
251.465	87.25
251.698	88.25
251.931	81.25
252.164	67.25
252.397	71.25
252.63	81.25
252.863	86.25
253.096	83.25
253.329	82.25
253.562	74.25
253.795	74.25
254.028	69.25
254.261	69.25
254.494	76.25
254.727	75.25
254.96	83.25
255.193	82.25
255.426	66.25
255.659	70.25
255.892	84.25
256.124	90.25
256.357	75.25
256.59	89.25
256.823	81.25
257.056	80.25
257.289	81.25
257.521	90.25
257.754	93.25
257.987	79.25
258.22	85.25
258.452	87.25
258.685	81.25
258.918	83.25
259.151	90.25
259.383	76.25
259.616	78.25
259.849	79.25
260.081	75.25
260.314	76.25
260.547	79.25
260.779	74.25
261.012	69.25
261.244	99.25
261.477	82.25
261.71	88.25
261.942	111.25
262.175	122.25
262.407	92.25
262.64	91.25
262.872	86.25
263.105	95.25
263.337	92.25
263.57	86.25
263.802	79.25
264.035	70.25
264.267	84.25
264.499	90.25
264.732	80.25
264.964	69.25
265.197	88.25
265.429	77.25
265.661	88.25
265.894	97.25
266.126	79.25
266.358	97.25
266.591	72.25
266.823	105.25
267.055	88.25
267.287	81.25
267.52	80.25
267.752	80.25
267.984	84.25
268.216	98.25
268.448	80.25
268.681	88.25
268.913	87.25
269.145	95.25
269.377	82.25
269.609	85.25
269.841	82.25
270.073	80.25
270.306	73.25
270.538	76.25
270.77	86.25
271.002	78.25
271.234	74.25
271.466	75.25
271.698	76.25
271.93	82.25
272.162	95.25
272.394	81.25
272.626	109.25
272.858	88.25
273.09	88.25
273.322	97.25
273.553	76.25
273.785	81.25
274.017	81.25
274.249	84.25
274.481	95.25
274.713	77.25
274.945	86.25
275.176	84.25
275.408	90.25
275.64	81.25
275.872	75.25
276.104	91.25
276.335	95.25
276.567	95.25
276.799	105.25
277.031	102.25
277.262	87.25
277.494	84.25
277.726	96.25
277.957	86.25
278.189	72.25
278.421	83.25
278.652	83.25
278.884	72.25
279.115	90.25
279.347	86.25
279.579	92.25
279.81	86.25
280.042	84.25
280.273	88.25
280.505	91.25
280.736	84.25
280.968	78.25
281.199	90.25
281.431	96.25
281.662	88.25
281.894	94.25
282.125	112.25
282.356	130.25
282.588	153.25
282.819	123.25
283.051	79.25
283.282	94.25
283.513	94.25
283.745	79.25
283.976	85.25
284.207	83.25
284.439	84.25
284.67	87.25
284.901	87.25
285.132	80.25
285.364	80.25
285.595	93.25
285.826	88.25
286.057	88.25
286.288	91.25
286.52	85.25
286.751	81.25
286.982	91.25
287.213	94.25
287.444	85.25
287.675	90.25
287.906	95.25
288.138	100.25
288.369	97.25
288.6	90.25
288.831	89.25
289.062	106.25
289.293	86.25
289.524	80.25
289.755	83.25
289.986	84.25
290.217	99.25
290.448	81.25
290.679	80.25
290.91	96.25
291.141	91.25
291.371	83.25
291.602	88.25
291.833	90.25
292.064	74.25
292.295	92.25
292.526	95.25
292.757	91.25
292.987	93.25
293.218	86.25
293.449	71.25
293.68	76.25
293.91	94.25
294.141	87.25
294.372	82.25
294.603	87.25
294.833	91.25
295.064	94.25
295.295	86.25
295.525	97.25
295.756	85.25
295.987	125.25
296.217	151.25
296.448	125.25
296.679	88.25
296.909	94.25
297.14	86.25
297.37	73.25
297.601	89.25
297.831	92.25
298.062	102.25
298.292	86.25
298.523	83.25
298.753	105.25
298.984	86.25
299.214	78.25
299.445	79.25
299.675	90.25
299.905	97.25
300.136	86.25
300.366	86.25
300.597	111.25
300.827	94.25
301.057	92.25
301.288	121.25
301.518	105.25
301.748	98.25
301.979	97.25
302.209	91.25
302.439	98.25
302.669	84.25
302.9	95.25
303.13	91.25
303.36	106.25
303.59	96.25
303.82	99.25
304.051	94.25
304.281	89.25
304.511	103.25
304.741	95.25
304.971	87.25
305.201	83.25
305.431	92.25
305.661	87.25
305.891	109.25
306.121	91.25
306.352	90.25
306.582	105.25
306.812	92.25
307.042	100.25
307.272	96.25
307.502	94.25
307.731	95.25
307.961	99.25
308.191	88.25
308.421	86.25
308.651	97.25
308.881	97.25
309.111	97.25
309.341	83.25
309.571	89.25
309.8	98.25
310.03	102.25
310.26	103.25
310.49	101.25
310.72	98.25
310.949	116.25
311.179	91.25
311.409	88.25
311.639	103.25
311.868	97.25
312.098	99.25
312.328	96.25
312.557	98.25
312.787	98.25
313.017	91.25
313.246	106.25
313.476	87.25
313.706	110.25
313.935	104.25
314.165	103.25
314.394	106.25
314.624	119.25
314.853	106.25
315.083	91.25
315.312	77.25
315.542	103.25
315.771	99.25
316.001	100.25
316.23	100.25
316.46	93.25
316.689	107.25
316.919	90.25
317.148	96.25
317.377	96.25
317.607	88.25
317.836	101.25
318.065	75.25
318.295	97.25
318.524	96.25
318.753	99.25
318.983	93.25
319.212	99.25
319.441	99.25
319.67	108.25
319.9	88.25
320.129	95.25
320.358	91.25
320.587	91.25
320.816	94.25
321.046	96.25
321.275	100.25
321.504	99.25
321.733	95.25
321.962	104.25
322.191	91.25
322.42	110.25
322.649	103.25
322.878	101.25
323.108	110.25
323.337	134.25
323.566	130.25
323.795	151.25
324.024	207.25
324.253	402.25
324.482	818.25
324.71	1644.25
324.939	2136.25
325.168	778.25
325.397	262.25
325.626	159.25
325.855	135.25
326.084	128.25
326.313	125.25
326.542	155.25
326.77	235.25
326.999	440.25
327.228	886.25
327.457	1590.25
327.686	1269.25
327.914	369.25
328.143	202.25
328.372	171.25
328.6	140.25
328.829	117.25
329.058	136.25
329.287	147.25
329.515	112.25
329.744	98.25
329.972	118.25
330.201	140.25
330.43	167.25
330.658	143.25
330.887	148.25
331.115	120.25
331.344	97.25
331.572	115.25
331.801	110.25
332.03	106.25
332.258	100.25
332.486	94.25
332.715	96.25
332.943	91.25
333.172	95.25
333.4	91.25
333.629	126.25
333.857	130.25
334.085	129.25
334.314	133.25
334.542	195.25
334.771	170.25
334.999	116.25
335.227	91.25
335.455	95.25
335.684	99.25
335.912	93.25
336.14	93.25
336.369	110.25
336.597	106.25
336.825	88.25
337.053	95.25
337.281	94.25
337.51	70.25
337.738	93.25
337.966	100.25
338.194	97.25
338.422	92.25
338.65	105.25
338.878	95.25
339.106	79.25
339.334	91.25
339.562	96.25
339.79	84.25
340.018	92.25
340.246	95.25
340.474	93.25
340.702	100.25
340.93	83.25
341.158	84.25
341.386	98.25
341.614	93.25
341.842	87.25
342.07	86.25
342.298	95.25
342.526	88.25
342.754	90.25
342.981	88.25
343.209	88.25
343.437	106.25
343.665	84.25
343.893	85.25
344.12	95.25
344.348	79.25
344.576	84.25
344.804	99.25
345.031	105.25
345.259	102.25
345.487	99.25
345.714	88.25
345.942	93.25
346.17	98.25
346.397	95.25
346.625	102.25
346.853	88.25
347.08	76.25
347.308	106.25
347.535	101.25
347.763	105.25
347.99	112.25
348.218	87.25
348.445	116.25
348.673	113.25
348.9	106.25
349.128	86.25
349.355	85.25
349.583	80.25
349.81	91.25
350.037	87.25
350.265	90.25
350.492	100.25
350.72	86.25
350.947	111.25
351.174	122.25
351.402	114.25
351.629	100.25
351.856	104.25
352.083	103.25
352.311	116.25
352.538	112.25
352.765	105.25
352.992	106.25
353.22	117.25
353.447	96.25
353.674	103.25
353.901	95.25
354.128	107.25
354.355	83.25
354.583	94.25
354.81	105.25
355.037	111.25
355.264	90.25
355.491	96.25
355.718	91.25
355.945	102.25
356.172	95.25
356.399	100.25
356.626	99.25
356.853	86.25
357.08	97.25
357.307	85.25
357.534	90.25
357.761	78.25
357.988	93.25
358.215	98.25
358.441	86.25
358.668	102.25
358.895	87.25
359.122	90.25
359.349	83.25
359.576	90.25
359.802	112.25
360.029	106.25
360.256	124.25
360.483	100.25
360.709	81.25
360.936	94.25
361.163	99.25
361.39	94.25
361.616	85.25
361.843	90.25
362.07	102.25
362.296	95.25
362.523	104.25
362.749	87.25
362.976	100.25
363.203	105.25
363.429	89.25
363.656	92.25
363.882	96.25
364.109	88.25
364.335	92.25
364.562	100.25
364.788	80.25
365.015	90.25
365.241	112.25
365.468	102.25
365.694	116.25
365.92	95.25
366.147	95.25
366.373	75.25
366.599	102.25
366.826	80.25
367.052	86.25
367.278	82.25
367.505	91.25
367.731	97.25
367.957	88.25
368.184	106.25
368.41	118.25
368.636	117.25
368.862	118.25
369.089	119.25
369.315	106.25
369.541	89.25
369.767	88.25
369.993	85.25
370.219	88.25
370.445	96.25
370.672	99.25
370.898	82.25
371.124	85.25
371.35	89.25
371.576	92.25
371.802	77.25
372.028	98.25
372.254	97.25
372.48	90.25
372.706	75.25
372.932	95.25
373.158	89.25
373.384	98.25
373.61	94.25
373.835	84.25
374.061	86.25
374.287	97.25
374.513	82.25
374.739	95.25
374.965	81.25
375.191	79.25
375.416	68.25
375.642	100.25
375.868	88.25
376.094	102.25
376.319	94.25
376.545	83.25
376.771	82.25
376.997	96.25
377.222	92.25
377.448	99.25
377.674	100.25
377.899	91.25
378.125	84.25
378.35	89.25
378.576	98.25
378.802	94.25
379.027	83.25
379.253	85.25
379.478	82.25
379.704	81.25
379.929	92.25
380.155	107.25
380.38	90.25
380.606	92.25
380.831	77.25
381.057	103.25
381.282	88.25
381.507	74.25
381.733	92.25
381.958	66.25
382.184	94.25
382.409	114.25
382.634	106.25
382.86	108.25
383.085	106.25
383.31	91.25
383.535	100.25
383.761	92.25
383.986	95.25
384.211	83.25
384.436	100.25
384.662	93.25
384.887	107.25
385.112	95.25
385.337	84.25
385.562	98.25
385.787	100.25
386.013	103.25
386.238	116.25
386.463	106.25
386.688	126.25
386.913	107.25
387.138	99.25
387.363	108.25
387.588	99.25
387.813	89.25
388.038	99.25
388.263	114.25
388.488	97.25
388.713	99.25
388.938	100.25
389.163	104.25
389.387	87.25
389.612	85.25
389.837	101.25
390.062	94.25
390.287	86.25
390.512	92.25
390.736	95.25
390.961	92.25
391.186	86.25
391.411	108.25
391.636	84.25
391.86	84.25
392.085	82.25
392.31	89.25
392.534	86.25
392.759	91.25
392.984	98.25
393.208	76.25
393.433	100.25
393.658	105.25
393.882	84.25
394.107	88.25
394.331	89.25
394.556	80.25
394.78	87.25
395.005	85.25
395.229	82.25
395.454	90.25
395.678	88.25
395.903	88.25
396.127	85.25
396.352	93.25
396.576	90.25
396.801	70.25
397.025	91.25
397.249	86.25
397.474	91.25
397.698	90.25
397.922	90.25
398.147	81.25
398.371	81.25
398.595	84.25
398.82	87.25
399.044	86.25
399.268	91.25
399.492	84.25
399.717	87.25
399.941	106.25
400.165	93.25
400.389	85.25
400.613	72.25
400.837	74.25
401.062	85.25
401.286	87.25
401.51	105.25
401.734	95.25
401.958	112.25
402.182	136.25
402.406	169.25
402.63	127.25
402.854	95.25
403.078	81.25
403.302	92.25
403.526	93.25
403.75	90.25
403.974	72.25
404.198	87.25
404.422	68.25
404.645	82.25
404.869	75.25
405.093	95.25
405.317	110.25
405.541	106.25
405.765	112.25
405.988	116.25
406.212	177.25
406.436	251.25
406.66	157.25
406.883	100.25
407.107	91.25
407.331	92.25
407.555	91.25
407.778	96.25
408.002	102.25
408.226	85.25
408.449	86.25
408.673	87.25
408.896	94.25
409.12	105.25
409.344	94.25
409.567	97.25
409.791	94.25
410.014	92.25
410.238	89.25
410.461	89.25
410.685	105.25
410.908	104.25
411.132	92.25
411.355	93.25
411.578	95.25
411.802	97.25
412.025	97.25
412.249	91.25
412.472	95.25
412.695	96.25
412.919	74.25
413.142	95.25
413.365	86.25
413.589	86.25
413.812	90.25
414.035	85.25
414.258	84.25
414.482	86.25
414.705	83.25
414.928	77.25
415.151	87.25
415.374	91.25
415.597	83.25
415.821	104.25
416.044	83.25
416.267	87.25
416.49	105.25
416.713	75.25
416.936	81.25
417.159	95.25
417.382	98.25
417.605	86.25
417.828	98.25
418.051	98.25
418.274	83.25
418.497	75.25
418.72	78.25
418.943	96.25
419.166	87.25
419.389	80.25
419.611	82.25
419.834	89.25
420.057	86.25
420.28	89.25
420.503	97.25
420.726	84.25
420.948	81.25
421.171	89.25
421.394	92.25
421.617	84.25
421.839	81.25
422.062	95.25
422.285	78.25
422.507	97.25
422.73	88.25
422.953	101.25
423.175	98.25
423.398	87.25
423.621	97.25
423.843	92.25
424.066	75.25
424.288	96.25
424.511	96.25
424.733	105.25
424.956	111.25
425.178	105.25
425.401	100.25
425.623	94.25
425.846	89.25
426.068	103.25
426.291	93.25
426.513	81.25
426.735	92.25
426.958	100.25
427.18	97.25
427.402	132.25
427.625	165.25
427.847	134.25
428.069	120.25
428.292	100.25
428.514	90.25
428.736	64.25
428.958	96.25
429.181	83.25
429.403	88.25
429.625	95.25
429.847	92.25
430.069	103.25
430.292	99.25
430.514	95.25
430.736	86.25
430.958	89.25
431.18	80.25
431.402	78.25
431.624	78.25
431.846	87.25
432.068	87.25
432.29	94.25
432.512	90.25
432.734	87.25
432.956	100.25
433.178	106.25
433.4	107.25
433.622	93.25
433.844	78.25
434.066	87.25
434.287	100.25
434.509	94.25
434.731	76.25
434.953	86.25
435.175	92.25
435.397	98.25
435.618	93.25
435.84	91.25
436.062	118.25
436.284	107.25
436.505	104.25
436.727	105.25
436.949	104.25
437.17	80.25
437.392	76.25
437.614	81.25
437.835	104.25
438.057	125.25
438.278	99.25
438.5	99.25
438.721	94.25
438.943	105.25
439.165	86.25
439.386	85.25
439.608	88.25
439.829	96.25
440.05	122.25
440.272	130.25
440.493	107.25
440.715	89.25
440.936	90.25
441.158	88.25
441.379	81.25
441.6	103.25
441.822	101.25
442.043	84.25
442.264	104.25
442.486	97.25
442.707	105.25
442.928	108.25
443.149	131.25
443.371	128.25
443.592	121.25
443.813	112.25
444.034	103.25
444.255	99.25
444.476	92.25
444.698	94.25
444.919	105.25
445.14	135.25
445.361	122.25
445.582	120.25
445.803	153.25
446.024	148.25
446.245	139.25
446.466	98.25
446.687	107.25
446.908	90.25
447.129	77.25
447.35	103.25
447.571	95.25
447.792	104.25
448.013	100.25
448.234	89.25
448.455	106.25
448.675	108.25
448.896	107.25
449.117	95.25
449.338	96.25
449.559	118.25
449.779	127.25
450	107.25
450.221	81.25
450.442	90.25
450.662	92.25
450.883	103.25
451.104	119.25
451.324	83.25
451.545	93.25
451.766	73.25
451.986	83.25
452.207	90.25
452.428	101.25
452.648	90.25
452.869	118.25
453.089	136.25
453.31	129.25
453.53	98.25
453.751	97.25
453.971	89.25
454.192	116.25
454.412	90.25
454.633	93.25
454.853	89.25
455.073	92.25
455.294	92.25
455.514	90.25
455.734	87.25
455.955	87.25
456.175	87.25
456.395	75.25
456.616	85.25
456.836	86.25
457.056	70.25
457.276	79.25
457.497	89.25
457.717	89.25
457.937	81.25
458.157	74.25
458.377	88.25
458.598	106.25
458.818	178.25
459.038	165.25
459.258	107.25
459.478	97.25
459.698	95.25
459.918	93.25
460.138	82.25
460.358	77.25
460.578	89.25
460.798	96.25
461.018	85.25
461.238	82.25
461.458	82.25
461.678	90.25
461.898	84.25
462.118	82.25
462.338	91.25
462.558	75.25
462.777	94.25
462.997	87.25
463.217	83.25
463.437	84.25
463.657	98.25
463.876	86.25
464.096	95.25
464.316	90.25
464.536	95.25
464.755	111.25
464.975	120.25
465.195	171.25
465.414	174.25
465.634	106.25
465.854	87.25
466.073	91.25
466.293	71.25
466.512	92.25
466.732	95.25
466.951	79.25
467.171	84.25
467.391	98.25
467.61	114.25
467.829	113.25
468.049	107.25
468.268	129.25
468.488	83.25
468.707	86.25
468.927	82.25
469.146	79.25
469.365	99.25
469.585	79.25
469.804	106.25
470.023	101.25
470.243	96.25
470.462	109.25
470.681	101.25
470.901	86.25
471.12	93.25
471.339	87.25
471.558	90.25
471.777	85.25
471.997	107.25
472.216	145.25
472.435	228.25
472.654	106.25
472.873	91.25
473.092	88.25
473.311	101.25
473.53	83.25
473.749	90.25
473.968	95.25
474.187	95.25
474.406	97.25
474.625	76.25
474.844	97.25
475.063	80.25
475.282	91.25
475.501	78.25
475.72	97.25
475.939	82.25
476.158	94.25
476.377	88.25
476.596	80.25
476.814	71.25
477.033	90.25
477.252	101.25
477.471	83.25
477.69	86.25
477.908	86.25
478.127	88.25
478.346	97.25
478.564	82.25
478.783	95.25
479.002	97.25
479.22	94.25
479.439	98.25
479.658	95.25
479.876	98.25
480.095	97.25
480.313	99.25
480.532	100.25
480.751	105.25
480.969	151.25
481.188	330.25
481.406	245.25
481.624	98.25
481.843	99.25
482.061	81.25
482.28	100.25
482.498	90.25
482.717	96.25
482.935	93.25
483.153	92.25
483.372	88.25
483.59	70.25
483.808	102.25
484.027	86.25
484.245	93.25
484.463	99.25
484.681	83.25
484.9	90.25
485.118	89.25
485.336	86.25
485.554	103.25
485.772	97.25
485.99	103.25
486.209	91.25
486.427	100.25
486.645	120.25
486.863	126.25
487.081	108.25
487.299	103.25
487.517	107.25
487.735	91.25
487.953	88.25
488.171	87.25
488.389	98.25
488.607	103.25
488.825	104.25
489.043	82.25
489.261	91.25
489.479	94.25
489.696	83.25
489.914	98.25
490.132	89.25
490.35	89.25
490.568	79.25
490.786	103.25
491.003	79.25
491.221	90.25
491.439	95.25
491.657	89.25
491.874	95.25
492.092	95.25
492.31	82.25
492.527	91.25
492.745	90.25
492.963	83.25
493.18	75.25
493.398	90.25
493.615	91.25
493.833	87.25
494.05	89.25
494.268	92.25
494.485	91.25
494.703	90.25
494.92	98.25
495.138	87.25
495.355	106.25
495.573	76.25
495.79	82.25
496.008	96.25
496.225	95.25
496.442	99.25
496.66	99.25
496.877	105.25
497.094	99.25
497.312	95.25
497.529	94.25
497.746	94.25
497.963	89.25
498.181	95.25
498.398	94.25
498.615	107.25
498.832	103.25
499.049	91.25
499.267	89.25
499.484	79.25
499.701	91.25
499.918	81.25
500.135	86.25
500.352	84.25
500.569	103.25
500.786	80.25
501.003	84.25
501.22	88.25
501.437	98.25
501.654	79.25
501.871	113.25
502.088	98.25
502.305	88.25
502.522	91.25
502.739	73.25
502.956	83.25
503.172	104.25
503.389	88.25
503.606	116.25
503.823	100.25
504.04	84.25
504.256	86.25
504.473	96.25
504.69	99.25
504.907	94.25
505.123	89.25
505.34	76.25
505.557	75.25
505.773	95.25
505.99	83.25
506.207	86.25
506.423	96.25
506.64	88.25
506.856	85.25
507.073	75.25
507.289	105.25
507.506	97.25
507.722	115.25
507.939	110.25
508.155	89.25
508.372	84.25
508.588	97.25
508.805	103.25
509.021	85.25
509.238	95.25
509.454	101.25
509.67	95.25
509.887	114.25
510.103	137.25
510.319	219.25
510.536	895.25
510.752	2886.25
510.968	789.25
511.184	183.25
511.401	118.25
511.617	104.25
511.833	89.25
512.049	74.25
512.265	94.25
512.481	104.25
512.698	99.25
512.914	97.25
513.13	104.25
513.346	82.25
513.562	99.25
513.778	97.25
513.994	109.25
514.21	96.25
514.426	138.25
514.642	145.25
514.858	135.25
515.074	181.25
515.29	521.25
515.506	1851.25
