Data from Circ_2022_H10_HRD10591_00099.txt Node
Date: Wed Jan 03 09:53:57 EST 2024
User: Yrep
Spectrometer: HR+D1059
Trigger mode: 1
Integration Time (sec): 1.000000E-1
Scans to average: 1
Electric dark correction enabled: true
Nonlinearity correction enabled: false
Boxcar width: 0
XAxis mode: Wavelengths
Number of Pixels in Spectrum: 2048
>>>>>Begin Spectral Data<<<<<
223.165	-16.38
223.4	-16.38
223.635	-16.38
223.869	-4.38
224.104	-26.38
224.338	-5.38
224.573	-1.38
224.808	-0.38
225.042	-11.38
225.277	-29.38
225.511	-0.38
225.746	-1.38
225.98	6.62
226.215	17.62
226.449	3.62
226.683	10.62
226.918	28.62
227.152	29.62
227.387	28.62
227.621	37.62
227.856	51.62
228.09	47.62
228.324	44.62
228.559	63.62
228.793	62.62
229.027	66.62
229.262	91.62
229.496	82.62
229.73	91.62
229.964	108.62
230.199	69.62
230.433	78.62
230.667	84.62
230.901	81.62
231.136	82.62
231.37	87.62
231.604	79.62
231.838	76.62
232.072	85.62
232.306	87.62
232.541	61.62
232.775	93.62
233.009	77.62
233.243	78.62
233.477	77.62
233.711	69.62
233.945	74.62
234.179	60.62
234.413	75.62
234.647	77.62
234.881	80.62
235.115	85.62
235.349	86.62
235.583	81.62
235.817	87.62
236.051	101.62
236.285	82.62
236.519	70.62
236.753	82.62
236.987	84.62
237.221	105.62
237.455	106.62
237.689	84.62
237.922	79.62
238.156	74.62
238.39	74.62
238.624	83.62
238.858	80.62
239.091	66.62
239.325	72.62
239.559	90.62
239.793	77.62
240.027	85.62
240.26	89.62
240.494	86.62
240.728	85.62
240.961	75.62
241.195	86.62
241.429	73.62
241.662	76.62
241.896	81.62
242.13	72.62
242.363	72.62
242.597	62.62
242.83	79.62
243.064	68.62
243.298	78.62
243.531	88.62
243.765	82.62
243.998	81.62
244.232	86.62
244.465	88.62
244.699	85.62
244.932	89.62
245.166	84.62
245.399	89.62
245.633	87.62
245.866	75.62
246.099	84.62
246.333	74.62
246.566	67.62
246.8	71.62
247.033	69.62
247.266	82.62
247.5	79.62
247.733	81.62
247.966	88.62
248.2	76.62
248.433	70.62
248.666	87.62
248.899	91.62
249.133	99.62
249.366	111.62
249.599	106.62
249.832	77.62
250.066	85.62
250.299	102.62
250.532	79.62
250.765	89.62
250.998	83.62
251.231	76.62
251.465	78.62
251.698	71.62
251.931	92.62
252.164	82.62
252.397	73.62
252.63	81.62
252.863	89.62
253.096	76.62
253.329	77.62
253.562	91.62
253.795	92.62
254.028	79.62
254.261	81.62
254.494	74.62
254.727	84.62
254.96	72.62
255.193	80.62
255.426	96.62
255.659	90.62
255.892	98.62
256.124	88.62
256.357	85.62
256.59	91.62
256.823	81.62
257.056	75.62
257.289	79.62
257.521	79.62
257.754	81.62
257.987	85.62
258.22	81.62
258.452	84.62
258.685	98.62
258.918	88.62
259.151	89.62
259.383	75.62
259.616	99.62
259.849	82.62
260.081	86.62
260.314	91.62
260.547	84.62
260.779	94.62
261.012	95.62
261.244	86.62
261.477	98.62
261.71	101.62
261.942	136.62
262.175	139.62
262.407	106.62
262.64	68.62
262.872	79.62
263.105	98.62
263.337	82.62
263.57	92.62
263.802	80.62
264.035	80.62
264.267	83.62
264.499	77.62
264.732	84.62
264.964	96.62
265.197	76.62
265.429	86.62
265.661	95.62
265.894	91.62
266.126	83.62
266.358	89.62
266.591	91.62
266.823	79.62
267.055	92.62
267.287	93.62
267.52	96.62
267.752	81.62
267.984	87.62
268.216	86.62
268.448	79.62
268.681	89.62
268.913	77.62
269.145	87.62
269.377	87.62
269.609	77.62
269.841	93.62
270.073	88.62
270.306	96.62
270.538	97.62
270.77	91.62
271.002	88.62
271.234	84.62
271.466	89.62
271.698	87.62
271.93	91.62
272.162	111.62
272.394	99.62
272.626	79.62
272.858	72.62
273.09	86.62
273.322	79.62
273.553	75.62
273.785	80.62
274.017	89.62
274.249	95.62
274.481	85.62
274.713	83.62
274.945	101.62
275.176	87.62
275.408	95.62
275.64	115.62
275.872	95.62
276.104	93.62
276.335	103.62
276.567	115.62
276.799	169.62
277.031	130.62
277.262	124.62
277.494	111.62
277.726	89.62
277.957	87.62
278.189	89.62
278.421	76.62
278.652	99.62
278.884	95.62
279.115	86.62
279.347	95.62
279.579	81.62
279.81	107.62
280.042	115.62
280.273	127.62
280.505	113.62
280.736	93.62
280.968	84.62
281.199	97.62
281.431	95.62
281.662	88.62
281.894	92.62
282.125	115.62
282.356	138.62
282.588	183.62
282.819	141.62
283.051	97.62
283.282	96.62
283.513	105.62
283.745	108.62
283.976	78.62
284.207	81.62
284.439	107.62
284.67	91.62
284.901	79.62
285.132	81.62
285.364	85.62
285.595	102.62
285.826	100.62
286.057	79.62
286.288	88.62
286.52	92.62
286.751	97.62
286.982	91.62
287.213	84.62
287.444	78.62
287.675	92.62
287.906	115.62
288.138	94.62
288.369	96.62
288.6	99.62
288.831	87.62
289.062	79.62
289.293	90.62
289.524	81.62
289.755	96.62
289.986	92.62
290.217	96.62
290.448	88.62
290.679	84.62
290.91	106.62
291.141	92.62
291.371	91.62
291.602	93.62
291.833	84.62
292.064	109.62
292.295	90.62
292.526	97.62
292.757	91.62
292.987	81.62
293.218	93.62
293.449	97.62
293.68	96.62
293.91	105.62
294.141	99.62
294.372	103.62
294.603	89.62
294.833	86.62
295.064	97.62
295.295	98.62
295.525	91.62
295.756	113.62
295.987	135.62
296.217	179.62
296.448	145.62
296.679	97.62
296.909	91.62
297.14	115.62
297.37	93.62
297.601	99.62
297.831	94.62
298.062	111.62
298.292	90.62
298.523	94.62
298.753	87.62
298.984	90.62
299.214	103.62
299.445	103.62
299.675	121.62
299.905	97.62
300.136	103.62
300.366	99.62
300.597	93.62
300.827	97.62
301.057	117.62
301.288	113.62
301.518	104.62
301.748	102.62
301.979	99.62
302.209	100.62
302.439	107.62
302.669	85.62
302.9	96.62
303.13	113.62
303.36	107.62
303.59	131.62
303.82	148.62
304.051	115.62
304.281	87.62
304.511	104.62
304.741	101.62
304.971	87.62
305.201	97.62
305.431	95.62
305.661	87.62
305.891	98.62
306.121	84.62
306.352	120.62
306.582	127.62
306.812	118.62
307.042	108.62
307.272	108.62
307.502	123.62
307.731	129.62
307.961	102.62
308.191	98.62
308.421	91.62
308.651	96.62
308.881	97.62
309.111	92.62
309.341	90.62
309.571	91.62
309.8	104.62
310.03	119.62
310.26	116.62
310.49	99.62
310.72	111.62
310.949	122.62
311.179	119.62
311.409	100.62
311.639	99.62
311.868	112.62
312.098	106.62
312.328	111.62
312.557	104.62
312.787	127.62
313.017	122.62
313.246	99.62
313.476	106.62
313.706	83.62
313.935	96.62
314.165	125.62
314.394	113.62
314.624	102.62
314.853	109.62
315.083	107.62
315.312	88.62
315.542	99.62
315.771	104.62
316.001	86.62
316.23	100.62
316.46	99.62
316.689	101.62
316.919	107.62
317.148	107.62
317.377	111.62
317.607	111.62
317.836	101.62
318.065	103.62
318.295	88.62
318.524	99.62
318.753	94.62
318.983	97.62
319.212	120.62
319.441	132.62
319.67	117.62
319.9	103.62
320.129	87.62
320.358	90.62
320.587	100.62
320.816	116.62
321.046	124.62
321.275	125.62
321.504	117.62
321.733	95.62
321.962	105.62
322.191	128.62
322.42	110.62
322.649	121.62
322.878	130.62
323.108	140.62
323.337	161.62
323.566	189.62
323.795	200.62
324.024	268.62
324.253	569.62
324.482	1233.62
324.71	2536.62
324.939	3405.62
325.168	1227.62
325.397	327.62
325.626	191.62
325.855	151.62
326.084	145.62
326.313	161.62
326.542	182.62
326.77	315.62
326.999	642.62
327.228	1310.62
327.457	2434.62
327.686	1943.62
327.914	561.62
328.143	353.62
328.372	329.62
328.6	250.62
328.829	181.62
329.058	200.62
329.287	207.62
329.515	161.62
329.744	174.62
329.972	231.62
330.201	386.62
330.43	519.62
330.658	313.62
330.887	272.62
331.115	198.62
331.344	136.62
331.572	132.62
331.801	127.62
332.03	129.62
332.258	107.62
332.486	83.62
332.715	109.62
332.943	118.62
333.172	122.62
333.4	140.62
333.629	139.62
333.857	161.62
334.085	232.62
334.314	383.62
334.542	659.62
334.771	639.62
334.999	231.62
335.227	139.62
335.455	115.62
335.684	132.62
335.912	98.62
336.14	103.62
336.369	107.62
336.597	120.62
336.825	122.62
337.053	85.62
337.281	101.62
337.51	98.62
337.738	104.62
337.966	88.62
338.194	111.62
338.422	118.62
338.65	111.62
338.878	94.62
339.106	102.62
339.334	95.62
339.562	97.62
339.79	99.62
340.018	94.62
340.246	98.62
340.474	105.62
340.702	104.62
340.93	86.62
341.158	101.62
341.386	115.62
341.614	100.62
341.842	113.62
342.07	101.62
342.298	98.62
342.526	87.62
342.754	102.62
342.981	81.62
343.209	96.62
343.437	113.62
343.665	95.62
343.893	108.62
344.12	91.62
344.348	105.62
344.576	93.62
344.804	112.62
345.031	117.62
345.259	116.62
345.487	105.62
345.714	100.62
345.942	99.62
346.17	91.62
346.397	99.62
346.625	103.62
346.853	87.62
347.08	99.62
347.308	102.62
347.535	111.62
347.763	106.62
347.99	106.62
348.218	134.62
348.445	128.62
348.673	113.62
348.9	96.62
349.128	103.62
349.355	102.62
349.583	105.62
349.81	108.62
350.037	102.62
350.265	111.62
350.492	106.62
350.72	99.62
350.947	98.62
351.174	121.62
351.402	127.62
351.629	118.62
351.856	99.62
352.083	121.62
352.311	127.62
352.538	140.62
352.765	131.62
352.992	136.62
353.22	127.62
353.447	97.62
353.674	112.62
353.901	89.62
354.128	100.62
354.355	108.62
354.583	103.62
354.81	98.62
355.037	97.62
355.264	96.62
355.491	90.62
355.718	90.62
355.945	82.62
356.172	92.62
356.399	87.62
356.626	93.62
356.853	112.62
357.08	93.62
357.307	101.62
357.534	80.62
357.761	80.62
357.988	98.62
358.215	98.62
358.441	106.62
358.668	101.62
358.895	96.62
359.122	89.62
359.349	91.62
359.576	84.62
359.802	122.62
360.029	151.62
360.256	171.62
360.483	137.62
360.709	88.62
360.936	96.62
361.163	109.62
361.39	108.62
361.616	108.62
361.843	96.62
362.07	105.62
362.296	101.62
362.523	98.62
362.749	98.62
362.976	96.62
363.203	85.62
363.429	107.62
363.656	88.62
363.882	91.62
364.109	86.62
364.335	114.62
364.562	96.62
364.788	121.62
365.015	105.62
365.241	107.62
365.468	113.62
365.694	115.62
365.92	112.62
366.147	103.62
366.373	91.62
366.599	102.62
366.826	99.62
367.052	101.62
367.278	104.62
367.505	107.62
367.731	91.62
367.957	98.62
368.184	105.62
368.41	127.62
368.636	136.62
368.862	153.62
369.089	129.62
369.315	116.62
369.541	103.62
369.767	107.62
369.993	92.62
370.219	97.62
370.445	99.62
370.672	77.62
370.898	93.62
371.124	94.62
371.35	93.62
371.576	90.62
371.802	93.62
372.028	84.62
372.254	86.62
372.48	85.62
372.706	90.62
372.932	96.62
373.158	86.62
373.384	93.62
373.61	92.62
373.835	114.62
374.061	96.62
374.287	92.62
374.513	99.62
374.739	106.62
374.965	92.62
375.191	80.62
375.416	103.62
375.642	78.62
375.868	113.62
376.094	92.62
376.319	84.62
376.545	95.62
376.771	99.62
376.997	83.62
377.222	91.62
377.448	87.62
377.674	103.62
377.899	105.62
378.125	114.62
378.35	95.62
378.576	86.62
378.802	91.62
379.027	90.62
379.253	92.62
379.478	88.62
379.704	84.62
379.929	85.62
380.155	87.62
380.38	98.62
380.606	91.62
380.831	105.62
381.057	96.62
381.282	108.62
381.507	91.62
381.733	73.62
381.958	87.62
382.184	101.62
382.409	89.62
382.634	90.62
382.86	103.62
383.085	92.62
383.31	93.62
383.535	93.62
383.761	97.62
383.986	77.62
384.211	98.62
384.436	101.62
384.662	108.62
384.887	74.62
385.112	114.62
385.337	92.62
385.562	95.62
385.787	101.62
386.013	106.62
386.238	119.62
386.463	108.62
386.688	115.62
386.913	95.62
387.138	99.62
387.363	113.62
387.588	97.62
387.813	114.62
388.038	103.62
388.263	111.62
388.488	97.62
388.713	92.62
388.938	96.62
389.163	92.62
389.387	83.62
389.612	88.62
389.837	78.62
390.062	83.62
390.287	97.62
390.512	74.62
390.736	101.62
390.961	93.62
391.186	87.62
391.411	88.62
391.636	92.62
391.86	79.62
392.085	96.62
392.31	83.62
392.534	80.62
392.759	71.62
392.984	93.62
393.208	90.62
393.433	102.62
393.658	81.62
393.882	72.62
394.107	85.62
394.331	84.62
394.556	75.62
394.78	90.62
395.005	89.62
395.229	80.62
395.454	93.62
395.678	88.62
395.903	80.62
396.127	103.62
396.352	87.62
396.576	89.62
396.801	89.62
397.025	85.62
397.249	90.62
397.474	102.62
397.698	80.62
397.922	99.62
398.147	106.62
398.371	90.62
398.595	76.62
398.82	87.62
399.044	82.62
399.268	90.62
399.492	91.62
399.717	92.62
399.941	90.62
400.165	101.62
400.389	105.62
400.613	104.62
400.837	90.62
401.062	103.62
401.286	75.62
401.51	95.62
401.734	99.62
401.958	106.62
402.182	156.62
402.406	226.62
402.63	155.62
402.854	119.62
403.078	94.62
403.302	77.62
403.526	99.62
403.75	98.62
403.974	97.62
404.198	87.62
404.422	89.62
404.645	91.62
404.869	104.62
405.093	116.62
405.317	139.62
405.541	131.62
405.765	126.62
405.988	165.62
406.212	245.62
406.436	349.62
406.66	229.62
406.883	136.62
407.107	126.62
407.331	115.62
407.555	131.62
407.778	115.62
408.002	97.62
408.226	84.62
408.449	94.62
408.673	88.62
408.896	103.62
409.12	91.62
409.344	75.62
409.567	89.62
409.791	95.62
410.014	95.62
410.238	97.62
410.461	100.62
410.685	99.62
410.908	111.62
411.132	108.62
411.355	117.62
411.578	102.62
411.802	90.62
412.025	99.62
412.249	97.62
412.472	105.62
412.695	118.62
412.919	104.62
413.142	92.62
413.365	87.62
413.589	76.62
413.812	83.62
414.035	80.62
414.258	82.62
414.482	85.62
414.705	97.62
414.928	94.62
415.151	77.62
415.374	98.62
415.597	100.62
415.821	88.62
416.044	108.62
416.267	95.62
416.49	91.62
416.713	99.62
416.936	98.62
417.159	69.62
417.382	100.62
417.605	90.62
417.828	88.62
418.051	87.62
418.274	81.62
418.497	96.62
418.72	92.62
418.943	81.62
419.166	76.62
419.389	86.62
419.611	107.62
419.834	87.62
420.057	88.62
420.28	99.62
420.503	96.62
420.726	93.62
420.948	87.62
421.171	92.62
421.394	111.62
421.617	106.62
421.839	91.62
422.062	92.62
422.285	100.62
422.507	109.62
422.73	128.62
422.953	97.62
423.175	86.62
423.398	88.62
423.621	81.62
423.843	82.62
424.066	81.62
424.288	97.62
424.511	105.62
424.733	113.62
424.956	138.62
425.178	127.62
425.401	119.62
425.623	120.62
425.846	101.62
426.068	76.62
426.291	94.62
426.513	106.62
426.735	95.62
426.958	112.62
427.18	131.62
427.402	195.62
427.625	281.62
427.847	228.62
428.069	175.62
428.292	128.62
428.514	94.62
428.736	88.62
428.958	83.62
429.181	91.62
429.403	76.62
429.625	85.62
429.847	92.62
430.069	116.62
430.292	95.62
430.514	107.62
430.736	96.62
430.958	86.62
431.18	77.62
431.402	76.62
431.624	97.62
431.846	83.62
432.068	88.62
432.29	75.62
432.512	83.62
432.734	88.62
432.956	84.62
433.178	100.62
433.4	98.62
433.622	109.62
433.844	91.62
434.066	98.62
434.287	87.62
434.509	89.62
434.731	99.62
434.953	91.62
435.175	95.62
435.397	95.62
435.618	105.62
435.84	116.62
436.062	165.62
436.284	141.62
436.505	112.62
436.727	114.62
436.949	93.62
437.17	77.62
437.392	88.62
437.614	116.62
437.835	136.62
438.057	165.62
438.278	145.62
438.5	115.62
438.721	159.62
438.943	107.62
439.165	95.62
439.386	85.62
439.608	109.62
439.829	124.62
440.05	163.62
440.272	211.62
440.493	130.62
440.715	94.62
440.936	84.62
441.158	99.62
441.379	102.62
441.6	104.62
441.822	109.62
442.043	107.62
442.264	138.62
442.486	125.62
442.707	118.62
442.928	141.62
443.149	195.62
443.371	201.62
443.592	136.62
443.813	149.62
444.034	138.62
444.255	95.62
444.476	86.62
444.698	100.62
444.919	95.62
445.14	145.62
445.361	136.62
445.582	156.62
445.803	225.62
446.024	208.62
446.245	202.62
446.466	151.62
446.687	97.62
446.908	90.62
447.129	99.62
447.35	91.62
447.571	80.62
447.792	111.62
448.013	117.62
448.234	131.62
448.455	118.62
448.675	148.62
448.896	160.62
449.117	115.62
449.338	120.62
449.559	173.62
449.779	183.62
450	109.62
450.221	97.62
450.442	90.62
450.662	105.62
450.883	155.62
451.104	153.62
451.324	104.62
451.545	91.62
451.766	79.62
451.986	89.62
452.207	79.62
452.428	107.62
452.648	119.62
452.869	147.62
453.089	146.62
453.31	153.62
453.53	115.62
453.751	111.62
453.971	123.62
454.192	147.62
454.412	104.62
454.633	98.62
454.853	99.62
455.073	88.62
455.294	103.62
455.514	129.62
455.734	99.62
455.955	92.62
456.175	73.62
456.395	77.62
456.616	96.62
456.836	101.62
457.056	94.62
457.276	96.62
457.497	92.62
457.717	92.62
457.937	94.62
458.157	83.62
458.377	100.62
458.598	133.62
458.818	225.62
459.038	260.62
459.258	178.62
459.478	111.62
459.698	76.62
459.918	92.62
460.138	108.62
460.358	94.62
460.578	87.62
460.798	78.62
461.018	73.62
461.238	89.62
461.458	101.62
461.678	90.62
461.898	101.62
462.118	97.62
462.338	87.62
462.558	71.62
462.777	84.62
462.997	88.62
463.217	87.62
463.437	84.62
463.657	89.62
463.876	94.62
464.096	100.62
464.316	100.62
464.536	114.62
464.755	106.62
464.975	132.62
465.195	267.62
465.414	275.62
465.634	114.62
465.854	92.62
466.073	88.62
466.293	79.62
466.512	78.62
466.732	86.62
466.951	94.62
467.171	92.62
467.391	106.62
467.61	142.62
467.829	143.62
468.049	214.62
468.268	297.62
468.488	131.62
468.707	108.62
468.927	86.62
469.146	92.62
469.365	96.62
469.585	105.62
469.804	101.62
470.023	128.62
470.243	105.62
470.462	116.62
470.681	145.62
470.901	104.62
471.12	96.62
471.339	89.62
471.558	79.62
471.777	89.62
471.997	156.62
472.216	394.62
472.435	767.62
472.654	245.62
472.873	114.62
473.092	97.62
473.311	84.62
473.53	78.62
473.749	107.62
473.968	107.62
474.187	146.62
474.406	128.62
474.625	106.62
474.844	101.62
475.063	85.62
475.282	92.62
475.501	91.62
475.72	98.62
475.939	81.62
476.158	87.62
476.377	104.62
476.596	92.62
476.814	98.62
477.033	109.62
477.252	93.62
477.471	87.62
477.69	92.62
477.908	99.62
478.127	89.62
478.346	82.62
478.564	85.62
478.783	97.62
479.002	111.62
479.22	109.62
479.439	121.62
479.658	139.62
479.876	117.62
480.095	104.62
480.313	107.62
480.532	114.62
480.751	153.62
480.969	400.62
481.188	1352.62
481.406	873.62
481.624	172.62
481.843	101.62
482.061	104.62
482.28	84.62
482.498	83.62
482.717	101.62
482.935	106.62
483.153	84.62
483.372	86.62
483.59	96.62
483.808	86.62
484.027	87.62
484.245	110.62
484.463	95.62
484.681	106.62
484.9	92.62
485.118	83.62
485.336	90.62
485.554	92.62
485.772	103.62
485.99	106.62
486.209	104.62
486.427	89.62
486.645	109.62
486.863	132.62
487.081	103.62
487.299	102.62
487.517	101.62
487.735	95.62
487.953	100.62
488.171	90.62
488.389	102.62
488.607	103.62
488.825	95.62
489.043	95.62
489.261	98.62
489.479	106.62
489.696	99.62
489.914	104.62
490.132	105.62
490.35	89.62
490.568	86.62
490.786	99.62
491.003	91.62
491.221	87.62
491.439	101.62
491.657	111.62
491.874	80.62
492.092	89.62
492.31	101.62
492.527	95.62
492.745	91.62
492.963	92.62
493.18	94.62
493.398	97.62
493.615	93.62
493.833	104.62
494.05	85.62
494.268	94.62
494.485	89.62
494.703	101.62
494.92	81.62
495.138	97.62
495.355	101.62
495.573	99.62
495.79	88.62
496.008	81.62
496.225	88.62
496.442	90.62
496.66	102.62
496.877	91.62
497.094	88.62
497.312	79.62
497.529	92.62
497.746	85.62
497.963	87.62
498.181	104.62
498.398	109.62
498.615	121.62
498.832	115.62
499.049	93.62
499.267	89.62
499.484	96.62
499.701	92.62
499.918	87.62
500.135	88.62
500.352	87.62
500.569	104.62
500.786	111.62
501.003	103.62
501.22	100.62
501.437	87.62
501.654	98.62
501.871	133.62
502.088	113.62
502.305	90.62
502.522	88.62
502.739	86.62
502.956	88.62
503.172	96.62
503.389	112.62
503.606	146.62
503.823	107.62
504.04	97.62
504.256	92.62
504.473	94.62
504.69	89.62
504.907	102.62
505.123	84.62
505.34	86.62
505.557	93.62
505.773	93.62
505.99	97.62
506.207	96.62
506.423	93.62
506.64	89.62
506.856	87.62
507.073	103.62
507.289	91.62
507.506	94.62
507.722	127.62
507.939	157.62
508.155	108.62
508.372	105.62
508.588	86.62
508.805	104.62
509.021	92.62
509.238	93.62
509.454	116.62
509.67	116.62
509.887	130.62
510.103	150.62
510.319	277.62
510.536	1083.62
510.752	3854.62
510.968	1055.62
511.184	204.62
511.401	141.62
511.617	104.62
511.833	129.62
512.049	96.62
512.265	90.62
512.481	97.62
