Data from Circ_2022_H10_HRD10591_00052.txt Node
Date: Wed Jan 03 09:53:48 EST 2024
User: Yrep
Spectrometer: HR+D1059
Trigger mode: 1
Integration Time (sec): 1.000000E-1
Scans to average: 1
Electric dark correction enabled: true
Nonlinearity correction enabled: false
Boxcar width: 0
XAxis mode: Wavelengths
Number of Pixels in Spectrum: 2048
>>>>>Begin Spectral Data<<<<<
223.165	-15.44
223.4	-15.44
223.635	-15.44
223.869	-17.44
224.104	-19.44
224.338	-12.44
224.573	-15.44
224.808	-18.44
225.042	-9.44
225.277	5.56
225.511	5.56
225.746	-8.44
225.98	-0.44
226.215	12.56
226.449	19.56
226.683	17.56
226.918	30.56
227.152	25.56
227.387	36.56
227.621	45.56
227.856	41.56
228.09	51.56
228.324	66.56
228.559	40.56
228.793	53.56
229.027	58.56
229.262	69.56
229.496	72.56
229.73	94.56
229.964	86.56
230.199	61.56
230.433	54.56
230.667	75.56
230.901	76.56
231.136	85.56
231.37	67.56
231.604	73.56
231.838	76.56
232.072	65.56
232.306	76.56
232.541	81.56
232.775	80.56
233.009	71.56
233.243	78.56
233.477	82.56
233.711	81.56
233.945	70.56
234.179	86.56
234.413	83.56
234.647	77.56
234.881	92.56
235.115	84.56
235.349	82.56
235.583	83.56
235.817	82.56
236.051	86.56
236.285	84.56
236.519	84.56
236.753	69.56
236.987	81.56
237.221	98.56
237.455	106.56
237.689	78.56
237.922	71.56
238.156	83.56
238.39	89.56
238.624	69.56
238.858	73.56
239.091	80.56
239.325	71.56
239.559	85.56
239.793	85.56
240.027	84.56
240.26	76.56
240.494	80.56
240.728	72.56
240.961	69.56
241.195	80.56
241.429	77.56
241.662	75.56
241.896	75.56
242.13	59.56
242.363	61.56
242.597	68.56
242.83	68.56
243.064	67.56
243.298	83.56
243.531	78.56
243.765	80.56
243.998	84.56
244.232	82.56
244.465	65.56
244.699	83.56
244.932	71.56
245.166	87.56
245.399	72.56
245.633	61.56
245.866	76.56
246.099	85.56
246.333	87.56
246.566	82.56
246.8	78.56
247.033	79.56
247.266	83.56
247.5	81.56
247.733	87.56
247.966	91.56
248.2	83.56
248.433	77.56
248.666	76.56
248.899	77.56
249.133	97.56
249.366	93.56
249.599	93.56
249.832	85.56
250.066	79.56
250.299	76.56
250.532	83.56
250.765	84.56
250.998	71.56
251.231	86.56
251.465	84.56
251.698	81.56
251.931	66.56
252.164	81.56
252.397	83.56
252.63	87.56
252.863	81.56
253.096	80.56
253.329	82.56
253.562	65.56
253.795	98.56
254.028	81.56
254.261	90.56
254.494	69.56
254.727	82.56
254.96	79.56
255.193	86.56
255.426	75.56
255.659	81.56
255.892	82.56
256.124	74.56
256.357	72.56
256.59	81.56
256.823	90.56
257.056	93.56
257.289	90.56
257.521	83.56
257.754	82.56
257.987	81.56
258.22	90.56
258.452	74.56
258.685	79.56
258.918	75.56
259.151	92.56
259.383	79.56
259.616	77.56
259.849	73.56
260.081	82.56
260.314	77.56
260.547	91.56
260.779	96.56
261.012	76.56
261.244	79.56
261.477	100.56
261.71	97.56
261.942	132.56
262.175	141.56
262.407	103.56
262.64	88.56
262.872	83.56
263.105	96.56
263.337	78.56
263.57	82.56
263.802	84.56
264.035	87.56
264.267	84.56
264.499	92.56
264.732	74.56
264.964	80.56
265.197	83.56
265.429	83.56
265.661	77.56
265.894	74.56
266.126	79.56
266.358	84.56
266.591	79.56
266.823	85.56
267.055	83.56
267.287	85.56
267.52	72.56
267.752	91.56
267.984	87.56
268.216	78.56
268.448	74.56
268.681	87.56
268.913	84.56
269.145	96.56
269.377	69.56
269.609	71.56
269.841	84.56
270.073	69.56
270.306	76.56
270.538	88.56
270.77	75.56
271.002	85.56
271.234	95.56
271.466	92.56
271.698	68.56
271.93	89.56
272.162	92.56
272.394	99.56
272.626	84.56
272.858	93.56
273.09	75.56
273.322	71.56
273.553	87.56
273.785	87.56
274.017	65.56
274.249	68.56
274.481	69.56
274.713	81.56
274.945	84.56
275.176	92.56
275.408	80.56
275.64	83.56
275.872	64.56
276.104	85.56
276.335	86.56
276.567	105.56
276.799	127.56
277.031	118.56
277.262	101.56
277.494	93.56
277.726	77.56
277.957	76.56
278.189	72.56
278.421	93.56
278.652	86.56
278.884	89.56
279.115	85.56
279.347	100.56
279.579	97.56
279.81	96.56
280.042	90.56
280.273	92.56
280.505	94.56
280.736	79.56
280.968	90.56
281.199	88.56
281.431	75.56
281.662	78.56
281.894	79.56
282.125	103.56
282.356	125.56
282.588	181.56
282.819	128.56
283.051	95.56
283.282	86.56
283.513	101.56
283.745	88.56
283.976	85.56
284.207	92.56
284.439	76.56
284.67	78.56
284.901	76.56
285.132	77.56
285.364	94.56
285.595	92.56
285.826	77.56
286.057	79.56
286.288	96.56
286.52	79.56
286.751	84.56
286.982	89.56
287.213	85.56
287.444	72.56
287.675	77.56
287.906	90.56
288.138	89.56
288.369	80.56
288.6	86.56
288.831	96.56
289.062	80.56
289.293	91.56
289.524	86.56
289.755	78.56
289.986	91.56
290.217	92.56
290.448	90.56
290.679	92.56
290.91	80.56
291.141	93.56
291.371	83.56
291.602	81.56
291.833	71.56
292.064	85.56
292.295	94.56
292.526	88.56
292.757	73.56
292.987	70.56
293.218	78.56
293.449	91.56
293.68	88.56
293.91	93.56
294.141	84.56
294.372	89.56
294.603	87.56
294.833	91.56
295.064	86.56
295.295	97.56
295.525	99.56
295.756	88.56
295.987	119.56
296.217	183.56
296.448	159.56
296.679	100.56
296.909	102.56
297.14	77.56
297.37	75.56
297.601	88.56
297.831	96.56
298.062	98.56
298.292	91.56
298.523	86.56
298.753	94.56
298.984	101.56
299.214	95.56
299.445	92.56
299.675	101.56
299.905	102.56
300.136	93.56
300.366	84.56
300.597	95.56
300.827	95.56
301.057	115.56
301.288	112.56
301.518	94.56
301.748	108.56
301.979	91.56
302.209	90.56
302.439	99.56
302.669	103.56
302.9	105.56
303.13	83.56
303.36	107.56
303.59	100.56
303.82	120.56
304.051	102.56
304.281	101.56
304.511	94.56
304.741	79.56
304.971	87.56
305.201	73.56
305.431	84.56
305.661	84.56
305.891	88.56
306.121	107.56
306.352	104.56
306.582	122.56
306.812	92.56
307.042	104.56
307.272	88.56
307.502	92.56
307.731	93.56
307.961	96.56
308.191	105.56
308.421	103.56
308.651	79.56
308.881	90.56
309.111	92.56
309.341	105.56
309.571	101.56
309.8	107.56
310.03	114.56
310.26	102.56
310.49	94.56
310.72	104.56
310.949	121.56
311.179	115.56
311.409	94.56
311.639	101.56
311.868	91.56
312.098	94.56
312.328	96.56
312.557	101.56
312.787	119.56
313.017	108.56
313.246	87.56
313.476	90.56
313.706	97.56
313.935	94.56
314.165	116.56
314.394	123.56
314.624	102.56
314.853	105.56
315.083	102.56
315.312	100.56
315.542	84.56
315.771	93.56
316.001	91.56
316.23	92.56
316.46	95.56
316.689	93.56
316.919	100.56
317.148	97.56
317.377	104.56
317.607	91.56
317.836	92.56
318.065	78.56
318.295	89.56
318.524	85.56
318.753	98.56
318.983	107.56
319.212	99.56
319.441	130.56
319.67	123.56
319.9	98.56
320.129	91.56
320.358	82.56
320.587	95.56
320.816	88.56
321.046	96.56
321.275	107.56
321.504	89.56
321.733	89.56
321.962	96.56
322.191	115.56
322.42	111.56
322.649	108.56
322.878	108.56
323.108	121.56
323.337	141.56
323.566	149.56
323.795	180.56
324.024	249.56
324.253	517.56
324.482	1092.56
324.71	2292.56
324.939	3041.56
325.168	1116.56
325.397	312.56
325.626	173.56
325.855	147.56
326.084	149.56
326.313	141.56
326.542	179.56
326.77	265.56
326.999	570.56
327.228	1186.56
327.457	2212.56
327.686	1767.56
327.914	488.56
328.143	269.56
328.372	236.56
328.6	179.56
328.829	146.56
329.058	153.56
329.287	171.56
329.515	144.56
329.744	137.56
329.972	144.56
330.201	180.56
330.43	247.56
330.658	206.56
330.887	215.56
331.115	169.56
331.344	113.56
331.572	103.56
331.801	119.56
332.03	112.56
332.258	111.56
332.486	87.56
332.715	115.56
332.943	98.56
333.172	111.56
333.4	97.56
333.629	125.56
333.857	150.56
334.085	154.56
334.314	179.56
334.542	276.56
334.771	246.56
334.999	152.56
335.227	108.56
335.455	109.56
335.684	97.56
335.912	99.56
336.14	103.56
336.369	99.56
336.597	127.56
336.825	107.56
337.053	91.56
337.281	82.56
337.51	113.56
337.738	110.56
337.966	99.56
338.194	107.56
338.422	106.56
338.65	94.56
338.878	94.56
339.106	98.56
339.334	98.56
339.562	86.56
339.79	91.56
340.018	96.56
340.246	87.56
340.474	94.56
340.702	97.56
340.93	108.56
341.158	100.56
341.386	95.56
341.614	117.56
341.842	104.56
342.07	88.56
342.298	96.56
342.526	87.56
342.754	76.56
342.981	82.56
343.209	87.56
343.437	104.56
343.665	90.56
343.893	87.56
344.12	84.56
344.348	86.56
344.576	91.56
344.804	94.56
345.031	116.56
345.259	113.56
345.487	99.56
345.714	108.56
345.942	96.56
346.17	92.56
346.397	80.56
346.625	93.56
346.853	99.56
347.08	101.56
347.308	99.56
347.535	123.56
347.763	114.56
347.99	105.56
348.218	98.56
348.445	119.56
348.673	100.56
348.9	103.56
349.128	88.56
349.355	95.56
349.583	80.56
349.81	84.56
350.037	103.56
350.265	89.56
350.492	79.56
350.72	89.56
350.947	102.56
351.174	123.56
351.402	132.56
351.629	118.56
351.856	119.56
352.083	112.56
352.311	104.56
352.538	121.56
352.765	117.56
352.992	132.56
353.22	127.56
353.447	111.56
353.674	95.56
353.901	106.56
354.128	91.56
354.355	83.56
354.583	91.56
354.81	100.56
355.037	100.56
355.264	89.56
355.491	93.56
355.718	88.56
355.945	93.56
356.172	103.56
356.399	87.56
356.626	82.56
356.853	97.56
357.08	89.56
357.307	82.56
357.534	84.56
357.761	93.56
357.988	87.56
358.215	96.56
358.441	90.56
358.668	92.56
358.895	102.56
359.122	97.56
359.349	100.56
359.576	97.56
359.802	119.56
360.029	134.56
360.256	131.56
360.483	107.56
360.709	89.56
360.936	93.56
361.163	95.56
361.39	102.56
361.616	86.56
361.843	93.56
362.07	114.56
362.296	96.56
362.523	91.56
362.749	96.56
362.976	91.56
363.203	89.56
363.429	85.56
363.656	97.56
363.882	88.56
364.109	86.56
364.335	91.56
364.562	97.56
364.788	84.56
365.015	102.56
365.241	108.56
365.468	123.56
365.694	122.56
365.92	113.56
366.147	105.56
366.373	97.56
366.599	91.56
366.826	76.56
367.052	83.56
367.278	100.56
367.505	89.56
367.731	94.56
367.957	92.56
368.184	98.56
368.41	111.56
368.636	119.56
368.862	141.56
369.089	127.56
369.315	94.56
369.541	99.56
369.767	97.56
369.993	96.56
370.219	81.56
370.445	98.56
370.672	97.56
370.898	107.56
371.124	88.56
371.35	93.56
371.576	72.56
371.802	84.56
372.028	89.56
372.254	89.56
372.48	78.56
372.706	82.56
372.932	82.56
373.158	76.56
373.384	91.56
373.61	88.56
373.835	89.56
374.061	84.56
374.287	91.56
374.513	82.56
374.739	88.56
374.965	87.56
375.191	95.56
375.416	87.56
375.642	86.56
375.868	91.56
376.094	93.56
376.319	89.56
376.545	83.56
376.771	77.56
376.997	73.56
377.222	83.56
377.448	84.56
377.674	72.56
377.899	85.56
378.125	95.56
378.35	86.56
378.576	93.56
378.802	73.56
379.027	98.56
379.253	84.56
379.478	89.56
379.704	93.56
379.929	105.56
380.155	97.56
380.38	93.56
380.606	93.56
380.831	88.56
381.057	94.56
381.282	88.56
381.507	88.56
381.733	87.56
381.958	100.56
382.184	101.56
382.409	123.56
382.634	106.56
382.86	94.56
383.085	104.56
383.31	99.56
383.535	95.56
383.761	86.56
383.986	94.56
384.211	88.56
384.436	88.56
384.662	83.56
384.887	117.56
385.112	89.56
385.337	97.56
385.562	101.56
385.787	104.56
386.013	114.56
386.238	98.56
386.463	114.56
386.688	100.56
386.913	94.56
387.138	97.56
387.363	105.56
387.588	101.56
387.813	85.56
388.038	109.56
388.263	119.56
388.488	103.56
388.713	85.56
388.938	97.56
389.163	87.56
389.387	95.56
389.612	78.56
389.837	84.56
390.062	85.56
390.287	98.56
390.512	90.56
390.736	82.56
390.961	78.56
391.186	100.56
391.411	83.56
391.636	104.56
391.86	102.56
392.085	86.56
392.31	89.56
392.534	78.56
392.759	87.56
392.984	88.56
393.208	89.56
393.433	92.56
393.658	81.56
393.882	85.56
394.107	86.56
394.331	78.56
394.556	78.56
394.78	64.56
395.005	72.56
395.229	84.56
395.454	85.56
395.678	96.56
395.903	103.56
396.127	86.56
396.352	78.56
396.576	88.56
396.801	81.56
397.025	93.56
397.249	92.56
397.474	97.56
397.698	90.56
397.922	88.56
398.147	93.56
398.371	89.56
398.595	80.56
398.82	79.56
399.044	84.56
399.268	81.56
399.492	97.56
399.717	91.56
399.941	97.56
400.165	81.56
400.389	89.56
400.613	85.56
400.837	82.56
401.062	84.56
401.286	84.56
401.51	91.56
401.734	85.56
401.958	108.56
402.182	166.56
402.406	201.56
402.63	150.56
402.854	112.56
403.078	99.56
403.302	84.56
403.526	95.56
403.75	94.56
403.974	81.56
404.198	88.56
404.422	86.56
404.645	96.56
404.869	87.56
405.093	107.56
405.317	109.56
405.541	116.56
405.765	109.56
405.988	149.56
406.212	240.56
406.436	360.56
406.66	215.56
406.883	121.56
407.107	91.56
407.331	104.56
407.555	110.56
407.778	97.56
408.002	99.56
408.226	92.56
408.449	84.56
408.673	98.56
408.896	99.56
409.12	93.56
409.344	85.56
409.567	96.56
409.791	98.56
410.014	96.56
410.238	96.56
410.461	91.56
410.685	87.56
410.908	91.56
411.132	105.56
411.355	104.56
411.578	84.56
411.802	78.56
412.025	103.56
412.249	86.56
412.472	103.56
412.695	109.56
412.919	90.56
413.142	87.56
413.365	72.56
413.589	68.56
413.812	87.56
414.035	77.56
414.258	89.56
414.482	99.56
414.705	71.56
414.928	84.56
415.151	90.56
415.374	80.56
415.597	78.56
415.821	92.56
416.044	89.56
416.267	86.56
416.49	85.56
416.713	81.56
416.936	75.56
417.159	76.56
417.382	89.56
417.605	92.56
417.828	96.56
418.051	103.56
418.274	86.56
418.497	91.56
418.72	79.56
418.943	79.56
419.166	81.56
419.389	80.56
419.611	82.56
419.834	83.56
420.057	94.56
420.28	91.56
420.503	93.56
420.726	71.56
420.948	96.56
421.171	86.56
421.394	96.56
421.617	86.56
421.839	78.56
422.062	93.56
422.285	88.56
422.507	107.56
422.73	116.56
422.953	104.56
423.175	86.56
423.398	82.56
423.621	79.56
423.843	92.56
424.066	81.56
424.288	81.56
424.511	96.56
424.733	101.56
424.956	128.56
425.178	127.56
425.401	108.56
425.623	112.56
425.846	80.56
426.068	119.56
426.291	101.56
426.513	95.56
426.735	92.56
426.958	96.56
427.18	98.56
427.402	171.56
427.625	260.56
427.847	185.56
428.069	147.56
428.292	90.56
428.514	63.56
428.736	90.56
428.958	80.56
429.181	84.56
429.403	83.56
429.625	96.56
429.847	105.56
430.069	113.56
430.292	79.56
430.514	81.56
430.736	76.56
430.958	85.56
431.18	81.56
431.402	80.56
431.624	85.56
431.846	93.56
432.068	92.56
432.29	95.56
432.512	83.56
432.734	68.56
432.956	96.56
433.178	98.56
433.4	99.56
433.622	86.56
433.844	86.56
434.066	83.56
434.287	79.56
434.509	85.56
434.731	90.56
434.953	86.56
435.175	96.56
435.397	86.56
435.618	102.56
435.84	124.56
436.062	150.56
436.284	132.56
436.505	123.56
436.727	121.56
436.949	98.56
437.17	88.56
437.392	104.56
437.614	101.56
437.835	122.56
438.057	171.56
438.278	140.56
438.5	128.56
438.721	143.56
438.943	119.56
439.165	91.56
439.386	83.56
439.608	111.56
439.829	125.56
440.05	152.56
440.272	194.56
440.493	102.56
440.715	88.56
440.936	81.56
441.158	93.56
441.379	93.56
441.6	97.56
441.822	95.56
442.043	119.56
442.264	133.56
442.486	95.56
442.707	91.56
442.928	127.56
443.149	175.56
443.371	177.56
443.592	125.56
443.813	137.56
444.034	124.56
444.255	104.56
444.476	89.56
444.698	95.56
444.919	82.56
445.14	148.56
445.361	123.56
445.582	142.56
445.803	196.56
446.024	193.56
446.245	174.56
446.466	133.56
446.687	97.56
446.908	93.56
447.129	88.56
447.35	110.56
447.571	91.56
447.792	80.56
448.013	100.56
448.234	119.56
448.455	103.56
448.675	135.56
448.896	140.56
449.117	94.56
449.338	109.56
449.559	164.56
449.779	150.56
450	118.56
450.221	99.56
450.442	79.56
450.662	113.56
450.883	121.56
451.104	145.56
451.324	114.56
451.545	78.56
451.766	92.56
451.986	103.56
452.207	85.56
452.428	104.56
452.648	103.56
452.869	122.56
453.089	134.56
453.31	141.56
453.53	106.56
453.751	89.56
453.971	111.56
454.192	126.56
454.412	95.56
454.633	82.56
454.853	74.56
455.073	91.56
455.294	95.56
455.514	110.56
455.734	101.56
455.955	91.56
456.175	92.56
456.395	86.56
456.616	86.56
456.836	78.56
457.056	84.56
457.276	91.56
457.497	78.56
457.717	73.56
457.937	79.56
458.157	96.56
458.377	94.56
458.598	134.56
458.818	221.56
459.038	241.56
459.258	160.56
459.478	115.56
459.698	87.56
459.918	91.56
460.138	87.56
460.358	86.56
460.578	97.56
460.798	88.56
461.018	107.56
461.238	72.56
461.458	80.56
461.678	73.56
461.898	77.56
462.118	84.56
462.338	96.56
462.558	77.56
462.777	72.56
462.997	85.56
463.217	80.56
463.437	81.56
463.657	88.56
463.876	90.56
464.096	91.56
464.316	88.56
464.536	83.56
464.755	86.56
464.975	130.56
465.195	238.56
465.414	254.56
465.634	119.56
465.854	82.56
466.073	95.56
466.293	83.56
466.512	83.56
466.732	93.56
466.951	91.56
467.171	81.56
467.391	100.56
467.61	115.56
467.829	119.56
468.049	141.56
468.268	147.56
468.488	85.56
468.707	80.56
468.927	77.56
469.146	86.56
469.365	84.56
469.585	74.56
469.804	94.56
470.023	107.56
470.243	82.56
470.462	119.56
470.681	140.56
470.901	97.56
471.12	81.56
471.339	87.56
471.558	97.56
471.777	83.56
471.997	114.56
472.216	179.56
472.435	299.56
472.654	129.56
472.873	75.56
473.092	90.56
473.311	86.56
473.53	85.56
473.749	85.56
473.968	98.56
474.187	138.56
474.406	111.56
474.625	87.56
474.844	82.56
475.063	76.56
475.282	83.56
475.501	74.56
475.72	92.56
475.939	83.56
476.158	80.56
476.377	99.56
476.596	94.56
476.814	100.56
477.033	111.56
477.252	89.56
477.471	91.56
477.69	87.56
477.908	94.56
478.127	91.56
478.346	99.56
478.564	91.56
478.783	101.56
479.002	84.56
479.22	88.56
479.439	105.56
479.658	105.56
479.876	90.56
480.095	99.56
480.313	103.56
480.532	94.56
480.751	110.56
480.969	185.56
481.188	477.56
481.406	326.56
481.624	116.56
481.843	95.56
482.061	105.56
482.28	68.56
482.498	83.56
482.717	92.56
482.935	93.56
483.153	97.56
483.372	91.56
483.59	99.56
483.808	98.56
484.027	106.56
484.245	92.56
484.463	95.56
484.681	100.56
484.9	84.56
485.118	97.56
485.336	85.56
485.554	88.56
485.772	103.56
485.99	96.56
486.209	96.56
486.427	113.56
486.645	105.56
486.863	121.56
487.081	102.56
487.299	83.56
487.517	93.56
487.735	86.56
487.953	95.56
488.171	88.56
488.389	88.56
488.607	108.56
488.825	87.56
489.043	85.56
489.261	88.56
489.479	84.56
489.696	81.56
489.914	87.56
490.132	82.56
490.35	94.56
490.568	92.56
490.786	77.56
491.003	96.56
491.221	88.56
491.439	79.56
491.657	94.56
491.874	96.56
492.092	94.56
492.31	89.56
492.527	98.56
492.745	82.56
492.963	96.56
493.18	89.56
493.398	102.56
493.615	78.56
493.833	83.56
494.05	83.56
494.268	100.56
494.485	99.56
494.703	73.56
494.92	79.56
495.138	98.56
495.355	97.56
495.573	94.56
495.79	75.56
496.008	81.56
496.225	91.56
496.442	70.56
496.66	79.56
496.877	92.56
497.094	94.56
497.312	97.56
497.529	89.56
497.746	88.56
497.963	84.56
498.181	100.56
498.398	94.56
498.615	104.56
498.832	109.56
499.049	94.56
499.267	93.56
499.484	85.56
499.701	86.56
499.918	85.56
500.135	66.56
500.352	84.56
500.569	85.56
500.786	87.56
501.003	105.56
501.22	97.56
501.437	93.56
501.654	86.56
501.871	125.56
502.088	105.56
502.305	93.56
502.522	97.56
502.739	91.56
502.956	79.56
503.172	76.56
503.389	87.56
503.606	117.56
503.823	99.56
504.04	92.56
504.256	89.56
504.473	77.56
504.69	88.56
504.907	84.56
505.123	94.56
505.34	88.56
505.557	90.56
505.773	85.56
505.99	86.56
506.207	97.56
506.423	102.56
506.64	101.56
506.856	86.56
507.073	88.56
507.289	86.56
507.506	90.56
507.722	129.56
507.939	131.56
508.155	101.56
508.372	92.56
508.588	100.56
508.805	99.56
509.021	99.56
509.238	104.56
509.454	94.56
509.67	92.56
509.887	124.56
510.103	159.56
510.319	261.56
510.536	1079.56
510.752	3865.56
510.968	1027.56
511.184	189.56
511.401	127.56
511.617	102.56
511.833	70.56
512.049	88.56
512.265	102.56
512.481	94.56
512.698	95.56
512.914	102.56
513.13	95.56
513.346	88.56
513.562	92.56
513.778	91.56
513.994	91.56
514.21	124.56
514.426	147.56
514.642	196.56
