Data from Circ_2022_H10_HRD10591_00072.txt Node
Date: Wed Jan 03 09:53:52 EST 2024
User: Yrep
Spectrometer: HR+D1059
Trigger mode: 1
Integration Time (sec): 1.000000E-1
Scans to average: 1
Electric dark correction enabled: true
Nonlinearity correction enabled: false
Boxcar width: 0
XAxis mode: Wavelengths
Number of Pixels in Spectrum: 2048
>>>>>Begin Spectral Data<<<<<
223.165	-17.06
223.4	-17.06
223.635	-17.06
223.869	-36.06
224.104	-20.06
224.338	-6.06
224.573	-11.06
224.808	-12.06
225.042	-1.06
225.277	-0.06
225.511	2.94
225.746	10.94
225.98	-8.06
226.215	-7.06
226.449	20.94
226.683	30.94
226.918	18.94
227.152	33.94
227.387	32.94
227.621	24.94
227.856	47.94
228.09	50.94
228.324	53.94
228.559	52.94
228.793	47.94
229.027	56.94
229.262	74.94
229.496	81.94
229.73	91.94
229.964	81.94
230.199	82.94
230.433	74.94
230.667	90.94
230.901	87.94
231.136	78.94
231.37	80.94
231.604	69.94
231.838	82.94
232.072	82.94
232.306	97.94
232.541	76.94
232.775	71.94
233.009	81.94
233.243	68.94
233.477	102.94
233.711	81.94
233.945	80.94
234.179	77.94
234.413	84.94
234.647	79.94
234.881	80.94
235.115	52.94
235.349	68.94
235.583	67.94
235.817	82.94
236.051	72.94
236.285	89.94
236.519	80.94
236.753	68.94
236.987	74.94
237.221	94.94
237.455	103.94
237.689	80.94
237.922	87.94
238.156	67.94
238.39	72.94
238.624	84.94
238.858	84.94
239.091	97.94
239.325	75.94
239.559	86.94
239.793	78.94
240.027	86.94
240.26	76.94
240.494	82.94
240.728	72.94
240.961	81.94
241.195	71.94
241.429	75.94
241.662	71.94
241.896	63.94
242.13	72.94
242.363	78.94
242.597	76.94
242.83	75.94
243.064	83.94
243.298	76.94
243.531	79.94
243.765	77.94
243.998	95.94
244.232	80.94
244.465	80.94
244.699	74.94
244.932	76.94
245.166	73.94
245.399	74.94
245.633	72.94
245.866	71.94
246.099	81.94
246.333	78.94
246.566	84.94
246.8	80.94
247.033	74.94
247.266	70.94
247.5	82.94
247.733	70.94
247.966	69.94
248.2	78.94
248.433	86.94
248.666	87.94
248.899	88.94
249.133	93.94
249.366	97.94
249.599	91.94
249.832	87.94
250.066	83.94
250.299	88.94
250.532	72.94
250.765	86.94
250.998	78.94
251.231	79.94
251.465	71.94
251.698	74.94
251.931	88.94
252.164	87.94
252.397	84.94
252.63	86.94
252.863	86.94
253.096	94.94
253.329	89.94
253.562	71.94
253.795	80.94
254.028	89.94
254.261	80.94
254.494	78.94
254.727	67.94
254.96	82.94
255.193	82.94
255.426	81.94
255.659	76.94
255.892	86.94
256.124	67.94
256.357	71.94
256.59	88.94
256.823	86.94
257.056	78.94
257.289	75.94
257.521	73.94
257.754	85.94
257.987	73.94
258.22	80.94
258.452	86.94
258.685	79.94
258.918	95.94
259.151	81.94
259.383	81.94
259.616	81.94
259.849	79.94
260.081	88.94
260.314	87.94
260.547	82.94
260.779	104.94
261.012	100.94
261.244	90.94
261.477	89.94
261.71	101.94
261.942	117.94
262.175	131.94
262.407	90.94
262.64	73.94
262.872	80.94
263.105	82.94
263.337	103.94
263.57	80.94
263.802	83.94
264.035	82.94
264.267	73.94
264.499	85.94
264.732	75.94
264.964	75.94
265.197	89.94
265.429	76.94
265.661	91.94
265.894	98.94
266.126	80.94
266.358	69.94
266.591	86.94
266.823	97.94
267.055	77.94
267.287	66.94
267.52	76.94
267.752	84.94
267.984	89.94
268.216	67.94
268.448	84.94
268.681	84.94
268.913	92.94
269.145	92.94
269.377	87.94
269.609	83.94
269.841	87.94
270.073	91.94
270.306	88.94
270.538	87.94
270.77	82.94
271.002	86.94
271.234	92.94
271.466	84.94
271.698	75.94
271.93	80.94
272.162	94.94
272.394	93.94
272.626	80.94
272.858	88.94
273.09	87.94
273.322	84.94
273.553	74.94
273.785	94.94
274.017	74.94
274.249	74.94
274.481	81.94
274.713	77.94
274.945	83.94
275.176	72.94
275.408	74.94
275.64	99.94
275.872	101.94
276.104	91.94
276.335	91.94
276.567	113.94
276.799	106.94
277.031	111.94
277.262	101.94
277.494	100.94
277.726	82.94
277.957	79.94
278.189	85.94
278.421	80.94
278.652	89.94
278.884	84.94
279.115	87.94
279.347	87.94
279.579	86.94
279.81	89.94
280.042	103.94
280.273	108.94
280.505	89.94
280.736	87.94
280.968	88.94
281.199	79.94
281.431	82.94
281.662	85.94
281.894	83.94
282.125	101.94
282.356	111.94
282.588	150.94
282.819	130.94
283.051	82.94
283.282	89.94
283.513	90.94
283.745	91.94
283.976	84.94
284.207	92.94
284.439	84.94
284.67	89.94
284.901	90.94
285.132	93.94
285.364	85.94
285.595	90.94
285.826	90.94
286.057	82.94
286.288	78.94
286.52	102.94
286.751	75.94
286.982	88.94
287.213	92.94
287.444	79.94
287.675	90.94
287.906	90.94
288.138	88.94
288.369	94.94
288.6	92.94
288.831	92.94
289.062	95.94
289.293	95.94
289.524	92.94
289.755	90.94
289.986	75.94
290.217	93.94
290.448	71.94
290.679	80.94
290.91	94.94
291.141	94.94
291.371	97.94
291.602	83.94
291.833	75.94
292.064	85.94
292.295	89.94
292.526	82.94
292.757	83.94
292.987	99.94
293.218	80.94
293.449	98.94
293.68	83.94
293.91	95.94
294.141	89.94
294.372	92.94
294.603	74.94
294.833	83.94
295.064	98.94
295.295	100.94
295.525	91.94
295.756	105.94
295.987	126.94
296.217	160.94
296.448	130.94
296.679	87.94
296.909	96.94
297.14	102.94
297.37	80.94
297.601	91.94
297.831	94.94
298.062	93.94
298.292	82.94
298.523	87.94
298.753	74.94
298.984	83.94
299.214	82.94
299.445	86.94
299.675	83.94
299.905	99.94
300.136	82.94
300.366	89.94
300.597	81.94
300.827	106.94
301.057	109.94
301.288	106.94
301.518	103.94
301.748	98.94
301.979	99.94
302.209	101.94
302.439	81.94
302.669	89.94
302.9	71.94
303.13	95.94
303.36	102.94
303.59	119.94
303.82	105.94
304.051	106.94
304.281	77.94
304.511	87.94
304.741	82.94
304.971	95.94
305.201	111.94
305.431	90.94
305.661	91.94
305.891	95.94
306.121	112.94
306.352	98.94
306.582	89.94
306.812	99.94
307.042	83.94
307.272	99.94
307.502	103.94
307.731	96.94
307.961	92.94
308.191	83.94
308.421	92.94
308.651	90.94
308.881	95.94
309.111	111.94
309.341	94.94
309.571	99.94
309.8	97.94
310.03	100.94
310.26	110.94
310.49	97.94
310.72	104.94
310.949	114.94
311.179	102.94
311.409	110.94
311.639	87.94
311.868	91.94
312.098	94.94
312.328	101.94
312.557	108.94
312.787	105.94
313.017	104.94
313.246	93.94
313.476	95.94
313.706	105.94
313.935	93.94
314.165	104.94
314.394	100.94
314.624	98.94
314.853	102.94
315.083	99.94
315.312	100.94
315.542	100.94
315.771	97.94
316.001	88.94
316.23	90.94
316.46	80.94
316.689	95.94
316.919	95.94
317.148	97.94
317.377	82.94
317.607	103.94
317.836	94.94
318.065	93.94
318.295	91.94
318.524	107.94
318.753	106.94
318.983	95.94
319.212	91.94
319.441	128.94
319.67	100.94
319.9	98.94
320.129	88.94
320.358	83.94
320.587	103.94
320.816	94.94
321.046	121.94
321.275	104.94
321.504	102.94
321.733	112.94
321.962	93.94
322.191	90.94
322.42	116.94
322.649	119.94
322.878	123.94
323.108	114.94
323.337	139.94
323.566	144.94
323.795	165.94
324.024	239.94
324.253	475.94
324.482	977.94
324.71	2057.94
324.939	2677.94
325.168	975.94
325.397	286.94
325.626	159.94
325.855	130.94
326.084	140.94
326.313	143.94
326.542	171.94
326.77	264.94
326.999	517.94
327.228	1109.94
327.457	1988.94
327.686	1628.94
327.914	449.94
328.143	238.94
328.372	231.94
328.6	163.94
328.829	139.94
329.058	153.94
329.287	153.94
329.515	121.94
329.744	140.94
329.972	136.94
330.201	198.94
330.43	268.94
330.658	213.94
330.887	178.94
331.115	140.94
331.344	127.94
331.572	111.94
331.801	105.94
332.03	120.94
332.258	101.94
332.486	101.94
332.715	87.94
332.943	90.94
333.172	115.94
333.4	102.94
333.629	110.94
333.857	127.94
334.085	153.94
334.314	188.94
334.542	298.94
334.771	297.94
334.999	141.94
335.227	115.94
335.455	109.94
335.684	92.94
335.912	87.94
336.14	100.94
336.369	99.94
336.597	100.94
336.825	93.94
337.053	91.94
337.281	78.94
337.51	74.94
337.738	103.94
337.966	86.94
338.194	111.94
338.422	91.94
338.65	88.94
338.878	104.94
339.106	82.94
339.334	96.94
339.562	96.94
339.79	91.94
340.018	99.94
340.246	98.94
340.474	95.94
340.702	99.94
340.93	103.94
341.158	84.94
341.386	98.94
341.614	103.94
341.842	101.94
342.07	92.94
342.298	86.94
342.526	99.94
342.754	87.94
342.981	90.94
343.209	93.94
343.437	95.94
343.665	94.94
343.893	98.94
344.12	87.94
344.348	116.94
344.576	88.94
344.804	95.94
345.031	92.94
345.259	104.94
345.487	104.94
345.714	92.94
345.942	105.94
346.17	92.94
346.397	87.94
346.625	91.94
346.853	73.94
347.08	88.94
347.308	90.94
347.535	89.94
347.763	118.94
347.99	104.94
348.218	105.94
348.445	108.94
348.673	97.94
348.9	97.94
349.128	92.94
349.355	85.94
349.583	92.94
349.81	102.94
350.037	96.94
350.265	98.94
350.492	101.94
350.72	102.94
350.947	117.94
351.174	123.94
351.402	113.94
351.629	101.94
351.856	96.94
352.083	123.94
352.311	122.94
352.538	127.94
352.765	130.94
352.992	118.94
353.22	114.94
353.447	117.94
353.674	101.94
353.901	96.94
354.128	95.94
354.355	97.94
354.583	93.94
354.81	96.94
355.037	93.94
355.264	99.94
355.491	96.94
355.718	82.94
355.945	102.94
356.172	106.94
356.399	81.94
356.626	107.94
356.853	85.94
357.08	85.94
357.307	90.94
357.534	85.94
357.761	82.94
357.988	76.94
358.215	96.94
358.441	112.94
358.668	97.94
358.895	80.94
359.122	79.94
359.349	89.94
359.576	89.94
359.802	95.94
360.029	129.94
360.256	130.94
360.483	113.94
360.709	90.94
360.936	91.94
361.163	97.94
361.39	78.94
361.616	107.94
361.843	97.94
362.07	101.94
362.296	102.94
362.523	81.94
362.749	88.94
362.976	82.94
363.203	82.94
363.429	94.94
363.656	96.94
363.882	100.94
364.109	98.94
364.335	87.94
364.562	98.94
364.788	106.94
365.015	103.94
365.241	110.94
365.468	105.94
365.694	128.94
365.92	112.94
366.147	94.94
366.373	72.94
366.599	95.94
366.826	102.94
367.052	87.94
367.278	86.94
367.505	97.94
367.731	104.94
367.957	90.94
368.184	96.94
368.41	100.94
368.636	126.94
368.862	141.94
369.089	118.94
369.315	92.94
369.541	112.94
369.767	99.94
369.993	106.94
370.219	92.94
370.445	89.94
370.672	79.94
370.898	90.94
371.124	92.94
371.35	90.94
371.576	79.94
371.802	86.94
372.028	89.94
372.254	89.94
372.48	92.94
372.706	81.94
372.932	102.94
373.158	87.94
373.384	81.94
373.61	86.94
373.835	101.94
374.061	92.94
374.287	87.94
374.513	82.94
374.739	79.94
374.965	87.94
375.191	78.94
375.416	86.94
375.642	79.94
375.868	97.94
376.094	88.94
376.319	98.94
376.545	86.94
376.771	85.94
376.997	89.94
377.222	97.94
377.448	80.94
377.674	88.94
377.899	89.94
378.125	89.94
378.35	93.94
378.576	101.94
378.802	83.94
379.027	95.94
379.253	88.94
379.478	103.94
379.704	81.94
379.929	83.94
380.155	88.94
380.38	92.94
380.606	96.94
380.831	88.94
381.057	103.94
381.282	99.94
381.507	101.94
381.733	99.94
381.958	93.94
382.184	110.94
382.409	110.94
382.634	90.94
382.86	99.94
383.085	86.94
383.31	104.94
383.535	98.94
383.761	84.94
383.986	91.94
384.211	91.94
384.436	93.94
384.662	116.94
384.887	113.94
385.112	115.94
385.337	100.94
385.562	97.94
385.787	92.94
386.013	104.94
386.238	105.94
386.463	106.94
386.688	104.94
386.913	102.94
387.138	94.94
387.363	104.94
387.588	110.94
387.813	95.94
388.038	105.94
388.263	114.94
388.488	105.94
388.713	83.94
388.938	90.94
389.163	91.94
389.387	99.94
389.612	103.94
389.837	86.94
390.062	76.94
390.287	82.94
390.512	88.94
390.736	86.94
390.961	98.94
391.186	91.94
391.411	95.94
391.636	81.94
391.86	85.94
392.085	85.94
392.31	85.94
392.534	86.94
392.759	88.94
392.984	81.94
393.208	94.94
393.433	88.94
393.658	78.94
393.882	90.94
394.107	81.94
394.331	80.94
394.556	102.94
394.78	68.94
395.005	99.94
395.229	86.94
395.454	80.94
395.678	84.94
395.903	87.94
396.127	90.94
396.352	80.94
396.576	110.94
396.801	82.94
397.025	80.94
397.249	86.94
397.474	90.94
397.698	97.94
397.922	96.94
398.147	90.94
398.371	91.94
398.595	110.94
398.82	89.94
399.044	77.94
399.268	99.94
399.492	94.94
399.717	88.94
399.941	97.94
400.165	97.94
400.389	91.94
400.613	86.94
400.837	88.94
401.062	85.94
401.286	93.94
401.51	87.94
401.734	87.94
401.958	97.94
402.182	142.94
402.406	194.94
402.63	152.94
402.854	93.94
403.078	100.94
403.302	90.94
403.526	103.94
403.75	96.94
403.974	87.94
404.198	80.94
404.422	86.94
404.645	95.94
404.869	102.94
405.093	91.94
405.317	110.94
405.541	112.94
405.765	107.94
405.988	135.94
406.212	220.94
406.436	305.94
406.66	178.94
406.883	104.94
407.107	102.94
407.331	87.94
407.555	106.94
407.778	94.94
408.002	103.94
408.226	79.94
408.449	97.94
408.673	110.94
408.896	81.94
409.12	95.94
409.344	87.94
409.567	90.94
409.791	88.94
410.014	102.94
410.238	83.94
410.461	96.94
410.685	102.94
410.908	105.94
411.132	104.94
411.355	96.94
411.578	97.94
411.802	102.94
412.025	87.94
412.249	115.94
412.472	103.94
412.695	104.94
412.919	97.94
413.142	90.94
413.365	86.94
413.589	88.94
413.812	107.94
414.035	88.94
414.258	89.94
414.482	92.94
414.705	95.94
414.928	92.94
415.151	94.94
415.374	83.94
415.597	82.94
415.821	91.94
416.044	85.94
416.267	91.94
416.49	94.94
416.713	89.94
416.936	86.94
417.159	88.94
417.382	92.94
417.605	88.94
417.828	98.94
418.051	99.94
418.274	117.94
418.497	84.94
418.72	97.94
418.943	87.94
419.166	95.94
419.389	119.94
419.611	88.94
419.834	84.94
420.057	96.94
420.28	101.94
420.503	79.94
420.726	86.94
420.948	81.94
421.171	90.94
421.394	99.94
421.617	84.94
421.839	91.94
422.062	87.94
422.285	95.94
422.507	113.94
422.73	109.94
422.953	106.94
423.175	98.94
423.398	87.94
423.621	77.94
423.843	94.94
424.066	100.94
424.288	95.94
424.511	101.94
424.733	118.94
424.956	116.94
425.178	108.94
425.401	99.94
425.623	114.94
425.846	94.94
426.068	86.94
426.291	94.94
426.513	95.94
426.735	88.94
426.958	98.94
427.18	101.94
427.402	151.94
427.625	210.94
427.847	162.94
428.069	146.94
428.292	103.94
428.514	110.94
428.736	90.94
428.958	80.94
429.181	89.94
429.403	82.94
429.625	83.94
429.847	115.94
430.069	115.94
430.292	104.94
430.514	93.94
430.736	91.94
430.958	90.94
431.18	84.94
431.402	90.94
431.624	97.94
431.846	87.94
432.068	88.94
432.29	106.94
432.512	91.94
432.734	88.94
432.956	79.94
433.178	95.94
433.4	110.94
433.622	96.94
433.844	90.94
434.066	101.94
434.287	91.94
434.509	99.94
434.731	95.94
434.953	99.94
435.175	107.94
435.397	91.94
435.618	89.94
435.84	118.94
436.062	130.94
436.284	159.94
436.505	95.94
436.727	97.94
436.949	85.94
437.17	92.94
437.392	96.94
437.614	92.94
437.835	131.94
438.057	146.94
438.278	126.94
438.5	112.94
438.721	132.94
438.943	112.94
439.165	113.94
439.386	88.94
439.608	83.94
439.829	112.94
440.05	144.94
440.272	165.94
440.493	121.94
440.715	97.94
440.936	74.94
441.158	90.94
441.379	83.94
441.6	101.94
441.822	103.94
442.043	103.94
442.264	127.94
442.486	104.94
442.707	119.94
442.928	129.94
443.149	151.94
443.371	137.94
443.592	107.94
443.813	128.94
444.034	131.94
444.255	101.94
444.476	91.94
444.698	104.94
444.919	107.94
445.14	137.94
445.361	134.94
445.582	124.94
445.803	160.94
446.024	166.94
446.245	161.94
446.466	119.94
446.687	92.94
446.908	88.94
447.129	83.94
447.35	64.94
447.571	97.94
447.792	97.94
448.013	128.94
448.234	118.94
448.455	84.94
448.675	131.94
448.896	140.94
449.117	111.94
449.338	114.94
449.559	151.94
449.779	148.94
450	88.94
450.221	105.94
450.442	82.94
450.662	100.94
450.883	118.94
451.104	137.94
451.324	102.94
451.545	87.94
451.766	94.94
451.986	99.94
452.207	80.94
452.428	107.94
452.648	100.94
452.869	121.94
453.089	126.94
453.31	125.94
453.53	99.94
453.751	101.94
453.971	107.94
454.192	116.94
454.412	98.94
454.633	84.94
454.853	79.94
455.073	92.94
455.294	87.94
455.514	112.94
455.734	91.94
455.955	87.94
456.175	87.94
456.395	91.94
456.616	94.94
456.836	80.94
457.056	82.94
457.276	91.94
457.497	83.94
457.717	80.94
457.937	80.94
458.157	84.94
458.377	89.94
458.598	110.94
458.818	188.94
459.038	198.94
459.258	136.94
459.478	100.94
459.698	79.94
459.918	81.94
460.138	80.94
460.358	94.94
460.578	88.94
460.798	73.94
461.018	94.94
461.238	75.94
461.458	86.94
461.678	95.94
461.898	99.94
462.118	87.94
462.338	75.94
462.558	80.94
462.777	78.94
462.997	88.94
463.217	99.94
463.437	74.94
463.657	95.94
463.876	97.94
464.096	92.94
464.316	99.94
464.536	98.94
464.755	92.94
464.975	117.94
465.195	215.94
465.414	198.94
465.634	97.94
465.854	107.94
466.073	87.94
466.293	80.94
466.512	97.94
466.732	86.94
466.951	83.94
467.171	91.94
467.391	102.94
467.61	92.94
467.829	124.94
468.049	146.94
468.268	175.94
468.488	88.94
468.707	85.94
468.927	84.94
469.146	96.94
469.365	87.94
469.585	99.94
469.804	90.94
470.023	93.94
470.243	102.94
470.462	105.94
470.681	134.94
470.901	97.94
471.12	99.94
471.339	84.94
471.558	76.94
471.777	86.94
471.997	120.94
472.216	215.94
472.435	364.94
472.654	142.94
472.873	89.94
473.092	91.94
473.311	87.94
473.53	55.94
473.749	93.94
473.968	97.94
474.187	117.94
474.406	108.94
474.625	106.94
474.844	92.94
475.063	98.94
475.282	87.94
475.501	90.94
475.72	94.94
475.939	87.94
476.158	78.94
476.377	89.94
476.596	86.94
476.814	97.94
477.033	88.94
477.252	90.94
477.471	76.94
477.69	75.94
477.908	89.94
478.127	93.94
478.346	93.94
478.564	96.94
478.783	97.94
479.002	101.94
479.22	92.94
479.439	104.94
479.658	121.94
479.876	107.94
480.095	89.94
480.313	107.94
480.532	88.94
480.751	107.94
480.969	209.94
481.188	608.94
481.406	388.94
481.624	118.94
481.843	103.94
482.061	84.94
482.28	86.94
482.498	92.94
482.717	93.94
482.935	66.94
483.153	79.94
483.372	78.94
483.59	83.94
483.808	77.94
484.027	94.94
484.245	91.94
484.463	88.94
484.681	94.94
484.9	86.94
485.118	98.94
485.336	90.94
485.554	88.94
485.772	96.94
485.99	106.94
486.209	104.94
486.427	104.94
486.645	106.94
486.863	113.94
487.081	84.94
487.299	92.94
487.517	95.94
487.735	84.94
487.953	82.94
488.171	100.94
488.389	94.94
488.607	110.94
488.825	80.94
489.043	92.94
489.261	96.94
489.479	77.94
489.696	85.94
489.914	81.94
490.132	96.94
490.35	70.94
490.568	87.94
490.786	92.94
491.003	85.94
491.221	88.94
491.439	90.94
491.657	104.94
491.874	84.94
492.092	84.94
492.31	76.94
492.527	99.94
492.745	86.94
492.963	98.94
493.18	96.94
493.398	92.94
493.615	89.94
493.833	84.94
494.05	91.94
494.268	92.94
494.485	85.94
494.703	99.94
494.92	99.94
495.138	83.94
495.355	99.94
495.573	101.94
495.79	87.94
496.008	105.94
496.225	90.94
496.442	94.94
496.66	99.94
496.877	92.94
497.094	96.94
497.312	89.94
497.529	90.94
497.746	93.94
497.963	103.94
498.181	99.94
498.398	91.94
498.615	114.94
498.832	104.94
499.049	92.94
499.267	104.94
499.484	96.94
499.701	88.94
499.918	78.94
500.135	99.94
500.352	87.94
500.569	89.94
500.786	73.94
501.003	83.94
501.22	92.94
501.437	89.94
501.654	91.94
501.871	123.94
502.088	91.94
502.305	81.94
502.522	90.94
502.739	95.94
502.956	97.94
503.172	101.94
503.389	91.94
503.606	110.94
503.823	90.94
504.04	98.94
504.256	98.94
504.473	99.94
504.69	98.94
504.907	102.94
505.123	94.94
505.34	83.94
505.557	93.94
505.773	93.94
505.99	96.94
506.207	95.94
506.423	83.94
506.64	90.94
506.856	96.94
507.073	90.94
507.289	91.94
507.506	104.94
507.722	136.94
507.939	118.94
508.155	97.94
508.372	86.94
508.588	110.94
508.805	101.94
509.021	94.94
509.238	105.94
509.454	103.94
509.67	110.94
509.887	122.94
510.103	144.94
510.319	260.94
510.536	942.94
510.752	3351.94
510.968	918.94
511.184	186.94
511.401	120.94
511.617	115.94
511.833	99.94
512.049	97.94
512.265	81.94
512.481	83.94
512.698	93.94
512.914	104.94
513.13	92.94
513.346	92.94
513.562	92.94
513.778	103.94
513.994	99.94
514.21	113.94
514.426	116.94
