Data from Circ_2022_H10_HRD10591_00038.txt Node
Date: Wed Jan 03 09:53:45 EST 2024
User: Yrep
Spectrometer: HR+D1059
Trigger mode: 1
Integration Time (sec): 1.000000E-1
Scans to average: 1
Electric dark correction enabled: true
Nonlinearity correction enabled: false
Boxcar width: 0
XAxis mode: Wavelengths
Number of Pixels in Spectrum: 2048
>>>>>Begin Spectral Data<<<<<
223.165	-30.81
223.4	-30.81
223.635	-30.81
223.869	-16.81
224.104	-33.81
224.338	-22.81
224.573	-11.81
224.808	-15.81
225.042	-13.81
225.277	-13.81
225.511	5.19
225.746	14.19
225.98	15.19
226.215	25.19
226.449	19.19
226.683	15.19
226.918	34.19
227.152	31.19
227.387	30.19
227.621	32.19
227.856	28.19
228.09	49.19
228.324	51.19
228.559	56.19
228.793	56.19
229.027	58.19
229.262	41.19
229.496	66.19
229.73	104.19
229.964	103.19
230.199	76.19
230.433	79.19
230.667	66.19
230.901	82.19
231.136	87.19
231.37	80.19
231.604	82.19
231.838	85.19
232.072	78.19
232.306	73.19
232.541	90.19
232.775	69.19
233.009	78.19
233.243	83.19
233.477	73.19
233.711	74.19
233.945	72.19
234.179	69.19
234.413	67.19
234.647	68.19
234.881	76.19
235.115	71.19
235.349	79.19
235.583	60.19
235.817	74.19
236.051	78.19
236.285	69.19
236.519	65.19
236.753	80.19
236.987	85.19
237.221	94.19
237.455	72.19
237.689	83.19
237.922	67.19
238.156	68.19
238.39	72.19
238.624	75.19
238.858	79.19
239.091	72.19
239.325	62.19
239.559	87.19
239.793	73.19
240.027	76.19
240.26	66.19
240.494	74.19
240.728	88.19
240.961	71.19
241.195	77.19
241.429	69.19
241.662	73.19
241.896	82.19
242.13	83.19
242.363	59.19
242.597	86.19
242.83	76.19
243.064	80.19
243.298	73.19
243.531	64.19
243.765	73.19
243.998	71.19
244.232	83.19
244.465	78.19
244.699	64.19
244.932	74.19
245.166	79.19
245.399	56.19
245.633	78.19
245.866	66.19
246.099	70.19
246.333	67.19
246.566	95.19
246.8	70.19
247.033	49.19
247.266	76.19
247.5	68.19
247.733	68.19
247.966	73.19
248.2	76.19
248.433	72.19
248.666	83.19
248.899	94.19
249.133	99.19
249.366	101.19
249.599	91.19
249.832	82.19
250.066	73.19
250.299	82.19
250.532	76.19
250.765	91.19
250.998	88.19
251.231	73.19
251.465	82.19
251.698	76.19
251.931	71.19
252.164	87.19
252.397	78.19
252.63	82.19
252.863	74.19
253.096	71.19
253.329	89.19
253.562	70.19
253.795	69.19
254.028	80.19
254.261	79.19
254.494	88.19
254.727	76.19
254.96	89.19
255.193	87.19
255.426	85.19
255.659	70.19
255.892	88.19
256.124	80.19
256.357	64.19
256.59	82.19
256.823	73.19
257.056	67.19
257.289	86.19
257.521	81.19
257.754	69.19
257.987	74.19
258.22	79.19
258.452	79.19
258.685	79.19
258.918	81.19
259.151	78.19
259.383	83.19
259.616	80.19
259.849	69.19
260.081	66.19
260.314	89.19
260.547	80.19
260.779	87.19
261.012	85.19
261.244	79.19
261.477	96.19
261.71	104.19
261.942	156.19
262.175	156.19
262.407	96.19
262.64	77.19
262.872	79.19
263.105	84.19
263.337	77.19
263.57	85.19
263.802	68.19
264.035	85.19
264.267	75.19
264.499	76.19
264.732	92.19
264.964	77.19
265.197	83.19
265.429	82.19
265.661	92.19
265.894	77.19
266.126	88.19
266.358	80.19
266.591	78.19
266.823	101.19
267.055	82.19
267.287	79.19
267.52	95.19
267.752	107.19
267.984	80.19
268.216	81.19
268.448	83.19
268.681	85.19
268.913	86.19
269.145	88.19
269.377	88.19
269.609	75.19
269.841	84.19
270.073	81.19
270.306	80.19
270.538	80.19
270.77	92.19
271.002	66.19
271.234	91.19
271.466	89.19
271.698	89.19
271.93	82.19
272.162	82.19
272.394	83.19
272.626	84.19
272.858	87.19
273.09	79.19
273.322	77.19
273.553	79.19
273.785	80.19
274.017	72.19
274.249	80.19
274.481	89.19
274.713	76.19
274.945	83.19
275.176	82.19
275.408	85.19
275.64	73.19
275.872	75.19
276.104	75.19
276.335	97.19
276.567	95.19
276.799	128.19
277.031	124.19
277.262	98.19
277.494	99.19
277.726	81.19
277.957	91.19
278.189	79.19
278.421	90.19
278.652	76.19
278.884	66.19
279.115	74.19
279.347	83.19
279.579	90.19
279.81	91.19
280.042	86.19
280.273	77.19
280.505	100.19
280.736	81.19
280.968	75.19
281.199	86.19
281.431	92.19
281.662	79.19
281.894	101.19
282.125	107.19
282.356	131.19
282.588	187.19
282.819	141.19
283.051	85.19
283.282	85.19
283.513	87.19
283.745	88.19
283.976	84.19
284.207	83.19
284.439	64.19
284.67	69.19
284.901	99.19
285.132	96.19
285.364	82.19
285.595	85.19
285.826	82.19
286.057	84.19
286.288	90.19
286.52	83.19
286.751	79.19
286.982	75.19
287.213	87.19
287.444	78.19
287.675	95.19
287.906	76.19
288.138	78.19
288.369	101.19
288.6	95.19
288.831	84.19
289.062	98.19
289.293	92.19
289.524	69.19
289.755	83.19
289.986	83.19
290.217	81.19
290.448	91.19
290.679	87.19
290.91	80.19
291.141	85.19
291.371	85.19
291.602	77.19
291.833	95.19
292.064	100.19
292.295	88.19
292.526	84.19
292.757	86.19
292.987	86.19
293.218	90.19
293.449	92.19
293.68	77.19
293.91	90.19
294.141	87.19
294.372	77.19
294.603	91.19
294.833	85.19
295.064	87.19
295.295	84.19
295.525	103.19
295.756	81.19
295.987	149.19
296.217	182.19
296.448	159.19
296.679	99.19
296.909	99.19
297.14	96.19
297.37	88.19
297.601	84.19
297.831	83.19
298.062	82.19
298.292	75.19
298.523	83.19
298.753	82.19
298.984	86.19
299.214	81.19
299.445	84.19
299.675	89.19
299.905	109.19
300.136	94.19
300.366	89.19
300.597	84.19
300.827	92.19
301.057	100.19
301.288	112.19
301.518	103.19
301.748	86.19
301.979	75.19
302.209	81.19
302.439	92.19
302.669	92.19
302.9	100.19
303.13	87.19
303.36	103.19
303.59	102.19
303.82	116.19
304.051	98.19
304.281	89.19
304.511	81.19
304.741	88.19
304.971	94.19
305.201	83.19
305.431	83.19
305.661	89.19
305.891	101.19
306.121	93.19
306.352	112.19
306.582	110.19
306.812	82.19
307.042	80.19
307.272	91.19
307.502	101.19
307.731	87.19
307.961	89.19
308.191	79.19
308.421	81.19
308.651	77.19
308.881	106.19
309.111	100.19
309.341	96.19
309.571	127.19
309.8	98.19
310.03	94.19
310.26	110.19
310.49	94.19
310.72	117.19
310.949	127.19
311.179	113.19
311.409	96.19
311.639	91.19
311.868	103.19
312.098	101.19
312.328	92.19
312.557	112.19
312.787	119.19
313.017	106.19
313.246	88.19
313.476	101.19
313.706	107.19
313.935	97.19
314.165	104.19
314.394	115.19
314.624	103.19
314.853	110.19
315.083	100.19
315.312	87.19
315.542	81.19
315.771	104.19
316.001	101.19
316.23	102.19
316.46	88.19
316.689	90.19
316.919	90.19
317.148	100.19
317.377	83.19
317.607	92.19
317.836	93.19
318.065	111.19
318.295	86.19
318.524	99.19
318.753	81.19
318.983	113.19
319.212	95.19
319.441	118.19
319.67	127.19
319.9	98.19
320.129	93.19
320.358	97.19
320.587	115.19
320.816	96.19
321.046	93.19
321.275	92.19
321.504	87.19
321.733	88.19
321.962	93.19
322.191	96.19
322.42	109.19
322.649	131.19
322.878	132.19
323.108	143.19
323.337	145.19
323.566	155.19
323.795	195.19
324.024	265.19
324.253	565.19
324.482	1212.19
324.71	2472.19
324.939	3345.19
325.168	1247.19
325.397	340.19
325.626	185.19
325.855	139.19
326.084	131.19
326.313	144.19
326.542	183.19
326.77	281.19
326.999	600.19
327.228	1251.19
327.457	2386.19
327.686	1933.19
327.914	501.19
328.143	255.19
328.372	208.19
328.6	160.19
328.829	143.19
329.058	169.19
329.287	172.19
329.515	143.19
329.744	105.19
329.972	110.19
330.201	127.19
330.43	175.19
330.658	169.19
330.887	211.19
331.115	160.19
331.344	112.19
331.572	105.19
331.801	127.19
332.03	104.19
332.258	100.19
332.486	101.19
332.715	88.19
332.943	102.19
333.172	103.19
333.4	107.19
333.629	120.19
333.857	142.19
334.085	131.19
334.314	127.19
334.542	161.19
334.771	157.19
334.999	132.19
335.227	87.19
335.455	85.19
335.684	106.19
335.912	94.19
336.14	97.19
336.369	122.19
336.597	107.19
336.825	101.19
337.053	92.19
337.281	95.19
337.51	82.19
337.738	82.19
337.966	108.19
338.194	93.19
338.422	95.19
338.65	98.19
338.878	81.19
339.106	90.19
339.334	81.19
339.562	81.19
339.79	98.19
340.018	90.19
340.246	109.19
340.474	80.19
340.702	84.19
340.93	95.19
341.158	101.19
341.386	97.19
341.614	108.19
341.842	93.19
342.07	96.19
342.298	89.19
342.526	86.19
342.754	87.19
342.981	99.19
343.209	80.19
343.437	89.19
343.665	82.19
343.893	93.19
344.12	96.19
344.348	91.19
344.576	76.19
344.804	96.19
345.031	105.19
345.259	111.19
345.487	97.19
345.714	98.19
345.942	80.19
346.17	65.19
346.397	100.19
346.625	97.19
346.853	99.19
347.08	87.19
347.308	95.19
347.535	107.19
347.763	102.19
347.99	107.19
348.218	111.19
348.445	113.19
348.673	89.19
348.9	100.19
349.128	77.19
349.355	79.19
349.583	88.19
349.81	98.19
350.037	102.19
350.265	86.19
350.492	100.19
350.72	108.19
350.947	99.19
351.174	109.19
351.402	116.19
351.629	112.19
351.856	107.19
352.083	106.19
352.311	105.19
352.538	109.19
352.765	125.19
352.992	116.19
353.22	129.19
353.447	104.19
353.674	109.19
353.901	96.19
354.128	88.19
354.355	111.19
354.583	96.19
354.81	100.19
355.037	92.19
355.264	88.19
355.491	94.19
355.718	91.19
355.945	87.19
356.172	87.19
356.399	83.19
356.626	82.19
356.853	83.19
357.08	99.19
357.307	94.19
357.534	92.19
357.761	97.19
357.988	91.19
358.215	84.19
358.441	88.19
358.668	86.19
358.895	90.19
359.122	95.19
359.349	91.19
359.576	94.19
359.802	104.19
360.029	127.19
360.256	117.19
360.483	124.19
360.709	102.19
360.936	88.19
361.163	103.19
361.39	102.19
361.616	106.19
361.843	110.19
362.07	93.19
362.296	103.19
362.523	92.19
362.749	98.19
362.976	89.19
363.203	95.19
363.429	96.19
363.656	81.19
363.882	76.19
364.109	92.19
364.335	106.19
364.562	78.19
364.788	110.19
365.015	102.19
365.241	121.19
365.468	125.19
365.694	110.19
365.92	104.19
366.147	83.19
366.373	89.19
366.599	87.19
366.826	84.19
367.052	84.19
367.278	91.19
367.505	100.19
367.731	86.19
367.957	89.19
368.184	98.19
368.41	107.19
368.636	128.19
368.862	135.19
369.089	120.19
369.315	91.19
369.541	92.19
369.767	84.19
369.993	103.19
370.219	82.19
370.445	97.19
370.672	94.19
370.898	103.19
371.124	81.19
371.35	79.19
371.576	89.19
371.802	82.19
372.028	61.19
372.254	84.19
372.48	91.19
372.706	91.19
372.932	82.19
373.158	80.19
373.384	100.19
373.61	93.19
373.835	85.19
374.061	80.19
374.287	89.19
374.513	75.19
374.739	92.19
374.965	94.19
375.191	94.19
375.416	88.19
375.642	85.19
375.868	90.19
376.094	79.19
376.319	83.19
376.545	82.19
376.771	94.19
376.997	87.19
377.222	89.19
377.448	84.19
377.674	96.19
377.899	85.19
378.125	86.19
378.35	99.19
378.576	87.19
378.802	91.19
379.027	82.19
379.253	96.19
379.478	76.19
379.704	103.19
379.929	93.19
380.155	96.19
380.38	87.19
380.606	95.19
380.831	88.19
381.057	94.19
381.282	81.19
381.507	90.19
381.733	100.19
381.958	91.19
382.184	88.19
382.409	109.19
382.634	95.19
382.86	92.19
383.085	81.19
383.31	102.19
383.535	91.19
383.761	93.19
383.986	101.19
384.211	99.19
384.436	98.19
384.662	113.19
384.887	94.19
385.112	102.19
385.337	118.19
385.562	84.19
385.787	84.19
386.013	136.19
386.238	133.19
386.463	103.19
386.688	100.19
386.913	92.19
387.138	111.19
387.363	102.19
387.588	93.19
387.813	106.19
388.038	86.19
388.263	108.19
388.488	92.19
388.713	94.19
388.938	81.19
389.163	84.19
389.387	92.19
389.612	93.19
389.837	87.19
390.062	73.19
390.287	91.19
390.512	79.19
390.736	77.19
390.961	88.19
391.186	81.19
391.411	87.19
391.636	89.19
391.86	83.19
392.085	78.19
392.31	90.19
392.534	82.19
392.759	84.19
392.984	80.19
393.208	105.19
393.433	102.19
393.658	93.19
393.882	86.19
394.107	88.19
394.331	100.19
394.556	91.19
394.78	72.19
395.005	78.19
395.229	78.19
395.454	91.19
395.678	82.19
395.903	83.19
396.127	87.19
396.352	88.19
396.576	77.19
396.801	92.19
397.025	108.19
397.249	90.19
397.474	77.19
397.698	72.19
397.922	83.19
398.147	79.19
398.371	84.19
398.595	93.19
398.82	97.19
399.044	61.19
399.268	109.19
399.492	78.19
399.717	98.19
399.941	89.19
400.165	96.19
400.389	79.19
400.613	108.19
400.837	89.19
401.062	83.19
401.286	83.19
401.51	92.19
401.734	88.19
401.958	112.19
402.182	157.19
402.406	213.19
402.63	163.19
402.854	107.19
403.078	100.19
403.302	71.19
403.526	88.19
403.75	89.19
403.974	79.19
404.198	75.19
404.422	84.19
404.645	98.19
404.869	86.19
405.093	115.19
405.317	97.19
405.541	99.19
405.765	105.19
405.988	133.19
406.212	241.19
406.436	363.19
406.66	220.19
406.883	121.19
407.107	91.19
407.331	104.19
407.555	94.19
407.778	87.19
408.002	83.19
408.226	84.19
408.449	91.19
408.673	84.19
408.896	100.19
409.12	89.19
409.344	100.19
409.567	70.19
409.791	86.19
410.014	73.19
410.238	108.19
410.461	73.19
410.685	89.19
410.908	86.19
411.132	103.19
411.355	98.19
411.578	78.19
411.802	95.19
412.025	77.19
412.249	83.19
412.472	84.19
412.695	109.19
412.919	100.19
413.142	93.19
413.365	86.19
413.589	94.19
413.812	80.19
414.035	83.19
414.258	84.19
414.482	79.19
414.705	77.19
414.928	85.19
415.151	89.19
415.374	88.19
415.597	74.19
415.821	80.19
416.044	82.19
416.267	89.19
416.49	77.19
416.713	76.19
416.936	77.19
417.159	85.19
417.382	73.19
417.605	90.19
417.828	108.19
418.051	98.19
418.274	89.19
418.497	80.19
418.72	81.19
418.943	69.19
419.166	96.19
419.389	84.19
419.611	72.19
419.834	93.19
420.057	71.19
420.28	100.19
420.503	90.19
420.726	86.19
420.948	99.19
421.171	96.19
421.394	89.19
421.617	89.19
421.839	86.19
422.062	86.19
422.285	97.19
422.507	121.19
422.73	97.19
422.953	96.19
423.175	84.19
423.398	78.19
423.621	83.19
423.843	73.19
424.066	78.19
424.288	81.19
424.511	91.19
424.733	103.19
424.956	118.19
425.178	107.19
425.401	105.19
425.623	89.19
425.846	101.19
426.068	105.19
426.291	88.19
426.513	84.19
426.735	84.19
426.958	88.19
427.18	117.19
427.402	180.19
427.625	259.19
427.847	189.19
428.069	125.19
428.292	86.19
428.514	99.19
428.736	73.19
428.958	72.19
429.181	75.19
429.403	85.19
429.625	88.19
429.847	93.19
430.069	121.19
430.292	88.19
430.514	86.19
430.736	78.19
430.958	97.19
431.18	82.19
431.402	73.19
431.624	79.19
431.846	95.19
432.068	88.19
432.29	83.19
432.512	83.19
432.734	78.19
432.956	86.19
433.178	96.19
433.4	85.19
433.622	85.19
433.844	90.19
434.066	95.19
434.287	95.19
434.509	99.19
434.731	93.19
434.953	81.19
435.175	71.19
435.397	94.19
435.618	100.19
435.84	107.19
436.062	131.19
436.284	133.19
436.505	116.19
436.727	104.19
436.949	97.19
437.17	81.19
437.392	84.19
437.614	93.19
437.835	120.19
438.057	147.19
438.278	140.19
438.5	112.19
438.721	124.19
438.943	108.19
439.165	73.19
439.386	86.19
439.608	92.19
439.829	121.19
440.05	136.19
440.272	196.19
440.493	112.19
440.715	86.19
440.936	90.19
441.158	80.19
441.379	82.19
441.6	97.19
441.822	107.19
442.043	89.19
442.264	103.19
442.486	103.19
442.707	89.19
442.928	113.19
443.149	179.19
443.371	177.19
443.592	150.19
443.813	123.19
444.034	126.19
444.255	70.19
444.476	88.19
444.698	71.19
444.919	104.19
445.14	123.19
445.361	134.19
445.582	150.19
445.803	198.19
446.024	181.19
446.245	159.19
446.466	125.19
446.687	93.19
446.908	100.19
447.129	79.19
447.35	87.19
447.571	107.19
447.792	100.19
448.013	125.19
448.234	109.19
448.455	104.19
448.675	127.19
448.896	131.19
449.117	112.19
449.338	123.19
449.559	132.19
449.779	139.19
450	88.19
450.221	99.19
450.442	91.19
450.662	113.19
450.883	120.19
451.104	143.19
451.324	110.19
451.545	96.19
451.766	99.19
451.986	76.19
452.207	92.19
452.428	84.19
452.648	106.19
452.869	130.19
453.089	144.19
453.31	141.19
453.53	101.19
453.751	110.19
453.971	111.19
454.192	135.19
454.412	104.19
454.633	98.19
454.853	71.19
455.073	80.19
455.294	89.19
455.514	108.19
455.734	83.19
455.955	84.19
456.175	93.19
456.395	82.19
456.616	91.19
456.836	89.19
457.056	91.19
457.276	86.19
457.497	87.19
457.717	80.19
457.937	88.19
458.157	95.19
458.377	98.19
458.598	137.19
458.818	204.19
459.038	213.19
459.258	153.19
459.478	95.19
459.698	80.19
459.918	95.19
460.138	84.19
460.358	94.19
460.578	66.19
460.798	98.19
461.018	109.19
461.238	67.19
461.458	78.19
461.678	88.19
461.898	81.19
462.118	82.19
462.338	83.19
462.558	88.19
462.777	84.19
462.997	83.19
463.217	72.19
463.437	103.19
463.657	83.19
463.876	100.19
464.096	102.19
464.316	97.19
464.536	96.19
464.755	92.19
464.975	114.19
465.195	245.19
465.414	244.19
465.634	100.19
465.854	103.19
466.073	100.19
466.293	74.19
466.512	84.19
466.732	87.19
466.951	74.19
467.171	90.19
467.391	93.19
467.61	114.19
467.829	103.19
468.049	128.19
468.268	113.19
468.488	85.19
468.707	83.19
468.927	72.19
469.146	84.19
469.365	96.19
469.585	83.19
469.804	100.19
470.023	119.19
470.243	101.19
470.462	115.19
470.681	127.19
470.901	98.19
471.12	97.19
471.339	89.19
471.558	82.19
471.777	75.19
471.997	97.19
472.216	111.19
472.435	185.19
472.654	92.19
472.873	97.19
473.092	92.19
473.311	78.19
473.53	81.19
473.749	86.19
473.968	78.19
474.187	115.19
474.406	83.19
474.625	93.19
474.844	80.19
475.063	78.19
475.282	74.19
475.501	80.19
475.72	90.19
475.939	77.19
476.158	81.19
476.377	84.19
476.596	77.19
476.814	105.19
477.033	91.19
477.252	84.19
477.471	86.19
477.69	81.19
477.908	89.19
478.127	72.19
478.346	84.19
478.564	97.19
478.783	96.19
479.002	105.19
479.22	99.19
479.439	99.19
479.658	118.19
479.876	102.19
480.095	95.19
480.313	91.19
480.532	98.19
480.751	97.19
480.969	127.19
481.188	262.19
481.406	194.19
481.624	88.19
481.843	77.19
482.061	81.19
482.28	85.19
482.498	83.19
482.717	86.19
482.935	82.19
483.153	90.19
483.372	85.19
483.59	80.19
483.808	92.19
484.027	80.19
484.245	97.19
484.463	87.19
484.681	96.19
484.9	89.19
485.118	84.19
485.336	87.19
485.554	93.19
485.772	97.19
485.99	97.19
486.209	111.19
486.427	115.19
486.645	115.19
486.863	127.19
487.081	117.19
487.299	100.19
487.517	87.19
487.735	86.19
487.953	100.19
488.171	80.19
488.389	91.19
488.607	100.19
488.825	84.19
489.043	91.19
489.261	93.19
489.479	71.19
489.696	94.19
489.914	92.19
490.132	92.19
490.35	89.19
490.568	84.19
490.786	76.19
491.003	89.19
491.221	74.19
491.439	81.19
491.657	96.19
491.874	81.19
492.092	93.19
492.31	107.19
492.527	85.19
492.745	88.19
492.963	82.19
493.18	96.19
493.398	99.19
493.615	94.19
493.833	101.19
494.05	97.19
494.268	83.19
494.485	78.19
494.703	79.19
494.92	96.19
495.138	81.19
495.355	81.19
495.573	93.19
495.79	85.19
496.008	92.19
496.225	95.19
496.442	104.19
496.66	91.19
496.877	85.19
497.094	81.19
497.312	84.19
497.529	88.19
497.746	101.19
497.963	87.19
498.181	71.19
498.398	100.19
498.615	130.19
498.832	112.19
499.049	86.19
499.267	86.19
499.484	88.19
499.701	90.19
499.918	96.19
500.135	78.19
500.352	78.19
500.569	81.19
500.786	94.19
501.003	86.19
501.22	98.19
501.437	95.19
501.654	101.19
501.871	120.19
502.088	113.19
502.305	94.19
502.522	94.19
502.739	90.19
502.956	81.19
503.172	95.19
503.389	91.19
503.606	116.19
503.823	96.19
504.04	94.19
504.256	86.19
504.473	85.19
504.69	94.19
504.907	95.19
505.123	90.19
505.34	92.19
505.557	80.19
505.773	93.19
505.99	101.19
506.207	85.19
506.423	81.19
506.64	77.19
506.856	83.19
507.073	69.19
507.289	102.19
507.506	95.19
507.722	133.19
507.939	136.19
508.155	102.19
508.372	92.19
508.588	99.19
508.805	102.19
509.021	87.19
509.238	91.19
509.454	110.19
509.67	110.19
509.887	114.19
510.103	152.19
510.319	287.19
510.536	1155.19
510.752	4223.19
510.968	1149.19
511.184	222.19
511.401	135.19
511.617	104.19
511.833	92.19
512.049	92.19
512.265	87.19
512.481	88.19
512.698	111.19
512.914	97.19
513.13	97.19
513.346	109.19
513.562	96.19
513.778	85.19
513.994	112.19
514.21	122.19
514.426	146.19
514.642	187.19
