Data from Circ_2022_H10_HRD10591_00047.txt Node
Date: Wed Jan 03 09:53:47 EST 2024
User: Yrep
Spectrometer: HR+D1059
Trigger mode: 1
Integration Time (sec): 1.000000E-1
Scans to average: 1
Electric dark correction enabled: true
Nonlinearity correction enabled: false
Boxcar width: 0
XAxis mode: Wavelengths
Number of Pixels in Spectrum: 2048
>>>>>Begin Spectral Data<<<<<
223.165	-18.75
223.4	-18.75
223.635	-18.75
223.869	-19.75
224.104	-19.75
224.338	-13.75
224.573	-16.75
224.808	-9.75
225.042	-18.75
225.277	-3.75
225.511	-0.75
225.746	3.25
225.98	17.25
226.215	7.25
226.449	13.25
226.683	30.25
226.918	23.25
227.152	27.25
227.387	44.25
227.621	40.25
227.856	39.25
228.09	31.25
228.324	46.25
228.559	40.25
228.793	64.25
229.027	70.25
229.262	61.25
229.496	80.25
229.73	83.25
229.964	93.25
230.199	63.25
230.433	71.25
230.667	69.25
230.901	71.25
231.136	69.25
231.37	65.25
231.604	77.25
231.838	85.25
232.072	74.25
232.306	81.25
232.541	102.25
232.775	83.25
233.009	82.25
233.243	80.25
233.477	79.25
233.711	73.25
233.945	86.25
234.179	80.25
234.413	82.25
234.647	80.25
234.881	84.25
235.115	71.25
235.349	63.25
235.583	91.25
235.817	81.25
236.051	79.25
236.285	80.25
236.519	87.25
236.753	80.25
236.987	83.25
237.221	95.25
237.455	100.25
237.689	81.25
237.922	59.25
238.156	83.25
238.39	78.25
238.624	65.25
238.858	77.25
239.091	67.25
239.325	77.25
239.559	65.25
239.793	68.25
240.027	72.25
240.26	68.25
240.494	72.25
240.728	81.25
240.961	70.25
241.195	85.25
241.429	75.25
241.662	75.25
241.896	77.25
242.13	72.25
242.363	76.25
242.597	88.25
242.83	59.25
243.064	82.25
243.298	91.25
243.531	79.25
243.765	63.25
243.998	86.25
244.232	70.25
244.465	73.25
244.699	75.25
244.932	75.25
245.166	71.25
245.399	84.25
245.633	90.25
245.866	82.25
246.099	81.25
246.333	91.25
246.566	74.25
246.8	76.25
247.033	79.25
247.266	73.25
247.5	69.25
247.733	74.25
247.966	70.25
248.2	75.25
248.433	72.25
248.666	75.25
248.899	79.25
249.133	90.25
249.366	95.25
249.599	89.25
249.832	78.25
250.066	95.25
250.299	68.25
250.532	92.25
250.765	69.25
250.998	69.25
251.231	90.25
251.465	84.25
251.698	73.25
251.931	69.25
252.164	92.25
252.397	80.25
252.63	73.25
252.863	80.25
253.096	77.25
253.329	71.25
253.562	76.25
253.795	87.25
254.028	93.25
254.261	80.25
254.494	72.25
254.727	86.25
254.96	91.25
255.193	75.25
255.426	79.25
255.659	92.25
255.892	92.25
256.124	77.25
256.357	73.25
256.59	84.25
256.823	71.25
257.056	89.25
257.289	84.25
257.521	86.25
257.754	84.25
257.987	78.25
258.22	74.25
258.452	95.25
258.685	74.25
258.918	79.25
259.151	90.25
259.383	73.25
259.616	77.25
259.849	79.25
260.081	86.25
260.314	91.25
260.547	74.25
260.779	83.25
261.012	86.25
261.244	83.25
261.477	89.25
261.71	107.25
261.942	124.25
262.175	123.25
262.407	96.25
262.64	92.25
262.872	88.25
263.105	80.25
263.337	88.25
263.57	84.25
263.802	87.25
264.035	93.25
264.267	79.25
264.499	75.25
264.732	84.25
264.964	65.25
265.197	68.25
265.429	68.25
265.661	75.25
265.894	68.25
266.126	86.25
266.358	94.25
266.591	93.25
266.823	86.25
267.055	84.25
267.287	69.25
267.52	91.25
267.752	75.25
267.984	83.25
268.216	73.25
268.448	87.25
268.681	85.25
268.913	85.25
269.145	87.25
269.377	85.25
269.609	68.25
269.841	88.25
270.073	81.25
270.306	97.25
270.538	79.25
270.77	89.25
271.002	79.25
271.234	83.25
271.466	85.25
271.698	77.25
271.93	76.25
272.162	76.25
272.394	98.25
272.626	75.25
272.858	87.25
273.09	85.25
273.322	84.25
273.553	83.25
273.785	108.25
274.017	105.25
274.249	73.25
274.481	83.25
274.713	81.25
274.945	98.25
275.176	93.25
275.408	87.25
275.64	83.25
275.872	106.25
276.104	90.25
276.335	88.25
276.567	99.25
276.799	121.25
277.031	98.25
277.262	84.25
277.494	84.25
277.726	81.25
277.957	95.25
278.189	87.25
278.421	93.25
278.652	84.25
278.884	81.25
279.115	90.25
279.347	96.25
279.579	66.25
279.81	83.25
280.042	77.25
280.273	100.25
280.505	96.25
280.736	99.25
280.968	80.25
281.199	79.25
281.431	79.25
281.662	96.25
281.894	101.25
282.125	106.25
282.356	105.25
282.588	143.25
282.819	119.25
283.051	103.25
283.282	79.25
283.513	99.25
283.745	76.25
283.976	91.25
284.207	83.25
284.439	88.25
284.67	92.25
284.901	98.25
285.132	90.25
285.364	69.25
285.595	82.25
285.826	88.25
286.057	97.25
286.288	89.25
286.52	85.25
286.751	86.25
286.982	100.25
287.213	77.25
287.444	90.25
287.675	101.25
287.906	87.25
288.138	82.25
288.369	77.25
288.6	92.25
288.831	82.25
289.062	105.25
289.293	90.25
289.524	87.25
289.755	82.25
289.986	92.25
290.217	97.25
290.448	83.25
290.679	85.25
290.91	92.25
291.141	92.25
291.371	88.25
291.602	105.25
291.833	84.25
292.064	85.25
292.295	87.25
292.526	82.25
292.757	99.25
292.987	93.25
293.218	92.25
293.449	103.25
293.68	85.25
293.91	77.25
294.141	89.25
294.372	86.25
294.603	92.25
294.833	94.25
295.064	72.25
295.295	73.25
295.525	95.25
295.756	88.25
295.987	106.25
296.217	141.25
296.448	145.25
296.679	84.25
296.909	92.25
297.14	88.25
297.37	78.25
297.601	83.25
297.831	89.25
298.062	88.25
298.292	92.25
298.523	89.25
298.753	88.25
298.984	99.25
299.214	97.25
299.445	100.25
299.675	91.25
299.905	96.25
300.136	92.25
300.366	92.25
300.597	85.25
300.827	101.25
301.057	81.25
301.288	98.25
301.518	96.25
301.748	85.25
301.979	103.25
302.209	103.25
302.439	84.25
302.669	89.25
302.9	101.25
303.13	91.25
303.36	98.25
303.59	100.25
303.82	103.25
304.051	93.25
304.281	90.25
304.511	85.25
304.741	85.25
304.971	91.25
305.201	59.25
305.431	76.25
305.661	92.25
305.891	78.25
306.121	92.25
306.352	106.25
306.582	101.25
306.812	96.25
307.042	95.25
307.272	91.25
307.502	104.25
307.731	92.25
307.961	94.25
308.191	90.25
308.421	98.25
308.651	84.25
308.881	82.25
309.111	94.25
309.341	90.25
309.571	105.25
309.8	98.25
310.03	112.25
310.26	95.25
310.49	98.25
310.72	93.25
310.949	103.25
311.179	94.25
311.409	97.25
311.639	88.25
311.868	104.25
312.098	87.25
312.328	96.25
312.557	99.25
312.787	100.25
313.017	90.25
313.246	90.25
313.476	92.25
313.706	89.25
313.935	106.25
314.165	105.25
314.394	107.25
314.624	98.25
314.853	93.25
315.083	76.25
315.312	85.25
315.542	83.25
315.771	87.25
316.001	84.25
316.23	87.25
316.46	95.25
316.689	80.25
316.919	86.25
317.148	89.25
317.377	85.25
317.607	95.25
317.836	108.25
318.065	90.25
318.295	94.25
318.524	99.25
318.753	92.25
318.983	106.25
319.212	87.25
319.441	92.25
319.67	118.25
319.9	100.25
320.129	86.25
320.358	102.25
320.587	107.25
320.816	92.25
321.046	101.25
321.275	91.25
321.504	82.25
321.733	94.25
321.962	106.25
322.191	105.25
322.42	99.25
322.649	98.25
322.878	112.25
323.108	116.25
323.337	105.25
323.566	142.25
323.795	145.25
324.024	216.25
324.253	385.25
324.482	787.25
324.71	1598.25
324.939	2159.25
325.168	799.25
325.397	235.25
325.626	153.25
325.855	141.25
326.084	131.25
326.313	119.25
326.542	155.25
326.77	216.25
326.999	438.25
327.228	847.25
327.457	1568.25
327.686	1271.25
327.914	381.25
328.143	219.25
328.372	168.25
328.6	141.25
328.829	129.25
329.058	122.25
329.287	134.25
329.515	112.25
329.744	101.25
329.972	106.25
330.201	160.25
330.43	158.25
330.658	128.25
330.887	151.25
331.115	119.25
331.344	101.25
331.572	111.25
331.801	107.25
332.03	109.25
332.258	101.25
332.486	99.25
332.715	90.25
332.943	102.25
333.172	107.25
333.4	111.25
333.629	127.25
333.857	127.25
334.085	105.25
334.314	131.25
334.542	179.25
334.771	171.25
334.999	108.25
335.227	90.25
335.455	103.25
335.684	105.25
335.912	103.25
336.14	93.25
336.369	96.25
336.597	96.25
336.825	104.25
337.053	88.25
337.281	88.25
337.51	95.25
337.738	96.25
337.966	94.25
338.194	83.25
338.422	104.25
338.65	92.25
338.878	102.25
339.106	74.25
339.334	90.25
339.562	101.25
339.79	98.25
340.018	92.25
340.246	104.25
340.474	84.25
340.702	92.25
340.93	85.25
341.158	105.25
341.386	90.25
341.614	106.25
341.842	86.25
342.07	112.25
342.298	87.25
342.526	89.25
342.754	96.25
342.981	92.25
343.209	91.25
343.437	88.25
343.665	90.25
343.893	96.25
344.12	100.25
344.348	92.25
344.576	87.25
344.804	92.25
345.031	90.25
345.259	99.25
345.487	100.25
345.714	96.25
345.942	95.25
346.17	87.25
346.397	99.25
346.625	108.25
346.853	80.25
347.08	99.25
347.308	90.25
347.535	117.25
347.763	98.25
347.99	81.25
348.218	91.25
348.445	95.25
348.673	107.25
348.9	88.25
349.128	95.25
349.355	99.25
349.583	89.25
349.81	98.25
350.037	94.25
350.265	100.25
350.492	101.25
350.72	100.25
350.947	115.25
351.174	120.25
351.402	103.25
351.629	95.25
351.856	98.25
352.083	88.25
352.311	108.25
352.538	114.25
352.765	112.25
352.992	120.25
353.22	107.25
353.447	104.25
353.674	105.25
353.901	93.25
354.128	100.25
354.355	103.25
354.583	101.25
354.81	102.25
355.037	111.25
355.264	93.25
355.491	107.25
355.718	84.25
355.945	102.25
356.172	85.25
356.399	88.25
356.626	96.25
356.853	89.25
357.08	93.25
357.307	98.25
357.534	92.25
357.761	100.25
357.988	103.25
358.215	97.25
358.441	81.25
358.668	105.25
358.895	95.25
359.122	100.25
359.349	92.25
359.576	94.25
359.802	93.25
360.029	125.25
360.256	120.25
360.483	117.25
360.709	102.25
360.936	83.25
361.163	93.25
361.39	89.25
361.616	89.25
361.843	84.25
362.07	93.25
362.296	89.25
362.523	88.25
362.749	101.25
362.976	94.25
363.203	99.25
363.429	85.25
363.656	91.25
363.882	82.25
364.109	99.25
364.335	87.25
364.562	90.25
364.788	90.25
365.015	95.25
365.241	112.25
365.468	98.25
365.694	96.25
365.92	115.25
366.147	95.25
366.373	78.25
366.599	90.25
366.826	80.25
367.052	89.25
367.278	87.25
367.505	83.25
367.731	102.25
367.957	100.25
368.184	96.25
368.41	103.25
368.636	106.25
368.862	118.25
369.089	123.25
369.315	103.25
369.541	95.25
369.767	82.25
369.993	87.25
370.219	75.25
370.445	90.25
370.672	91.25
370.898	95.25
371.124	97.25
371.35	83.25
371.576	83.25
371.802	77.25
372.028	95.25
372.254	70.25
372.48	84.25
372.706	82.25
372.932	85.25
373.158	93.25
373.384	87.25
373.61	88.25
373.835	84.25
374.061	95.25
374.287	92.25
374.513	90.25
374.739	89.25
374.965	93.25
375.191	77.25
375.416	82.25
375.642	96.25
375.868	92.25
376.094	98.25
376.319	96.25
376.545	92.25
376.771	94.25
376.997	107.25
377.222	87.25
377.448	82.25
377.674	95.25
377.899	83.25
378.125	93.25
378.35	90.25
378.576	90.25
378.802	85.25
379.027	86.25
379.253	94.25
379.478	88.25
379.704	102.25
379.929	96.25
380.155	102.25
380.38	96.25
380.606	108.25
380.831	93.25
381.057	106.25
381.282	96.25
381.507	102.25
381.733	93.25
381.958	96.25
382.184	103.25
382.409	116.25
382.634	100.25
382.86	105.25
383.085	107.25
383.31	95.25
383.535	99.25
383.761	100.25
383.986	97.25
384.211	95.25
384.436	106.25
384.662	95.25
384.887	97.25
385.112	99.25
385.337	109.25
385.562	101.25
385.787	105.25
386.013	100.25
386.238	119.25
386.463	110.25
386.688	96.25
386.913	101.25
387.138	118.25
387.363	99.25
387.588	101.25
387.813	107.25
388.038	115.25
388.263	102.25
388.488	121.25
388.713	100.25
388.938	118.25
389.163	114.25
389.387	101.25
389.612	101.25
389.837	98.25
390.062	95.25
390.287	107.25
390.512	92.25
390.736	93.25
390.961	111.25
391.186	90.25
391.411	98.25
391.636	100.25
391.86	90.25
392.085	87.25
392.31	88.25
392.534	79.25
392.759	76.25
392.984	106.25
393.208	89.25
393.433	99.25
393.658	88.25
393.882	89.25
394.107	85.25
394.331	92.25
394.556	82.25
394.78	77.25
395.005	90.25
395.229	84.25
395.454	83.25
395.678	90.25
395.903	85.25
396.127	105.25
396.352	83.25
396.576	81.25
396.801	88.25
397.025	95.25
397.249	89.25
397.474	87.25
397.698	89.25
397.922	92.25
398.147	85.25
398.371	87.25
398.595	83.25
398.82	101.25
399.044	79.25
399.268	101.25
399.492	88.25
399.717	98.25
399.941	97.25
400.165	103.25
400.389	98.25
400.613	98.25
400.837	76.25
401.062	84.25
401.286	90.25
401.51	98.25
401.734	86.25
401.958	106.25
402.182	134.25
402.406	172.25
402.63	129.25
402.854	90.25
403.078	93.25
403.302	82.25
403.526	103.25
403.75	88.25
403.974	90.25
404.198	81.25
404.422	96.25
404.645	77.25
404.869	81.25
405.093	100.25
405.317	103.25
405.541	95.25
405.765	92.25
405.988	121.25
406.212	177.25
406.436	230.25
406.66	152.25
406.883	93.25
407.107	88.25
407.331	108.25
407.555	81.25
407.778	87.25
408.002	87.25
408.226	103.25
408.449	101.25
408.673	86.25
408.896	106.25
409.12	103.25
409.344	97.25
409.567	81.25
409.791	94.25
410.014	84.25
410.238	73.25
410.461	73.25
410.685	83.25
410.908	100.25
411.132	90.25
411.355	97.25
411.578	108.25
411.802	101.25
412.025	91.25
412.249	100.25
412.472	107.25
412.695	99.25
412.919	85.25
413.142	101.25
413.365	82.25
413.589	92.25
413.812	96.25
414.035	90.25
414.258	87.25
414.482	96.25
414.705	90.25
414.928	89.25
415.151	100.25
415.374	111.25
415.597	93.25
415.821	97.25
416.044	88.25
416.267	89.25
416.49	95.25
416.713	91.25
416.936	83.25
417.159	81.25
417.382	94.25
417.605	94.25
417.828	75.25
418.051	86.25
418.274	90.25
418.497	74.25
418.72	80.25
418.943	82.25
419.166	96.25
419.389	82.25
419.611	71.25
419.834	81.25
420.057	86.25
420.28	94.25
420.503	84.25
420.726	100.25
420.948	94.25
421.171	87.25
421.394	99.25
421.617	96.25
421.839	97.25
422.062	105.25
422.285	91.25
422.507	109.25
422.73	118.25
422.953	89.25
423.175	92.25
423.398	86.25
423.621	104.25
423.843	90.25
424.066	92.25
424.288	91.25
424.511	94.25
424.733	102.25
424.956	97.25
425.178	102.25
425.401	132.25
425.623	100.25
425.846	111.25
426.068	91.25
426.291	100.25
426.513	93.25
426.735	93.25
426.958	93.25
427.18	104.25
427.402	151.25
427.625	171.25
427.847	147.25
428.069	117.25
428.292	84.25
428.514	75.25
428.736	84.25
428.958	77.25
429.181	88.25
429.403	78.25
429.625	84.25
429.847	89.25
430.069	94.25
430.292	83.25
430.514	72.25
430.736	71.25
430.958	74.25
431.18	77.25
431.402	96.25
431.624	99.25
431.846	95.25
432.068	86.25
432.29	84.25
432.512	81.25
432.734	67.25
432.956	82.25
433.178	99.25
433.4	106.25
433.622	92.25
433.844	88.25
434.066	81.25
434.287	96.25
434.509	81.25
434.731	90.25
434.953	88.25
435.175	91.25
435.397	96.25
435.618	81.25
435.84	102.25
436.062	104.25
436.284	99.25
436.505	97.25
436.727	91.25
436.949	86.25
437.17	87.25
437.392	89.25
437.614	97.25
437.835	96.25
438.057	131.25
438.278	97.25
438.5	113.25
438.721	121.25
438.943	93.25
439.165	89.25
439.386	95.25
439.608	102.25
439.829	102.25
440.05	127.25
440.272	123.25
440.493	97.25
440.715	85.25
440.936	94.25
441.158	67.25
441.379	92.25
441.6	90.25
441.822	102.25
442.043	88.25
442.264	94.25
442.486	94.25
442.707	97.25
442.928	96.25
443.149	127.25
443.371	126.25
443.592	98.25
443.813	101.25
444.034	106.25
444.255	97.25
444.476	88.25
444.698	93.25
444.919	95.25
445.14	131.25
445.361	127.25
445.582	111.25
445.803	139.25
446.024	133.25
446.245	146.25
446.466	106.25
446.687	97.25
446.908	90.25
447.129	101.25
447.35	78.25
447.571	95.25
447.792	87.25
448.013	111.25
448.234	104.25
448.455	91.25
448.675	99.25
448.896	128.25
449.117	104.25
449.338	96.25
449.559	136.25
449.779	137.25
450	94.25
450.221	79.25
450.442	86.25
450.662	98.25
450.883	99.25
451.104	111.25
451.324	92.25
451.545	87.25
451.766	86.25
451.986	76.25
452.207	87.25
452.428	79.25
452.648	112.25
452.869	100.25
453.089	113.25
453.31	110.25
453.53	97.25
453.751	90.25
453.971	95.25
454.192	119.25
454.412	88.25
454.633	92.25
454.853	86.25
455.073	83.25
455.294	80.25
455.514	86.25
455.734	106.25
455.955	86.25
456.175	79.25
456.395	82.25
456.616	88.25
456.836	97.25
457.056	89.25
457.276	80.25
457.497	76.25
457.717	69.25
457.937	80.25
458.157	97.25
458.377	93.25
458.598	100.25
458.818	140.25
459.038	168.25
459.258	112.25
459.478	90.25
459.698	87.25
459.918	89.25
460.138	84.25
460.358	86.25
460.578	86.25
460.798	92.25
461.018	84.25
461.238	63.25
461.458	84.25
461.678	71.25
461.898	83.25
462.118	101.25
462.338	84.25
462.558	90.25
462.777	87.25
462.997	93.25
463.217	82.25
463.437	71.25
463.657	81.25
463.876	73.25
464.096	96.25
464.316	101.25
464.536	97.25
464.755	96.25
464.975	114.25
465.195	170.25
465.414	154.25
465.634	99.25
465.854	98.25
466.073	89.25
466.293	86.25
466.512	88.25
466.732	88.25
466.951	81.25
467.171	112.25
467.391	87.25
467.61	97.25
467.829	103.25
468.049	103.25
468.268	108.25
468.488	87.25
468.707	62.25
468.927	93.25
469.146	82.25
469.365	89.25
469.585	80.25
469.804	92.25
470.023	90.25
470.243	97.25
470.462	112.25
470.681	103.25
470.901	93.25
471.12	91.25
471.339	97.25
471.558	82.25
471.777	91.25
471.997	97.25
472.216	117.25
472.435	180.25
472.654	102.25
472.873	98.25
473.092	106.25
473.311	97.25
473.53	81.25
473.749	93.25
473.968	91.25
474.187	98.25
474.406	96.25
474.625	74.25
474.844	90.25
475.063	87.25
475.282	101.25
475.501	90.25
475.72	92.25
475.939	96.25
476.158	73.25
476.377	81.25
476.596	90.25
476.814	88.25
477.033	97.25
477.252	81.25
477.471	86.25
477.69	92.25
477.908	96.25
478.127	81.25
478.346	90.25
478.564	94.25
478.783	98.25
479.002	94.25
479.22	100.25
479.439	115.25
479.658	88.25
479.876	114.25
480.095	87.25
480.313	99.25
480.532	89.25
480.751	96.25
480.969	140.25
481.188	298.25
481.406	204.25
481.624	99.25
481.843	84.25
482.061	91.25
482.28	96.25
482.498	99.25
482.717	84.25
482.935	95.25
483.153	87.25
483.372	96.25
483.59	72.25
483.808	106.25
484.027	95.25
484.245	98.25
484.463	89.25
484.681	96.25
484.9	91.25
485.118	86.25
485.336	97.25
485.554	95.25
485.772	91.25
485.99	90.25
486.209	110.25
486.427	115.25
486.645	113.25
486.863	106.25
487.081	102.25
487.299	99.25
487.517	94.25
487.735	103.25
487.953	89.25
488.171	91.25
488.389	100.25
488.607	108.25
488.825	101.25
489.043	87.25
489.261	72.25
489.479	89.25
489.696	95.25
489.914	88.25
490.132	96.25
490.35	101.25
490.568	88.25
490.786	93.25
491.003	85.25
491.221	66.25
491.439	92.25
491.657	87.25
491.874	91.25
492.092	100.25
492.31	96.25
492.527	78.25
492.745	100.25
492.963	103.25
493.18	96.25
493.398	93.25
493.615	78.25
493.833	94.25
494.05	116.25
494.268	95.25
494.485	93.25
494.703	95.25
494.92	82.25
495.138	84.25
495.355	83.25
495.573	80.25
495.79	78.25
496.008	93.25
496.225	91.25
496.442	95.25
496.66	92.25
496.877	93.25
497.094	105.25
497.312	85.25
497.529	96.25
497.746	101.25
497.963	99.25
498.181	89.25
498.398	104.25
498.615	114.25
498.832	105.25
499.049	99.25
499.267	80.25
499.484	92.25
499.701	86.25
499.918	89.25
500.135	89.25
500.352	88.25
500.569	91.25
500.786	92.25
501.003	103.25
501.22	81.25
501.437	88.25
501.654	89.25
501.871	104.25
502.088	99.25
502.305	76.25
502.522	92.25
502.739	87.25
502.956	92.25
503.172	100.25
503.389	91.25
503.606	103.25
503.823	103.25
504.04	82.25
504.256	91.25
504.473	83.25
504.69	101.25
504.907	96.25
505.123	89.25
505.34	97.25
505.557	84.25
505.773	99.25
505.99	106.25
506.207	97.25
506.423	94.25
506.64	92.25
506.856	102.25
507.073	81.25
507.289	98.25
507.506	95.25
507.722	111.25
507.939	120.25
508.155	101.25
508.372	101.25
508.588	92.25
508.805	97.25
509.021	94.25
509.238	100.25
509.454	89.25
509.67	95.25
509.887	117.25
510.103	133.25
510.319	217.25
510.536	799.25
510.752	2669.25
510.968	762.25
511.184	163.25
511.401	101.25
511.617	99.25
511.833	91.25
512.049	85.25
512.265	107.25
512.481	92.25
512.698	98.25
512.914	92.25
513.13	91.25
513.346	92.25
513.562	95.25
513.778	97.25
513.994	102.25
514.21	95.25
514.426	120.25
514.642	131.25
514.858	129.25
515.074	166.25
