Data from Circ_2022_H10_HRD10591_00079.txt Node
Date: Wed Jan 03 09:53:53 EST 2024
User: Yrep
Spectrometer: HR+D1059
Trigger mode: 1
Integration Time (sec): 1.000000E-1
Scans to average: 1
Electric dark correction enabled: true
Nonlinearity correction enabled: false
Boxcar width: 0
XAxis mode: Wavelengths
Number of Pixels in Spectrum: 2048
>>>>>Begin Spectral Data<<<<<
223.165	-7.06
223.4	-7.06
223.635	-7.06
223.869	-24.06
224.104	-31.06
224.338	-16.06
224.573	-16.06
224.808	-18.06
225.042	0.94
225.277	-5.06
225.511	-6.06
225.746	1.94
225.98	14.94
226.215	15.94
226.449	4.94
226.683	19.94
226.918	24.94
227.152	39.94
227.387	30.94
227.621	48.94
227.856	43.94
228.09	47.94
228.324	51.94
228.559	48.94
228.793	39.94
229.027	73.94
229.262	72.94
229.496	87.94
229.73	90.94
229.964	88.94
230.199	73.94
230.433	80.94
230.667	57.94
230.901	81.94
231.136	79.94
231.37	70.94
231.604	84.94
231.838	74.94
232.072	75.94
232.306	70.94
232.541	80.94
232.775	84.94
233.009	83.94
233.243	82.94
233.477	73.94
233.711	76.94
233.945	86.94
234.179	71.94
234.413	77.94
234.647	89.94
234.881	80.94
235.115	60.94
235.349	85.94
235.583	79.94
235.817	83.94
236.051	92.94
236.285	86.94
236.519	75.94
236.753	72.94
236.987	77.94
237.221	89.94
237.455	84.94
237.689	74.94
237.922	76.94
238.156	78.94
238.39	71.94
238.624	82.94
238.858	84.94
239.091	76.94
239.325	85.94
239.559	86.94
239.793	69.94
240.027	80.94
240.26	85.94
240.494	78.94
240.728	63.94
240.961	62.94
241.195	75.94
241.429	60.94
241.662	85.94
241.896	74.94
242.13	76.94
242.363	65.94
242.597	72.94
242.83	73.94
243.064	79.94
243.298	70.94
243.531	73.94
243.765	82.94
243.998	80.94
244.232	74.94
244.465	80.94
244.699	82.94
244.932	88.94
245.166	81.94
245.399	90.94
245.633	79.94
245.866	79.94
246.099	82.94
246.333	72.94
246.566	66.94
246.8	78.94
247.033	70.94
247.266	70.94
247.5	67.94
247.733	83.94
247.966	86.94
248.2	69.94
248.433	84.94
248.666	79.94
248.899	80.94
249.133	80.94
249.366	100.94
249.599	107.94
249.832	85.94
250.066	74.94
250.299	85.94
250.532	89.94
250.765	80.94
250.998	78.94
251.231	80.94
251.465	70.94
251.698	81.94
251.931	82.94
252.164	87.94
252.397	80.94
252.63	64.94
252.863	80.94
253.096	76.94
253.329	81.94
253.562	83.94
253.795	88.94
254.028	75.94
254.261	76.94
254.494	72.94
254.727	91.94
254.96	78.94
255.193	78.94
255.426	88.94
255.659	81.94
255.892	92.94
256.124	84.94
256.357	84.94
256.59	83.94
256.823	82.94
257.056	79.94
257.289	92.94
257.521	91.94
257.754	79.94
257.987	85.94
258.22	97.94
258.452	73.94
258.685	83.94
258.918	80.94
259.151	87.94
259.383	76.94
259.616	81.94
259.849	69.94
260.081	75.94
260.314	82.94
260.547	84.94
260.779	99.94
261.012	89.94
261.244	80.94
261.477	95.94
261.71	100.94
261.942	135.94
262.175	144.94
262.407	96.94
262.64	80.94
262.872	84.94
263.105	92.94
263.337	88.94
263.57	90.94
263.802	86.94
264.035	84.94
264.267	79.94
264.499	82.94
264.732	88.94
264.964	86.94
265.197	83.94
265.429	94.94
265.661	102.94
265.894	85.94
266.126	94.94
266.358	96.94
266.591	86.94
266.823	78.94
267.055	91.94
267.287	80.94
267.52	99.94
267.752	83.94
267.984	73.94
268.216	79.94
268.448	76.94
268.681	76.94
268.913	77.94
269.145	86.94
269.377	88.94
269.609	82.94
269.841	74.94
270.073	83.94
270.306	73.94
270.538	76.94
270.77	92.94
271.002	76.94
271.234	113.94
271.466	80.94
271.698	73.94
271.93	90.94
272.162	80.94
272.394	94.94
272.626	69.94
272.858	77.94
273.09	80.94
273.322	82.94
273.553	84.94
273.785	88.94
274.017	91.94
274.249	101.94
274.481	82.94
274.713	84.94
274.945	79.94
275.176	79.94
275.408	86.94
275.64	98.94
275.872	95.94
276.104	78.94
276.335	104.94
276.567	113.94
276.799	121.94
277.031	124.94
277.262	102.94
277.494	98.94
277.726	79.94
277.957	97.94
278.189	82.94
278.421	86.94
278.652	81.94
278.884	108.94
279.115	80.94
279.347	94.94
279.579	95.94
279.81	86.94
280.042	106.94
280.273	97.94
280.505	91.94
280.736	96.94
280.968	101.94
281.199	90.94
281.431	75.94
281.662	70.94
281.894	83.94
282.125	110.94
282.356	127.94
282.588	170.94
282.819	132.94
283.051	104.94
283.282	85.94
283.513	91.94
283.745	87.94
283.976	83.94
284.207	96.94
284.439	94.94
284.67	92.94
284.901	74.94
285.132	95.94
285.364	88.94
285.595	102.94
285.826	76.94
286.057	98.94
286.288	88.94
286.52	79.94
286.751	87.94
286.982	87.94
287.213	83.94
287.444	80.94
287.675	87.94
287.906	91.94
288.138	94.94
288.369	91.94
288.6	102.94
288.831	83.94
289.062	96.94
289.293	89.94
289.524	92.94
289.755	88.94
289.986	74.94
290.217	77.94
290.448	84.94
290.679	89.94
290.91	74.94
291.141	98.94
291.371	95.94
291.602	91.94
291.833	78.94
292.064	91.94
292.295	82.94
292.526	91.94
292.757	81.94
292.987	74.94
293.218	81.94
293.449	89.94
293.68	83.94
293.91	102.94
294.141	80.94
294.372	84.94
294.603	89.94
294.833	81.94
295.064	87.94
295.295	90.94
295.525	106.94
295.756	97.94
295.987	122.94
296.217	176.94
296.448	160.94
296.679	94.94
296.909	94.94
297.14	85.94
297.37	91.94
297.601	74.94
297.831	86.94
298.062	84.94
298.292	95.94
298.523	88.94
298.753	80.94
298.984	97.94
299.214	87.94
299.445	97.94
299.675	98.94
299.905	101.94
300.136	88.94
300.366	82.94
300.597	87.94
300.827	97.94
301.057	105.94
301.288	120.94
301.518	103.94
301.748	90.94
301.979	103.94
302.209	84.94
302.439	78.94
302.669	83.94
302.9	83.94
303.13	100.94
303.36	113.94
303.59	90.94
303.82	126.94
304.051	97.94
304.281	88.94
304.511	89.94
304.741	101.94
304.971	79.94
305.201	78.94
305.431	85.94
305.661	92.94
305.891	98.94
306.121	95.94
306.352	113.94
306.582	115.94
306.812	110.94
307.042	101.94
307.272	105.94
307.502	102.94
307.731	96.94
307.961	83.94
308.191	95.94
308.421	95.94
308.651	87.94
308.881	94.94
309.111	92.94
309.341	87.94
309.571	105.94
309.8	110.94
310.03	88.94
310.26	112.94
310.49	96.94
310.72	114.94
310.949	107.94
311.179	105.94
311.409	111.94
311.639	101.94
311.868	103.94
312.098	85.94
312.328	95.94
312.557	111.94
312.787	121.94
313.017	97.94
313.246	90.94
313.476	96.94
313.706	88.94
313.935	100.94
314.165	110.94
314.394	111.94
314.624	93.94
314.853	104.94
315.083	92.94
315.312	86.94
315.542	88.94
315.771	89.94
316.001	101.94
316.23	98.94
316.46	89.94
316.689	84.94
316.919	90.94
317.148	110.94
317.377	102.94
317.607	114.94
317.836	114.94
318.065	83.94
318.295	77.94
318.524	101.94
318.753	88.94
318.983	106.94
319.212	106.94
319.441	104.94
319.67	124.94
319.9	99.94
320.129	102.94
320.358	86.94
320.587	103.94
320.816	99.94
321.046	111.94
321.275	105.94
321.504	95.94
321.733	99.94
321.962	115.94
322.191	99.94
322.42	107.94
322.649	118.94
322.878	118.94
323.108	118.94
323.337	139.94
323.566	146.94
323.795	175.94
324.024	278.94
324.253	487.94
324.482	1107.94
324.71	2279.94
324.939	3026.94
325.168	1107.94
325.397	317.94
325.626	162.94
325.855	132.94
326.084	128.94
326.313	139.94
326.542	174.94
326.77	266.94
326.999	564.94
327.228	1182.94
327.457	2187.94
327.686	1750.94
327.914	486.94
328.143	280.94
328.372	269.94
328.6	183.94
328.829	136.94
329.058	153.94
329.287	174.94
329.515	122.94
329.744	131.94
329.972	161.94
330.201	254.94
330.43	347.94
330.658	246.94
330.887	230.94
331.115	167.94
331.344	119.94
331.572	122.94
331.801	119.94
332.03	119.94
332.258	115.94
332.486	106.94
332.715	106.94
332.943	104.94
333.172	106.94
333.4	114.94
333.629	114.94
333.857	145.94
334.085	187.94
334.314	225.94
334.542	411.94
334.771	405.94
334.999	168.94
335.227	127.94
335.455	95.94
335.684	105.94
335.912	99.94
336.14	97.94
336.369	95.94
336.597	115.94
336.825	111.94
337.053	89.94
337.281	81.94
337.51	97.94
337.738	103.94
337.966	104.94
338.194	112.94
338.422	94.94
338.65	91.94
338.878	80.94
339.106	109.94
339.334	107.94
339.562	97.94
339.79	103.94
340.018	82.94
340.246	95.94
340.474	105.94
340.702	92.94
340.93	95.94
341.158	90.94
341.386	98.94
341.614	108.94
341.842	87.94
342.07	95.94
342.298	90.94
342.526	101.94
342.754	86.94
342.981	102.94
343.209	87.94
343.437	96.94
343.665	90.94
343.893	92.94
344.12	98.94
344.348	101.94
344.576	90.94
344.804	91.94
345.031	98.94
345.259	111.94
345.487	85.94
345.714	91.94
345.942	98.94
346.17	103.94
346.397	83.94
346.625	102.94
346.853	83.94
347.08	102.94
347.308	82.94
347.535	89.94
347.763	113.94
347.99	104.94
348.218	104.94
348.445	130.94
348.673	102.94
348.9	97.94
349.128	79.94
349.355	95.94
349.583	87.94
349.81	84.94
350.037	103.94
350.265	100.94
350.492	89.94
350.72	111.94
350.947	112.94
351.174	113.94
351.402	117.94
351.629	103.94
351.856	117.94
352.083	101.94
352.311	125.94
352.538	128.94
352.765	119.94
352.992	102.94
353.22	120.94
353.447	102.94
353.674	113.94
353.901	94.94
354.128	97.94
354.355	92.94
354.583	89.94
354.81	93.94
355.037	95.94
355.264	95.94
355.491	93.94
355.718	74.94
355.945	91.94
356.172	85.94
356.399	93.94
356.626	94.94
356.853	96.94
357.08	86.94
357.307	78.94
357.534	83.94
357.761	86.94
357.988	97.94
358.215	110.94
358.441	92.94
358.668	84.94
358.895	81.94
359.122	81.94
359.349	91.94
359.576	113.94
359.802	115.94
360.029	135.94
360.256	146.94
360.483	123.94
360.709	86.94
360.936	86.94
361.163	104.94
361.39	97.94
361.616	95.94
361.843	107.94
362.07	89.94
362.296	113.94
362.523	93.94
362.749	86.94
362.976	84.94
363.203	105.94
363.429	99.94
363.656	100.94
363.882	88.94
364.109	102.94
364.335	91.94
364.562	90.94
364.788	96.94
365.015	103.94
365.241	118.94
365.468	108.94
365.694	111.94
365.92	105.94
366.147	95.94
366.373	105.94
366.599	98.94
366.826	85.94
367.052	92.94
367.278	96.94
367.505	92.94
367.731	99.94
367.957	100.94
368.184	106.94
368.41	113.94
368.636	111.94
368.862	124.94
369.089	120.94
369.315	101.94
369.541	108.94
369.767	105.94
369.993	102.94
370.219	105.94
370.445	94.94
370.672	81.94
370.898	75.94
371.124	77.94
371.35	79.94
371.576	78.94
371.802	87.94
372.028	90.94
372.254	82.94
372.48	85.94
372.706	86.94
372.932	85.94
373.158	93.94
373.384	84.94
373.61	87.94
373.835	79.94
374.061	97.94
374.287	91.94
374.513	97.94
374.739	90.94
374.965	94.94
375.191	93.94
375.416	90.94
375.642	78.94
375.868	82.94
376.094	94.94
376.319	80.94
376.545	88.94
376.771	88.94
376.997	104.94
377.222	92.94
377.448	90.94
377.674	76.94
377.899	89.94
378.125	95.94
378.35	75.94
378.576	95.94
378.802	103.94
379.027	96.94
379.253	87.94
379.478	96.94
379.704	88.94
379.929	90.94
380.155	92.94
380.38	86.94
380.606	85.94
380.831	96.94
381.057	100.94
381.282	92.94
381.507	92.94
381.733	82.94
381.958	95.94
382.184	101.94
382.409	99.94
382.634	100.94
382.86	108.94
383.085	92.94
383.31	98.94
383.535	102.94
383.761	97.94
383.986	107.94
384.211	85.94
384.436	89.94
384.662	89.94
384.887	96.94
385.112	89.94
385.337	110.94
385.562	98.94
385.787	95.94
386.013	91.94
386.238	124.94
386.463	106.94
386.688	116.94
386.913	107.94
387.138	110.94
387.363	117.94
387.588	114.94
387.813	102.94
388.038	107.94
388.263	105.94
388.488	94.94
388.713	87.94
388.938	84.94
389.163	91.94
389.387	111.94
389.612	87.94
389.837	91.94
390.062	101.94
390.287	97.94
390.512	95.94
390.736	96.94
390.961	88.94
391.186	106.94
391.411	97.94
391.636	91.94
391.86	71.94
392.085	78.94
392.31	85.94
392.534	85.94
392.759	93.94
392.984	87.94
393.208	79.94
393.433	101.94
393.658	90.94
393.882	94.94
394.107	90.94
394.331	80.94
394.556	85.94
394.78	87.94
395.005	84.94
395.229	82.94
395.454	81.94
395.678	91.94
395.903	93.94
396.127	97.94
396.352	105.94
396.576	71.94
396.801	91.94
397.025	88.94
397.249	90.94
397.474	76.94
397.698	91.94
397.922	88.94
398.147	101.94
398.371	84.94
398.595	102.94
398.82	77.94
399.044	80.94
399.268	77.94
399.492	83.94
399.717	86.94
399.941	89.94
400.165	84.94
400.389	79.94
400.613	81.94
400.837	97.94
401.062	86.94
401.286	92.94
401.51	105.94
401.734	92.94
401.958	106.94
402.182	136.94
402.406	198.94
402.63	154.94
402.854	87.94
403.078	87.94
403.302	95.94
403.526	84.94
403.75	97.94
403.974	82.94
404.198	99.94
404.422	90.94
404.645	100.94
404.869	98.94
405.093	112.94
405.317	135.94
405.541	102.94
405.765	130.94
405.988	136.94
406.212	215.94
406.436	314.94
406.66	201.94
406.883	121.94
407.107	94.94
407.331	92.94
407.555	106.94
407.778	111.94
408.002	115.94
408.226	80.94
408.449	93.94
408.673	82.94
408.896	90.94
409.12	94.94
409.344	74.94
409.567	94.94
409.791	82.94
410.014	86.94
410.238	84.94
410.461	92.94
410.685	96.94
410.908	97.94
411.132	111.94
411.355	98.94
411.578	100.94
411.802	95.94
412.025	86.94
412.249	99.94
412.472	96.94
412.695	102.94
412.919	90.94
413.142	87.94
413.365	90.94
413.589	86.94
413.812	88.94
414.035	83.94
414.258	85.94
414.482	86.94
414.705	87.94
414.928	85.94
415.151	101.94
415.374	76.94
415.597	95.94
415.821	86.94
416.044	98.94
416.267	90.94
416.49	83.94
416.713	93.94
416.936	93.94
417.159	79.94
417.382	78.94
417.605	88.94
417.828	101.94
418.051	82.94
418.274	70.94
418.497	73.94
418.72	90.94
418.943	96.94
419.166	86.94
419.389	94.94
419.611	87.94
419.834	78.94
420.057	95.94
420.28	80.94
420.503	86.94
420.726	90.94
420.948	75.94
421.171	96.94
421.394	110.94
421.617	92.94
421.839	76.94
422.062	99.94
422.285	103.94
422.507	106.94
422.73	104.94
422.953	100.94
423.175	111.94
423.398	89.94
423.621	92.94
423.843	75.94
424.066	89.94
424.288	80.94
424.511	105.94
424.733	106.94
424.956	122.94
425.178	98.94
425.401	110.94
425.623	108.94
425.846	96.94
426.068	91.94
426.291	90.94
426.513	102.94
426.735	97.94
426.958	111.94
427.18	124.94
427.402	177.94
427.625	216.94
427.847	182.94
428.069	142.94
428.292	113.94
428.514	90.94
428.736	78.94
428.958	84.94
429.181	82.94
429.403	102.94
429.625	99.94
429.847	98.94
430.069	90.94
430.292	99.94
430.514	89.94
430.736	87.94
430.958	86.94
431.18	67.94
431.402	80.94
431.624	100.94
431.846	95.94
432.068	84.94
432.29	81.94
432.512	79.94
432.734	88.94
432.956	92.94
433.178	123.94
433.4	99.94
433.622	94.94
433.844	99.94
434.066	98.94
434.287	107.94
434.509	90.94
434.731	93.94
434.953	95.94
435.175	87.94
435.397	89.94
435.618	91.94
435.84	100.94
436.062	148.94
436.284	112.94
436.505	108.94
436.727	115.94
436.949	104.94
437.17	86.94
437.392	95.94
437.614	105.94
437.835	115.94
438.057	144.94
438.278	119.94
438.5	121.94
438.721	148.94
438.943	110.94
439.165	91.94
439.386	96.94
439.608	105.94
439.829	111.94
440.05	142.94
440.272	178.94
440.493	123.94
440.715	97.94
440.936	87.94
441.158	91.94
441.379	75.94
441.6	97.94
441.822	91.94
442.043	104.94
442.264	132.94
442.486	124.94
442.707	107.94
442.928	131.94
443.149	165.94
443.371	169.94
443.592	134.94
443.813	123.94
444.034	113.94
444.255	84.94
444.476	95.94
444.698	93.94
444.919	84.94
445.14	147.94
445.361	131.94
445.582	143.94
445.803	180.94
446.024	166.94
446.245	164.94
446.466	130.94
446.687	87.94
446.908	87.94
447.129	98.94
447.35	91.94
447.571	92.94
447.792	110.94
448.013	110.94
448.234	119.94
448.455	114.94
448.675	135.94
448.896	129.94
449.117	101.94
449.338	104.94
449.559	146.94
449.779	151.94
450	97.94
450.221	99.94
450.442	107.94
450.662	98.94
450.883	115.94
451.104	132.94
451.324	102.94
451.545	85.94
451.766	82.94
451.986	85.94
452.207	93.94
452.428	95.94
452.648	103.94
452.869	137.94
453.089	135.94
453.31	156.94
453.53	118.94
453.751	99.94
453.971	130.94
454.192	132.94
454.412	90.94
454.633	88.94
454.853	94.94
455.073	79.94
455.294	92.94
455.514	119.94
455.734	96.94
455.955	83.94
456.175	88.94
456.395	81.94
456.616	86.94
456.836	89.94
457.056	84.94
457.276	83.94
457.497	86.94
457.717	94.94
457.937	84.94
458.157	100.94
458.377	104.94
458.598	128.94
458.818	201.94
459.038	217.94
459.258	158.94
459.478	92.94
459.698	100.94
459.918	91.94
460.138	91.94
460.358	91.94
460.578	86.94
460.798	87.94
461.018	78.94
461.238	97.94
461.458	101.94
461.678	83.94
461.898	83.94
462.118	91.94
462.338	76.94
462.558	85.94
462.777	83.94
462.997	95.94
463.217	86.94
463.437	86.94
463.657	80.94
463.876	96.94
464.096	87.94
464.316	92.94
464.536	110.94
464.755	97.94
464.975	115.94
465.195	227.94
465.414	232.94
465.634	115.94
465.854	76.94
466.073	75.94
466.293	76.94
466.512	85.94
466.732	80.94
466.951	93.94
467.171	91.94
467.391	105.94
467.61	107.94
467.829	122.94
468.049	172.94
468.268	210.94
468.488	103.94
468.707	88.94
468.927	89.94
469.146	93.94
469.365	89.94
469.585	90.94
469.804	100.94
470.023	103.94
470.243	89.94
470.462	104.94
470.681	124.94
470.901	114.94
471.12	85.94
471.339	103.94
471.558	103.94
471.777	96.94
471.997	112.94
472.216	282.94
472.435	530.94
472.654	187.94
472.873	91.94
473.092	99.94
473.311	76.94
473.53	81.94
473.749	94.94
473.968	90.94
474.187	105.94
474.406	108.94
474.625	112.94
474.844	87.94
475.063	86.94
475.282	85.94
475.501	90.94
475.72	100.94
475.939	92.94
476.158	87.94
476.377	94.94
476.596	82.94
476.814	105.94
477.033	102.94
477.252	82.94
477.471	101.94
477.69	105.94
477.908	90.94
478.127	106.94
478.346	95.94
478.564	90.94
478.783	110.94
479.002	86.94
479.22	108.94
479.439	126.94
479.658	127.94
479.876	116.94
480.095	110.94
480.313	113.94
480.532	107.94
480.751	108.94
480.969	260.94
481.188	857.94
481.406	607.94
481.624	138.94
481.843	98.94
482.061	87.94
482.28	97.94
482.498	104.94
482.717	97.94
482.935	94.94
483.153	93.94
483.372	88.94
483.59	91.94
483.808	102.94
484.027	92.94
484.245	88.94
484.463	89.94
484.681	97.94
484.9	90.94
485.118	77.94
485.336	100.94
485.554	92.94
485.772	95.94
485.99	97.94
486.209	99.94
486.427	119.94
486.645	105.94
486.863	131.94
487.081	107.94
487.299	100.94
487.517	99.94
487.735	84.94
487.953	97.94
488.171	80.94
488.389	97.94
488.607	94.94
488.825	80.94
489.043	93.94
489.261	100.94
489.479	98.94
489.696	86.94
489.914	93.94
490.132	73.94
490.35	92.94
490.568	84.94
490.786	91.94
491.003	95.94
491.221	86.94
491.439	79.94
491.657	83.94
491.874	105.94
492.092	87.94
492.31	105.94
492.527	80.94
492.745	83.94
492.963	95.94
493.18	98.94
493.398	85.94
493.615	101.94
493.833	88.94
494.05	76.94
494.268	90.94
494.485	81.94
494.703	96.94
494.92	82.94
495.138	95.94
495.355	91.94
495.573	85.94
495.79	83.94
496.008	95.94
496.225	91.94
496.442	79.94
496.66	100.94
496.877	91.94
497.094	102.94
497.312	103.94
497.529	94.94
497.746	98.94
497.963	107.94
498.181	93.94
498.398	86.94
498.615	106.94
498.832	105.94
499.049	100.94
499.267	106.94
499.484	86.94
499.701	100.94
499.918	96.94
500.135	85.94
500.352	90.94
500.569	95.94
500.786	88.94
501.003	82.94
501.22	83.94
501.437	86.94
501.654	98.94
501.871	120.94
502.088	91.94
502.305	91.94
502.522	89.94
502.739	85.94
502.956	96.94
503.172	107.94
503.389	100.94
503.606	135.94
503.823	107.94
504.04	90.94
504.256	80.94
504.473	91.94
504.69	80.94
504.907	88.94
505.123	103.94
505.34	88.94
505.557	89.94
505.773	93.94
505.99	98.94
506.207	93.94
506.423	84.94
506.64	106.94
506.856	94.94
507.073	100.94
507.289	96.94
507.506	93.94
507.722	139.94
507.939	135.94
508.155	111.94
508.372	84.94
508.588	92.94
508.805	105.94
509.021	96.94
509.238	105.94
509.454	97.94
509.67	112.94
509.887	124.94
510.103	127.94
510.319	256.94
510.536	1011.94
510.752	3522.94
510.968	984.94
511.184	199.94
511.401	138.94
511.617	121.94
511.833	100.94
512.049	90.94
512.265	87.94
512.481	93.94
512.698	90.94
512.914	101.94
513.13	103.94
513.346	87.94
513.562	106.94
513.778	92.94
513.994	99.94
