Data from Circ_2022_H10_HRD10591_00096.txt Node
Date: Wed Jan 03 09:53:56 EST 2024
User: Yrep
Spectrometer: HR+D1059
Trigger mode: 1
Integration Time (sec): 1.000000E-1
Scans to average: 1
Electric dark correction enabled: true
Nonlinearity correction enabled: false
Boxcar width: 0
XAxis mode: Wavelengths
Number of Pixels in Spectrum: 2048
>>>>>Begin Spectral Data<<<<<
223.165	-19.25
223.4	-19.25
223.635	-19.25
223.869	-11.25
224.104	-25.25
224.338	-21.25
224.573	-19.25
224.808	-13.25
225.042	-10.25
225.277	-9.25
225.511	-0.25
225.746	8.75
225.98	13.75
226.215	6.75
226.449	14.75
226.683	16.75
226.918	28.75
227.152	39.75
227.387	38.75
227.621	24.75
227.856	27.75
228.09	46.75
228.324	56.75
228.559	48.75
228.793	67.75
229.027	54.75
229.262	68.75
229.496	70.75
229.73	86.75
229.964	90.75
230.199	71.75
230.433	82.75
230.667	82.75
230.901	87.75
231.136	68.75
231.37	80.75
231.604	66.75
231.838	78.75
232.072	56.75
232.306	81.75
232.541	84.75
232.775	83.75
233.009	65.75
233.243	80.75
233.477	89.75
233.711	70.75
233.945	66.75
234.179	73.75
234.413	87.75
234.647	86.75
234.881	82.75
235.115	71.75
235.349	63.75
235.583	90.75
235.817	80.75
236.051	81.75
236.285	72.75
236.519	81.75
236.753	77.75
236.987	87.75
237.221	84.75
237.455	79.75
237.689	73.75
237.922	68.75
238.156	80.75
238.39	85.75
238.624	76.75
238.858	69.75
239.091	73.75
239.325	68.75
239.559	84.75
239.793	85.75
240.027	68.75
240.26	80.75
240.494	76.75
240.728	65.75
240.961	74.75
241.195	80.75
241.429	79.75
241.662	80.75
241.896	68.75
242.13	74.75
242.363	80.75
242.597	75.75
242.83	77.75
243.064	75.75
243.298	77.75
243.531	76.75
243.765	74.75
243.998	80.75
244.232	72.75
244.465	77.75
244.699	74.75
244.932	83.75
245.166	66.75
245.399	74.75
245.633	82.75
245.866	72.75
246.099	73.75
246.333	81.75
246.566	74.75
246.8	73.75
247.033	71.75
247.266	72.75
247.5	76.75
247.733	86.75
247.966	58.75
248.2	76.75
248.433	67.75
248.666	78.75
248.899	85.75
249.133	87.75
249.366	96.75
249.599	101.75
249.832	70.75
250.066	79.75
250.299	72.75
250.532	77.75
250.765	81.75
250.998	72.75
251.231	71.75
251.465	70.75
251.698	80.75
251.931	76.75
252.164	75.75
252.397	82.75
252.63	58.75
252.863	86.75
253.096	76.75
253.329	81.75
253.562	87.75
253.795	81.75
254.028	84.75
254.261	72.75
254.494	72.75
254.727	87.75
254.96	87.75
255.193	81.75
255.426	86.75
255.659	86.75
255.892	76.75
256.124	82.75
256.357	92.75
256.59	84.75
256.823	71.75
257.056	74.75
257.289	80.75
257.521	84.75
257.754	92.75
257.987	78.75
258.22	83.75
258.452	77.75
258.685	76.75
258.918	82.75
259.151	67.75
259.383	81.75
259.616	81.75
259.849	84.75
260.081	86.75
260.314	76.75
260.547	78.75
260.779	87.75
261.012	90.75
261.244	91.75
261.477	88.75
261.71	101.75
261.942	112.75
262.175	140.75
262.407	92.75
262.64	95.75
262.872	82.75
263.105	73.75
263.337	89.75
263.57	74.75
263.802	84.75
264.035	72.75
264.267	73.75
264.499	79.75
264.732	87.75
264.964	102.75
265.197	70.75
265.429	80.75
265.661	84.75
265.894	64.75
266.126	85.75
266.358	92.75
266.591	72.75
266.823	72.75
267.055	71.75
267.287	77.75
267.52	66.75
267.752	75.75
267.984	95.75
268.216	85.75
268.448	78.75
268.681	89.75
268.913	83.75
269.145	78.75
269.377	81.75
269.609	83.75
269.841	96.75
270.073	72.75
270.306	81.75
270.538	79.75
270.77	85.75
271.002	81.75
271.234	91.75
271.466	89.75
271.698	88.75
271.93	80.75
272.162	88.75
272.394	77.75
272.626	74.75
272.858	87.75
273.09	86.75
273.322	89.75
273.553	86.75
273.785	84.75
274.017	91.75
274.249	80.75
274.481	99.75
274.713	73.75
274.945	94.75
275.176	96.75
275.408	77.75
275.64	90.75
275.872	93.75
276.104	85.75
276.335	95.75
276.567	103.75
276.799	136.75
277.031	117.75
277.262	92.75
277.494	92.75
277.726	99.75
277.957	91.75
278.189	84.75
278.421	86.75
278.652	80.75
278.884	69.75
279.115	93.75
279.347	98.75
279.579	87.75
279.81	97.75
280.042	95.75
280.273	120.75
280.505	96.75
280.736	80.75
280.968	81.75
281.199	82.75
281.431	81.75
281.662	74.75
281.894	82.75
282.125	97.75
282.356	126.75
282.588	172.75
282.819	129.75
283.051	95.75
283.282	78.75
283.513	72.75
283.745	64.75
283.976	94.75
284.207	84.75
284.439	85.75
284.67	85.75
284.901	81.75
285.132	85.75
285.364	72.75
285.595	85.75
285.826	74.75
286.057	84.75
286.288	101.75
286.52	86.75
286.751	92.75
286.982	70.75
287.213	86.75
287.444	78.75
287.675	77.75
287.906	82.75
288.138	88.75
288.369	98.75
288.6	93.75
288.831	95.75
289.062	76.75
289.293	93.75
289.524	81.75
289.755	79.75
289.986	76.75
290.217	78.75
290.448	86.75
290.679	79.75
290.91	71.75
291.141	81.75
291.371	89.75
291.602	79.75
291.833	83.75
292.064	92.75
292.295	89.75
292.526	89.75
292.757	78.75
292.987	85.75
293.218	82.75
293.449	87.75
293.68	74.75
293.91	87.75
294.141	80.75
294.372	86.75
294.603	83.75
294.833	79.75
295.064	90.75
295.295	93.75
295.525	83.75
295.756	105.75
295.987	141.75
296.217	172.75
296.448	149.75
296.679	111.75
296.909	88.75
297.14	83.75
297.37	99.75
297.601	73.75
297.831	76.75
298.062	92.75
298.292	87.75
298.523	95.75
298.753	76.75
298.984	85.75
299.214	88.75
299.445	87.75
299.675	100.75
299.905	102.75
300.136	88.75
300.366	80.75
300.597	100.75
300.827	84.75
301.057	110.75
301.288	117.75
301.518	104.75
301.748	80.75
301.979	80.75
302.209	98.75
302.439	87.75
302.669	102.75
302.9	88.75
303.13	94.75
303.36	96.75
303.59	103.75
303.82	125.75
304.051	101.75
304.281	89.75
304.511	91.75
304.741	87.75
304.971	86.75
305.201	103.75
305.431	99.75
305.661	94.75
305.891	93.75
306.121	101.75
306.352	106.75
306.582	110.75
306.812	92.75
307.042	90.75
307.272	123.75
307.502	132.75
307.731	106.75
307.961	95.75
308.191	99.75
308.421	94.75
308.651	93.75
308.881	88.75
309.111	96.75
309.341	73.75
309.571	101.75
309.8	97.75
310.03	88.75
310.26	92.75
310.49	95.75
310.72	109.75
310.949	124.75
311.179	112.75
311.409	101.75
311.639	104.75
311.868	98.75
312.098	96.75
312.328	114.75
312.557	120.75
312.787	128.75
313.017	104.75
313.246	93.75
313.476	92.75
313.706	88.75
313.935	87.75
314.165	100.75
314.394	112.75
314.624	101.75
314.853	99.75
315.083	96.75
315.312	105.75
315.542	84.75
315.771	96.75
316.001	100.75
316.23	92.75
316.46	90.75
316.689	99.75
316.919	107.75
317.148	101.75
317.377	89.75
317.607	98.75
317.836	93.75
318.065	90.75
318.295	99.75
318.524	79.75
318.753	78.75
318.983	96.75
319.212	90.75
319.441	108.75
319.67	116.75
319.9	104.75
320.129	85.75
320.358	98.75
320.587	104.75
320.816	108.75
321.046	121.75
321.275	92.75
321.504	97.75
321.733	95.75
321.962	86.75
322.191	100.75
322.42	118.75
322.649	140.75
322.878	115.75
323.108	129.75
323.337	145.75
323.566	166.75
323.795	178.75
324.024	278.75
324.253	532.75
324.482	1205.75
324.71	2460.75
324.939	3237.75
325.168	1181.75
325.397	316.75
325.626	184.75
325.855	170.75
326.084	141.75
326.313	156.75
326.542	189.75
326.77	292.75
326.999	592.75
327.228	1263.75
327.457	2354.75
327.686	1880.75
327.914	536.75
328.143	314.75
328.372	278.75
328.6	208.75
328.829	145.75
329.058	150.75
329.287	181.75
329.515	136.75
329.744	130.75
329.972	172.75
330.201	283.75
330.43	420.75
330.658	258.75
330.887	216.75
331.115	164.75
331.344	103.75
331.572	103.75
331.801	124.75
332.03	118.75
332.258	107.75
332.486	96.75
332.715	108.75
332.943	96.75
333.172	106.75
333.4	117.75
333.629	131.75
333.857	154.75
334.085	198.75
334.314	281.75
334.542	488.75
334.771	478.75
334.999	182.75
335.227	118.75
335.455	93.75
335.684	100.75
335.912	95.75
336.14	89.75
336.369	109.75
336.597	111.75
336.825	104.75
337.053	88.75
337.281	79.75
337.51	82.75
337.738	94.75
337.966	101.75
338.194	101.75
338.422	93.75
338.65	94.75
338.878	90.75
339.106	79.75
339.334	98.75
339.562	100.75
339.79	93.75
340.018	102.75
340.246	88.75
340.474	113.75
340.702	85.75
340.93	84.75
341.158	79.75
341.386	102.75
341.614	116.75
341.842	109.75
342.07	86.75
342.298	89.75
342.526	80.75
342.754	96.75
342.981	94.75
343.209	101.75
343.437	115.75
343.665	85.75
343.893	87.75
344.12	89.75
344.348	97.75
344.576	71.75
344.804	94.75
345.031	97.75
345.259	115.75
345.487	108.75
345.714	93.75
345.942	91.75
346.17	95.75
346.397	105.75
346.625	99.75
346.853	94.75
347.08	92.75
347.308	78.75
347.535	101.75
347.763	116.75
347.99	94.75
348.218	92.75
348.445	124.75
348.673	93.75
348.9	87.75
349.128	90.75
349.355	89.75
349.583	88.75
349.81	81.75
350.037	93.75
350.265	88.75
350.492	81.75
350.72	92.75
350.947	100.75
351.174	109.75
351.402	136.75
351.629	98.75
351.856	111.75
352.083	112.75
352.311	102.75
352.538	119.75
352.765	119.75
352.992	117.75
353.22	105.75
353.447	111.75
353.674	100.75
353.901	102.75
354.128	104.75
354.355	73.75
354.583	101.75
354.81	105.75
355.037	82.75
355.264	92.75
355.491	96.75
355.718	95.75
355.945	99.75
356.172	103.75
356.399	87.75
356.626	78.75
356.853	92.75
357.08	89.75
357.307	82.75
357.534	89.75
357.761	81.75
357.988	80.75
358.215	86.75
358.441	80.75
358.668	77.75
358.895	93.75
359.122	89.75
359.349	84.75
359.576	108.75
359.802	131.75
360.029	131.75
360.256	122.75
360.483	122.75
360.709	87.75
360.936	98.75
361.163	95.75
361.39	96.75
361.616	94.75
361.843	89.75
362.07	92.75
362.296	104.75
362.523	94.75
362.749	90.75
362.976	96.75
363.203	109.75
363.429	98.75
363.656	116.75
363.882	98.75
364.109	78.75
364.335	95.75
364.562	93.75
364.788	95.75
365.015	93.75
365.241	105.75
365.468	96.75
365.694	100.75
365.92	109.75
366.147	81.75
366.373	86.75
366.599	88.75
366.826	96.75
367.052	82.75
367.278	95.75
367.505	85.75
367.731	78.75
367.957	83.75
368.184	88.75
368.41	87.75
368.636	108.75
368.862	155.75
369.089	132.75
369.315	106.75
369.541	96.75
369.767	102.75
369.993	118.75
370.219	76.75
370.445	87.75
370.672	80.75
370.898	86.75
371.124	81.75
371.35	81.75
371.576	88.75
371.802	82.75
372.028	89.75
372.254	90.75
372.48	88.75
372.706	88.75
372.932	95.75
373.158	84.75
373.384	94.75
373.61	82.75
373.835	97.75
374.061	89.75
374.287	88.75
374.513	84.75
374.739	99.75
374.965	97.75
375.191	76.75
375.416	98.75
375.642	80.75
375.868	84.75
376.094	72.75
376.319	76.75
376.545	94.75
376.771	98.75
376.997	93.75
377.222	92.75
377.448	95.75
377.674	84.75
377.899	79.75
378.125	87.75
378.35	108.75
378.576	86.75
378.802	96.75
379.027	94.75
379.253	98.75
379.478	99.75
379.704	112.75
379.929	101.75
380.155	87.75
380.38	102.75
380.606	92.75
380.831	85.75
381.057	81.75
381.282	85.75
381.507	89.75
381.733	97.75
381.958	95.75
382.184	112.75
382.409	112.75
382.634	89.75
382.86	92.75
383.085	90.75
383.31	104.75
383.535	91.75
383.761	97.75
383.986	96.75
384.211	81.75
384.436	100.75
384.662	86.75
384.887	82.75
385.112	88.75
385.337	84.75
385.562	88.75
385.787	103.75
386.013	101.75
386.238	106.75
386.463	116.75
386.688	103.75
386.913	89.75
387.138	96.75
387.363	101.75
387.588	103.75
387.813	100.75
388.038	92.75
388.263	108.75
388.488	94.75
388.713	99.75
388.938	95.75
389.163	73.75
389.387	97.75
389.612	83.75
389.837	73.75
390.062	101.75
390.287	90.75
390.512	85.75
390.736	68.75
390.961	96.75
391.186	98.75
391.411	87.75
391.636	90.75
391.86	80.75
392.085	88.75
392.31	81.75
392.534	89.75
392.759	92.75
392.984	88.75
393.208	85.75
393.433	84.75
393.658	90.75
393.882	83.75
394.107	86.75
394.331	82.75
394.556	88.75
394.78	81.75
395.005	93.75
395.229	73.75
395.454	88.75
395.678	95.75
395.903	89.75
396.127	94.75
396.352	85.75
396.576	88.75
396.801	67.75
397.025	90.75
397.249	96.75
397.474	83.75
397.698	90.75
397.922	71.75
398.147	99.75
398.371	91.75
398.595	72.75
398.82	73.75
399.044	90.75
399.268	80.75
399.492	94.75
399.717	89.75
399.941	83.75
400.165	81.75
400.389	84.75
400.613	82.75
400.837	83.75
401.062	87.75
401.286	80.75
401.51	92.75
401.734	86.75
401.958	118.75
402.182	163.75
402.406	223.75
402.63	160.75
402.854	87.75
403.078	82.75
403.302	89.75
403.526	94.75
403.75	92.75
403.974	80.75
404.198	89.75
404.422	71.75
404.645	79.75
404.869	93.75
405.093	110.75
405.317	104.75
405.541	126.75
405.765	116.75
405.988	147.75
406.212	222.75
406.436	360.75
406.66	222.75
406.883	124.75
407.107	104.75
407.331	94.75
407.555	113.75
407.778	102.75
408.002	101.75
408.226	85.75
408.449	87.75
408.673	93.75
408.896	106.75
409.12	103.75
409.344	90.75
409.567	80.75
409.791	81.75
410.014	90.75
410.238	76.75
410.461	82.75
410.685	80.75
410.908	99.75
411.132	93.75
411.355	78.75
411.578	98.75
411.802	98.75
412.025	95.75
412.249	81.75
412.472	104.75
412.695	90.75
412.919	92.75
413.142	109.75
413.365	85.75
413.589	91.75
413.812	89.75
414.035	85.75
414.258	81.75
414.482	98.75
414.705	93.75
414.928	83.75
415.151	80.75
415.374	81.75
415.597	90.75
415.821	81.75
416.044	80.75
416.267	92.75
416.49	88.75
416.713	73.75
416.936	94.75
417.159	77.75
417.382	83.75
417.605	92.75
417.828	89.75
418.051	93.75
418.274	78.75
418.497	83.75
418.72	82.75
418.943	93.75
419.166	85.75
419.389	94.75
419.611	85.75
419.834	91.75
420.057	89.75
420.28	89.75
420.503	85.75
420.726	91.75
420.948	81.75
421.171	99.75
421.394	112.75
421.617	78.75
421.839	92.75
422.062	78.75
422.285	91.75
422.507	108.75
422.73	105.75
422.953	88.75
423.175	92.75
423.398	89.75
423.621	86.75
423.843	85.75
424.066	101.75
424.288	76.75
424.511	100.75
424.733	105.75
424.956	108.75
425.178	113.75
425.401	97.75
425.623	92.75
425.846	98.75
426.068	91.75
426.291	97.75
426.513	106.75
426.735	92.75
426.958	87.75
427.18	92.75
427.402	174.75
427.625	252.75
427.847	196.75
428.069	156.75
428.292	99.75
428.514	78.75
428.736	87.75
428.958	76.75
429.181	77.75
429.403	65.75
429.625	92.75
429.847	104.75
430.069	106.75
430.292	105.75
430.514	75.75
430.736	103.75
430.958	87.75
431.18	71.75
431.402	74.75
431.624	71.75
431.846	92.75
432.068	87.75
432.29	76.75
432.512	80.75
432.734	83.75
432.956	81.75
433.178	102.75
433.4	113.75
433.622	89.75
433.844	85.75
434.066	93.75
434.287	88.75
434.509	79.75
434.731	82.75
434.953	96.75
435.175	86.75
435.397	93.75
435.618	89.75
435.84	106.75
436.062	140.75
436.284	132.75
436.505	97.75
436.727	94.75
436.949	100.75
437.17	87.75
437.392	87.75
437.614	105.75
437.835	122.75
438.057	157.75
438.278	127.75
438.5	110.75
438.721	124.75
438.943	106.75
439.165	80.75
439.386	92.75
439.608	89.75
439.829	108.75
440.05	144.75
440.272	172.75
440.493	116.75
440.715	87.75
440.936	87.75
441.158	95.75
441.379	90.75
441.6	116.75
441.822	112.75
442.043	94.75
442.264	113.75
442.486	123.75
442.707	102.75
442.928	118.75
443.149	166.75
443.371	182.75
443.592	137.75
443.813	136.75
444.034	103.75
444.255	81.75
444.476	84.75
444.698	74.75
444.919	81.75
445.14	136.75
445.361	126.75
445.582	136.75
445.803	161.75
446.024	187.75
446.245	156.75
446.466	122.75
446.687	94.75
446.908	100.75
447.129	105.75
447.35	92.75
447.571	92.75
447.792	108.75
448.013	120.75
448.234	114.75
448.455	110.75
448.675	134.75
448.896	134.75
449.117	79.75
449.338	105.75
449.559	125.75
449.779	151.75
450	98.75
450.221	84.75
450.442	73.75
450.662	90.75
450.883	119.75
451.104	127.75
451.324	101.75
451.545	89.75
451.766	87.75
451.986	72.75
452.207	78.75
452.428	92.75
452.648	98.75
452.869	129.75
453.089	138.75
453.31	143.75
453.53	82.75
453.751	103.75
453.971	102.75
454.192	129.75
454.412	107.75
454.633	92.75
454.853	83.75
455.073	84.75
455.294	86.75
455.514	101.75
455.734	82.75
455.955	84.75
456.175	85.75
456.395	76.75
456.616	82.75
456.836	100.75
457.056	89.75
457.276	72.75
457.497	81.75
457.717	73.75
457.937	77.75
458.157	97.75
458.377	96.75
458.598	130.75
458.818	216.75
459.038	229.75
459.258	151.75
459.478	99.75
459.698	77.75
459.918	74.75
460.138	86.75
460.358	92.75
460.578	85.75
460.798	83.75
461.018	83.75
461.238	86.75
461.458	64.75
461.678	80.75
461.898	91.75
462.118	77.75
462.338	85.75
462.558	86.75
462.777	78.75
462.997	69.75
463.217	86.75
463.437	83.75
463.657	83.75
463.876	93.75
464.096	85.75
464.316	106.75
464.536	85.75
464.755	101.75
464.975	125.75
465.195	230.75
465.414	229.75
465.634	99.75
465.854	98.75
466.073	81.75
466.293	95.75
466.512	82.75
466.732	93.75
466.951	89.75
467.171	103.75
467.391	104.75
467.61	112.75
467.829	123.75
468.049	169.75
468.268	228.75
468.488	109.75
468.707	89.75
468.927	80.75
469.146	88.75
469.365	89.75
469.585	77.75
469.804	98.75
470.023	110.75
470.243	96.75
470.462	128.75
470.681	131.75
470.901	94.75
471.12	94.75
471.339	78.75
471.558	94.75
471.777	103.75
471.997	140.75
472.216	303.75
472.435	615.75
472.654	188.75
472.873	108.75
473.092	94.75
473.311	80.75
473.53	93.75
473.749	88.75
473.968	97.75
474.187	104.75
474.406	113.75
474.625	76.75
474.844	85.75
475.063	72.75
475.282	101.75
475.501	110.75
475.72	95.75
475.939	85.75
476.158	74.75
476.377	80.75
476.596	86.75
476.814	100.75
477.033	92.75
477.252	86.75
477.471	81.75
477.69	79.75
477.908	80.75
478.127	86.75
478.346	88.75
478.564	85.75
478.783	101.75
479.002	104.75
479.22	99.75
479.439	105.75
479.658	131.75
479.876	116.75
480.095	95.75
480.313	101.75
480.532	116.75
480.751	123.75
480.969	307.75
481.188	1060.75
481.406	697.75
481.624	142.75
481.843	96.75
482.061	61.75
482.28	94.75
482.498	88.75
482.717	73.75
482.935	84.75
483.153	92.75
483.372	104.75
483.59	103.75
483.808	82.75
484.027	82.75
484.245	101.75
484.463	90.75
484.681	95.75
484.9	90.75
485.118	95.75
485.336	94.75
485.554	94.75
485.772	108.75
485.99	112.75
486.209	101.75
486.427	102.75
486.645	113.75
486.863	114.75
487.081	113.75
487.299	93.75
487.517	95.75
487.735	84.75
487.953	94.75
488.171	91.75
488.389	89.75
488.607	109.75
488.825	94.75
489.043	75.75
489.261	84.75
489.479	85.75
489.696	76.75
489.914	80.75
490.132	95.75
490.35	93.75
490.568	82.75
490.786	79.75
491.003	98.75
491.221	90.75
491.439	79.75
491.657	111.75
491.874	95.75
492.092	93.75
492.31	73.75
492.527	81.75
492.745	87.75
492.963	85.75
493.18	83.75
493.398	84.75
493.615	92.75
493.833	100.75
494.05	92.75
494.268	81.75
494.485	86.75
494.703	93.75
494.92	90.75
495.138	91.75
495.355	91.75
495.573	89.75
495.79	84.75
496.008	86.75
496.225	78.75
496.442	89.75
496.66	93.75
496.877	92.75
497.094	92.75
497.312	80.75
497.529	85.75
497.746	94.75
497.963	92.75
498.181	81.75
498.398	94.75
498.615	114.75
498.832	105.75
499.049	102.75
499.267	87.75
499.484	102.75
499.701	92.75
499.918	92.75
500.135	91.75
500.352	93.75
500.569	93.75
500.786	98.75
501.003	85.75
501.22	78.75
501.437	91.75
501.654	105.75
501.871	127.75
502.088	95.75
502.305	93.75
502.522	110.75
502.739	83.75
502.956	82.75
503.172	95.75
503.389	90.75
503.606	103.75
503.823	104.75
504.04	88.75
504.256	81.75
504.473	93.75
504.69	91.75
504.907	98.75
505.123	86.75
505.34	83.75
505.557	93.75
505.773	89.75
505.99	70.75
506.207	92.75
506.423	80.75
506.64	91.75
506.856	83.75
507.073	89.75
507.289	101.75
507.506	105.75
507.722	145.75
507.939	129.75
508.155	84.75
508.372	105.75
508.588	95.75
508.805	97.75
509.021	107.75
509.238	95.75
509.454	94.75
509.67	120.75
509.887	117.75
510.103	156.75
510.319	279.75
510.536	1132.75
510.752	4105.75
510.968	1108.75
511.184	206.75
511.401	140.75
511.617	112.75
511.833	94.75
512.049	85.75
512.265	92.75
512.481	89.75
512.698	91.75
512.914	95.75
513.13	90.75
513.346	80.75
513.562	107.75
513.778	117.75
513.994	122.75
514.21	124.75
514.426	146.75
514.642	165.75
