Data from Circ_2022_H10_HRD10591_00006.txt Node
Date: Wed Jan 03 09:53:38 EST 2024
User: Yrep
Spectrometer: HR+D1059
Trigger mode: 1
Integration Time (sec): 1.000000E-1
Scans to average: 1
Electric dark correction enabled: true
Nonlinearity correction enabled: false
Boxcar width: 0
XAxis mode: Wavelengths
Number of Pixels in Spectrum: 2048
>>>>>Begin Spectral Data<<<<<
223.165	-11.44
223.4	-11.44
223.635	-11.44
223.869	-20.44
224.104	-21.44
224.338	-18.44
224.573	-17.44
224.808	-19.44
225.042	-9.44
225.277	1.56
225.511	-4.44
225.746	5.56
225.98	16.56
226.215	12.56
226.449	11.56
226.683	21.56
226.918	14.56
227.152	38.56
227.387	47.56
227.621	39.56
227.856	42.56
228.09	46.56
228.324	53.56
228.559	54.56
228.793	61.56
229.027	63.56
229.262	71.56
229.496	70.56
229.73	87.56
229.964	77.56
230.199	82.56
230.433	83.56
230.667	78.56
230.901	65.56
231.136	76.56
231.37	77.56
231.604	77.56
231.838	74.56
232.072	82.56
232.306	72.56
232.541	76.56
232.775	86.56
233.009	90.56
233.243	75.56
233.477	83.56
233.711	77.56
233.945	84.56
234.179	77.56
234.413	87.56
234.647	77.56
234.881	91.56
235.115	82.56
235.349	74.56
235.583	72.56
235.817	78.56
236.051	83.56
236.285	77.56
236.519	76.56
236.753	71.56
236.987	85.56
237.221	100.56
237.455	102.56
237.689	76.56
237.922	86.56
238.156	86.56
238.39	83.56
238.624	68.56
238.858	94.56
239.091	69.56
239.325	78.56
239.559	79.56
239.793	73.56
240.027	82.56
240.26	83.56
240.494	82.56
240.728	73.56
240.961	78.56
241.195	78.56
241.429	75.56
241.662	84.56
241.896	78.56
242.13	86.56
242.363	70.56
242.597	86.56
242.83	90.56
243.064	71.56
243.298	77.56
243.531	74.56
243.765	73.56
243.998	94.56
244.232	93.56
244.465	104.56
244.699	83.56
244.932	78.56
245.166	82.56
245.399	73.56
245.633	95.56
245.866	66.56
246.099	75.56
246.333	85.56
246.566	91.56
246.8	80.56
247.033	80.56
247.266	85.56
247.5	90.56
247.733	68.56
247.966	80.56
248.2	75.56
248.433	85.56
248.666	92.56
248.899	85.56
249.133	90.56
249.366	107.56
249.599	101.56
249.832	85.56
250.066	80.56
250.299	77.56
250.532	81.56
250.765	78.56
250.998	71.56
251.231	85.56
251.465	87.56
251.698	79.56
251.931	86.56
252.164	83.56
252.397	69.56
252.63	89.56
252.863	82.56
253.096	81.56
253.329	70.56
253.562	82.56
253.795	76.56
254.028	89.56
254.261	77.56
254.494	93.56
254.727	100.56
254.96	81.56
255.193	75.56
255.426	86.56
255.659	85.56
255.892	92.56
256.124	86.56
256.357	87.56
256.59	84.56
256.823	93.56
257.056	62.56
257.289	77.56
257.521	77.56
257.754	94.56
257.987	70.56
258.22	88.56
258.452	91.56
258.685	79.56
258.918	80.56
259.151	81.56
259.383	84.56
259.616	85.56
259.849	94.56
260.081	73.56
260.314	78.56
260.547	88.56
260.779	94.56
261.012	85.56
261.244	88.56
261.477	92.56
261.71	101.56
261.942	118.56
262.175	110.56
262.407	86.56
262.64	72.56
262.872	93.56
263.105	88.56
263.337	96.56
263.57	77.56
263.802	85.56
264.035	92.56
264.267	94.56
264.499	88.56
264.732	75.56
264.964	107.56
265.197	83.56
265.429	85.56
265.661	88.56
265.894	96.56
266.126	98.56
266.358	89.56
266.591	94.56
266.823	86.56
267.055	94.56
267.287	102.56
267.52	97.56
267.752	81.56
267.984	95.56
268.216	89.56
268.448	88.56
268.681	77.56
268.913	84.56
269.145	82.56
269.377	79.56
269.609	88.56
269.841	91.56
270.073	78.56
270.306	86.56
270.538	94.56
270.77	100.56
271.002	101.56
271.234	89.56
271.466	81.56
271.698	88.56
271.93	91.56
272.162	87.56
272.394	96.56
272.626	84.56
272.858	91.56
273.09	95.56
273.322	99.56
273.553	93.56
273.785	98.56
274.017	89.56
274.249	99.56
274.481	90.56
274.713	75.56
274.945	114.56
275.176	95.56
275.408	86.56
275.64	92.56
275.872	86.56
276.104	91.56
276.335	99.56
276.567	113.56
276.799	103.56
277.031	109.56
277.262	115.56
277.494	84.56
277.726	81.56
277.957	86.56
278.189	80.56
278.421	100.56
278.652	80.56
278.884	87.56
279.115	97.56
279.347	89.56
279.579	84.56
279.81	90.56
280.042	89.56
280.273	94.56
280.505	104.56
280.736	100.56
280.968	70.56
281.199	80.56
281.431	88.56
281.662	91.56
281.894	102.56
282.125	103.56
282.356	125.56
282.588	159.56
282.819	138.56
283.051	105.56
283.282	88.56
283.513	88.56
283.745	76.56
283.976	70.56
284.207	88.56
284.439	96.56
284.67	96.56
284.901	77.56
285.132	82.56
285.364	94.56
285.595	103.56
285.826	87.56
286.057	87.56
286.288	89.56
286.52	88.56
286.751	90.56
286.982	85.56
287.213	87.56
287.444	78.56
287.675	90.56
287.906	101.56
288.138	95.56
288.369	109.56
288.6	95.56
288.831	108.56
289.062	86.56
289.293	98.56
289.524	80.56
289.755	90.56
289.986	105.56
290.217	95.56
290.448	85.56
290.679	100.56
290.91	101.56
291.141	98.56
291.371	89.56
291.602	95.56
291.833	108.56
292.064	110.56
292.295	86.56
292.526	87.56
292.757	92.56
292.987	97.56
293.218	90.56
293.449	91.56
293.68	107.56
293.91	91.56
294.141	98.56
294.372	90.56
294.603	87.56
294.833	75.56
295.064	95.56
295.295	73.56
295.525	97.56
295.756	92.56
295.987	132.56
296.217	152.56
296.448	127.56
296.679	98.56
296.909	105.56
297.14	90.56
297.37	90.56
297.601	90.56
297.831	98.56
298.062	94.56
298.292	89.56
298.523	99.56
298.753	96.56
298.984	95.56
299.214	79.56
299.445	95.56
299.675	94.56
299.905	96.56
300.136	97.56
300.366	98.56
300.597	99.56
300.827	85.56
301.057	96.56
301.288	94.56
301.518	97.56
301.748	87.56
301.979	100.56
302.209	85.56
302.439	80.56
302.669	94.56
302.9	96.56
303.13	81.56
303.36	103.56
303.59	98.56
303.82	107.56
304.051	113.56
304.281	102.56
304.511	102.56
304.741	93.56
304.971	91.56
305.201	84.56
305.431	88.56
305.661	93.56
305.891	85.56
306.121	105.56
306.352	90.56
306.582	109.56
306.812	83.56
307.042	89.56
307.272	93.56
307.502	92.56
307.731	111.56
307.961	93.56
308.191	90.56
308.421	89.56
308.651	85.56
308.881	79.56
309.111	102.56
309.341	103.56
309.571	90.56
309.8	101.56
310.03	108.56
310.26	122.56
310.49	109.56
310.72	105.56
310.949	105.56
311.179	102.56
311.409	113.56
311.639	98.56
311.868	103.56
312.098	98.56
312.328	91.56
312.557	125.56
312.787	123.56
313.017	105.56
313.246	100.56
313.476	92.56
313.706	100.56
313.935	98.56
314.165	107.56
314.394	96.56
314.624	106.56
314.853	108.56
315.083	84.56
315.312	99.56
315.542	86.56
315.771	87.56
316.001	70.56
316.23	87.56
316.46	105.56
316.689	89.56
316.919	97.56
317.148	98.56
317.377	108.56
317.607	87.56
317.836	96.56
318.065	109.56
318.295	100.56
318.524	102.56
318.753	89.56
318.983	100.56
319.212	106.56
319.441	113.56
319.67	118.56
319.9	103.56
320.129	89.56
320.358	85.56
320.587	106.56
320.816	94.56
321.046	99.56
321.275	107.56
321.504	101.56
321.733	91.56
321.962	115.56
322.191	111.56
322.42	114.56
322.649	101.56
322.878	124.56
323.108	133.56
323.337	138.56
323.566	127.56
323.795	153.56
324.024	202.56
324.253	423.56
324.482	929.56
324.71	1872.56
324.939	2457.56
325.168	918.56
325.397	267.56
325.626	168.56
325.855	143.56
326.084	147.56
326.313	134.56
326.542	164.56
326.77	234.56
326.999	489.56
327.228	988.56
327.457	1863.56
327.686	1494.56
327.914	407.56
328.143	208.56
328.372	163.56
328.6	113.56
328.829	115.56
329.058	129.56
329.287	143.56
329.515	125.56
329.744	119.56
329.972	106.56
330.201	99.56
330.43	103.56
330.658	125.56
330.887	156.56
331.115	127.56
331.344	100.56
331.572	119.56
331.801	103.56
332.03	100.56
332.258	92.56
332.486	97.56
332.715	98.56
332.943	99.56
333.172	81.56
333.4	88.56
333.629	109.56
333.857	107.56
334.085	107.56
334.314	105.56
334.542	102.56
334.771	103.56
334.999	85.56
335.227	94.56
335.455	103.56
335.684	113.56
335.912	97.56
336.14	100.56
336.369	107.56
336.597	117.56
336.825	101.56
337.053	104.56
337.281	91.56
337.51	98.56
337.738	105.56
337.966	100.56
338.194	101.56
338.422	103.56
338.65	103.56
338.878	95.56
339.106	88.56
339.334	101.56
339.562	97.56
339.79	98.56
340.018	96.56
340.246	114.56
340.474	113.56
340.702	94.56
340.93	90.56
341.158	98.56
341.386	113.56
341.614	101.56
341.842	98.56
342.07	106.56
342.298	95.56
342.526	76.56
342.754	93.56
342.981	97.56
343.209	94.56
343.437	99.56
343.665	100.56
343.893	91.56
344.12	82.56
344.348	104.56
344.576	90.56
344.804	83.56
345.031	112.56
345.259	98.56
345.487	104.56
345.714	98.56
345.942	87.56
346.17	79.56
346.397	97.56
346.625	103.56
346.853	94.56
347.08	104.56
347.308	115.56
347.535	97.56
347.763	99.56
347.99	85.56
348.218	101.56
348.445	96.56
348.673	113.56
348.9	101.56
349.128	105.56
349.355	102.56
349.583	108.56
349.81	102.56
350.037	97.56
350.265	91.56
350.492	101.56
350.72	104.56
350.947	113.56
351.174	116.56
351.402	118.56
351.629	108.56
351.856	117.56
352.083	100.56
352.311	101.56
352.538	101.56
352.765	117.56
352.992	105.56
353.22	111.56
353.447	98.56
353.674	115.56
353.901	100.56
354.128	98.56
354.355	94.56
354.583	100.56
354.81	102.56
355.037	90.56
355.264	101.56
355.491	106.56
355.718	107.56
355.945	89.56
356.172	104.56
356.399	89.56
356.626	89.56
356.853	92.56
357.08	95.56
357.307	94.56
357.534	102.56
357.761	104.56
357.988	101.56
358.215	98.56
358.441	116.56
358.668	102.56
358.895	116.56
359.122	97.56
359.349	98.56
359.576	87.56
359.802	109.56
360.029	130.56
360.256	123.56
360.483	125.56
360.709	105.56
360.936	103.56
361.163	116.56
361.39	107.56
361.616	101.56
361.843	100.56
362.07	94.56
362.296	106.56
362.523	100.56
362.749	104.56
362.976	110.56
363.203	89.56
363.429	97.56
363.656	93.56
363.882	93.56
364.109	107.56
364.335	85.56
364.562	91.56
364.788	113.56
365.015	96.56
365.241	111.56
365.468	110.56
365.694	89.56
365.92	115.56
366.147	94.56
366.373	85.56
366.599	97.56
366.826	98.56
367.052	100.56
367.278	96.56
367.505	84.56
367.731	102.56
367.957	102.56
368.184	105.56
368.41	95.56
368.636	117.56
368.862	132.56
369.089	126.56
369.315	108.56
369.541	98.56
369.767	97.56
369.993	80.56
370.219	105.56
370.445	93.56
370.672	103.56
370.898	91.56
371.124	101.56
371.35	98.56
371.576	89.56
371.802	85.56
372.028	89.56
372.254	95.56
372.48	93.56
372.706	81.56
372.932	88.56
373.158	90.56
373.384	96.56
373.61	87.56
373.835	79.56
374.061	87.56
374.287	91.56
374.513	107.56
374.739	88.56
374.965	95.56
375.191	105.56
375.416	106.56
375.642	101.56
375.868	84.56
376.094	101.56
376.319	100.56
376.545	105.56
376.771	93.56
376.997	110.56
377.222	100.56
377.448	95.56
377.674	94.56
377.899	100.56
378.125	99.56
378.35	113.56
378.576	89.56
378.802	98.56
379.027	103.56
379.253	94.56
379.478	93.56
379.704	100.56
379.929	98.56
380.155	112.56
380.38	113.56
380.606	101.56
380.831	101.56
381.057	96.56
381.282	96.56
381.507	106.56
381.733	93.56
381.958	114.56
382.184	106.56
382.409	103.56
382.634	114.56
382.86	107.56
383.085	109.56
383.31	114.56
383.535	118.56
383.761	109.56
383.986	102.56
384.211	123.56
384.436	112.56
384.662	104.56
384.887	134.56
385.112	117.56
385.337	124.56
385.562	106.56
385.787	115.56
386.013	133.56
386.238	130.56
386.463	110.56
386.688	113.56
386.913	121.56
387.138	140.56
387.363	121.56
387.588	94.56
387.813	110.56
388.038	116.56
388.263	126.56
388.488	120.56
388.713	93.56
388.938	91.56
389.163	94.56
389.387	92.56
389.612	92.56
389.837	98.56
390.062	103.56
390.287	99.56
390.512	85.56
390.736	84.56
390.961	101.56
391.186	99.56
391.411	103.56
391.636	98.56
391.86	92.56
392.085	80.56
392.31	82.56
392.534	89.56
392.759	89.56
392.984	77.56
393.208	100.56
393.433	106.56
393.658	114.56
393.882	94.56
394.107	97.56
394.331	93.56
394.556	80.56
394.78	83.56
395.005	96.56
395.229	86.56
395.454	86.56
395.678	98.56
395.903	105.56
396.127	102.56
396.352	65.56
396.576	83.56
396.801	108.56
397.025	89.56
397.249	78.56
397.474	108.56
397.698	89.56
397.922	94.56
398.147	91.56
398.371	89.56
398.595	98.56
398.82	90.56
399.044	89.56
399.268	85.56
399.492	95.56
399.717	109.56
399.941	86.56
400.165	100.56
400.389	95.56
400.613	91.56
400.837	90.56
401.062	87.56
401.286	90.56
401.51	93.56
401.734	81.56
401.958	110.56
402.182	147.56
402.406	172.56
402.63	128.56
402.854	110.56
403.078	94.56
403.302	94.56
403.526	118.56
403.75	94.56
403.974	91.56
404.198	97.56
404.422	92.56
404.645	90.56
404.869	89.56
405.093	92.56
405.317	96.56
405.541	95.56
405.765	113.56
405.988	101.56
406.212	185.56
406.436	251.56
406.66	149.56
406.883	110.56
407.107	98.56
407.331	89.56
407.555	114.56
407.778	98.56
408.002	75.56
408.226	90.56
408.449	94.56
408.673	96.56
408.896	92.56
409.12	93.56
409.344	90.56
409.567	92.56
409.791	89.56
410.014	108.56
410.238	107.56
410.461	97.56
410.685	106.56
410.908	107.56
411.132	117.56
411.355	98.56
411.578	93.56
411.802	99.56
412.025	93.56
412.249	93.56
412.472	107.56
412.695	92.56
412.919	89.56
413.142	91.56
413.365	90.56
413.589	77.56
413.812	94.56
414.035	94.56
414.258	91.56
414.482	86.56
414.705	94.56
414.928	89.56
415.151	103.56
415.374	98.56
415.597	97.56
415.821	75.56
416.044	85.56
416.267	87.56
416.49	90.56
416.713	83.56
416.936	86.56
417.159	91.56
417.382	94.56
417.605	93.56
417.828	101.56
418.051	94.56
418.274	83.56
418.497	105.56
418.72	91.56
418.943	91.56
419.166	94.56
419.389	91.56
419.611	89.56
419.834	97.56
420.057	97.56
420.28	93.56
420.503	96.56
420.726	117.56
420.948	90.56
421.171	85.56
421.394	83.56
421.617	92.56
421.839	89.56
422.062	90.56
422.285	98.56
422.507	109.56
422.73	117.56
422.953	102.56
423.175	78.56
423.398	89.56
423.621	96.56
423.843	89.56
424.066	83.56
424.288	102.56
424.511	81.56
424.733	80.56
424.956	99.56
425.178	105.56
425.401	115.56
425.623	97.56
425.846	90.56
426.068	82.56
426.291	101.56
426.513	87.56
426.735	80.56
426.958	98.56
427.18	103.56
427.402	129.56
427.625	173.56
427.847	115.56
428.069	115.56
428.292	88.56
428.514	92.56
428.736	90.56
428.958	86.56
429.181	78.56
429.403	86.56
429.625	105.56
429.847	93.56
430.069	110.56
430.292	86.56
430.514	91.56
430.736	84.56
430.958	96.56
431.18	92.56
431.402	77.56
431.624	84.56
431.846	96.56
432.068	92.56
432.29	91.56
432.512	79.56
432.734	93.56
432.956	100.56
433.178	87.56
433.4	108.56
433.622	103.56
433.844	101.56
434.066	79.56
434.287	100.56
434.509	85.56
434.731	88.56
434.953	84.56
435.175	82.56
435.397	95.56
435.618	114.56
435.84	113.56
436.062	127.56
436.284	116.56
436.505	114.56
436.727	109.56
436.949	84.56
437.17	91.56
437.392	92.56
437.614	91.56
437.835	115.56
438.057	116.56
438.278	122.56
438.5	100.56
438.721	130.56
438.943	109.56
439.165	90.56
439.386	87.56
439.608	91.56
439.829	98.56
440.05	108.56
440.272	167.56
440.493	106.56
440.715	91.56
440.936	77.56
441.158	87.56
441.379	102.56
441.6	99.56
441.822	105.56
442.043	92.56
442.264	110.56
442.486	95.56
442.707	98.56
442.928	129.56
443.149	142.56
443.371	147.56
443.592	106.56
443.813	122.56
444.034	105.56
444.255	86.56
444.476	88.56
444.698	87.56
444.919	92.56
445.14	135.56
445.361	121.56
445.582	124.56
445.803	139.56
446.024	144.56
446.245	149.56
446.466	126.56
446.687	85.56
446.908	68.56
447.129	77.56
447.35	91.56
447.571	93.56
447.792	95.56
448.013	106.56
448.234	116.56
448.455	111.56
448.675	120.56
448.896	121.56
449.117	99.56
449.338	118.56
449.559	127.56
449.779	134.56
450	94.56
450.221	97.56
450.442	104.56
450.662	101.56
450.883	122.56
451.104	115.56
451.324	107.56
451.545	97.56
451.766	88.56
451.986	89.56
452.207	71.56
452.428	87.56
452.648	103.56
452.869	111.56
453.089	118.56
453.31	121.56
453.53	88.56
453.751	99.56
453.971	105.56
454.192	106.56
454.412	93.56
454.633	108.56
454.853	93.56
455.073	78.56
455.294	61.56
455.514	112.56
455.734	98.56
455.955	84.56
456.175	84.56
456.395	70.56
456.616	76.56
456.836	94.56
457.056	91.56
457.276	87.56
457.497	91.56
457.717	90.56
457.937	84.56
458.157	81.56
458.377	93.56
458.598	127.56
458.818	165.56
459.038	171.56
459.258	108.56
459.478	96.56
459.698	92.56
459.918	94.56
460.138	81.56
460.358	89.56
460.578	76.56
460.798	86.56
461.018	84.56
461.238	79.56
461.458	90.56
461.678	97.56
461.898	86.56
462.118	90.56
462.338	95.56
462.558	89.56
462.777	66.56
462.997	83.56
463.217	73.56
463.437	79.56
463.657	93.56
463.876	89.56
464.096	102.56
464.316	92.56
464.536	87.56
464.755	104.56
464.975	113.56
465.195	177.56
465.414	185.56
465.634	96.56
465.854	106.56
466.073	82.56
466.293	79.56
466.512	94.56
466.732	113.56
466.951	82.56
467.171	101.56
467.391	101.56
467.61	103.56
467.829	97.56
468.049	80.56
468.268	86.56
468.488	86.56
468.707	98.56
468.927	89.56
469.146	85.56
469.365	96.56
469.585	93.56
469.804	121.56
470.023	99.56
470.243	87.56
470.462	106.56
470.681	115.56
470.901	87.56
471.12	85.56
471.339	86.56
471.558	95.56
471.777	91.56
471.997	88.56
472.216	98.56
472.435	102.56
472.654	85.56
472.873	84.56
473.092	76.56
473.311	81.56
473.53	83.56
473.749	90.56
473.968	98.56
474.187	102.56
474.406	87.56
474.625	85.56
474.844	78.56
475.063	89.56
475.282	83.56
475.501	88.56
475.72	90.56
475.939	85.56
476.158	100.56
476.377	99.56
476.596	85.56
476.814	101.56
477.033	88.56
477.252	86.56
477.471	100.56
477.69	90.56
477.908	87.56
478.127	99.56
478.346	92.56
478.564	104.56
478.783	99.56
479.002	99.56
479.22	77.56
479.439	90.56
479.658	91.56
479.876	102.56
480.095	92.56
480.313	93.56
480.532	82.56
480.751	91.56
480.969	95.56
481.188	96.56
481.406	103.56
481.624	93.56
481.843	92.56
482.061	102.56
482.28	92.56
482.498	99.56
482.717	95.56
482.935	107.56
483.153	88.56
483.372	99.56
483.59	89.56
483.808	90.56
484.027	98.56
484.245	90.56
484.463	99.56
484.681	104.56
484.9	98.56
485.118	90.56
485.336	90.56
485.554	99.56
485.772	109.56
485.99	100.56
486.209	107.56
486.427	101.56
486.645	124.56
486.863	106.56
487.081	100.56
487.299	98.56
487.517	101.56
487.735	90.56
487.953	88.56
488.171	120.56
488.389	95.56
488.607	115.56
488.825	100.56
489.043	71.56
489.261	90.56
489.479	91.56
489.696	98.56
489.914	87.56
490.132	92.56
490.35	76.56
490.568	93.56
490.786	94.56
491.003	78.56
491.221	94.56
491.439	92.56
491.657	98.56
491.874	85.56
492.092	106.56
492.31	104.56
492.527	84.56
492.745	87.56
492.963	93.56
493.18	111.56
493.398	92.56
493.615	98.56
493.833	94.56
494.05	93.56
494.268	91.56
494.485	97.56
494.703	94.56
494.92	107.56
495.138	83.56
495.355	91.56
495.573	94.56
495.79	86.56
496.008	97.56
496.225	81.56
496.442	105.56
496.66	89.56
496.877	103.56
497.094	92.56
497.312	102.56
497.529	107.56
497.746	101.56
497.963	94.56
498.181	96.56
498.398	83.56
498.615	113.56
498.832	110.56
499.049	91.56
499.267	103.56
499.484	92.56
499.701	89.56
499.918	94.56
500.135	95.56
500.352	96.56
500.569	88.56
500.786	100.56
501.003	101.56
501.22	103.56
501.437	94.56
501.654	97.56
501.871	108.56
502.088	96.56
502.305	85.56
502.522	101.56
502.739	87.56
502.956	103.56
503.172	101.56
503.389	104.56
503.606	116.56
503.823	117.56
504.04	82.56
504.256	88.56
504.473	95.56
504.69	99.56
504.907	89.56
505.123	85.56
505.34	95.56
505.557	80.56
505.773	86.56
505.99	97.56
506.207	79.56
506.423	94.56
506.64	90.56
506.856	93.56
507.073	94.56
507.289	84.56
507.506	93.56
507.722	129.56
507.939	108.56
508.155	97.56
508.372	111.56
508.588	87.56
508.805	103.56
509.021	95.56
509.238	110.56
509.454	103.56
509.67	95.56
509.887	110.56
510.103	137.56
510.319	228.56
510.536	802.56
510.752	2787.56
510.968	785.56
511.184	173.56
511.401	115.56
511.617	114.56
511.833	102.56
512.049	100.56
512.265	117.56
512.481	84.56
512.698	99.56
512.914	98.56
513.13	92.56
513.346	100.56
513.562	110.56
