Data from Circ_2022_H10_HRD10591_00091.txt Node
Date: Wed Jan 03 09:53:55 EST 2024
User: Yrep
Spectrometer: HR+D1059
Trigger mode: 1
Integration Time (sec): 1.000000E-1
Scans to average: 1
Electric dark correction enabled: true
Nonlinearity correction enabled: false
Boxcar width: 0
XAxis mode: Wavelengths
Number of Pixels in Spectrum: 2048
>>>>>Begin Spectral Data<<<<<
223.165	-7.38
223.4	-7.38
223.635	-7.38
223.869	-24.38
224.104	-16.38
224.338	-15.38
224.573	-14.38
224.808	-15.38
225.042	-10.38
225.277	2.62
225.511	-6.38
225.746	-5.38
225.98	10.62
226.215	8.62
226.449	24.62
226.683	8.62
226.918	31.62
227.152	28.62
227.387	40.62
227.621	41.62
227.856	42.62
228.09	38.62
228.324	61.62
228.559	69.62
228.793	73.62
229.027	60.62
229.262	54.62
229.496	76.62
229.73	97.62
229.964	93.62
230.199	83.62
230.433	78.62
230.667	84.62
230.901	81.62
231.136	77.62
231.37	76.62
231.604	88.62
231.838	72.62
232.072	72.62
232.306	78.62
232.541	85.62
232.775	84.62
233.009	87.62
233.243	79.62
233.477	84.62
233.711	76.62
233.945	74.62
234.179	82.62
234.413	64.62
234.647	78.62
234.881	86.62
235.115	83.62
235.349	84.62
235.583	87.62
235.817	88.62
236.051	85.62
236.285	63.62
236.519	77.62
236.753	65.62
236.987	95.62
237.221	91.62
237.455	90.62
237.689	80.62
237.922	78.62
238.156	78.62
238.39	78.62
238.624	84.62
238.858	83.62
239.091	71.62
239.325	69.62
239.559	90.62
239.793	84.62
240.027	76.62
240.26	82.62
240.494	84.62
240.728	69.62
240.961	74.62
241.195	67.62
241.429	81.62
241.662	78.62
241.896	75.62
242.13	74.62
242.363	101.62
242.597	84.62
242.83	90.62
243.064	73.62
243.298	65.62
243.531	92.62
243.765	73.62
243.998	72.62
244.232	87.62
244.465	91.62
244.699	83.62
244.932	76.62
245.166	83.62
245.399	74.62
245.633	77.62
245.866	80.62
246.099	84.62
246.333	83.62
246.566	83.62
246.8	80.62
247.033	83.62
247.266	80.62
247.5	81.62
247.733	80.62
247.966	73.62
248.2	84.62
248.433	71.62
248.666	86.62
248.899	89.62
249.133	85.62
249.366	107.62
249.599	110.62
249.832	89.62
250.066	75.62
250.299	68.62
250.532	78.62
250.765	85.62
250.998	74.62
251.231	91.62
251.465	75.62
251.698	76.62
251.931	86.62
252.164	68.62
252.397	68.62
252.63	89.62
252.863	90.62
253.096	79.62
253.329	77.62
253.562	84.62
253.795	69.62
254.028	88.62
254.261	84.62
254.494	88.62
254.727	85.62
254.96	80.62
255.193	79.62
255.426	69.62
255.659	82.62
255.892	90.62
256.124	94.62
256.357	91.62
256.59	80.62
256.823	88.62
257.056	75.62
257.289	84.62
257.521	94.62
257.754	96.62
257.987	93.62
258.22	84.62
258.452	85.62
258.685	112.62
258.918	97.62
259.151	79.62
259.383	81.62
259.616	81.62
259.849	92.62
260.081	102.62
260.314	84.62
260.547	84.62
260.779	86.62
261.012	96.62
261.244	87.62
261.477	87.62
261.71	94.62
261.942	141.62
262.175	139.62
262.407	73.62
262.64	90.62
262.872	78.62
263.105	76.62
263.337	91.62
263.57	83.62
263.802	88.62
264.035	84.62
264.267	78.62
264.499	97.62
264.732	86.62
264.964	90.62
265.197	81.62
265.429	83.62
265.661	92.62
265.894	91.62
266.126	90.62
266.358	101.62
266.591	79.62
266.823	81.62
267.055	92.62
267.287	89.62
267.52	86.62
267.752	96.62
267.984	93.62
268.216	100.62
268.448	88.62
268.681	89.62
268.913	105.62
269.145	94.62
269.377	91.62
269.609	78.62
269.841	88.62
270.073	82.62
270.306	100.62
270.538	99.62
270.77	80.62
271.002	87.62
271.234	95.62
271.466	93.62
271.698	100.62
271.93	90.62
272.162	95.62
272.394	89.62
272.626	85.62
272.858	75.62
273.09	93.62
273.322	92.62
273.553	98.62
273.785	86.62
274.017	101.62
274.249	100.62
274.481	86.62
274.713	105.62
274.945	83.62
275.176	92.62
275.408	87.62
275.64	100.62
275.872	97.62
276.104	91.62
276.335	99.62
276.567	104.62
276.799	120.62
277.031	122.62
277.262	123.62
277.494	84.62
277.726	82.62
277.957	86.62
278.189	74.62
278.421	85.62
278.652	93.62
278.884	88.62
279.115	99.62
279.347	80.62
279.579	85.62
279.81	102.62
280.042	98.62
280.273	106.62
280.505	93.62
280.736	93.62
280.968	99.62
281.199	87.62
281.431	88.62
281.662	85.62
281.894	88.62
282.125	109.62
282.356	133.62
282.588	173.62
282.819	122.62
283.051	104.62
283.282	104.62
283.513	85.62
283.745	97.62
283.976	97.62
284.207	94.62
284.439	89.62
284.67	86.62
284.901	87.62
285.132	86.62
285.364	86.62
285.595	92.62
285.826	89.62
286.057	94.62
286.288	91.62
286.52	90.62
286.751	97.62
286.982	85.62
287.213	78.62
287.444	100.62
287.675	97.62
287.906	96.62
288.138	85.62
288.369	90.62
288.6	83.62
288.831	99.62
289.062	93.62
289.293	98.62
289.524	91.62
289.755	95.62
289.986	91.62
290.217	96.62
290.448	90.62
290.679	93.62
290.91	93.62
291.141	93.62
291.371	83.62
291.602	93.62
291.833	94.62
292.064	100.62
292.295	93.62
292.526	89.62
292.757	83.62
292.987	93.62
293.218	86.62
293.449	101.62
293.68	98.62
293.91	78.62
294.141	98.62
294.372	95.62
294.603	96.62
294.833	104.62
295.064	96.62
295.295	93.62
295.525	105.62
295.756	109.62
295.987	128.62
296.217	160.62
296.448	153.62
296.679	87.62
296.909	96.62
297.14	88.62
297.37	103.62
297.601	82.62
297.831	91.62
298.062	93.62
298.292	96.62
298.523	77.62
298.753	91.62
298.984	75.62
299.214	98.62
299.445	96.62
299.675	109.62
299.905	100.62
300.136	81.62
300.366	100.62
300.597	107.62
300.827	109.62
301.057	113.62
301.288	117.62
301.518	105.62
301.748	103.62
301.979	108.62
302.209	80.62
302.439	93.62
302.669	97.62
302.9	90.62
303.13	88.62
303.36	98.62
303.59	114.62
303.82	120.62
304.051	112.62
304.281	100.62
304.511	93.62
304.741	88.62
304.971	97.62
305.201	94.62
305.431	93.62
305.661	106.62
305.891	93.62
306.121	109.62
306.352	106.62
306.582	114.62
306.812	106.62
307.042	104.62
307.272	108.62
307.502	110.62
307.731	125.62
307.961	84.62
308.191	93.62
308.421	99.62
308.651	86.62
308.881	87.62
309.111	100.62
309.341	86.62
309.571	96.62
309.8	93.62
310.03	112.62
310.26	108.62
310.49	97.62
310.72	106.62
310.949	99.62
311.179	125.62
311.409	116.62
311.639	114.62
311.868	113.62
312.098	103.62
312.328	103.62
312.557	125.62
312.787	127.62
313.017	127.62
313.246	120.62
313.476	96.62
313.706	96.62
313.935	91.62
314.165	112.62
314.394	124.62
314.624	105.62
314.853	108.62
315.083	93.62
315.312	104.62
315.542	94.62
315.771	99.62
316.001	96.62
316.23	85.62
316.46	94.62
316.689	103.62
316.919	107.62
317.148	101.62
317.377	103.62
317.607	114.62
317.836	112.62
318.065	99.62
318.295	99.62
318.524	99.62
318.753	99.62
318.983	113.62
319.212	98.62
319.441	117.62
319.67	119.62
319.9	124.62
320.129	99.62
320.358	100.62
320.587	106.62
320.816	98.62
321.046	119.62
321.275	102.62
321.504	105.62
321.733	106.62
321.962	99.62
322.191	120.62
322.42	113.62
322.649	118.62
322.878	121.62
323.108	155.62
323.337	144.62
323.566	156.62
323.795	196.62
324.024	282.62
324.253	537.62
324.482	1161.62
324.71	2364.62
324.939	3246.62
325.168	1172.62
325.397	314.62
325.626	166.62
325.855	167.62
326.084	135.62
326.313	170.62
326.542	173.62
326.77	280.62
326.999	607.62
327.228	1283.62
327.457	2349.62
327.686	1893.62
327.914	525.62
328.143	298.62
328.372	252.62
328.6	186.62
328.829	160.62
329.058	167.62
329.287	177.62
329.515	140.62
329.744	129.62
329.972	178.62
330.201	282.62
330.43	347.62
330.658	240.62
330.887	212.62
331.115	164.62
331.344	113.62
331.572	118.62
331.801	113.62
332.03	120.62
332.258	100.62
332.486	97.62
332.715	101.62
332.943	113.62
333.172	116.62
333.4	110.62
333.629	133.62
333.857	147.62
334.085	183.62
334.314	267.62
334.542	446.62
334.771	400.62
334.999	176.62
335.227	118.62
335.455	106.62
335.684	104.62
335.912	97.62
336.14	108.62
336.369	105.62
336.597	107.62
336.825	103.62
337.053	93.62
337.281	84.62
337.51	97.62
337.738	97.62
337.966	101.62
338.194	100.62
338.422	100.62
338.65	105.62
338.878	95.62
339.106	103.62
339.334	102.62
339.562	87.62
339.79	90.62
340.018	92.62
340.246	101.62
340.474	94.62
340.702	102.62
340.93	93.62
341.158	92.62
341.386	106.62
341.614	100.62
341.842	99.62
342.07	98.62
342.298	104.62
342.526	98.62
342.754	84.62
342.981	78.62
343.209	85.62
343.437	98.62
343.665	92.62
343.893	97.62
344.12	103.62
344.348	95.62
344.576	88.62
344.804	90.62
345.031	114.62
345.259	88.62
345.487	97.62
345.714	107.62
345.942	112.62
346.17	96.62
346.397	107.62
346.625	101.62
346.853	93.62
347.08	92.62
347.308	96.62
347.535	119.62
347.763	111.62
347.99	101.62
348.218	108.62
348.445	135.62
348.673	97.62
348.9	99.62
349.128	108.62
349.355	104.62
349.583	93.62
349.81	103.62
350.037	105.62
350.265	96.62
350.492	98.62
350.72	94.62
350.947	115.62
351.174	136.62
351.402	132.62
351.629	112.62
351.856	120.62
352.083	121.62
352.311	117.62
352.538	133.62
352.765	118.62
352.992	138.62
353.22	120.62
353.447	106.62
353.674	102.62
353.901	99.62
354.128	98.62
354.355	106.62
354.583	93.62
354.81	85.62
355.037	98.62
355.264	88.62
355.491	91.62
355.718	87.62
355.945	95.62
356.172	90.62
356.399	106.62
356.626	91.62
356.853	103.62
357.08	102.62
357.307	102.62
357.534	84.62
357.761	100.62
357.988	83.62
358.215	90.62
358.441	90.62
358.668	94.62
358.895	98.62
359.122	77.62
359.349	89.62
359.576	103.62
359.802	132.62
360.029	128.62
360.256	143.62
360.483	119.62
360.709	88.62
360.936	94.62
361.163	105.62
361.39	99.62
361.616	117.62
361.843	103.62
362.07	102.62
362.296	103.62
362.523	84.62
362.749	89.62
362.976	85.62
363.203	99.62
363.429	107.62
363.656	90.62
363.882	94.62
364.109	92.62
364.335	93.62
364.562	92.62
364.788	109.62
365.015	92.62
365.241	104.62
365.468	128.62
365.694	119.62
365.92	126.62
366.147	96.62
366.373	89.62
366.599	101.62
366.826	95.62
367.052	97.62
367.278	101.62
367.505	93.62
367.731	104.62
367.957	109.62
368.184	114.62
368.41	107.62
368.636	130.62
368.862	138.62
369.089	127.62
369.315	93.62
369.541	96.62
369.767	89.62
369.993	87.62
370.219	96.62
370.445	95.62
370.672	84.62
370.898	78.62
371.124	94.62
371.35	105.62
371.576	95.62
371.802	107.62
372.028	76.62
372.254	102.62
372.48	86.62
372.706	102.62
372.932	91.62
373.158	94.62
373.384	106.62
373.61	92.62
373.835	96.62
374.061	97.62
374.287	82.62
374.513	96.62
374.739	91.62
374.965	103.62
375.191	83.62
375.416	95.62
375.642	95.62
375.868	97.62
376.094	88.62
376.319	89.62
376.545	76.62
376.771	80.62
376.997	96.62
377.222	94.62
377.448	94.62
377.674	110.62
377.899	84.62
378.125	84.62
378.35	98.62
378.576	81.62
378.802	91.62
379.027	87.62
379.253	90.62
379.478	95.62
379.704	95.62
379.929	91.62
380.155	96.62
380.38	99.62
380.606	90.62
380.831	113.62
381.057	101.62
381.282	102.62
381.507	91.62
381.733	83.62
381.958	91.62
382.184	89.62
382.409	105.62
382.634	111.62
382.86	94.62
383.085	108.62
383.31	100.62
383.535	99.62
383.761	97.62
383.986	104.62
384.211	92.62
384.436	90.62
384.662	115.62
384.887	96.62
385.112	108.62
385.337	104.62
385.562	98.62
385.787	108.62
386.013	112.62
386.238	134.62
386.463	114.62
386.688	129.62
386.913	101.62
387.138	97.62
387.363	109.62
387.588	96.62
387.813	86.62
388.038	96.62
388.263	113.62
388.488	112.62
388.713	89.62
388.938	92.62
389.163	91.62
389.387	87.62
389.612	108.62
389.837	97.62
390.062	79.62
390.287	96.62
390.512	83.62
390.736	78.62
390.961	98.62
391.186	93.62
391.411	98.62
391.636	92.62
391.86	91.62
392.085	83.62
392.31	84.62
392.534	76.62
392.759	90.62
392.984	90.62
393.208	77.62
393.433	96.62
393.658	86.62
393.882	84.62
394.107	93.62
394.331	96.62
394.556	78.62
394.78	86.62
395.005	83.62
395.229	69.62
395.454	96.62
395.678	82.62
395.903	81.62
396.127	92.62
396.352	83.62
396.576	89.62
396.801	89.62
397.025	103.62
397.249	100.62
397.474	78.62
397.698	97.62
397.922	88.62
398.147	96.62
398.371	93.62
398.595	88.62
398.82	93.62
399.044	97.62
399.268	80.62
399.492	78.62
399.717	97.62
399.941	88.62
400.165	96.62
400.389	94.62
400.613	91.62
400.837	90.62
401.062	82.62
401.286	85.62
401.51	90.62
401.734	98.62
401.958	105.62
402.182	164.62
402.406	201.62
402.63	140.62
402.854	109.62
403.078	94.62
403.302	101.62
403.526	84.62
403.75	79.62
403.974	86.62
404.198	100.62
404.422	91.62
404.645	88.62
404.869	88.62
405.093	116.62
405.317	120.62
405.541	102.62
405.765	113.62
405.988	146.62
406.212	219.62
406.436	290.62
406.66	195.62
406.883	115.62
407.107	105.62
407.331	112.62
407.555	128.62
407.778	97.62
408.002	89.62
408.226	100.62
408.449	101.62
408.673	85.62
408.896	95.62
409.12	100.62
409.344	114.62
409.567	87.62
409.791	99.62
410.014	92.62
410.238	95.62
410.461	103.62
410.685	97.62
410.908	104.62
411.132	99.62
411.355	112.62
411.578	86.62
411.802	98.62
412.025	100.62
412.249	93.62
412.472	96.62
412.695	114.62
412.919	109.62
413.142	116.62
413.365	100.62
413.589	78.62
413.812	93.62
414.035	94.62
414.258	84.62
414.482	95.62
414.705	76.62
414.928	87.62
415.151	99.62
415.374	80.62
415.597	89.62
415.821	81.62
416.044	76.62
416.267	99.62
416.49	97.62
416.713	84.62
416.936	78.62
417.159	85.62
417.382	91.62
417.605	94.62
417.828	112.62
418.051	91.62
418.274	100.62
418.497	77.62
418.72	77.62
418.943	90.62
419.166	104.62
419.389	88.62
419.611	102.62
419.834	97.62
420.057	100.62
420.28	81.62
420.503	87.62
420.726	91.62
420.948	86.62
421.171	109.62
421.394	107.62
421.617	96.62
421.839	93.62
422.062	81.62
422.285	80.62
422.507	88.62
422.73	113.62
422.953	100.62
423.175	90.62
423.398	95.62
423.621	89.62
423.843	101.62
424.066	96.62
424.288	80.62
424.511	90.62
424.733	106.62
424.956	116.62
425.178	116.62
425.401	124.62
425.623	122.62
425.846	90.62
426.068	98.62
426.291	90.62
426.513	114.62
426.735	102.62
426.958	89.62
427.18	115.62
427.402	166.62
427.625	246.62
427.847	185.62
428.069	171.62
428.292	106.62
428.514	85.62
428.736	86.62
428.958	86.62
429.181	86.62
429.403	96.62
429.625	88.62
429.847	100.62
430.069	124.62
430.292	108.62
430.514	89.62
430.736	76.62
430.958	99.62
431.18	87.62
431.402	93.62
431.624	89.62
431.846	85.62
432.068	105.62
432.29	74.62
432.512	93.62
432.734	90.62
432.956	91.62
433.178	106.62
433.4	129.62
433.622	107.62
433.844	83.62
434.066	97.62
434.287	103.62
434.509	94.62
434.731	96.62
434.953	97.62
435.175	97.62
435.397	99.62
435.618	96.62
435.84	109.62
436.062	174.62
436.284	146.62
436.505	108.62
436.727	118.62
436.949	99.62
437.17	92.62
437.392	85.62
437.614	98.62
437.835	128.62
438.057	163.62
438.278	149.62
438.5	123.62
438.721	150.62
438.943	106.62
439.165	81.62
439.386	96.62
439.608	89.62
439.829	117.62
440.05	150.62
440.272	199.62
440.493	132.62
440.715	112.62
440.936	90.62
441.158	100.62
441.379	90.62
441.6	105.62
441.822	108.62
442.043	104.62
442.264	125.62
442.486	120.62
442.707	93.62
442.928	135.62
443.149	156.62
443.371	172.62
443.592	134.62
443.813	141.62
444.034	129.62
444.255	102.62
444.476	95.62
444.698	87.62
444.919	98.62
445.14	128.62
445.361	138.62
445.582	141.62
445.803	197.62
446.024	207.62
446.245	185.62
446.466	122.62
446.687	106.62
446.908	72.62
447.129	98.62
447.35	107.62
447.571	86.62
447.792	100.62
448.013	108.62
448.234	121.62
448.455	110.62
448.675	146.62
448.896	133.62
449.117	111.62
449.338	103.62
449.559	150.62
449.779	169.62
450	120.62
450.221	91.62
450.442	92.62
450.662	115.62
450.883	124.62
451.104	132.62
451.324	113.62
451.545	92.62
451.766	99.62
451.986	93.62
452.207	90.62
452.428	94.62
452.648	112.62
452.869	108.62
453.089	132.62
453.31	115.62
453.53	104.62
453.751	100.62
453.971	118.62
454.192	134.62
454.412	101.62
454.633	94.62
454.853	87.62
455.073	93.62
455.294	109.62
455.514	120.62
455.734	104.62
455.955	91.62
456.175	89.62
456.395	85.62
456.616	74.62
456.836	80.62
457.056	92.62
457.276	100.62
457.497	94.62
457.717	87.62
457.937	84.62
458.157	87.62
458.377	107.62
458.598	146.62
458.818	204.62
459.038	213.62
459.258	148.62
459.478	103.62
459.698	89.62
459.918	83.62
460.138	93.62
460.358	75.62
460.578	94.62
460.798	98.62
461.018	98.62
461.238	92.62
461.458	91.62
461.678	78.62
461.898	100.62
462.118	97.62
462.338	89.62
462.558	90.62
462.777	86.62
462.997	99.62
463.217	78.62
463.437	79.62
463.657	89.62
463.876	91.62
464.096	87.62
464.316	96.62
464.536	99.62
464.755	108.62
464.975	133.62
465.195	242.62
465.414	239.62
465.634	100.62
465.854	89.62
466.073	81.62
466.293	93.62
466.512	92.62
466.732	92.62
466.951	89.62
467.171	106.62
467.391	97.62
467.61	122.62
467.829	128.62
468.049	163.62
468.268	210.62
468.488	109.62
468.707	91.62
468.927	74.62
469.146	93.62
469.365	85.62
469.585	89.62
469.804	110.62
470.023	102.62
470.243	105.62
470.462	104.62
470.681	145.62
470.901	98.62
471.12	90.62
471.339	94.62
471.558	92.62
471.777	93.62
471.997	130.62
472.216	275.62
472.435	503.62
472.654	188.62
472.873	101.62
473.092	105.62
473.311	84.62
473.53	88.62
473.749	89.62
473.968	99.62
474.187	129.62
474.406	117.62
474.625	110.62
474.844	97.62
475.063	85.62
475.282	88.62
475.501	89.62
475.72	93.62
475.939	94.62
476.158	88.62
476.377	98.62
476.596	90.62
476.814	89.62
477.033	109.62
477.252	100.62
477.471	89.62
477.69	93.62
477.908	98.62
478.127	89.62
478.346	88.62
478.564	105.62
478.783	96.62
479.002	97.62
479.22	114.62
479.439	109.62
479.658	136.62
479.876	103.62
480.095	90.62
480.313	99.62
480.532	98.62
480.751	118.62
480.969	257.62
481.188	884.62
481.406	581.62
481.624	148.62
481.843	112.62
482.061	84.62
482.28	92.62
482.498	96.62
482.717	93.62
482.935	86.62
483.153	86.62
483.372	92.62
483.59	97.62
483.808	87.62
484.027	87.62
484.245	80.62
484.463	102.62
484.681	89.62
484.9	92.62
485.118	99.62
485.336	101.62
485.554	97.62
485.772	94.62
485.99	97.62
486.209	115.62
486.427	116.62
486.645	116.62
486.863	120.62
487.081	107.62
487.299	87.62
487.517	91.62
487.735	93.62
487.953	96.62
488.171	87.62
488.389	119.62
488.607	90.62
488.825	90.62
489.043	98.62
489.261	109.62
489.479	103.62
489.696	90.62
489.914	85.62
490.132	102.62
490.35	86.62
490.568	86.62
490.786	96.62
491.003	82.62
491.221	90.62
491.439	98.62
491.657	104.62
491.874	88.62
492.092	96.62
492.31	90.62
492.527	96.62
492.745	99.62
492.963	92.62
493.18	96.62
493.398	98.62
493.615	106.62
493.833	110.62
494.05	99.62
494.268	108.62
494.485	97.62
494.703	87.62
494.92	85.62
495.138	106.62
495.355	96.62
495.573	84.62
495.79	86.62
496.008	93.62
496.225	105.62
496.442	94.62
496.66	97.62
496.877	92.62
497.094	92.62
497.312	94.62
497.529	77.62
497.746	83.62
497.963	88.62
498.181	103.62
498.398	83.62
498.615	106.62
498.832	107.62
499.049	86.62
499.267	104.62
499.484	101.62
499.701	82.62
499.918	88.62
500.135	103.62
500.352	100.62
500.569	90.62
500.786	100.62
501.003	102.62
501.22	89.62
501.437	89.62
501.654	84.62
501.871	129.62
502.088	82.62
502.305	86.62
502.522	94.62
502.739	100.62
502.956	110.62
503.172	94.62
503.389	101.62
503.606	113.62
503.823	109.62
504.04	106.62
504.256	103.62
504.473	91.62
504.69	90.62
504.907	89.62
505.123	94.62
505.34	88.62
505.557	100.62
505.773	106.62
505.99	92.62
506.207	97.62
506.423	109.62
506.64	83.62
506.856	100.62
507.073	96.62
507.289	86.62
507.506	114.62
507.722	118.62
507.939	144.62
508.155	93.62
508.372	76.62
508.588	92.62
508.805	91.62
509.021	90.62
509.238	102.62
509.454	99.62
509.67	105.62
509.887	112.62
510.103	146.62
510.319	251.62
510.536	995.62
510.752	3368.62
510.968	946.62
511.184	202.62
511.401	130.62
511.617	123.62
511.833	93.62
512.049	102.62
512.265	85.62
512.481	94.62
512.698	101.62
512.914	90.62
513.13	82.62
