Data from Circ_2022_H10_HRD10591_00065.txt Node
Date: Wed Jan 03 09:53:50 EST 2024
User: Yrep
Spectrometer: HR+D1059
Trigger mode: 1
Integration Time (sec): 1.000000E-1
Scans to average: 1
Electric dark correction enabled: true
Nonlinearity correction enabled: false
Boxcar width: 0
XAxis mode: Wavelengths
Number of Pixels in Spectrum: 2048
>>>>>Begin Spectral Data<<<<<
223.165	-21.81
223.4	-21.81
223.635	-21.81
223.869	-30.81
224.104	-27.81
224.338	-9.81
224.573	-19.81
224.808	-27.81
225.042	-3.81
225.277	-5.81
225.511	-6.81
225.746	10.19
225.98	11.19
226.215	22.19
226.449	18.19
226.683	25.19
226.918	36.19
227.152	31.19
227.387	28.19
227.621	27.19
227.856	42.19
228.09	46.19
228.324	51.19
228.559	57.19
228.793	56.19
229.027	83.19
229.262	74.19
229.496	67.19
229.73	91.19
229.964	88.19
230.199	67.19
230.433	79.19
230.667	75.19
230.901	95.19
231.136	84.19
231.37	76.19
231.604	78.19
231.838	78.19
232.072	72.19
232.306	71.19
232.541	81.19
232.775	87.19
233.009	73.19
233.243	74.19
233.477	85.19
233.711	90.19
233.945	77.19
234.179	79.19
234.413	82.19
234.647	82.19
234.881	88.19
235.115	76.19
235.349	86.19
235.583	84.19
235.817	77.19
236.051	75.19
236.285	69.19
236.519	80.19
236.753	73.19
236.987	74.19
237.221	83.19
237.455	95.19
237.689	87.19
237.922	84.19
238.156	82.19
238.39	92.19
238.624	74.19
238.858	71.19
239.091	83.19
239.325	77.19
239.559	86.19
239.793	79.19
240.027	80.19
240.26	80.19
240.494	61.19
240.728	66.19
240.961	78.19
241.195	80.19
241.429	73.19
241.662	75.19
241.896	91.19
242.13	77.19
242.363	84.19
242.597	76.19
242.83	84.19
243.064	68.19
243.298	82.19
243.531	85.19
243.765	96.19
243.998	81.19
244.232	94.19
244.465	95.19
244.699	89.19
244.932	76.19
245.166	82.19
245.399	84.19
245.633	80.19
245.866	81.19
246.099	71.19
246.333	69.19
246.566	83.19
246.8	86.19
247.033	92.19
247.266	86.19
247.5	76.19
247.733	92.19
247.966	88.19
248.2	79.19
248.433	90.19
248.666	75.19
248.899	86.19
249.133	97.19
249.366	107.19
249.599	106.19
249.832	78.19
250.066	84.19
250.299	96.19
250.532	82.19
250.765	78.19
250.998	85.19
251.231	78.19
251.465	76.19
251.698	85.19
251.931	66.19
252.164	84.19
252.397	86.19
252.63	88.19
252.863	86.19
253.096	82.19
253.329	77.19
253.562	90.19
253.795	75.19
254.028	68.19
254.261	85.19
254.494	89.19
254.727	97.19
254.96	77.19
255.193	88.19
255.426	87.19
255.659	79.19
255.892	76.19
256.124	95.19
256.357	78.19
256.59	87.19
256.823	91.19
257.056	84.19
257.289	82.19
257.521	102.19
257.754	77.19
257.987	76.19
258.22	77.19
258.452	78.19
258.685	84.19
258.918	88.19
259.151	76.19
259.383	84.19
259.616	78.19
259.849	90.19
260.081	87.19
260.314	82.19
260.547	76.19
260.779	93.19
261.012	77.19
261.244	92.19
261.477	102.19
261.71	82.19
261.942	118.19
262.175	126.19
262.407	84.19
262.64	75.19
262.872	92.19
263.105	86.19
263.337	87.19
263.57	90.19
263.802	82.19
264.035	93.19
264.267	86.19
264.499	92.19
264.732	91.19
264.964	96.19
265.197	114.19
265.429	88.19
265.661	83.19
265.894	90.19
266.126	91.19
266.358	75.19
266.591	100.19
266.823	75.19
267.055	81.19
267.287	88.19
267.52	83.19
267.752	77.19
267.984	77.19
268.216	89.19
268.448	86.19
268.681	89.19
268.913	77.19
269.145	97.19
269.377	79.19
269.609	73.19
269.841	99.19
270.073	89.19
270.306	77.19
270.538	93.19
270.77	96.19
271.002	87.19
271.234	87.19
271.466	85.19
271.698	74.19
271.93	99.19
272.162	88.19
272.394	79.19
272.626	88.19
272.858	92.19
273.09	89.19
273.322	84.19
273.553	97.19
273.785	96.19
274.017	99.19
274.249	86.19
274.481	92.19
274.713	75.19
274.945	92.19
275.176	100.19
275.408	87.19
275.64	96.19
275.872	74.19
276.104	92.19
276.335	92.19
276.567	114.19
276.799	119.19
277.031	109.19
277.262	97.19
277.494	85.19
277.726	92.19
277.957	89.19
278.189	93.19
278.421	87.19
278.652	79.19
278.884	85.19
279.115	80.19
279.347	75.19
279.579	88.19
279.81	89.19
280.042	103.19
280.273	102.19
280.505	96.19
280.736	107.19
280.968	77.19
281.199	81.19
281.431	94.19
281.662	89.19
281.894	105.19
282.125	97.19
282.356	120.19
282.588	156.19
282.819	122.19
283.051	97.19
283.282	89.19
283.513	90.19
283.745	93.19
283.976	97.19
284.207	96.19
284.439	87.19
284.67	72.19
284.901	84.19
285.132	88.19
285.364	75.19
285.595	91.19
285.826	94.19
286.057	90.19
286.288	93.19
286.52	88.19
286.751	83.19
286.982	90.19
287.213	80.19
287.444	93.19
287.675	88.19
287.906	86.19
288.138	74.19
288.369	91.19
288.6	95.19
288.831	92.19
289.062	92.19
289.293	77.19
289.524	86.19
289.755	94.19
289.986	87.19
290.217	91.19
290.448	66.19
290.679	99.19
290.91	88.19
291.141	80.19
291.371	96.19
291.602	70.19
291.833	85.19
292.064	92.19
292.295	93.19
292.526	96.19
292.757	81.19
292.987	86.19
293.218	83.19
293.449	96.19
293.68	98.19
293.91	94.19
294.141	103.19
294.372	88.19
294.603	92.19
294.833	87.19
295.064	98.19
295.295	88.19
295.525	108.19
295.756	107.19
295.987	120.19
296.217	150.19
296.448	130.19
296.679	108.19
296.909	96.19
297.14	80.19
297.37	76.19
297.601	97.19
297.831	96.19
298.062	97.19
298.292	95.19
298.523	96.19
298.753	90.19
298.984	97.19
299.214	101.19
299.445	86.19
299.675	86.19
299.905	103.19
300.136	87.19
300.366	90.19
300.597	88.19
300.827	91.19
301.057	109.19
301.288	112.19
301.518	92.19
301.748	97.19
301.979	106.19
302.209	97.19
302.439	82.19
302.669	101.19
302.9	99.19
303.13	94.19
303.36	104.19
303.59	112.19
303.82	135.19
304.051	93.19
304.281	79.19
304.511	84.19
304.741	91.19
304.971	93.19
305.201	91.19
305.431	85.19
305.661	90.19
305.891	88.19
306.121	120.19
306.352	117.19
306.582	120.19
306.812	96.19
307.042	91.19
307.272	87.19
307.502	106.19
307.731	102.19
307.961	93.19
308.191	86.19
308.421	89.19
308.651	89.19
308.881	107.19
309.111	100.19
309.341	102.19
309.571	107.19
309.8	95.19
310.03	98.19
310.26	95.19
310.49	109.19
310.72	89.19
310.949	115.19
311.179	119.19
311.409	89.19
311.639	90.19
311.868	92.19
312.098	111.19
312.328	100.19
312.557	117.19
312.787	108.19
313.017	115.19
313.246	95.19
313.476	98.19
313.706	106.19
313.935	103.19
314.165	94.19
314.394	124.19
314.624	91.19
314.853	108.19
315.083	107.19
315.312	104.19
315.542	84.19
315.771	77.19
316.001	84.19
316.23	94.19
316.46	88.19
316.689	107.19
316.919	98.19
317.148	81.19
317.377	99.19
317.607	106.19
317.836	94.19
318.065	88.19
318.295	99.19
318.524	95.19
318.753	80.19
318.983	96.19
319.212	97.19
319.441	104.19
319.67	115.19
319.9	93.19
320.129	100.19
320.358	96.19
320.587	87.19
320.816	105.19
321.046	106.19
321.275	93.19
321.504	99.19
321.733	93.19
321.962	99.19
322.191	96.19
322.42	118.19
322.649	105.19
322.878	124.19
323.108	135.19
323.337	151.19
323.566	149.19
323.795	184.19
324.024	231.19
324.253	468.19
324.482	992.19
324.71	2129.19
324.939	2812.19
325.168	1047.19
325.397	299.19
325.626	165.19
325.855	140.19
326.084	149.19
326.313	149.19
326.542	182.19
326.77	252.19
326.999	507.19
327.228	1101.19
327.457	2067.19
327.686	1622.19
327.914	448.19
328.143	252.19
328.372	217.19
328.6	166.19
328.829	150.19
329.058	169.19
329.287	163.19
329.515	135.19
329.744	122.19
329.972	132.19
330.201	216.19
330.43	260.19
330.658	201.19
330.887	173.19
331.115	155.19
331.344	102.19
331.572	102.19
331.801	104.19
332.03	120.19
332.258	120.19
332.486	107.19
332.715	97.19
332.943	103.19
333.172	92.19
333.4	100.19
333.629	124.19
333.857	126.19
334.085	138.19
334.314	209.19
334.542	324.19
334.771	314.19
334.999	150.19
335.227	103.19
335.455	102.19
335.684	117.19
335.912	100.19
336.14	106.19
336.369	98.19
336.597	93.19
336.825	103.19
337.053	93.19
337.281	93.19
337.51	104.19
337.738	99.19
337.966	75.19
338.194	99.19
338.422	101.19
338.65	95.19
338.878	101.19
339.106	83.19
339.334	103.19
339.562	91.19
339.79	91.19
340.018	103.19
340.246	93.19
340.474	113.19
340.702	103.19
340.93	95.19
341.158	87.19
341.386	102.19
341.614	83.19
341.842	106.19
342.07	112.19
342.298	96.19
342.526	71.19
342.754	82.19
342.981	84.19
343.209	85.19
343.437	95.19
343.665	85.19
343.893	83.19
344.12	97.19
344.348	84.19
344.576	103.19
344.804	103.19
345.031	109.19
345.259	108.19
345.487	102.19
345.714	108.19
345.942	99.19
346.17	93.19
346.397	93.19
346.625	90.19
346.853	87.19
347.08	91.19
347.308	98.19
347.535	115.19
347.763	118.19
347.99	120.19
348.218	108.19
348.445	107.19
348.673	106.19
348.9	105.19
349.128	95.19
349.355	89.19
349.583	80.19
349.81	101.19
350.037	88.19
350.265	101.19
350.492	92.19
350.72	97.19
350.947	111.19
351.174	115.19
351.402	128.19
351.629	104.19
351.856	102.19
352.083	110.19
352.311	113.19
352.538	116.19
352.765	109.19
352.992	131.19
353.22	130.19
353.447	118.19
353.674	94.19
353.901	89.19
354.128	109.19
354.355	90.19
354.583	106.19
354.81	93.19
355.037	89.19
355.264	83.19
355.491	100.19
355.718	87.19
355.945	81.19
356.172	87.19
356.399	94.19
356.626	92.19
356.853	100.19
357.08	103.19
357.307	82.19
357.534	94.19
357.761	86.19
357.988	104.19
358.215	86.19
358.441	99.19
358.668	88.19
358.895	82.19
359.122	85.19
359.349	87.19
359.576	93.19
359.802	89.19
360.029	128.19
360.256	138.19
360.483	117.19
360.709	95.19
360.936	103.19
361.163	99.19
361.39	98.19
361.616	109.19
361.843	104.19
362.07	108.19
362.296	106.19
362.523	97.19
362.749	92.19
362.976	86.19
363.203	93.19
363.429	84.19
363.656	91.19
363.882	102.19
364.109	94.19
364.335	99.19
364.562	89.19
364.788	98.19
365.015	96.19
365.241	107.19
365.468	126.19
365.694	108.19
365.92	113.19
366.147	101.19
366.373	84.19
366.599	112.19
366.826	105.19
367.052	88.19
367.278	90.19
367.505	92.19
367.731	99.19
367.957	97.19
368.184	115.19
368.41	109.19
368.636	136.19
368.862	145.19
369.089	106.19
369.315	108.19
369.541	91.19
369.767	86.19
369.993	104.19
370.219	105.19
370.445	95.19
370.672	81.19
370.898	85.19
371.124	95.19
371.35	110.19
371.576	92.19
371.802	80.19
372.028	88.19
372.254	98.19
372.48	84.19
372.706	86.19
372.932	84.19
373.158	80.19
373.384	77.19
373.61	100.19
373.835	109.19
374.061	91.19
374.287	96.19
374.513	90.19
374.739	88.19
374.965	91.19
375.191	77.19
375.416	82.19
375.642	100.19
375.868	111.19
376.094	70.19
376.319	85.19
376.545	86.19
376.771	94.19
376.997	94.19
377.222	79.19
377.448	81.19
377.674	93.19
377.899	101.19
378.125	86.19
378.35	105.19
378.576	95.19
378.802	80.19
379.027	73.19
379.253	88.19
379.478	81.19
379.704	83.19
379.929	74.19
380.155	91.19
380.38	81.19
380.606	93.19
380.831	102.19
381.057	107.19
381.282	92.19
381.507	76.19
381.733	89.19
381.958	93.19
382.184	81.19
382.409	108.19
382.634	103.19
382.86	100.19
383.085	98.19
383.31	97.19
383.535	96.19
383.761	96.19
383.986	100.19
384.211	85.19
384.436	98.19
384.662	89.19
384.887	97.19
385.112	86.19
385.337	98.19
385.562	84.19
385.787	104.19
386.013	104.19
386.238	129.19
386.463	110.19
386.688	106.19
386.913	93.19
387.138	109.19
387.363	93.19
387.588	92.19
387.813	114.19
388.038	113.19
388.263	97.19
388.488	106.19
388.713	85.19
388.938	100.19
389.163	97.19
389.387	94.19
389.612	97.19
389.837	90.19
390.062	92.19
390.287	89.19
390.512	87.19
390.736	90.19
390.961	90.19
391.186	98.19
391.411	89.19
391.636	89.19
391.86	86.19
392.085	96.19
392.31	91.19
392.534	89.19
392.759	92.19
392.984	88.19
393.208	89.19
393.433	85.19
393.658	88.19
393.882	82.19
394.107	78.19
394.331	92.19
394.556	86.19
394.78	90.19
395.005	79.19
395.229	84.19
395.454	82.19
395.678	86.19
395.903	88.19
396.127	102.19
396.352	83.19
396.576	84.19
396.801	96.19
397.025	89.19
397.249	90.19
397.474	93.19
397.698	89.19
397.922	85.19
398.147	95.19
398.371	78.19
398.595	91.19
398.82	93.19
399.044	101.19
399.268	88.19
399.492	105.19
399.717	90.19
399.941	97.19
400.165	94.19
400.389	72.19
400.613	107.19
400.837	98.19
401.062	97.19
401.286	99.19
401.51	97.19
401.734	90.19
401.958	100.19
402.182	149.19
402.406	193.19
402.63	138.19
402.854	110.19
403.078	100.19
403.302	100.19
403.526	88.19
403.75	98.19
403.974	79.19
404.198	80.19
404.422	91.19
404.645	92.19
404.869	89.19
405.093	108.19
405.317	107.19
405.541	120.19
405.765	110.19
405.988	128.19
406.212	204.19
406.436	283.19
406.66	192.19
406.883	130.19
407.107	79.19
407.331	104.19
407.555	123.19
407.778	106.19
408.002	96.19
408.226	96.19
408.449	74.19
408.673	86.19
408.896	88.19
409.12	93.19
409.344	88.19
409.567	91.19
409.791	87.19
410.014	92.19
410.238	100.19
410.461	96.19
410.685	87.19
410.908	104.19
411.132	112.19
411.355	114.19
411.578	101.19
411.802	91.19
412.025	79.19
412.249	106.19
412.472	99.19
412.695	94.19
412.919	99.19
413.142	78.19
413.365	70.19
413.589	77.19
413.812	92.19
414.035	89.19
414.258	72.19
414.482	88.19
414.705	88.19
414.928	85.19
415.151	88.19
415.374	96.19
415.597	100.19
415.821	99.19
416.044	88.19
416.267	79.19
416.49	88.19
416.713	102.19
416.936	99.19
417.159	85.19
417.382	84.19
417.605	91.19
417.828	107.19
418.051	81.19
418.274	101.19
418.497	96.19
418.72	80.19
418.943	83.19
419.166	98.19
419.389	88.19
419.611	85.19
419.834	96.19
420.057	86.19
420.28	87.19
420.503	89.19
420.726	91.19
420.948	94.19
421.171	100.19
421.394	96.19
421.617	86.19
421.839	94.19
422.062	89.19
422.285	96.19
422.507	96.19
422.73	119.19
422.953	85.19
423.175	91.19
423.398	77.19
423.621	97.19
423.843	95.19
424.066	89.19
424.288	105.19
424.511	88.19
424.733	101.19
424.956	115.19
425.178	100.19
425.401	112.19
425.623	116.19
425.846	90.19
426.068	94.19
426.291	97.19
426.513	68.19
426.735	95.19
426.958	97.19
427.18	123.19
427.402	169.19
427.625	215.19
427.847	180.19
428.069	152.19
428.292	99.19
428.514	80.19
428.736	83.19
428.958	89.19
429.181	86.19
429.403	97.19
429.625	91.19
429.847	108.19
430.069	102.19
430.292	91.19
430.514	82.19
430.736	89.19
430.958	89.19
431.18	83.19
431.402	80.19
431.624	76.19
431.846	97.19
432.068	84.19
432.29	88.19
432.512	90.19
432.734	97.19
432.956	95.19
433.178	91.19
433.4	97.19
433.622	100.19
433.844	95.19
434.066	94.19
434.287	91.19
434.509	106.19
434.731	97.19
434.953	82.19
435.175	88.19
435.397	84.19
435.618	99.19
435.84	113.19
436.062	142.19
436.284	124.19
436.505	105.19
436.727	114.19
436.949	96.19
437.17	82.19
437.392	84.19
437.614	97.19
437.835	127.19
438.057	140.19
438.278	138.19
438.5	122.19
438.721	123.19
438.943	110.19
439.165	95.19
439.386	83.19
439.608	76.19
439.829	103.19
440.05	129.19
440.272	172.19
440.493	114.19
440.715	93.19
440.936	84.19
441.158	93.19
441.379	98.19
441.6	105.19
441.822	116.19
442.043	103.19
442.264	122.19
442.486	122.19
442.707	100.19
442.928	128.19
443.149	164.19
443.371	147.19
443.592	130.19
443.813	119.19
444.034	118.19
444.255	83.19
444.476	77.19
444.698	96.19
444.919	86.19
445.14	139.19
445.361	124.19
445.582	146.19
445.803	169.19
446.024	175.19
446.245	145.19
446.466	124.19
446.687	98.19
446.908	84.19
447.129	91.19
447.35	90.19
447.571	83.19
447.792	99.19
448.013	105.19
448.234	116.19
448.455	123.19
448.675	139.19
448.896	140.19
449.117	117.19
449.338	113.19
449.559	130.19
449.779	153.19
450	99.19
450.221	87.19
450.442	80.19
450.662	112.19
450.883	118.19
451.104	123.19
451.324	102.19
451.545	102.19
451.766	78.19
451.986	99.19
452.207	92.19
452.428	99.19
452.648	109.19
452.869	122.19
453.089	138.19
453.31	147.19
453.53	102.19
453.751	92.19
453.971	127.19
454.192	138.19
454.412	113.19
454.633	85.19
454.853	100.19
455.073	77.19
455.294	101.19
455.514	113.19
455.734	93.19
455.955	78.19
456.175	80.19
456.395	96.19
456.616	93.19
456.836	91.19
457.056	87.19
457.276	74.19
457.497	75.19
457.717	84.19
457.937	95.19
458.157	104.19
458.377	97.19
458.598	96.19
458.818	186.19
459.038	221.19
459.258	130.19
459.478	86.19
459.698	96.19
459.918	90.19
460.138	97.19
460.358	86.19
460.578	82.19
460.798	96.19
461.018	83.19
461.238	78.19
461.458	96.19
461.678	91.19
461.898	82.19
462.118	107.19
462.338	106.19
462.558	92.19
462.777	94.19
462.997	84.19
463.217	85.19
463.437	93.19
463.657	85.19
463.876	86.19
464.096	82.19
464.316	92.19
464.536	95.19
464.755	103.19
464.975	110.19
465.195	225.19
465.414	212.19
465.634	97.19
465.854	95.19
466.073	91.19
466.293	93.19
466.512	83.19
466.732	96.19
466.951	96.19
467.171	87.19
467.391	106.19
467.61	101.19
467.829	119.19
468.049	148.19
468.268	183.19
468.488	93.19
468.707	74.19
468.927	99.19
469.146	74.19
469.365	102.19
469.585	92.19
469.804	103.19
470.023	103.19
470.243	94.19
470.462	123.19
470.681	128.19
470.901	92.19
471.12	83.19
471.339	85.19
471.558	104.19
471.777	84.19
471.997	109.19
472.216	202.19
472.435	354.19
472.654	141.19
472.873	96.19
473.092	82.19
473.311	89.19
473.53	84.19
473.749	92.19
473.968	97.19
474.187	111.19
474.406	109.19
474.625	103.19
474.844	104.19
475.063	81.19
475.282	84.19
475.501	81.19
475.72	102.19
475.939	106.19
476.158	72.19
476.377	93.19
476.596	89.19
476.814	94.19
477.033	100.19
477.252	88.19
477.471	70.19
477.69	82.19
477.908	102.19
478.127	89.19
478.346	94.19
478.564	91.19
478.783	82.19
479.002	84.19
479.22	95.19
479.439	99.19
479.658	109.19
479.876	98.19
480.095	98.19
480.313	95.19
480.532	102.19
480.751	113.19
480.969	193.19
481.188	593.19
481.406	389.19
481.624	132.19
481.843	100.19
482.061	87.19
482.28	92.19
482.498	96.19
482.717	96.19
482.935	88.19
483.153	97.19
483.372	85.19
483.59	91.19
483.808	86.19
484.027	85.19
484.245	84.19
484.463	98.19
484.681	89.19
484.9	101.19
485.118	104.19
485.336	91.19
485.554	105.19
485.772	94.19
485.99	86.19
486.209	95.19
486.427	100.19
486.645	104.19
486.863	134.19
487.081	106.19
487.299	89.19
487.517	94.19
487.735	92.19
487.953	84.19
488.171	99.19
488.389	96.19
488.607	103.19
488.825	85.19
489.043	81.19
489.261	85.19
489.479	90.19
489.696	87.19
489.914	89.19
490.132	69.19
490.35	100.19
490.568	86.19
490.786	93.19
491.003	84.19
491.221	97.19
491.439	99.19
491.657	90.19
491.874	91.19
492.092	88.19
492.31	96.19
492.527	97.19
492.745	100.19
492.963	84.19
493.18	106.19
493.398	90.19
493.615	97.19
493.833	94.19
494.05	102.19
494.268	89.19
494.485	85.19
494.703	93.19
494.92	89.19
495.138	90.19
495.355	85.19
495.573	97.19
495.79	103.19
496.008	93.19
496.225	86.19
496.442	87.19
496.66	92.19
496.877	78.19
497.094	101.19
497.312	100.19
497.529	89.19
497.746	86.19
497.963	90.19
498.181	102.19
498.398	105.19
498.615	118.19
498.832	105.19
499.049	99.19
499.267	84.19
499.484	92.19
499.701	78.19
499.918	90.19
500.135	91.19
500.352	103.19
500.569	89.19
500.786	101.19
501.003	98.19
501.22	97.19
501.437	100.19
501.654	93.19
501.871	109.19
502.088	107.19
502.305	99.19
502.522	98.19
502.739	93.19
502.956	81.19
503.172	101.19
503.389	98.19
503.606	101.19
503.823	112.19
504.04	97.19
504.256	91.19
504.473	107.19
504.69	81.19
504.907	95.19
505.123	94.19
505.34	94.19
505.557	105.19
505.773	96.19
505.99	99.19
506.207	109.19
506.423	101.19
506.64	85.19
506.856	85.19
507.073	86.19
507.289	95.19
507.506	100.19
507.722	107.19
507.939	116.19
508.155	125.19
508.372	86.19
508.588	90.19
508.805	87.19
509.021	96.19
509.238	102.19
509.454	98.19
509.67	98.19
509.887	107.19
510.103	154.19
510.319	234.19
510.536	916.19
510.752	3165.19
510.968	905.19
511.184	187.19
511.401	130.19
511.617	95.19
511.833	108.19
512.049	103.19
512.265	78.19
512.481	101.19
512.698	93.19
512.914	92.19
513.13	107.19
513.346	94.19
513.562	102.19
513.778	95.19
513.994	96.19
514.21	116.19
