Data from Circ_2022_H10_HRD10591_00041.txt Node
Date: Wed Jan 03 09:53:45 EST 2024
User: Yrep
Spectrometer: HR+D1059
Trigger mode: 1
Integration Time (sec): 1.000000E-1
Scans to average: 1
Electric dark correction enabled: true
Nonlinearity correction enabled: false
Boxcar width: 0
XAxis mode: Wavelengths
Number of Pixels in Spectrum: 2048
>>>>>Begin Spectral Data<<<<<
223.165	-5.81
223.4	-5.81
223.635	-5.81
223.869	-29.81
224.104	-17.81
224.338	-17.81
224.573	-17.81
224.808	-4.81
225.042	-0.81
225.277	-9.81
225.511	-1.81
225.746	2.19
225.98	-3.81
226.215	12.19
226.449	23.19
226.683	16.19
226.918	31.19
227.152	25.19
227.387	42.19
227.621	48.19
227.856	41.19
228.09	50.19
228.324	68.19
228.559	59.19
228.793	66.19
229.027	68.19
229.262	69.19
229.496	53.19
229.73	91.19
229.964	83.19
230.199	79.19
230.433	82.19
230.667	88.19
230.901	79.19
231.136	88.19
231.37	78.19
231.604	89.19
231.838	88.19
232.072	64.19
232.306	81.19
232.541	82.19
232.775	78.19
233.009	87.19
233.243	78.19
233.477	81.19
233.711	76.19
233.945	87.19
234.179	86.19
234.413	84.19
234.647	86.19
234.881	69.19
235.115	86.19
235.349	86.19
235.583	86.19
235.817	76.19
236.051	76.19
236.285	81.19
236.519	78.19
236.753	91.19
236.987	81.19
237.221	79.19
237.455	75.19
237.689	83.19
237.922	74.19
238.156	76.19
238.39	89.19
238.624	73.19
238.858	81.19
239.091	80.19
239.325	77.19
239.559	86.19
239.793	75.19
240.027	76.19
240.26	71.19
240.494	76.19
240.728	69.19
240.961	76.19
241.195	90.19
241.429	81.19
241.662	85.19
241.896	75.19
242.13	84.19
242.363	76.19
242.597	76.19
242.83	87.19
243.064	81.19
243.298	79.19
243.531	72.19
243.765	80.19
243.998	86.19
244.232	77.19
244.465	79.19
244.699	79.19
244.932	79.19
245.166	71.19
245.399	81.19
245.633	67.19
245.866	60.19
246.099	78.19
246.333	87.19
246.566	80.19
246.8	87.19
247.033	84.19
247.266	71.19
247.5	82.19
247.733	64.19
247.966	81.19
248.2	88.19
248.433	80.19
248.666	85.19
248.899	95.19
249.133	80.19
249.366	94.19
249.599	93.19
249.832	77.19
250.066	89.19
250.299	80.19
250.532	81.19
250.765	63.19
250.998	95.19
251.231	91.19
251.465	88.19
251.698	91.19
251.931	74.19
252.164	89.19
252.397	73.19
252.63	84.19
252.863	65.19
253.096	74.19
253.329	66.19
253.562	85.19
253.795	89.19
254.028	74.19
254.261	74.19
254.494	81.19
254.727	83.19
254.96	87.19
255.193	86.19
255.426	88.19
255.659	83.19
255.892	87.19
256.124	82.19
256.357	91.19
256.59	80.19
256.823	81.19
257.056	83.19
257.289	88.19
257.521	102.19
257.754	80.19
257.987	82.19
258.22	95.19
258.452	81.19
258.685	76.19
258.918	85.19
259.151	80.19
259.383	89.19
259.616	71.19
259.849	80.19
260.081	80.19
260.314	78.19
260.547	70.19
260.779	80.19
261.012	94.19
261.244	104.19
261.477	98.19
261.71	106.19
261.942	131.19
262.175	130.19
262.407	96.19
262.64	76.19
262.872	76.19
263.105	86.19
263.337	80.19
263.57	86.19
263.802	91.19
264.035	85.19
264.267	95.19
264.499	88.19
264.732	81.19
264.964	86.19
265.197	88.19
265.429	84.19
265.661	91.19
265.894	88.19
266.126	84.19
266.358	87.19
266.591	80.19
266.823	91.19
267.055	80.19
267.287	93.19
267.52	86.19
267.752	85.19
267.984	85.19
268.216	74.19
268.448	96.19
268.681	84.19
268.913	79.19
269.145	86.19
269.377	90.19
269.609	80.19
269.841	90.19
270.073	91.19
270.306	92.19
270.538	89.19
270.77	92.19
271.002	79.19
271.234	82.19
271.466	84.19
271.698	83.19
271.93	97.19
272.162	89.19
272.394	84.19
272.626	86.19
272.858	86.19
273.09	94.19
273.322	83.19
273.553	82.19
273.785	91.19
274.017	79.19
274.249	87.19
274.481	72.19
274.713	90.19
274.945	99.19
275.176	83.19
275.408	83.19
275.64	90.19
275.872	84.19
276.104	96.19
276.335	87.19
276.567	95.19
276.799	119.19
277.031	95.19
277.262	110.19
277.494	95.19
277.726	92.19
277.957	102.19
278.189	84.19
278.421	78.19
278.652	78.19
278.884	84.19
279.115	84.19
279.347	79.19
279.579	89.19
279.81	88.19
280.042	82.19
280.273	104.19
280.505	80.19
280.736	63.19
280.968	73.19
281.199	85.19
281.431	90.19
281.662	75.19
281.894	74.19
282.125	101.19
282.356	135.19
282.588	155.19
282.819	123.19
283.051	99.19
283.282	84.19
283.513	86.19
283.745	79.19
283.976	87.19
284.207	76.19
284.439	111.19
284.67	92.19
284.901	79.19
285.132	90.19
285.364	118.19
285.595	91.19
285.826	88.19
286.057	98.19
286.288	97.19
286.52	83.19
286.751	96.19
286.982	93.19
287.213	103.19
287.444	99.19
287.675	108.19
287.906	96.19
288.138	92.19
288.369	105.19
288.6	97.19
288.831	87.19
289.062	76.19
289.293	84.19
289.524	83.19
289.755	92.19
289.986	83.19
290.217	89.19
290.448	71.19
290.679	98.19
290.91	82.19
291.141	99.19
291.371	94.19
291.602	83.19
291.833	85.19
292.064	86.19
292.295	99.19
292.526	81.19
292.757	85.19
292.987	89.19
293.218	92.19
293.449	97.19
293.68	87.19
293.91	89.19
294.141	93.19
294.372	86.19
294.603	102.19
294.833	94.19
295.064	88.19
295.295	89.19
295.525	102.19
295.756	110.19
295.987	110.19
296.217	157.19
296.448	139.19
296.679	83.19
296.909	95.19
297.14	89.19
297.37	83.19
297.601	99.19
297.831	89.19
298.062	81.19
298.292	97.19
298.523	92.19
298.753	80.19
298.984	77.19
299.214	90.19
299.445	95.19
299.675	97.19
299.905	97.19
300.136	81.19
300.366	83.19
300.597	89.19
300.827	112.19
301.057	119.19
301.288	98.19
301.518	89.19
301.748	72.19
301.979	93.19
302.209	91.19
302.439	98.19
302.669	82.19
302.9	82.19
303.13	104.19
303.36	94.19
303.59	112.19
303.82	98.19
304.051	97.19
304.281	86.19
304.511	84.19
304.741	87.19
304.971	89.19
305.201	94.19
305.431	89.19
305.661	84.19
305.891	94.19
306.121	91.19
306.352	98.19
306.582	122.19
306.812	99.19
307.042	84.19
307.272	88.19
307.502	104.19
307.731	89.19
307.961	93.19
308.191	100.19
308.421	91.19
308.651	96.19
308.881	96.19
309.111	95.19
309.341	95.19
309.571	92.19
309.8	113.19
310.03	91.19
310.26	102.19
310.49	86.19
310.72	113.19
310.949	117.19
311.179	110.19
311.409	87.19
311.639	84.19
311.868	91.19
312.098	100.19
312.328	97.19
312.557	105.19
312.787	125.19
313.017	105.19
313.246	89.19
313.476	90.19
313.706	88.19
313.935	95.19
314.165	83.19
314.394	106.19
314.624	96.19
314.853	109.19
315.083	105.19
315.312	98.19
315.542	88.19
315.771	97.19
316.001	97.19
316.23	81.19
316.46	100.19
316.689	106.19
316.919	102.19
317.148	80.19
317.377	94.19
317.607	88.19
317.836	94.19
318.065	84.19
318.295	94.19
318.524	90.19
318.753	102.19
318.983	89.19
319.212	113.19
319.441	112.19
319.67	114.19
319.9	95.19
320.129	98.19
320.358	96.19
320.587	101.19
320.816	115.19
321.046	106.19
321.275	87.19
321.504	80.19
321.733	99.19
321.962	105.19
322.191	100.19
322.42	115.19
322.649	119.19
322.878	112.19
323.108	138.19
323.337	140.19
323.566	144.19
323.795	170.19
324.024	231.19
324.253	462.19
324.482	990.19
324.71	2017.19
324.939	2728.19
325.168	992.19
325.397	286.19
325.626	157.19
325.855	153.19
326.084	132.19
326.313	143.19
326.542	174.19
326.77	254.19
326.999	513.19
327.228	1042.19
327.457	1998.19
327.686	1593.19
327.914	431.19
328.143	231.19
328.372	174.19
328.6	151.19
328.829	121.19
329.058	134.19
329.287	143.19
329.515	104.19
329.744	105.19
329.972	134.19
330.201	144.19
330.43	177.19
330.658	154.19
330.887	167.19
331.115	147.19
331.344	101.19
331.572	102.19
331.801	106.19
332.03	113.19
332.258	98.19
332.486	98.19
332.715	96.19
332.943	92.19
333.172	94.19
333.4	99.19
333.629	127.19
333.857	120.19
334.085	132.19
334.314	136.19
334.542	174.19
334.771	163.19
334.999	124.19
335.227	91.19
335.455	106.19
335.684	86.19
335.912	91.19
336.14	91.19
336.369	101.19
336.597	114.19
336.825	103.19
337.053	89.19
337.281	94.19
337.51	115.19
337.738	112.19
337.966	106.19
338.194	99.19
338.422	85.19
338.65	86.19
338.878	110.19
339.106	94.19
339.334	83.19
339.562	69.19
339.79	91.19
340.018	92.19
340.246	89.19
340.474	98.19
340.702	94.19
340.93	90.19
341.158	89.19
341.386	92.19
341.614	100.19
341.842	91.19
342.07	91.19
342.298	97.19
342.526	88.19
342.754	91.19
342.981	87.19
343.209	90.19
343.437	106.19
343.665	87.19
343.893	91.19
344.12	101.19
344.348	87.19
344.576	87.19
344.804	89.19
345.031	90.19
345.259	96.19
345.487	96.19
345.714	95.19
345.942	97.19
346.17	81.19
346.397	90.19
346.625	87.19
346.853	94.19
347.08	105.19
347.308	79.19
347.535	101.19
347.763	106.19
347.99	106.19
348.218	106.19
348.445	136.19
348.673	113.19
348.9	96.19
349.128	83.19
349.355	82.19
349.583	94.19
349.81	90.19
350.037	108.19
350.265	107.19
350.492	89.19
350.72	92.19
350.947	102.19
351.174	103.19
351.402	121.19
351.629	112.19
351.856	104.19
352.083	116.19
352.311	107.19
352.538	111.19
352.765	112.19
352.992	133.19
353.22	126.19
353.447	108.19
353.674	100.19
353.901	84.19
354.128	87.19
354.355	95.19
354.583	110.19
354.81	105.19
355.037	100.19
355.264	103.19
355.491	91.19
355.718	86.19
355.945	104.19
356.172	97.19
356.399	100.19
356.626	100.19
356.853	94.19
357.08	85.19
357.307	99.19
357.534	101.19
357.761	81.19
357.988	81.19
358.215	101.19
358.441	100.19
358.668	97.19
358.895	102.19
359.122	98.19
359.349	89.19
359.576	100.19
359.802	121.19
360.029	129.19
360.256	130.19
360.483	111.19
360.709	89.19
360.936	99.19
361.163	111.19
361.39	105.19
361.616	93.19
361.843	97.19
362.07	105.19
362.296	95.19
362.523	95.19
362.749	98.19
362.976	96.19
363.203	91.19
363.429	88.19
363.656	85.19
363.882	97.19
364.109	93.19
364.335	92.19
364.562	85.19
364.788	87.19
365.015	92.19
365.241	105.19
365.468	119.19
365.694	105.19
365.92	105.19
366.147	91.19
366.373	81.19
366.599	81.19
366.826	102.19
367.052	88.19
367.278	92.19
367.505	82.19
367.731	105.19
367.957	97.19
368.184	101.19
368.41	101.19
368.636	125.19
368.862	123.19
369.089	114.19
369.315	98.19
369.541	88.19
369.767	98.19
369.993	86.19
370.219	76.19
370.445	98.19
370.672	76.19
370.898	87.19
371.124	90.19
371.35	91.19
371.576	102.19
371.802	78.19
372.028	86.19
372.254	93.19
372.48	87.19
372.706	85.19
372.932	86.19
373.158	98.19
373.384	99.19
373.61	102.19
373.835	92.19
374.061	90.19
374.287	99.19
374.513	93.19
374.739	89.19
374.965	110.19
375.191	98.19
375.416	92.19
375.642	100.19
375.868	104.19
376.094	101.19
376.319	82.19
376.545	91.19
376.771	79.19
376.997	95.19
377.222	85.19
377.448	102.19
377.674	98.19
377.899	74.19
378.125	71.19
378.35	94.19
378.576	93.19
378.802	97.19
379.027	94.19
379.253	91.19
379.478	96.19
379.704	88.19
379.929	102.19
380.155	83.19
380.38	100.19
380.606	87.19
380.831	87.19
381.057	101.19
381.282	100.19
381.507	108.19
381.733	98.19
381.958	90.19
382.184	100.19
382.409	98.19
382.634	106.19
382.86	101.19
383.085	97.19
383.31	91.19
383.535	97.19
383.761	104.19
383.986	97.19
384.211	92.19
384.436	91.19
384.662	98.19
384.887	112.19
385.112	120.19
385.337	105.19
385.562	100.19
385.787	105.19
386.013	112.19
386.238	116.19
386.463	109.19
386.688	126.19
386.913	94.19
387.138	92.19
387.363	112.19
387.588	103.19
387.813	96.19
388.038	90.19
388.263	110.19
388.488	100.19
388.713	97.19
388.938	73.19
389.163	83.19
389.387	90.19
389.612	88.19
389.837	85.19
390.062	102.19
390.287	102.19
390.512	86.19
390.736	100.19
390.961	89.19
391.186	71.19
391.411	79.19
391.636	96.19
391.86	99.19
392.085	92.19
392.31	86.19
392.534	88.19
392.759	89.19
392.984	72.19
393.208	84.19
393.433	92.19
393.658	95.19
393.882	80.19
394.107	91.19
394.331	90.19
394.556	76.19
394.78	88.19
395.005	101.19
395.229	84.19
395.454	84.19
395.678	93.19
395.903	87.19
396.127	92.19
396.352	90.19
396.576	81.19
396.801	96.19
397.025	97.19
397.249	83.19
397.474	84.19
397.698	100.19
397.922	99.19
398.147	88.19
398.371	88.19
398.595	76.19
398.82	91.19
399.044	82.19
399.268	82.19
399.492	93.19
399.717	89.19
399.941	101.19
400.165	98.19
400.389	104.19
400.613	92.19
400.837	86.19
401.062	91.19
401.286	101.19
401.51	71.19
401.734	90.19
401.958	104.19
402.182	139.19
402.406	180.19
402.63	150.19
402.854	98.19
403.078	88.19
403.302	90.19
403.526	98.19
403.75	96.19
403.974	87.19
404.198	79.19
404.422	87.19
404.645	97.19
404.869	103.19
405.093	94.19
405.317	109.19
405.541	107.19
405.765	104.19
405.988	136.19
406.212	208.19
406.436	283.19
406.66	193.19
406.883	118.19
407.107	82.19
407.331	93.19
407.555	105.19
407.778	109.19
408.002	94.19
408.226	92.19
408.449	91.19
408.673	92.19
408.896	90.19
409.12	98.19
409.344	76.19
409.567	81.19
409.791	98.19
410.014	92.19
410.238	98.19
410.461	108.19
410.685	80.19
410.908	99.19
411.132	103.19
411.355	107.19
411.578	101.19
411.802	99.19
412.025	94.19
412.249	81.19
412.472	97.19
412.695	105.19
412.919	106.19
413.142	100.19
413.365	91.19
413.589	85.19
413.812	82.19
414.035	98.19
414.258	97.19
414.482	90.19
414.705	85.19
414.928	103.19
415.151	99.19
415.374	87.19
415.597	98.19
415.821	90.19
416.044	79.19
416.267	86.19
416.49	92.19
416.713	88.19
416.936	88.19
417.159	88.19
417.382	88.19
417.605	91.19
417.828	97.19
418.051	88.19
418.274	81.19
418.497	90.19
418.72	82.19
418.943	84.19
419.166	93.19
419.389	85.19
419.611	84.19
419.834	82.19
420.057	88.19
420.28	67.19
420.503	79.19
420.726	82.19
420.948	74.19
421.171	75.19
421.394	91.19
421.617	88.19
421.839	101.19
422.062	95.19
422.285	98.19
422.507	106.19
422.73	121.19
422.953	102.19
423.175	82.19
423.398	96.19
423.621	100.19
423.843	77.19
424.066	72.19
424.288	69.19
424.511	106.19
424.733	111.19
424.956	126.19
425.178	99.19
425.401	113.19
425.623	91.19
425.846	96.19
426.068	104.19
426.291	103.19
426.513	96.19
426.735	88.19
426.958	95.19
427.18	118.19
427.402	156.19
427.625	214.19
427.847	169.19
428.069	133.19
428.292	100.19
428.514	88.19
428.736	83.19
428.958	96.19
429.181	72.19
429.403	90.19
429.625	71.19
429.847	80.19
430.069	105.19
430.292	97.19
430.514	100.19
430.736	80.19
430.958	81.19
431.18	91.19
431.402	90.19
431.624	84.19
431.846	79.19
432.068	86.19
432.29	96.19
432.512	96.19
432.734	86.19
432.956	94.19
433.178	104.19
433.4	85.19
433.622	94.19
433.844	89.19
434.066	78.19
434.287	94.19
434.509	80.19
434.731	95.19
434.953	99.19
435.175	94.19
435.397	100.19
435.618	92.19
435.84	102.19
436.062	137.19
436.284	151.19
436.505	112.19
436.727	99.19
436.949	106.19
437.17	87.19
437.392	97.19
437.614	85.19
437.835	117.19
438.057	142.19
438.278	138.19
438.5	119.19
438.721	130.19
438.943	121.19
439.165	103.19
439.386	91.19
439.608	90.19
439.829	119.19
440.05	120.19
440.272	179.19
440.493	114.19
440.715	88.19
440.936	84.19
441.158	87.19
441.379	95.19
441.6	85.19
441.822	90.19
442.043	95.19
442.264	115.19
442.486	113.19
442.707	107.19
442.928	132.19
443.149	147.19
443.371	154.19
443.592	126.19
443.813	132.19
444.034	124.19
444.255	89.19
444.476	86.19
444.698	76.19
444.919	87.19
445.14	135.19
445.361	129.19
445.582	132.19
445.803	171.19
446.024	180.19
446.245	161.19
446.466	126.19
446.687	110.19
446.908	106.19
447.129	95.19
447.35	88.19
447.571	106.19
447.792	106.19
448.013	111.19
448.234	114.19
448.455	99.19
448.675	122.19
448.896	134.19
449.117	103.19
449.338	123.19
449.559	154.19
449.779	162.19
450	102.19
450.221	105.19
450.442	79.19
450.662	95.19
450.883	114.19
451.104	122.19
451.324	98.19
451.545	96.19
451.766	87.19
451.986	80.19
452.207	95.19
452.428	95.19
452.648	111.19
452.869	114.19
453.089	133.19
453.31	138.19
453.53	95.19
453.751	101.19
453.971	116.19
454.192	120.19
454.412	103.19
454.633	87.19
454.853	77.19
455.073	84.19
455.294	97.19
455.514	110.19
455.734	92.19
455.955	89.19
456.175	76.19
456.395	93.19
456.616	89.19
456.836	103.19
457.056	88.19
457.276	86.19
457.497	77.19
457.717	86.19
457.937	81.19
458.157	84.19
458.377	87.19
458.598	114.19
458.818	181.19
459.038	209.19
459.258	141.19
459.478	92.19
459.698	98.19
459.918	82.19
460.138	99.19
460.358	84.19
460.578	98.19
460.798	93.19
461.018	81.19
461.238	84.19
461.458	101.19
461.678	80.19
461.898	84.19
462.118	81.19
462.338	90.19
462.558	92.19
462.777	85.19
462.997	87.19
463.217	81.19
463.437	86.19
463.657	91.19
463.876	92.19
464.096	95.19
464.316	97.19
464.536	83.19
464.755	107.19
464.975	118.19
465.195	186.19
465.414	208.19
465.634	107.19
465.854	73.19
466.073	97.19
466.293	95.19
466.512	94.19
466.732	87.19
466.951	92.19
467.171	96.19
467.391	91.19
467.61	107.19
467.829	89.19
468.049	100.19
468.268	112.19
468.488	94.19
468.707	91.19
468.927	102.19
469.146	76.19
469.365	82.19
469.585	89.19
469.804	102.19
470.023	87.19
470.243	95.19
470.462	101.19
470.681	122.19
470.901	96.19
471.12	96.19
471.339	101.19
471.558	83.19
471.777	104.19
471.997	117.19
472.216	118.19
472.435	183.19
472.654	102.19
472.873	88.19
473.092	78.19
473.311	74.19
473.53	94.19
473.749	86.19
473.968	97.19
474.187	130.19
474.406	113.19
474.625	91.19
474.844	86.19
475.063	79.19
475.282	79.19
475.501	89.19
475.72	92.19
475.939	82.19
476.158	87.19
476.377	80.19
476.596	100.19
476.814	86.19
477.033	97.19
477.252	100.19
477.471	84.19
477.69	85.19
477.908	91.19
478.127	92.19
478.346	87.19
478.564	101.19
478.783	116.19
479.002	98.19
479.22	102.19
479.439	102.19
479.658	114.19
479.876	108.19
480.095	89.19
480.313	94.19
480.532	87.19
480.751	96.19
480.969	141.19
481.188	274.19
481.406	201.19
481.624	85.19
481.843	87.19
482.061	101.19
482.28	92.19
482.498	94.19
482.717	76.19
482.935	91.19
483.153	89.19
483.372	98.19
483.59	82.19
483.808	89.19
484.027	87.19
484.245	91.19
484.463	98.19
484.681	87.19
484.9	86.19
485.118	103.19
485.336	95.19
485.554	96.19
485.772	102.19
485.99	101.19
486.209	116.19
486.427	123.19
486.645	114.19
486.863	114.19
487.081	93.19
487.299	101.19
487.517	100.19
487.735	96.19
487.953	91.19
488.171	103.19
488.389	102.19
488.607	84.19
488.825	95.19
489.043	97.19
489.261	94.19
489.479	96.19
489.696	92.19
489.914	82.19
490.132	93.19
490.35	83.19
490.568	109.19
490.786	80.19
491.003	89.19
491.221	95.19
491.439	80.19
491.657	103.19
491.874	104.19
492.092	96.19
492.31	88.19
492.527	84.19
492.745	96.19
492.963	92.19
493.18	99.19
493.398	91.19
493.615	98.19
493.833	100.19
494.05	95.19
494.268	103.19
494.485	98.19
494.703	84.19
494.92	87.19
495.138	109.19
495.355	82.19
495.573	94.19
495.79	95.19
496.008	83.19
496.225	76.19
496.442	80.19
496.66	99.19
496.877	91.19
497.094	101.19
497.312	92.19
497.529	89.19
497.746	89.19
497.963	83.19
498.181	93.19
498.398	88.19
498.615	117.19
498.832	115.19
499.049	96.19
499.267	95.19
499.484	106.19
499.701	89.19
499.918	92.19
500.135	82.19
500.352	88.19
500.569	88.19
500.786	95.19
501.003	94.19
501.22	91.19
501.437	87.19
501.654	94.19
501.871	105.19
502.088	93.19
502.305	98.19
502.522	107.19
502.739	91.19
502.956	104.19
503.172	95.19
503.389	92.19
503.606	116.19
503.823	105.19
504.04	95.19
504.256	100.19
504.473	80.19
504.69	75.19
504.907	89.19
505.123	96.19
505.34	95.19
505.557	99.19
505.773	90.19
505.99	92.19
506.207	90.19
506.423	91.19
506.64	99.19
506.856	92.19
507.073	99.19
507.289	104.19
507.506	110.19
507.722	140.19
507.939	116.19
508.155	91.19
508.372	93.19
508.588	94.19
508.805	100.19
509.021	112.19
509.238	97.19
509.454	108.19
509.67	102.19
509.887	112.19
510.103	147.19
510.319	227.19
510.536	931.19
510.752	3156.19
510.968	873.19
511.184	181.19
511.401	115.19
511.617	107.19
511.833	96.19
512.049	101.19
512.265	74.19
512.481	84.19
512.698	79.19
512.914	83.19
513.13	90.19
513.346	94.19
513.562	94.19
513.778	99.19
513.994	114.19
514.21	104.19
514.426	118.19
