Data from Circ_2022_H10_HRD10591_00037.txt Node
Date: Wed Jan 03 09:53:45 EST 2024
User: Yrep
Spectrometer: HR+D1059
Trigger mode: 1
Integration Time (sec): 1.000000E-1
Scans to average: 1
Electric dark correction enabled: true
Nonlinearity correction enabled: false
Boxcar width: 0
XAxis mode: Wavelengths
Number of Pixels in Spectrum: 2048
>>>>>Begin Spectral Data<<<<<
223.165	-5.94
223.4	-5.94
223.635	-5.94
223.869	-7.94
224.104	-17.94
224.338	-18.94
224.573	-19.94
224.808	-13.94
225.042	-8.94
225.277	-0.94
225.511	-10.94
225.746	-11.94
225.98	18.06
226.215	19.06
226.449	23.06
226.683	28.06
226.918	4.06
227.152	25.06
227.387	40.06
227.621	40.06
227.856	46.06
228.09	49.06
228.324	39.06
228.559	39.06
228.793	63.06
229.027	65.06
229.262	68.06
229.496	74.06
229.73	91.06
229.964	91.06
230.199	79.06
230.433	72.06
230.667	75.06
230.901	81.06
231.136	75.06
231.37	78.06
231.604	84.06
231.838	78.06
232.072	81.06
232.306	72.06
232.541	73.06
232.775	69.06
233.009	63.06
233.243	89.06
233.477	73.06
233.711	74.06
233.945	88.06
234.179	72.06
234.413	82.06
234.647	78.06
234.881	84.06
235.115	72.06
235.349	78.06
235.583	73.06
235.817	77.06
236.051	81.06
236.285	56.06
236.519	75.06
236.753	85.06
236.987	75.06
237.221	65.06
237.455	94.06
237.689	79.06
237.922	68.06
238.156	75.06
238.39	75.06
238.624	72.06
238.858	72.06
239.091	79.06
239.325	82.06
239.559	75.06
239.793	71.06
240.027	74.06
240.26	72.06
240.494	76.06
240.728	72.06
240.961	90.06
241.195	71.06
241.429	60.06
241.662	73.06
241.896	73.06
242.13	80.06
242.363	73.06
242.597	80.06
242.83	79.06
243.064	78.06
243.298	63.06
243.531	73.06
243.765	81.06
243.998	74.06
244.232	73.06
244.465	88.06
244.699	78.06
244.932	63.06
245.166	70.06
245.399	68.06
245.633	67.06
245.866	70.06
246.099	69.06
246.333	73.06
246.566	64.06
246.8	73.06
247.033	79.06
247.266	86.06
247.5	78.06
247.733	78.06
247.966	63.06
248.2	70.06
248.433	84.06
248.666	80.06
248.899	65.06
249.133	78.06
249.366	102.06
249.599	108.06
249.832	88.06
250.066	83.06
250.299	84.06
250.532	74.06
250.765	85.06
250.998	80.06
251.231	79.06
251.465	72.06
251.698	67.06
251.931	74.06
252.164	71.06
252.397	70.06
252.63	87.06
252.863	92.06
253.096	73.06
253.329	84.06
253.562	61.06
253.795	80.06
254.028	79.06
254.261	78.06
254.494	73.06
254.727	85.06
254.96	84.06
255.193	67.06
255.426	74.06
255.659	79.06
255.892	80.06
256.124	80.06
256.357	73.06
256.59	86.06
256.823	88.06
257.056	90.06
257.289	66.06
257.521	76.06
257.754	75.06
257.987	81.06
258.22	72.06
258.452	74.06
258.685	77.06
258.918	90.06
259.151	83.06
259.383	77.06
259.616	89.06
259.849	85.06
260.081	71.06
260.314	80.06
260.547	84.06
260.779	73.06
261.012	74.06
261.244	86.06
261.477	80.06
261.71	106.06
261.942	124.06
262.175	129.06
262.407	89.06
262.64	82.06
262.872	91.06
263.105	83.06
263.337	82.06
263.57	77.06
263.802	88.06
264.035	78.06
264.267	62.06
264.499	79.06
264.732	96.06
264.964	74.06
265.197	83.06
265.429	84.06
265.661	65.06
265.894	85.06
266.126	86.06
266.358	86.06
266.591	81.06
266.823	88.06
267.055	90.06
267.287	71.06
267.52	87.06
267.752	79.06
267.984	72.06
268.216	89.06
268.448	99.06
268.681	82.06
268.913	89.06
269.145	92.06
269.377	81.06
269.609	86.06
269.841	77.06
270.073	82.06
270.306	71.06
270.538	86.06
270.77	93.06
271.002	73.06
271.234	87.06
271.466	78.06
271.698	66.06
271.93	92.06
272.162	85.06
272.394	76.06
272.626	67.06
272.858	74.06
273.09	72.06
273.322	84.06
273.553	69.06
273.785	85.06
274.017	75.06
274.249	93.06
274.481	68.06
274.713	94.06
274.945	83.06
275.176	85.06
275.408	87.06
275.64	90.06
275.872	85.06
276.104	84.06
276.335	97.06
276.567	120.06
276.799	111.06
277.031	116.06
277.262	105.06
277.494	98.06
277.726	77.06
277.957	86.06
278.189	89.06
278.421	90.06
278.652	90.06
278.884	76.06
279.115	88.06
279.347	65.06
279.579	83.06
279.81	90.06
280.042	104.06
280.273	90.06
280.505	80.06
280.736	88.06
280.968	92.06
281.199	68.06
281.431	73.06
281.662	85.06
281.894	90.06
282.125	92.06
282.356	139.06
282.588	166.06
282.819	125.06
283.051	83.06
283.282	105.06
283.513	88.06
283.745	85.06
283.976	78.06
284.207	73.06
284.439	81.06
284.67	84.06
284.901	89.06
285.132	84.06
285.364	94.06
285.595	85.06
285.826	85.06
286.057	91.06
286.288	83.06
286.52	85.06
286.751	90.06
286.982	85.06
287.213	72.06
287.444	77.06
287.675	84.06
287.906	90.06
288.138	74.06
288.369	100.06
288.6	90.06
288.831	85.06
289.062	80.06
289.293	82.06
289.524	86.06
289.755	86.06
289.986	81.06
290.217	96.06
290.448	84.06
290.679	87.06
290.91	88.06
291.141	81.06
291.371	94.06
291.602	88.06
291.833	85.06
292.064	94.06
292.295	84.06
292.526	83.06
292.757	94.06
292.987	88.06
293.218	89.06
293.449	93.06
293.68	97.06
293.91	87.06
294.141	88.06
294.372	90.06
294.603	90.06
294.833	82.06
295.064	92.06
295.295	76.06
295.525	76.06
295.756	113.06
295.987	129.06
296.217	184.06
296.448	155.06
296.679	101.06
296.909	97.06
297.14	85.06
297.37	81.06
297.601	87.06
297.831	89.06
298.062	103.06
298.292	73.06
298.523	81.06
298.753	72.06
298.984	92.06
299.214	89.06
299.445	77.06
299.675	101.06
299.905	86.06
300.136	91.06
300.366	84.06
300.597	92.06
300.827	99.06
301.057	120.06
301.288	112.06
301.518	98.06
301.748	93.06
301.979	101.06
302.209	86.06
302.439	92.06
302.669	101.06
302.9	71.06
303.13	82.06
303.36	98.06
303.59	125.06
303.82	112.06
304.051	88.06
304.281	86.06
304.511	77.06
304.741	84.06
304.971	75.06
305.201	85.06
305.431	101.06
305.661	88.06
305.891	83.06
306.121	94.06
306.352	98.06
306.582	114.06
306.812	97.06
307.042	97.06
307.272	98.06
307.502	104.06
307.731	105.06
307.961	97.06
308.191	86.06
308.421	88.06
308.651	84.06
308.881	101.06
309.111	89.06
309.341	93.06
309.571	122.06
309.8	101.06
310.03	82.06
310.26	115.06
310.49	96.06
310.72	108.06
310.949	122.06
311.179	112.06
311.409	87.06
311.639	95.06
311.868	106.06
312.098	102.06
312.328	91.06
312.557	93.06
312.787	104.06
313.017	114.06
313.246	79.06
313.476	92.06
313.706	93.06
313.935	109.06
314.165	94.06
314.394	106.06
314.624	113.06
314.853	101.06
315.083	98.06
315.312	87.06
315.542	92.06
315.771	99.06
316.001	103.06
316.23	95.06
316.46	93.06
316.689	112.06
316.919	90.06
317.148	88.06
317.377	98.06
317.607	97.06
317.836	96.06
318.065	86.06
318.295	99.06
318.524	93.06
318.753	81.06
318.983	98.06
319.212	108.06
319.441	123.06
319.67	114.06
319.9	102.06
320.129	88.06
320.358	97.06
320.587	100.06
320.816	116.06
321.046	97.06
321.275	106.06
321.504	110.06
321.733	94.06
321.962	105.06
322.191	104.06
322.42	112.06
322.649	133.06
322.878	115.06
323.108	119.06
323.337	137.06
323.566	145.06
323.795	180.06
324.024	225.06
324.253	490.06
324.482	1075.06
324.71	2188.06
324.939	2969.06
325.168	1093.06
325.397	301.06
325.626	181.06
325.855	142.06
326.084	137.06
326.313	150.06
326.542	174.06
326.77	265.06
326.999	545.06
327.228	1147.06
327.457	2176.06
327.686	1756.06
327.914	478.06
328.143	263.06
328.372	191.06
328.6	146.06
328.829	132.06
329.058	150.06
329.287	158.06
329.515	138.06
329.744	114.06
329.972	121.06
330.201	130.06
330.43	164.06
330.658	158.06
330.887	185.06
331.115	146.06
331.344	97.06
331.572	112.06
331.801	105.06
332.03	116.06
332.258	91.06
332.486	89.06
332.715	92.06
332.943	100.06
333.172	93.06
333.4	94.06
333.629	120.06
333.857	117.06
334.085	130.06
334.314	125.06
334.542	155.06
334.771	151.06
334.999	121.06
335.227	98.06
335.455	98.06
335.684	102.06
335.912	105.06
336.14	88.06
336.369	110.06
336.597	114.06
336.825	110.06
337.053	86.06
337.281	101.06
337.51	94.06
337.738	91.06
337.966	91.06
338.194	100.06
338.422	96.06
338.65	105.06
338.878	82.06
339.106	87.06
339.334	93.06
339.562	80.06
339.79	88.06
340.018	105.06
340.246	90.06
340.474	100.06
340.702	92.06
340.93	88.06
341.158	78.06
341.386	97.06
341.614	98.06
341.842	112.06
342.07	98.06
342.298	108.06
342.526	92.06
342.754	92.06
342.981	102.06
343.209	93.06
343.437	110.06
343.665	90.06
343.893	79.06
344.12	91.06
344.348	91.06
344.576	74.06
344.804	81.06
345.031	99.06
345.259	89.06
345.487	96.06
345.714	105.06
345.942	95.06
346.17	88.06
346.397	107.06
346.625	95.06
346.853	93.06
347.08	91.06
347.308	116.06
347.535	88.06
347.763	90.06
347.99	96.06
348.218	105.06
348.445	106.06
348.673	114.06
348.9	109.06
349.128	84.06
349.355	72.06
349.583	94.06
349.81	96.06
350.037	103.06
350.265	92.06
350.492	105.06
350.72	129.06
350.947	99.06
351.174	118.06
351.402	118.06
351.629	126.06
351.856	111.06
352.083	100.06
352.311	104.06
352.538	136.06
352.765	109.06
352.992	124.06
353.22	131.06
353.447	97.06
353.674	81.06
353.901	101.06
354.128	86.06
354.355	92.06
354.583	87.06
354.81	99.06
355.037	90.06
355.264	89.06
355.491	90.06
355.718	89.06
355.945	96.06
356.172	88.06
356.399	99.06
356.626	95.06
356.853	92.06
357.08	93.06
357.307	98.06
357.534	87.06
357.761	99.06
357.988	89.06
358.215	99.06
358.441	106.06
358.668	92.06
358.895	94.06
359.122	94.06
359.349	80.06
359.576	84.06
359.802	103.06
360.029	130.06
360.256	134.06
360.483	121.06
360.709	95.06
360.936	91.06
361.163	105.06
361.39	87.06
361.616	113.06
361.843	89.06
362.07	89.06
362.296	107.06
362.523	105.06
362.749	93.06
362.976	106.06
363.203	96.06
363.429	91.06
363.656	89.06
363.882	85.06
364.109	104.06
364.335	89.06
364.562	85.06
364.788	98.06
365.015	96.06
365.241	97.06
365.468	127.06
365.694	113.06
365.92	105.06
366.147	95.06
366.373	88.06
366.599	91.06
366.826	79.06
367.052	91.06
367.278	87.06
367.505	96.06
367.731	85.06
367.957	74.06
368.184	95.06
368.41	104.06
368.636	121.06
368.862	134.06
369.089	131.06
369.315	93.06
369.541	99.06
369.767	85.06
369.993	82.06
370.219	98.06
370.445	77.06
370.672	95.06
370.898	71.06
371.124	88.06
371.35	80.06
371.576	103.06
371.802	84.06
372.028	87.06
372.254	93.06
372.48	85.06
372.706	92.06
372.932	95.06
373.158	93.06
373.384	93.06
373.61	101.06
373.835	96.06
374.061	85.06
374.287	86.06
374.513	101.06
374.739	70.06
374.965	77.06
375.191	91.06
375.416	80.06
375.642	91.06
375.868	93.06
376.094	98.06
376.319	88.06
376.545	99.06
376.771	74.06
376.997	86.06
377.222	83.06
377.448	94.06
377.674	93.06
377.899	98.06
378.125	85.06
378.35	82.06
378.576	86.06
378.802	70.06
379.027	99.06
379.253	92.06
379.478	79.06
379.704	78.06
379.929	96.06
380.155	89.06
380.38	82.06
380.606	78.06
380.831	83.06
381.057	93.06
381.282	73.06
381.507	108.06
381.733	98.06
381.958	93.06
382.184	102.06
382.409	91.06
382.634	87.06
382.86	92.06
383.085	102.06
383.31	98.06
383.535	117.06
383.761	97.06
383.986	97.06
384.211	101.06
384.436	94.06
384.662	95.06
384.887	88.06
385.112	112.06
385.337	109.06
385.562	101.06
385.787	118.06
386.013	106.06
386.238	100.06
386.463	106.06
386.688	108.06
386.913	90.06
387.138	107.06
387.363	109.06
387.588	108.06
387.813	102.06
388.038	84.06
388.263	97.06
388.488	110.06
388.713	78.06
388.938	83.06
389.163	97.06
389.387	104.06
389.612	99.06
389.837	84.06
390.062	86.06
390.287	92.06
390.512	88.06
390.736	86.06
390.961	89.06
391.186	91.06
391.411	90.06
391.636	90.06
391.86	98.06
392.085	95.06
392.31	88.06
392.534	94.06
392.759	92.06
392.984	86.06
393.208	89.06
393.433	95.06
393.658	84.06
393.882	76.06
394.107	81.06
394.331	78.06
394.556	95.06
394.78	85.06
395.005	82.06
395.229	93.06
395.454	93.06
395.678	81.06
395.903	73.06
396.127	82.06
396.352	83.06
396.576	89.06
396.801	101.06
397.025	94.06
397.249	85.06
397.474	89.06
397.698	85.06
397.922	85.06
398.147	97.06
398.371	88.06
398.595	73.06
398.82	92.06
399.044	81.06
399.268	81.06
399.492	81.06
399.717	83.06
399.941	85.06
400.165	88.06
400.389	99.06
400.613	86.06
400.837	90.06
401.062	87.06
401.286	93.06
401.51	86.06
401.734	90.06
401.958	116.06
402.182	152.06
402.406	220.06
402.63	153.06
402.854	104.06
403.078	93.06
403.302	101.06
403.526	86.06
403.75	78.06
403.974	90.06
404.198	83.06
404.422	95.06
404.645	87.06
404.869	73.06
405.093	107.06
405.317	96.06
405.541	100.06
405.765	115.06
405.988	135.06
406.212	220.06
406.436	342.06
406.66	192.06
406.883	117.06
407.107	107.06
407.331	88.06
407.555	96.06
407.778	100.06
408.002	91.06
408.226	89.06
408.449	83.06
408.673	72.06
408.896	99.06
409.12	90.06
409.344	82.06
409.567	94.06
409.791	92.06
410.014	91.06
410.238	97.06
410.461	85.06
410.685	84.06
410.908	90.06
411.132	105.06
411.355	120.06
411.578	87.06
411.802	90.06
412.025	81.06
412.249	80.06
412.472	97.06
412.695	78.06
412.919	89.06
413.142	96.06
413.365	74.06
413.589	89.06
413.812	88.06
414.035	83.06
414.258	91.06
414.482	98.06
414.705	84.06
414.928	88.06
415.151	102.06
415.374	87.06
415.597	76.06
415.821	86.06
416.044	93.06
416.267	88.06
416.49	90.06
416.713	86.06
416.936	85.06
417.159	90.06
417.382	96.06
417.605	80.06
417.828	100.06
418.051	103.06
418.274	83.06
418.497	84.06
418.72	86.06
418.943	85.06
419.166	71.06
419.389	89.06
419.611	85.06
419.834	93.06
420.057	81.06
420.28	83.06
420.503	92.06
420.726	74.06
420.948	80.06
421.171	82.06
421.394	87.06
421.617	87.06
421.839	96.06
422.062	94.06
422.285	96.06
422.507	101.06
422.73	110.06
422.953	86.06
423.175	90.06
423.398	88.06
423.621	88.06
423.843	78.06
424.066	92.06
424.288	92.06
424.511	90.06
424.733	100.06
424.956	93.06
425.178	108.06
425.401	118.06
425.623	99.06
425.846	91.06
426.068	91.06
426.291	96.06
426.513	101.06
426.735	102.06
426.958	87.06
427.18	104.06
427.402	169.06
427.625	221.06
427.847	173.06
428.069	111.06
428.292	72.06
428.514	86.06
428.736	94.06
428.958	73.06
429.181	80.06
429.403	79.06
429.625	91.06
429.847	88.06
430.069	96.06
430.292	94.06
430.514	81.06
430.736	93.06
430.958	81.06
431.18	79.06
431.402	96.06
431.624	77.06
431.846	76.06
432.068	83.06
432.29	71.06
432.512	70.06
432.734	80.06
432.956	89.06
433.178	101.06
433.4	100.06
433.622	85.06
433.844	93.06
434.066	85.06
434.287	97.06
434.509	95.06
434.731	88.06
434.953	81.06
435.175	89.06
435.397	70.06
435.618	101.06
435.84	103.06
436.062	127.06
436.284	115.06
436.505	95.06
436.727	105.06
436.949	95.06
437.17	99.06
437.392	78.06
437.614	88.06
437.835	116.06
438.057	121.06
438.278	104.06
438.5	110.06
438.721	132.06
438.943	109.06
439.165	89.06
439.386	92.06
439.608	101.06
439.829	106.06
440.05	128.06
440.272	162.06
440.493	106.06
440.715	100.06
440.936	94.06
441.158	81.06
441.379	89.06
441.6	91.06
441.822	112.06
442.043	107.06
442.264	98.06
442.486	113.06
442.707	100.06
442.928	109.06
443.149	158.06
443.371	169.06
443.592	122.06
443.813	122.06
444.034	108.06
444.255	100.06
444.476	97.06
444.698	102.06
444.919	85.06
445.14	123.06
445.361	136.06
445.582	122.06
445.803	156.06
446.024	164.06
446.245	159.06
446.466	135.06
446.687	81.06
446.908	98.06
447.129	84.06
447.35	91.06
447.571	89.06
447.792	93.06
448.013	120.06
448.234	130.06
448.455	111.06
448.675	124.06
448.896	128.06
449.117	96.06
449.338	111.06
449.559	137.06
449.779	141.06
450	92.06
450.221	84.06
450.442	88.06
450.662	103.06
450.883	121.06
451.104	121.06
451.324	108.06
451.545	108.06
451.766	94.06
451.986	83.06
452.207	108.06
452.428	95.06
452.648	100.06
452.869	126.06
453.089	120.06
453.31	138.06
453.53	95.06
453.751	96.06
453.971	132.06
454.192	146.06
454.412	103.06
454.633	92.06
454.853	82.06
455.073	79.06
455.294	104.06
455.514	97.06
455.734	106.06
455.955	93.06
456.175	89.06
456.395	77.06
456.616	78.06
456.836	85.06
457.056	79.06
457.276	75.06
457.497	85.06
457.717	95.06
457.937	85.06
458.157	93.06
458.377	113.06
458.598	119.06
458.818	205.06
459.038	210.06
459.258	145.06
459.478	82.06
459.698	82.06
459.918	90.06
460.138	97.06
460.358	82.06
460.578	81.06
460.798	90.06
461.018	94.06
461.238	75.06
461.458	88.06
461.678	74.06
461.898	96.06
462.118	73.06
462.338	89.06
462.558	83.06
462.777	89.06
462.997	103.06
463.217	89.06
463.437	92.06
463.657	75.06
463.876	80.06
464.096	87.06
464.316	98.06
464.536	99.06
464.755	97.06
464.975	120.06
465.195	214.06
465.414	225.06
465.634	95.06
465.854	82.06
466.073	80.06
466.293	92.06
466.512	93.06
466.732	94.06
466.951	94.06
467.171	92.06
467.391	113.06
467.61	108.06
467.829	100.06
468.049	91.06
468.268	89.06
468.488	96.06
468.707	73.06
468.927	89.06
469.146	80.06
469.365	79.06
469.585	95.06
469.804	101.06
470.023	100.06
470.243	82.06
470.462	102.06
470.681	117.06
470.901	87.06
471.12	96.06
471.339	78.06
471.558	89.06
471.777	96.06
471.997	82.06
472.216	134.06
472.435	158.06
472.654	99.06
472.873	84.06
473.092	84.06
473.311	100.06
473.53	99.06
473.749	81.06
473.968	93.06
474.187	112.06
474.406	94.06
474.625	98.06
474.844	93.06
475.063	84.06
475.282	88.06
475.501	83.06
475.72	104.06
475.939	87.06
476.158	81.06
476.377	78.06
476.596	90.06
476.814	95.06
477.033	93.06
477.252	86.06
477.471	94.06
477.69	94.06
477.908	87.06
478.127	84.06
478.346	84.06
478.564	91.06
478.783	95.06
479.002	85.06
479.22	108.06
479.439	106.06
479.658	119.06
479.876	97.06
480.095	86.06
480.313	78.06
480.532	92.06
480.751	106.06
480.969	112.06
481.188	239.06
481.406	181.06
481.624	99.06
481.843	92.06
482.061	85.06
482.28	73.06
482.498	89.06
482.717	79.06
482.935	88.06
483.153	84.06
483.372	86.06
483.59	84.06
483.808	89.06
484.027	79.06
484.245	92.06
484.463	93.06
484.681	91.06
484.9	89.06
485.118	94.06
485.336	92.06
485.554	95.06
485.772	97.06
485.99	101.06
486.209	109.06
486.427	115.06
486.645	117.06
486.863	104.06
487.081	110.06
487.299	93.06
487.517	91.06
487.735	82.06
487.953	73.06
488.171	91.06
488.389	101.06
488.607	109.06
488.825	99.06
489.043	92.06
489.261	91.06
489.479	95.06
489.696	84.06
489.914	91.06
490.132	87.06
490.35	85.06
490.568	90.06
490.786	78.06
491.003	77.06
491.221	99.06
491.439	89.06
491.657	97.06
491.874	89.06
492.092	79.06
492.31	98.06
492.527	81.06
492.745	82.06
492.963	108.06
493.18	90.06
493.398	85.06
493.615	81.06
493.833	84.06
494.05	85.06
494.268	88.06
494.485	86.06
494.703	86.06
494.92	78.06
495.138	89.06
495.355	77.06
495.573	87.06
495.79	90.06
496.008	81.06
496.225	73.06
496.442	88.06
496.66	86.06
496.877	84.06
497.094	97.06
497.312	90.06
497.529	89.06
497.746	102.06
497.963	92.06
498.181	88.06
498.398	109.06
498.615	111.06
498.832	99.06
499.049	86.06
499.267	85.06
499.484	85.06
499.701	82.06
499.918	81.06
500.135	84.06
500.352	94.06
500.569	84.06
500.786	79.06
501.003	94.06
501.22	93.06
501.437	92.06
501.654	96.06
501.871	120.06
502.088	85.06
502.305	96.06
502.522	105.06
502.739	90.06
502.956	90.06
503.172	95.06
503.389	113.06
503.606	103.06
503.823	99.06
504.04	99.06
504.256	81.06
504.473	88.06
504.69	94.06
504.907	83.06
505.123	83.06
505.34	85.06
505.557	87.06
505.773	95.06
505.99	95.06
506.207	90.06
506.423	108.06
506.64	104.06
506.856	104.06
507.073	87.06
507.289	85.06
507.506	90.06
507.722	103.06
507.939	126.06
508.155	99.06
508.372	91.06
508.588	91.06
508.805	102.06
509.021	89.06
509.238	105.06
509.454	95.06
509.67	112.06
509.887	112.06
510.103	144.06
510.319	264.06
510.536	1093.06
510.752	3905.06
510.968	1079.06
511.184	204.06
511.401	136.06
511.617	110.06
511.833	98.06
512.049	80.06
512.265	83.06
512.481	101.06
512.698	92.06
512.914	80.06
513.13	89.06
513.346	84.06
513.562	87.06
513.778	93.06
513.994	110.06
514.21	118.06
514.426	138.06
514.642	170.06
514.858	163.06
515.074	222.06
