Data from Circ_2022_H10_HRD10591_00029.txt Node
Date: Wed Jan 03 09:53:43 EST 2024
User: Yrep
Spectrometer: HR+D1059
Trigger mode: 1
Integration Time (sec): 1.000000E-1
Scans to average: 1
Electric dark correction enabled: true
Nonlinearity correction enabled: false
Boxcar width: 0
XAxis mode: Wavelengths
Number of Pixels in Spectrum: 2048
>>>>>Begin Spectral Data<<<<<
223.165	-17.31
223.4	-17.31
223.635	-17.31
223.869	-33.31
224.104	-27.31
224.338	-9.31
224.573	0.69
224.808	-19.31
225.042	-0.31
225.277	-8.31
225.511	2.69
225.746	15.69
225.98	4.69
226.215	12.69
226.449	1.69
226.683	26.69
226.918	21.69
227.152	28.69
227.387	45.69
227.621	44.69
227.856	52.69
228.09	61.69
228.324	44.69
228.559	49.69
228.793	52.69
229.027	61.69
229.262	73.69
229.496	80.69
229.73	98.69
229.964	83.69
230.199	77.69
230.433	78.69
230.667	83.69
230.901	86.69
231.136	86.69
231.37	76.69
231.604	75.69
231.838	93.69
232.072	85.69
232.306	79.69
232.541	74.69
232.775	78.69
233.009	84.69
233.243	91.69
233.477	78.69
233.711	93.69
233.945	80.69
234.179	87.69
234.413	81.69
234.647	69.69
234.881	75.69
235.115	85.69
235.349	87.69
235.583	87.69
235.817	81.69
236.051	67.69
236.285	83.69
236.519	76.69
236.753	91.69
236.987	92.69
237.221	82.69
237.455	78.69
237.689	92.69
237.922	88.69
238.156	74.69
238.39	60.69
238.624	76.69
238.858	87.69
239.091	61.69
239.325	86.69
239.559	79.69
239.793	80.69
240.027	73.69
240.26	84.69
240.494	75.69
240.728	65.69
240.961	68.69
241.195	73.69
241.429	81.69
241.662	77.69
241.896	99.69
242.13	78.69
242.363	81.69
242.597	83.69
242.83	68.69
243.064	79.69
243.298	83.69
243.531	98.69
243.765	94.69
243.998	79.69
244.232	86.69
244.465	81.69
244.699	89.69
244.932	78.69
245.166	92.69
245.399	78.69
245.633	77.69
245.866	67.69
246.099	78.69
246.333	75.69
246.566	75.69
246.8	94.69
247.033	93.69
247.266	92.69
247.5	89.69
247.733	83.69
247.966	86.69
248.2	76.69
248.433	69.69
248.666	80.69
248.899	79.69
249.133	97.69
249.366	94.69
249.599	101.69
249.832	88.69
250.066	72.69
250.299	81.69
250.532	84.69
250.765	77.69
250.998	75.69
251.231	76.69
251.465	100.69
251.698	87.69
251.931	82.69
252.164	77.69
252.397	90.69
252.63	80.69
252.863	75.69
253.096	80.69
253.329	78.69
253.562	72.69
253.795	98.69
254.028	76.69
254.261	81.69
254.494	77.69
254.727	78.69
254.96	76.69
255.193	75.69
255.426	75.69
255.659	69.69
255.892	92.69
256.124	104.69
256.357	78.69
256.59	86.69
256.823	76.69
257.056	81.69
257.289	80.69
257.521	99.69
257.754	91.69
257.987	91.69
258.22	81.69
258.452	88.69
258.685	85.69
258.918	92.69
259.151	79.69
259.383	82.69
259.616	84.69
259.849	83.69
260.081	78.69
260.314	83.69
260.547	85.69
260.779	88.69
261.012	80.69
261.244	82.69
261.477	91.69
261.71	84.69
261.942	133.69
262.175	124.69
262.407	86.69
262.64	91.69
262.872	68.69
263.105	77.69
263.337	83.69
263.57	84.69
263.802	100.69
264.035	97.69
264.267	87.69
264.499	96.69
264.732	106.69
264.964	78.69
265.197	81.69
265.429	97.69
265.661	83.69
265.894	86.69
266.126	86.69
266.358	96.69
266.591	77.69
266.823	88.69
267.055	84.69
267.287	89.69
267.52	94.69
267.752	83.69
267.984	75.69
268.216	88.69
268.448	94.69
268.681	81.69
268.913	98.69
269.145	77.69
269.377	84.69
269.609	83.69
269.841	76.69
270.073	79.69
270.306	82.69
270.538	89.69
270.77	94.69
271.002	83.69
271.234	87.69
271.466	90.69
271.698	89.69
271.93	96.69
272.162	83.69
272.394	80.69
272.626	82.69
272.858	83.69
273.09	92.69
273.322	78.69
273.553	93.69
273.785	88.69
274.017	89.69
274.249	95.69
274.481	80.69
274.713	88.69
274.945	83.69
275.176	85.69
275.408	86.69
275.64	106.69
275.872	79.69
276.104	87.69
276.335	100.69
276.567	91.69
276.799	120.69
277.031	107.69
277.262	93.69
277.494	88.69
277.726	97.69
277.957	87.69
278.189	78.69
278.421	97.69
278.652	86.69
278.884	80.69
279.115	82.69
279.347	91.69
279.579	92.69
279.81	73.69
280.042	91.69
280.273	88.69
280.505	85.69
280.736	96.69
280.968	88.69
281.199	94.69
281.431	84.69
281.662	96.69
281.894	85.69
282.125	109.69
282.356	124.69
282.588	141.69
282.819	131.69
283.051	94.69
283.282	96.69
283.513	97.69
283.745	98.69
283.976	90.69
284.207	91.69
284.439	88.69
284.67	81.69
284.901	78.69
285.132	78.69
285.364	82.69
285.595	86.69
285.826	91.69
286.057	94.69
286.288	89.69
286.52	86.69
286.751	90.69
286.982	101.69
287.213	84.69
287.444	79.69
287.675	90.69
287.906	100.69
288.138	91.69
288.369	84.69
288.6	71.69
288.831	94.69
289.062	100.69
289.293	83.69
289.524	95.69
289.755	97.69
289.986	92.69
290.217	79.69
290.448	97.69
290.679	85.69
290.91	93.69
291.141	88.69
291.371	91.69
291.602	101.69
291.833	90.69
292.064	87.69
292.295	87.69
292.526	91.69
292.757	86.69
292.987	84.69
293.218	82.69
293.449	84.69
293.68	85.69
293.91	88.69
294.141	86.69
294.372	76.69
294.603	85.69
294.833	86.69
295.064	103.69
295.295	99.69
295.525	89.69
295.756	103.69
295.987	125.69
296.217	148.69
296.448	132.69
296.679	96.69
296.909	83.69
297.14	80.69
297.37	92.69
297.601	84.69
297.831	112.69
298.062	94.69
298.292	108.69
298.523	95.69
298.753	92.69
298.984	96.69
299.214	92.69
299.445	113.69
299.675	109.69
299.905	98.69
300.136	88.69
300.366	84.69
300.597	90.69
300.827	99.69
301.057	100.69
301.288	117.69
301.518	102.69
301.748	90.69
301.979	98.69
302.209	94.69
302.439	94.69
302.669	86.69
302.9	96.69
303.13	83.69
303.36	104.69
303.59	99.69
303.82	108.69
304.051	104.69
304.281	86.69
304.511	108.69
304.741	93.69
304.971	81.69
305.201	96.69
305.431	106.69
305.661	91.69
305.891	99.69
306.121	106.69
306.352	98.69
306.582	93.69
306.812	97.69
307.042	88.69
307.272	89.69
307.502	90.69
307.731	88.69
307.961	92.69
308.191	92.69
308.421	102.69
308.651	102.69
308.881	106.69
309.111	97.69
309.341	88.69
309.571	104.69
309.8	92.69
310.03	105.69
310.26	90.69
310.49	113.69
310.72	107.69
310.949	113.69
311.179	101.69
311.409	95.69
311.639	93.69
311.868	91.69
312.098	101.69
312.328	98.69
312.557	112.69
312.787	117.69
313.017	110.69
313.246	96.69
313.476	102.69
313.706	96.69
313.935	93.69
314.165	88.69
314.394	91.69
314.624	99.69
314.853	78.69
315.083	84.69
315.312	105.69
315.542	105.69
315.771	89.69
316.001	89.69
316.23	112.69
316.46	89.69
316.689	88.69
316.919	92.69
317.148	93.69
317.377	110.69
317.607	87.69
317.836	96.69
318.065	109.69
318.295	100.69
318.524	93.69
318.753	97.69
318.983	104.69
319.212	103.69
319.441	120.69
319.67	114.69
319.9	96.69
320.129	80.69
320.358	108.69
320.587	93.69
320.816	100.69
321.046	116.69
321.275	98.69
321.504	93.69
321.733	91.69
321.962	94.69
322.191	104.69
322.42	120.69
322.649	120.69
322.878	131.69
323.108	133.69
323.337	116.69
323.566	137.69
323.795	153.69
324.024	207.69
324.253	445.69
324.482	908.69
324.71	1851.69
324.939	2470.69
325.168	889.69
325.397	266.69
325.626	148.69
325.855	150.69
326.084	140.69
326.313	121.69
326.542	161.69
326.77	277.69
326.999	482.69
327.228	1013.69
327.457	1806.69
327.686	1472.69
327.914	410.69
328.143	198.69
328.372	162.69
328.6	127.69
328.829	133.69
329.058	132.69
329.287	141.69
329.515	125.69
329.744	114.69
329.972	122.69
330.201	114.69
330.43	137.69
330.658	133.69
330.887	162.69
331.115	139.69
331.344	121.69
331.572	107.69
331.801	105.69
332.03	117.69
332.258	100.69
332.486	96.69
332.715	82.69
332.943	94.69
333.172	110.69
333.4	87.69
333.629	104.69
333.857	119.69
334.085	109.69
334.314	102.69
334.542	131.69
334.771	131.69
334.999	109.69
335.227	93.69
335.455	82.69
335.684	92.69
335.912	88.69
336.14	98.69
336.369	113.69
336.597	116.69
336.825	105.69
337.053	92.69
337.281	100.69
337.51	91.69
337.738	89.69
337.966	90.69
338.194	107.69
338.422	100.69
338.65	97.69
338.878	105.69
339.106	102.69
339.334	86.69
339.562	79.69
339.79	108.69
340.018	88.69
340.246	92.69
340.474	91.69
340.702	106.69
340.93	101.69
341.158	94.69
341.386	91.69
341.614	104.69
341.842	91.69
342.07	107.69
342.298	93.69
342.526	94.69
342.754	107.69
342.981	89.69
343.209	101.69
343.437	100.69
343.665	80.69
343.893	89.69
344.12	99.69
344.348	94.69
344.576	110.69
344.804	95.69
345.031	96.69
345.259	93.69
345.487	92.69
345.714	92.69
345.942	102.69
346.17	103.69
346.397	93.69
346.625	84.69
346.853	90.69
347.08	87.69
347.308	105.69
347.535	96.69
347.763	112.69
347.99	101.69
348.218	102.69
348.445	107.69
348.673	109.69
348.9	95.69
349.128	109.69
349.355	79.69
349.583	79.69
349.81	100.69
350.037	108.69
350.265	105.69
350.492	105.69
350.72	104.69
350.947	113.69
351.174	106.69
351.402	118.69
351.629	97.69
351.856	104.69
352.083	108.69
352.311	111.69
352.538	120.69
352.765	118.69
352.992	117.69
353.22	114.69
353.447	111.69
353.674	112.69
353.901	101.69
354.128	104.69
354.355	93.69
354.583	117.69
354.81	101.69
355.037	102.69
355.264	89.69
355.491	93.69
355.718	102.69
355.945	90.69
356.172	84.69
356.399	91.69
356.626	101.69
356.853	94.69
357.08	84.69
357.307	110.69
357.534	106.69
357.761	94.69
357.988	96.69
358.215	102.69
358.441	110.69
358.668	83.69
358.895	96.69
359.122	79.69
359.349	98.69
359.576	95.69
359.802	93.69
360.029	115.69
360.256	119.69
360.483	114.69
360.709	98.69
360.936	98.69
361.163	97.69
361.39	92.69
361.616	80.69
361.843	102.69
362.07	92.69
362.296	111.69
362.523	87.69
362.749	91.69
362.976	79.69
363.203	90.69
363.429	92.69
363.656	94.69
363.882	90.69
364.109	91.69
364.335	97.69
364.562	90.69
364.788	89.69
365.015	107.69
365.241	102.69
365.468	116.69
365.694	119.69
365.92	115.69
366.147	98.69
366.373	102.69
366.599	85.69
366.826	89.69
367.052	96.69
367.278	84.69
367.505	92.69
367.731	100.69
367.957	107.69
368.184	87.69
368.41	101.69
368.636	121.69
368.862	134.69
369.089	117.69
369.315	89.69
369.541	96.69
369.767	91.69
369.993	98.69
370.219	93.69
370.445	92.69
370.672	90.69
370.898	90.69
371.124	101.69
371.35	96.69
371.576	81.69
371.802	82.69
372.028	97.69
372.254	92.69
372.48	95.69
372.706	76.69
372.932	101.69
373.158	88.69
373.384	90.69
373.61	106.69
373.835	92.69
374.061	97.69
374.287	92.69
374.513	102.69
374.739	88.69
374.965	97.69
375.191	94.69
375.416	105.69
375.642	83.69
375.868	82.69
376.094	81.69
376.319	83.69
376.545	89.69
376.771	96.69
376.997	91.69
377.222	90.69
377.448	101.69
377.674	97.69
377.899	87.69
378.125	100.69
378.35	87.69
378.576	90.69
378.802	101.69
379.027	88.69
379.253	107.69
379.478	98.69
379.704	107.69
379.929	96.69
380.155	86.69
380.38	109.69
380.606	89.69
380.831	89.69
381.057	97.69
381.282	91.69
381.507	99.69
381.733	114.69
381.958	98.69
382.184	84.69
382.409	112.69
382.634	105.69
382.86	96.69
383.085	121.69
383.31	106.69
383.535	99.69
383.761	91.69
383.986	90.69
384.211	101.69
384.436	94.69
384.662	96.69
384.887	110.69
385.112	112.69
385.337	114.69
385.562	109.69
385.787	102.69
386.013	104.69
386.238	124.69
386.463	124.69
386.688	113.69
386.913	105.69
387.138	103.69
387.363	91.69
387.588	95.69
387.813	99.69
388.038	107.69
388.263	103.69
388.488	112.69
388.713	114.69
388.938	102.69
389.163	93.69
389.387	98.69
389.612	75.69
389.837	97.69
390.062	92.69
390.287	102.69
390.512	100.69
390.736	97.69
390.961	102.69
391.186	85.69
391.411	107.69
391.636	81.69
391.86	90.69
392.085	90.69
392.31	97.69
392.534	84.69
392.759	81.69
392.984	91.69
393.208	92.69
393.433	90.69
393.658	97.69
393.882	88.69
394.107	89.69
394.331	75.69
394.556	96.69
394.78	91.69
395.005	91.69
395.229	89.69
395.454	84.69
395.678	78.69
395.903	84.69
396.127	94.69
396.352	95.69
396.576	100.69
396.801	90.69
397.025	94.69
397.249	86.69
397.474	70.69
397.698	89.69
397.922	78.69
398.147	85.69
398.371	81.69
398.595	85.69
398.82	104.69
399.044	99.69
399.268	86.69
399.492	84.69
399.717	82.69
399.941	88.69
400.165	97.69
400.389	98.69
400.613	91.69
400.837	98.69
401.062	91.69
401.286	78.69
401.51	94.69
401.734	102.69
401.958	105.69
402.182	141.69
402.406	187.69
402.63	137.69
402.854	99.69
403.078	81.69
403.302	89.69
403.526	92.69
403.75	91.69
403.974	98.69
404.198	82.69
404.422	83.69
404.645	94.69
404.869	101.69
405.093	87.69
405.317	93.69
405.541	106.69
405.765	91.69
405.988	137.69
406.212	178.69
406.436	284.69
406.66	171.69
406.883	103.69
407.107	100.69
407.331	102.69
407.555	108.69
407.778	93.69
408.002	101.69
408.226	95.69
408.449	91.69
408.673	93.69
408.896	100.69
409.12	100.69
409.344	91.69
409.567	81.69
409.791	76.69
410.014	100.69
410.238	100.69
410.461	78.69
410.685	97.69
410.908	97.69
411.132	91.69
411.355	99.69
411.578	100.69
411.802	94.69
412.025	92.69
412.249	105.69
412.472	89.69
412.695	96.69
412.919	81.69
413.142	88.69
413.365	86.69
413.589	92.69
413.812	80.69
414.035	97.69
414.258	102.69
414.482	101.69
414.705	77.69
414.928	79.69
415.151	98.69
415.374	108.69
415.597	79.69
415.821	91.69
416.044	96.69
416.267	83.69
416.49	109.69
416.713	80.69
416.936	87.69
417.159	99.69
417.382	82.69
417.605	102.69
417.828	106.69
418.051	98.69
418.274	89.69
418.497	84.69
418.72	67.69
418.943	81.69
419.166	84.69
419.389	84.69
419.611	85.69
419.834	91.69
420.057	91.69
420.28	83.69
420.503	85.69
420.726	85.69
420.948	98.69
421.171	118.69
421.394	89.69
421.617	97.69
421.839	89.69
422.062	91.69
422.285	88.69
422.507	102.69
422.73	103.69
422.953	106.69
423.175	98.69
423.398	87.69
423.621	100.69
423.843	81.69
424.066	88.69
424.288	97.69
424.511	88.69
424.733	93.69
424.956	109.69
425.178	107.69
425.401	100.69
425.623	105.69
425.846	97.69
426.068	94.69
426.291	101.69
426.513	92.69
426.735	88.69
426.958	106.69
427.18	122.69
427.402	138.69
427.625	203.69
427.847	134.69
428.069	108.69
428.292	88.69
428.514	89.69
428.736	88.69
428.958	90.69
429.181	96.69
429.403	94.69
429.625	89.69
429.847	87.69
430.069	99.69
430.292	93.69
430.514	93.69
430.736	77.69
430.958	97.69
431.18	88.69
431.402	91.69
431.624	102.69
431.846	85.69
432.068	102.69
432.29	85.69
432.512	78.69
432.734	97.69
432.956	100.69
433.178	113.69
433.4	100.69
433.622	85.69
433.844	73.69
434.066	96.69
434.287	91.69
434.509	92.69
434.731	104.69
434.953	95.69
435.175	80.69
435.397	87.69
435.618	96.69
435.84	105.69
436.062	121.69
436.284	125.69
436.505	96.69
436.727	100.69
436.949	85.69
437.17	101.69
437.392	93.69
437.614	85.69
437.835	114.69
438.057	138.69
438.278	116.69
438.5	112.69
438.721	130.69
438.943	104.69
439.165	77.69
439.386	89.69
439.608	88.69
439.829	96.69
440.05	114.69
440.272	163.69
440.493	104.69
440.715	95.69
440.936	93.69
441.158	81.69
441.379	88.69
441.6	97.69
441.822	91.69
442.043	93.69
442.264	112.69
442.486	102.69
442.707	108.69
442.928	103.69
443.149	153.69
443.371	136.69
443.592	119.69
443.813	120.69
444.034	120.69
444.255	101.69
444.476	87.69
444.698	77.69
444.919	92.69
445.14	110.69
445.361	125.69
445.582	130.69
445.803	163.69
446.024	164.69
446.245	131.69
446.466	121.69
446.687	90.69
446.908	88.69
447.129	96.69
447.35	95.69
447.571	82.69
447.792	94.69
448.013	106.69
448.234	100.69
448.455	113.69
448.675	120.69
448.896	133.69
449.117	100.69
449.338	112.69
449.559	126.69
449.779	130.69
450	99.69
450.221	102.69
450.442	93.69
450.662	103.69
450.883	114.69
451.104	109.69
451.324	107.69
451.545	106.69
451.766	84.69
451.986	83.69
452.207	90.69
452.428	88.69
452.648	101.69
452.869	104.69
453.089	116.69
453.31	125.69
453.53	95.69
453.751	75.69
453.971	119.69
454.192	126.69
454.412	108.69
454.633	95.69
454.853	90.69
455.073	72.69
455.294	103.69
455.514	91.69
455.734	77.69
455.955	94.69
456.175	98.69
456.395	83.69
456.616	99.69
456.836	85.69
457.056	78.69
457.276	92.69
457.497	85.69
457.717	98.69
457.937	92.69
458.157	76.69
458.377	91.69
458.598	115.69
458.818	170.69
459.038	169.69
459.258	130.69
459.478	91.69
459.698	82.69
459.918	90.69
460.138	90.69
460.358	97.69
460.578	84.69
460.798	101.69
461.018	107.69
461.238	92.69
461.458	93.69
461.678	82.69
461.898	89.69
462.118	93.69
462.338	84.69
462.558	90.69
462.777	85.69
462.997	84.69
463.217	89.69
463.437	97.69
463.657	94.69
463.876	79.69
464.096	84.69
464.316	91.69
464.536	97.69
464.755	99.69
464.975	123.69
465.195	177.69
465.414	182.69
465.634	101.69
465.854	87.69
466.073	89.69
466.293	93.69
466.512	94.69
466.732	87.69
466.951	86.69
467.171	96.69
467.391	88.69
467.61	113.69
467.829	108.69
468.049	88.69
468.268	90.69
468.488	74.69
468.707	93.69
468.927	82.69
469.146	82.69
469.365	89.69
469.585	101.69
469.804	97.69
470.023	92.69
470.243	102.69
470.462	106.69
470.681	117.69
470.901	96.69
471.12	81.69
471.339	97.69
471.558	85.69
471.777	85.69
471.997	93.69
472.216	98.69
472.435	137.69
472.654	90.69
472.873	89.69
473.092	92.69
473.311	74.69
473.53	88.69
473.749	89.69
473.968	106.69
474.187	117.69
474.406	88.69
474.625	68.69
474.844	83.69
475.063	88.69
475.282	89.69
475.501	88.69
475.72	99.69
475.939	98.69
476.158	93.69
476.377	95.69
476.596	100.69
476.814	96.69
477.033	93.69
477.252	76.69
477.471	85.69
477.69	86.69
477.908	93.69
478.127	94.69
478.346	80.69
478.564	76.69
478.783	92.69
479.002	99.69
479.22	93.69
479.439	114.69
479.658	117.69
479.876	113.69
480.095	87.69
480.313	88.69
480.532	89.69
480.751	99.69
480.969	117.69
481.188	170.69
481.406	128.69
481.624	97.69
481.843	105.69
482.061	90.69
482.28	81.69
482.498	76.69
482.717	78.69
482.935	80.69
483.153	90.69
483.372	86.69
483.59	77.69
483.808	99.69
484.027	88.69
484.245	90.69
484.463	99.69
484.681	93.69
484.9	92.69
485.118	96.69
485.336	83.69
485.554	88.69
485.772	104.69
485.99	94.69
486.209	105.69
486.427	98.69
486.645	99.69
486.863	116.69
487.081	107.69
487.299	100.69
487.517	100.69
487.735	105.69
487.953	85.69
488.171	90.69
488.389	110.69
488.607	101.69
488.825	106.69
489.043	98.69
489.261	106.69
489.479	100.69
489.696	96.69
489.914	85.69
490.132	96.69
490.35	96.69
490.568	97.69
490.786	88.69
491.003	89.69
491.221	98.69
491.439	99.69
491.657	96.69
491.874	84.69
492.092	91.69
492.31	89.69
492.527	86.69
492.745	99.69
492.963	90.69
493.18	92.69
493.398	85.69
493.615	93.69
493.833	104.69
494.05	97.69
494.268	97.69
494.485	87.69
494.703	88.69
494.92	85.69
495.138	94.69
495.355	112.69
495.573	83.69
495.79	91.69
496.008	82.69
496.225	90.69
496.442	87.69
496.66	99.69
496.877	84.69
497.094	96.69
497.312	90.69
497.529	101.69
497.746	92.69
497.963	95.69
498.181	95.69
498.398	87.69
498.615	116.69
498.832	113.69
499.049	128.69
499.267	85.69
499.484	100.69
499.701	85.69
499.918	98.69
500.135	94.69
500.352	92.69
500.569	77.69
500.786	96.69
501.003	89.69
501.22	100.69
501.437	77.69
501.654	96.69
501.871	91.69
502.088	93.69
502.305	88.69
502.522	93.69
502.739	89.69
502.956	97.69
503.172	105.69
503.389	94.69
503.606	117.69
503.823	102.69
504.04	84.69
504.256	85.69
504.473	75.69
504.69	94.69
504.907	108.69
505.123	99.69
505.34	83.69
505.557	91.69
505.773	89.69
505.99	93.69
506.207	76.69
506.423	87.69
506.64	94.69
506.856	103.69
507.073	104.69
507.289	91.69
507.506	109.69
507.722	117.69
507.939	128.69
508.155	94.69
508.372	103.69
508.588	104.69
508.805	94.69
509.021	101.69
509.238	83.69
509.454	97.69
509.67	120.69
509.887	116.69
510.103	133.69
510.319	241.69
510.536	905.69
510.752	3154.69
510.968	858.69
511.184	196.69
511.401	116.69
511.617	115.69
511.833	102.69
512.049	90.69
512.265	102.69
512.481	92.69
512.698	102.69
512.914	99.69
513.13	89.69
513.346	105.69
513.562	91.69
513.778	96.69
513.994	105.69
514.21	108.69
