Data from Circ_2022_H10_HRD10591_00003.txt Node
Date: Wed Jan 03 09:53:38 EST 2024
User: Yrep
Spectrometer: HR+D1059
Trigger mode: 1
Integration Time (sec): 1.000000E-1
Scans to average: 1
Electric dark correction enabled: true
Nonlinearity correction enabled: false
Boxcar width: 0
XAxis mode: Wavelengths
Number of Pixels in Spectrum: 2048
>>>>>Begin Spectral Data<<<<<
223.165	-30.44
223.4	-30.44
223.635	-30.44
223.869	-15.44
224.104	-4.44
224.338	-5.44
224.573	-1.44
224.808	-5.44
225.042	-26.44
225.277	-8.44
225.511	0.56
225.746	-7.44
225.98	4.56
226.215	18.56
226.449	21.56
226.683	23.56
226.918	10.56
227.152	25.56
227.387	34.56
227.621	32.56
227.856	43.56
228.09	62.56
228.324	49.56
228.559	48.56
228.793	49.56
229.027	56.56
229.262	75.56
229.496	87.56
229.73	105.56
229.964	107.56
230.199	84.56
230.433	84.56
230.667	86.56
230.901	81.56
231.136	75.56
231.37	66.56
231.604	79.56
231.838	78.56
232.072	74.56
232.306	85.56
232.541	84.56
232.775	69.56
233.009	65.56
233.243	70.56
233.477	79.56
233.711	83.56
233.945	82.56
234.179	75.56
234.413	88.56
234.647	78.56
234.881	85.56
235.115	75.56
235.349	96.56
235.583	80.56
235.817	76.56
236.051	83.56
236.285	80.56
236.519	83.56
236.753	89.56
236.987	85.56
237.221	94.56
237.455	94.56
237.689	79.56
237.922	73.56
238.156	72.56
238.39	71.56
238.624	79.56
238.858	83.56
239.091	72.56
239.325	74.56
239.559	81.56
239.793	85.56
240.027	87.56
240.26	83.56
240.494	91.56
240.728	78.56
240.961	74.56
241.195	81.56
241.429	91.56
241.662	67.56
241.896	82.56
242.13	78.56
242.363	79.56
242.597	74.56
242.83	76.56
243.064	71.56
243.298	82.56
243.531	89.56
243.765	79.56
243.998	79.56
244.232	83.56
244.465	74.56
244.699	71.56
244.932	79.56
245.166	69.56
245.399	81.56
245.633	87.56
245.866	92.56
246.099	85.56
246.333	76.56
246.566	66.56
246.8	80.56
247.033	76.56
247.266	78.56
247.5	79.56
247.733	90.56
247.966	79.56
248.2	76.56
248.433	72.56
248.666	77.56
248.899	84.56
249.133	92.56
249.366	100.56
249.599	108.56
249.832	75.56
250.066	81.56
250.299	80.56
250.532	80.56
250.765	77.56
250.998	80.56
251.231	83.56
251.465	74.56
251.698	78.56
251.931	81.56
252.164	76.56
252.397	76.56
252.63	93.56
252.863	92.56
253.096	77.56
253.329	80.56
253.562	77.56
253.795	89.56
254.028	91.56
254.261	78.56
254.494	66.56
254.727	70.56
254.96	75.56
255.193	77.56
255.426	92.56
255.659	77.56
255.892	75.56
256.124	78.56
256.357	74.56
256.59	62.56
256.823	79.56
257.056	80.56
257.289	82.56
257.521	69.56
257.754	80.56
257.987	83.56
258.22	74.56
258.452	81.56
258.685	79.56
258.918	77.56
259.151	89.56
259.383	78.56
259.616	72.56
259.849	88.56
260.081	88.56
260.314	79.56
260.547	93.56
260.779	75.56
261.012	80.56
261.244	91.56
261.477	75.56
261.71	102.56
261.942	143.56
262.175	140.56
262.407	97.56
262.64	79.56
262.872	83.56
263.105	89.56
263.337	84.56
263.57	87.56
263.802	93.56
264.035	81.56
264.267	70.56
264.499	79.56
264.732	92.56
264.964	88.56
265.197	74.56
265.429	77.56
265.661	94.56
265.894	85.56
266.126	96.56
266.358	83.56
266.591	92.56
266.823	81.56
267.055	89.56
267.287	87.56
267.52	70.56
267.752	86.56
267.984	80.56
268.216	71.56
268.448	84.56
268.681	70.56
268.913	89.56
269.145	89.56
269.377	68.56
269.609	82.56
269.841	82.56
270.073	78.56
270.306	91.56
270.538	75.56
270.77	88.56
271.002	90.56
271.234	82.56
271.466	91.56
271.698	75.56
271.93	80.56
272.162	88.56
272.394	88.56
272.626	93.56
272.858	93.56
273.09	87.56
273.322	84.56
273.553	87.56
273.785	80.56
274.017	86.56
274.249	79.56
274.481	82.56
274.713	89.56
274.945	84.56
275.176	84.56
275.408	89.56
275.64	100.56
275.872	74.56
276.104	88.56
276.335	101.56
276.567	106.56
276.799	139.56
277.031	129.56
277.262	97.56
277.494	90.56
277.726	82.56
277.957	86.56
278.189	71.56
278.421	77.56
278.652	68.56
278.884	81.56
279.115	68.56
279.347	92.56
279.579	87.56
279.81	89.56
280.042	96.56
280.273	84.56
280.505	102.56
280.736	91.56
280.968	74.56
281.199	87.56
281.431	88.56
281.662	86.56
281.894	91.56
282.125	104.56
282.356	138.56
282.588	179.56
282.819	126.56
283.051	94.56
283.282	89.56
283.513	86.56
283.745	88.56
283.976	75.56
284.207	80.56
284.439	86.56
284.67	94.56
284.901	82.56
285.132	91.56
285.364	89.56
285.595	89.56
285.826	98.56
286.057	92.56
286.288	81.56
286.52	80.56
286.751	79.56
286.982	87.56
287.213	86.56
287.444	90.56
287.675	89.56
287.906	89.56
288.138	98.56
288.369	86.56
288.6	96.56
288.831	83.56
289.062	87.56
289.293	103.56
289.524	79.56
289.755	90.56
289.986	89.56
290.217	67.56
290.448	86.56
290.679	89.56
290.91	95.56
291.141	90.56
291.371	87.56
291.602	86.56
291.833	99.56
292.064	90.56
292.295	79.56
292.526	89.56
292.757	88.56
292.987	78.56
293.218	80.56
293.449	82.56
293.68	88.56
293.91	81.56
294.141	76.56
294.372	87.56
294.603	77.56
294.833	98.56
295.064	86.56
295.295	89.56
295.525	105.56
295.756	123.56
295.987	127.56
296.217	175.56
296.448	162.56
296.679	96.56
296.909	108.56
297.14	96.56
297.37	86.56
297.601	94.56
297.831	87.56
298.062	93.56
298.292	88.56
298.523	89.56
298.753	82.56
298.984	103.56
299.214	100.56
299.445	80.56
299.675	102.56
299.905	105.56
300.136	95.56
300.366	93.56
300.597	96.56
300.827	104.56
301.057	112.56
301.288	123.56
301.518	95.56
301.748	91.56
301.979	98.56
302.209	99.56
302.439	99.56
302.669	101.56
302.9	99.56
303.13	87.56
303.36	100.56
303.59	104.56
303.82	114.56
304.051	97.56
304.281	85.56
304.511	75.56
304.741	89.56
304.971	83.56
305.201	102.56
305.431	98.56
305.661	102.56
305.891	87.56
306.121	102.56
306.352	102.56
306.582	104.56
306.812	73.56
307.042	91.56
307.272	71.56
307.502	99.56
307.731	99.56
307.961	93.56
308.191	87.56
308.421	99.56
308.651	94.56
308.881	97.56
309.111	91.56
309.341	103.56
309.571	125.56
309.8	91.56
310.03	113.56
310.26	107.56
310.49	105.56
310.72	126.56
310.949	125.56
311.179	130.56
311.409	102.56
311.639	106.56
311.868	110.56
312.098	90.56
312.328	92.56
312.557	113.56
312.787	130.56
313.017	132.56
313.246	106.56
313.476	76.56
313.706	81.56
313.935	103.56
314.165	106.56
314.394	116.56
314.624	115.56
314.853	113.56
315.083	97.56
315.312	95.56
315.542	97.56
315.771	86.56
316.001	84.56
316.23	87.56
316.46	85.56
316.689	82.56
316.919	104.56
317.148	110.56
317.377	105.56
317.607	88.56
317.836	103.56
318.065	95.56
318.295	96.56
318.524	77.56
318.753	89.56
318.983	108.56
319.212	111.56
319.441	104.56
319.67	122.56
319.9	96.56
320.129	78.56
320.358	97.56
320.587	87.56
320.816	101.56
321.046	106.56
321.275	91.56
321.504	97.56
321.733	92.56
321.962	105.56
322.191	113.56
322.42	124.56
322.649	142.56
322.878	118.56
323.108	138.56
323.337	150.56
323.566	161.56
323.795	200.56
324.024	272.56
324.253	557.56
324.482	1227.56
324.71	2575.56
324.939	3572.56
325.168	1264.56
325.397	359.56
325.626	183.56
325.855	154.56
326.084	155.56
326.313	159.56
326.542	195.56
326.77	291.56
326.999	642.56
327.228	1317.56
327.457	2514.56
327.686	2018.56
327.914	530.56
328.143	265.56
328.372	198.56
328.6	152.56
328.829	141.56
329.058	158.56
329.287	175.56
329.515	133.56
329.744	122.56
329.972	124.56
330.201	118.56
330.43	124.56
330.658	175.56
330.887	221.56
331.115	192.56
331.344	108.56
331.572	112.56
331.801	122.56
332.03	130.56
332.258	110.56
332.486	92.56
332.715	102.56
332.943	101.56
333.172	107.56
333.4	112.56
333.629	114.56
333.857	129.56
334.085	113.56
334.314	97.56
334.542	117.56
334.771	105.56
334.999	103.56
335.227	100.56
335.455	102.56
335.684	97.56
335.912	104.56
336.14	101.56
336.369	112.56
336.597	122.56
336.825	105.56
337.053	92.56
337.281	89.56
337.51	98.56
337.738	85.56
337.966	107.56
338.194	94.56
338.422	95.56
338.65	107.56
338.878	97.56
339.106	82.56
339.334	95.56
339.562	105.56
339.79	88.56
340.018	97.56
340.246	110.56
340.474	101.56
340.702	102.56
340.93	93.56
341.158	82.56
341.386	113.56
341.614	103.56
341.842	99.56
342.07	103.56
342.298	95.56
342.526	90.56
342.754	94.56
342.981	85.56
343.209	94.56
343.437	99.56
343.665	91.56
343.893	100.56
344.12	86.56
344.348	95.56
344.576	94.56
344.804	91.56
345.031	94.56
345.259	106.56
345.487	100.56
345.714	108.56
345.942	103.56
346.17	96.56
346.397	105.56
346.625	94.56
346.853	88.56
347.08	97.56
347.308	92.56
347.535	108.56
347.763	117.56
347.99	110.56
348.218	101.56
348.445	111.56
348.673	117.56
348.9	105.56
349.128	100.56
349.355	88.56
349.583	83.56
349.81	100.56
350.037	96.56
350.265	93.56
350.492	111.56
350.72	90.56
350.947	113.56
351.174	112.56
351.402	113.56
351.629	116.56
351.856	106.56
352.083	129.56
352.311	115.56
352.538	135.56
352.765	123.56
352.992	131.56
353.22	118.56
353.447	110.56
353.674	116.56
353.901	97.56
354.128	85.56
354.355	100.56
354.583	98.56
354.81	97.56
355.037	100.56
355.264	94.56
355.491	88.56
355.718	85.56
355.945	94.56
356.172	97.56
356.399	98.56
356.626	100.56
356.853	89.56
357.08	93.56
357.307	91.56
357.534	86.56
357.761	98.56
357.988	94.56
358.215	98.56
358.441	96.56
358.668	101.56
358.895	105.56
359.122	114.56
359.349	93.56
359.576	106.56
359.802	115.56
360.029	146.56
360.256	155.56
360.483	129.56
360.709	82.56
360.936	91.56
361.163	110.56
361.39	93.56
361.616	111.56
361.843	102.56
362.07	100.56
362.296	115.56
362.523	80.56
362.749	95.56
362.976	95.56
363.203	89.56
363.429	99.56
363.656	97.56
363.882	97.56
364.109	95.56
364.335	98.56
364.562	106.56
364.788	98.56
365.015	106.56
365.241	95.56
365.468	107.56
365.694	125.56
365.92	106.56
366.147	94.56
366.373	92.56
366.599	91.56
366.826	102.56
367.052	96.56
367.278	99.56
367.505	91.56
367.731	99.56
367.957	104.56
368.184	96.56
368.41	111.56
368.636	141.56
368.862	137.56
369.089	132.56
369.315	107.56
369.541	102.56
369.767	96.56
369.993	90.56
370.219	112.56
370.445	97.56
370.672	91.56
370.898	88.56
371.124	90.56
371.35	105.56
371.576	85.56
371.802	89.56
372.028	85.56
372.254	103.56
372.48	85.56
372.706	92.56
372.932	84.56
373.158	87.56
373.384	87.56
373.61	99.56
373.835	84.56
374.061	89.56
374.287	106.56
374.513	102.56
374.739	85.56
374.965	85.56
375.191	82.56
375.416	98.56
375.642	86.56
375.868	96.56
376.094	86.56
376.319	94.56
376.545	95.56
376.771	87.56
376.997	109.56
377.222	94.56
377.448	85.56
377.674	87.56
377.899	94.56
378.125	95.56
378.35	84.56
378.576	90.56
378.802	102.56
379.027	80.56
379.253	96.56
379.478	105.56
379.704	97.56
379.929	81.56
380.155	101.56
380.38	94.56
380.606	102.56
380.831	91.56
381.057	101.56
381.282	112.56
381.507	104.56
381.733	97.56
381.958	102.56
382.184	93.56
382.409	102.56
382.634	127.56
382.86	109.56
383.085	113.56
383.31	109.56
383.535	102.56
383.761	111.56
383.986	120.56
384.211	123.56
384.436	115.56
384.662	95.56
384.887	95.56
385.112	129.56
385.337	112.56
385.562	117.56
385.787	116.56
386.013	130.56
386.238	128.56
386.463	131.56
386.688	138.56
386.913	110.56
387.138	117.56
387.363	102.56
387.588	115.56
387.813	104.56
388.038	111.56
388.263	122.56
388.488	130.56
388.713	79.56
388.938	98.56
389.163	84.56
389.387	96.56
389.612	116.56
389.837	90.56
390.062	86.56
390.287	90.56
390.512	98.56
390.736	96.56
390.961	98.56
391.186	89.56
391.411	98.56
391.636	81.56
391.86	82.56
392.085	81.56
392.31	83.56
392.534	98.56
392.759	92.56
392.984	94.56
393.208	99.56
393.433	103.56
393.658	113.56
393.882	78.56
394.107	82.56
394.331	91.56
394.556	96.56
394.78	84.56
395.005	85.56
395.229	80.56
395.454	95.56
395.678	80.56
395.903	95.56
396.127	82.56
396.352	94.56
396.576	101.56
396.801	104.56
397.025	102.56
397.249	82.56
397.474	101.56
397.698	96.56
397.922	90.56
398.147	100.56
398.371	82.56
398.595	90.56
398.82	75.56
399.044	71.56
399.268	74.56
399.492	86.56
399.717	97.56
399.941	109.56
400.165	92.56
400.389	98.56
400.613	86.56
400.837	102.56
401.062	79.56
401.286	97.56
401.51	102.56
401.734	94.56
401.958	98.56
402.182	163.56
402.406	214.56
402.63	159.56
402.854	111.56
403.078	105.56
403.302	92.56
403.526	94.56
403.75	96.56
403.974	87.56
404.198	80.56
404.422	95.56
404.645	77.56
404.869	96.56
405.093	118.56
405.317	116.56
405.541	106.56
405.765	98.56
405.988	138.56
406.212	233.56
406.436	366.56
406.66	208.56
406.883	130.56
407.107	102.56
407.331	115.56
407.555	124.56
407.778	112.56
408.002	95.56
408.226	89.56
408.449	94.56
408.673	91.56
408.896	106.56
409.12	110.56
409.344	82.56
409.567	100.56
409.791	94.56
410.014	92.56
410.238	90.56
410.461	103.56
410.685	83.56
410.908	100.56
411.132	108.56
411.355	114.56
411.578	100.56
411.802	97.56
412.025	85.56
412.249	95.56
412.472	107.56
412.695	98.56
412.919	92.56
413.142	87.56
413.365	113.56
413.589	87.56
413.812	79.56
414.035	99.56
414.258	82.56
414.482	96.56
414.705	94.56
414.928	79.56
415.151	96.56
415.374	102.56
415.597	112.56
415.821	102.56
416.044	89.56
416.267	99.56
416.49	85.56
416.713	103.56
416.936	97.56
417.159	93.56
417.382	90.56
417.605	79.56
417.828	111.56
418.051	98.56
418.274	100.56
418.497	81.56
418.72	98.56
418.943	87.56
419.166	97.56
419.389	86.56
419.611	86.56
419.834	85.56
420.057	83.56
420.28	73.56
420.503	99.56
420.726	94.56
420.948	101.56
421.171	103.56
421.394	97.56
421.617	84.56
421.839	81.56
422.062	77.56
422.285	102.56
422.507	112.56
422.73	132.56
422.953	108.56
423.175	92.56
423.398	96.56
423.621	94.56
423.843	97.56
424.066	100.56
424.288	106.56
424.511	111.56
424.733	110.56
424.956	134.56
425.178	110.56
425.401	114.56
425.623	114.56
425.846	101.56
426.068	97.56
426.291	88.56
426.513	93.56
426.735	101.56
426.958	105.56
427.18	124.56
427.402	174.56
427.625	240.56
427.847	183.56
428.069	117.56
428.292	103.56
428.514	86.56
428.736	87.56
428.958	82.56
429.181	86.56
429.403	96.56
429.625	92.56
429.847	103.56
430.069	118.56
430.292	118.56
430.514	82.56
430.736	90.56
430.958	82.56
431.18	89.56
431.402	82.56
431.624	94.56
431.846	76.56
432.068	91.56
432.29	98.56
432.512	74.56
432.734	72.56
432.956	90.56
433.178	100.56
433.4	103.56
433.622	91.56
433.844	83.56
434.066	93.56
434.287	112.56
434.509	86.56
434.731	86.56
434.953	91.56
435.175	89.56
435.397	94.56
435.618	94.56
435.84	130.56
436.062	163.56
436.284	155.56
436.505	113.56
436.727	118.56
436.949	101.56
437.17	94.56
437.392	92.56
437.614	104.56
437.835	133.56
438.057	170.56
438.278	144.56
438.5	126.56
438.721	162.56
438.943	126.56
439.165	95.56
439.386	91.56
439.608	82.56
439.829	125.56
440.05	160.56
440.272	211.56
440.493	114.56
440.715	87.56
440.936	94.56
441.158	90.56
441.379	97.56
441.6	100.56
441.822	98.56
442.043	95.56
442.264	139.56
442.486	138.56
442.707	91.56
442.928	134.56
443.149	196.56
443.371	190.56
443.592	144.56
443.813	142.56
444.034	128.56
444.255	94.56
444.476	91.56
444.698	83.56
444.919	73.56
445.14	154.56
445.361	146.56
445.582	154.56
445.803	207.56
446.024	201.56
446.245	191.56
446.466	144.56
446.687	103.56
446.908	94.56
447.129	96.56
447.35	92.56
447.571	99.56
447.792	94.56
448.013	107.56
448.234	129.56
448.455	106.56
448.675	153.56
448.896	143.56
449.117	121.56
449.338	125.56
449.559	162.56
449.779	167.56
450	100.56
450.221	98.56
450.442	97.56
450.662	104.56
450.883	137.56
451.104	143.56
451.324	99.56
451.545	96.56
451.766	74.56
451.986	82.56
452.207	99.56
452.428	95.56
452.648	113.56
452.869	142.56
453.089	138.56
453.31	144.56
453.53	106.56
453.751	101.56
453.971	116.56
454.192	147.56
454.412	105.56
454.633	102.56
454.853	75.56
455.073	80.56
455.294	113.56
455.514	127.56
455.734	101.56
455.955	88.56
456.175	81.56
456.395	85.56
456.616	87.56
456.836	91.56
457.056	80.56
457.276	87.56
457.497	72.56
457.717	86.56
457.937	88.56
458.157	85.56
458.377	91.56
458.598	133.56
458.818	223.56
459.038	256.56
459.258	166.56
459.478	109.56
459.698	84.56
459.918	90.56
460.138	92.56
460.358	91.56
460.578	83.56
460.798	98.56
461.018	101.56
461.238	94.56
461.458	82.56
461.678	85.56
461.898	100.56
462.118	91.56
462.338	92.56
462.558	81.56
462.777	86.56
462.997	92.56
463.217	68.56
463.437	86.56
463.657	81.56
463.876	87.56
464.096	87.56
464.316	100.56
464.536	92.56
464.755	128.56
464.975	131.56
465.195	268.56
465.414	266.56
465.634	114.56
465.854	84.56
466.073	86.56
466.293	80.56
466.512	89.56
466.732	80.56
466.951	82.56
467.171	92.56
467.391	93.56
467.61	130.56
467.829	118.56
468.049	111.56
468.268	93.56
468.488	91.56
468.707	99.56
468.927	84.56
469.146	83.56
469.365	76.56
469.585	88.56
469.804	95.56
470.023	104.56
470.243	113.56
470.462	118.56
470.681	142.56
470.901	94.56
471.12	83.56
471.339	91.56
471.558	89.56
471.777	92.56
471.997	97.56
472.216	87.56
472.435	103.56
472.654	90.56
472.873	85.56
473.092	93.56
473.311	87.56
473.53	79.56
473.749	81.56
473.968	102.56
474.187	138.56
474.406	107.56
474.625	94.56
474.844	95.56
475.063	89.56
475.282	87.56
475.501	86.56
475.72	96.56
475.939	91.56
476.158	102.56
476.377	87.56
476.596	83.56
476.814	111.56
477.033	111.56
477.252	99.56
477.471	94.56
477.69	84.56
477.908	94.56
478.127	92.56
478.346	81.56
478.564	86.56
478.783	99.56
479.002	98.56
479.22	100.56
479.439	106.56
479.658	131.56
479.876	104.56
480.095	92.56
480.313	102.56
480.532	84.56
480.751	90.56
480.969	91.56
481.188	118.56
481.406	98.56
481.624	87.56
481.843	87.56
482.061	88.56
482.28	94.56
482.498	84.56
482.717	83.56
482.935	82.56
483.153	90.56
483.372	97.56
483.59	85.56
483.808	80.56
484.027	99.56
484.245	96.56
484.463	85.56
484.681	106.56
484.9	94.56
485.118	109.56
485.336	83.56
485.554	99.56
485.772	110.56
485.99	98.56
486.209	100.56
486.427	114.56
486.645	127.56
486.863	113.56
487.081	113.56
487.299	102.56
487.517	84.56
487.735	95.56
487.953	87.56
488.171	98.56
488.389	111.56
488.607	126.56
488.825	89.56
489.043	102.56
489.261	95.56
489.479	83.56
489.696	93.56
489.914	103.56
490.132	93.56
490.35	101.56
490.568	81.56
490.786	91.56
491.003	100.56
491.221	73.56
491.439	84.56
491.657	95.56
491.874	82.56
492.092	89.56
492.31	95.56
492.527	94.56
492.745	99.56
492.963	93.56
493.18	80.56
493.398	82.56
493.615	88.56
493.833	96.56
494.05	111.56
494.268	104.56
494.485	102.56
494.703	105.56
494.92	103.56
495.138	110.56
495.355	101.56
495.573	76.56
495.79	89.56
496.008	97.56
496.225	93.56
496.442	87.56
496.66	103.56
496.877	91.56
497.094	86.56
497.312	83.56
497.529	81.56
497.746	85.56
497.963	99.56
498.181	112.56
498.398	97.56
498.615	124.56
498.832	106.56
499.049	83.56
499.267	96.56
499.484	65.56
499.701	88.56
499.918	102.56
500.135	99.56
500.352	91.56
500.569	89.56
500.786	97.56
501.003	88.56
501.22	84.56
501.437	84.56
501.654	105.56
501.871	136.56
502.088	92.56
502.305	96.56
502.522	96.56
502.739	104.56
502.956	73.56
503.172	92.56
503.389	99.56
503.606	135.56
503.823	107.56
504.04	104.56
504.256	88.56
504.473	96.56
504.69	86.56
504.907	83.56
505.123	88.56
505.34	100.56
505.557	95.56
505.773	87.56
505.99	91.56
506.207	96.56
506.423	99.56
506.64	81.56
506.856	96.56
507.073	83.56
507.289	104.56
507.506	118.56
507.722	135.56
507.939	129.56
508.155	117.56
508.372	88.56
508.588	86.56
508.805	83.56
509.021	104.56
509.238	110.56
509.454	105.56
509.67	105.56
509.887	105.56
510.103	139.56
510.319	262.56
510.536	1036.56
510.752	3803.56
510.968	1033.56
511.184	190.56
511.401	139.56
511.617	106.56
511.833	104.56
512.049	114.56
512.265	84.56
512.481	83.56
512.698	88.56
512.914	80.56
513.13	86.56
513.346	86.56
513.562	91.56
