Data from Circ_2022_H10_HRD10591_00025.txt Node
Date: Wed Jan 03 09:53:42 EST 2024
User: Yrep
Spectrometer: HR+D1059
Trigger mode: 1
Integration Time (sec): 1.000000E-1
Scans to average: 1
Electric dark correction enabled: true
Nonlinearity correction enabled: false
Boxcar width: 0
XAxis mode: Wavelengths
Number of Pixels in Spectrum: 2048
>>>>>Begin Spectral Data<<<<<
223.165	-16.38
223.4	-16.38
223.635	-16.38
223.869	-20.38
224.104	-21.38
224.338	-25.38
224.573	-17.38
224.808	-2.38
225.042	-0.38
225.277	-8.38
225.511	-0.38
225.746	15.62
225.98	11.62
226.215	13.62
226.449	11.62
226.683	19.62
226.918	18.62
227.152	21.62
227.387	42.62
227.621	41.62
227.856	43.62
228.09	45.62
228.324	48.62
228.559	51.62
228.793	49.62
229.027	57.62
229.262	66.62
229.496	55.62
229.73	94.62
229.964	80.62
230.199	59.62
230.433	69.62
230.667	80.62
230.901	70.62
231.136	73.62
231.37	74.62
231.604	78.62
231.838	77.62
232.072	78.62
232.306	83.62
232.541	76.62
232.775	73.62
233.009	80.62
233.243	81.62
233.477	66.62
233.711	74.62
233.945	79.62
234.179	67.62
234.413	67.62
234.647	88.62
234.881	78.62
235.115	85.62
235.349	74.62
235.583	78.62
235.817	62.62
236.051	73.62
236.285	59.62
236.519	68.62
236.753	71.62
236.987	56.62
237.221	76.62
237.455	92.62
237.689	77.62
237.922	83.62
238.156	69.62
238.39	63.62
238.624	73.62
238.858	67.62
239.091	78.62
239.325	74.62
239.559	77.62
239.793	57.62
240.027	75.62
240.26	92.62
240.494	70.62
240.728	77.62
240.961	64.62
241.195	78.62
241.429	97.62
241.662	77.62
241.896	67.62
242.13	79.62
242.363	80.62
242.597	66.62
242.83	65.62
243.064	71.62
243.298	69.62
243.531	62.62
243.765	80.62
243.998	67.62
244.232	80.62
244.465	87.62
244.699	81.62
244.932	78.62
245.166	76.62
245.399	77.62
245.633	83.62
245.866	77.62
246.099	86.62
246.333	73.62
246.566	82.62
246.8	95.62
247.033	89.62
247.266	64.62
247.5	68.62
247.733	98.62
247.966	83.62
248.2	65.62
248.433	76.62
248.666	65.62
248.899	76.62
249.133	86.62
249.366	97.62
249.599	110.62
249.832	78.62
250.066	81.62
250.299	63.62
250.532	67.62
250.765	80.62
250.998	72.62
251.231	80.62
251.465	83.62
251.698	75.62
251.931	66.62
252.164	87.62
252.397	66.62
252.63	62.62
252.863	80.62
253.096	75.62
253.329	76.62
253.562	79.62
253.795	88.62
254.028	76.62
254.261	72.62
254.494	90.62
254.727	83.62
254.96	88.62
255.193	74.62
255.426	71.62
255.659	71.62
255.892	82.62
256.124	84.62
256.357	63.62
256.59	74.62
256.823	71.62
257.056	72.62
257.289	91.62
257.521	80.62
257.754	67.62
257.987	88.62
258.22	87.62
258.452	78.62
258.685	72.62
258.918	70.62
259.151	83.62
259.383	90.62
259.616	87.62
259.849	78.62
260.081	79.62
260.314	73.62
260.547	81.62
260.779	81.62
261.012	92.62
261.244	73.62
261.477	88.62
261.71	101.62
261.942	121.62
262.175	129.62
262.407	88.62
262.64	90.62
262.872	74.62
263.105	85.62
263.337	87.62
263.57	86.62
263.802	90.62
264.035	74.62
264.267	60.62
264.499	76.62
264.732	80.62
264.964	84.62
265.197	79.62
265.429	88.62
265.661	85.62
265.894	84.62
266.126	78.62
266.358	75.62
266.591	86.62
266.823	86.62
267.055	63.62
267.287	89.62
267.52	87.62
267.752	65.62
267.984	69.62
268.216	81.62
268.448	79.62
268.681	84.62
268.913	84.62
269.145	90.62
269.377	83.62
269.609	86.62
269.841	81.62
270.073	87.62
270.306	73.62
270.538	96.62
270.77	71.62
271.002	77.62
271.234	77.62
271.466	85.62
271.698	83.62
271.93	86.62
272.162	90.62
272.394	105.62
272.626	103.62
272.858	79.62
273.09	82.62
273.322	84.62
273.553	74.62
273.785	73.62
274.017	76.62
274.249	91.62
274.481	78.62
274.713	87.62
274.945	86.62
275.176	90.62
275.408	98.62
275.64	80.62
275.872	87.62
276.104	80.62
276.335	84.62
276.567	96.62
276.799	121.62
277.031	117.62
277.262	80.62
277.494	85.62
277.726	83.62
277.957	80.62
278.189	82.62
278.421	69.62
278.652	84.62
278.884	84.62
279.115	82.62
279.347	93.62
279.579	85.62
279.81	78.62
280.042	78.62
280.273	77.62
280.505	84.62
280.736	86.62
280.968	79.62
281.199	78.62
281.431	83.62
281.662	91.62
281.894	72.62
282.125	86.62
282.356	144.62
282.588	185.62
282.819	129.62
283.051	89.62
283.282	79.62
283.513	98.62
283.745	85.62
283.976	102.62
284.207	95.62
284.439	98.62
284.67	87.62
284.901	81.62
285.132	82.62
285.364	93.62
285.595	86.62
285.826	88.62
286.057	88.62
286.288	86.62
286.52	92.62
286.751	74.62
286.982	87.62
287.213	90.62
287.444	91.62
287.675	96.62
287.906	91.62
288.138	90.62
288.369	89.62
288.6	100.62
288.831	93.62
289.062	89.62
289.293	77.62
289.524	79.62
289.755	80.62
289.986	80.62
290.217	86.62
290.448	83.62
290.679	84.62
290.91	100.62
291.141	86.62
291.371	96.62
291.602	106.62
291.833	90.62
292.064	87.62
292.295	89.62
292.526	90.62
292.757	86.62
292.987	88.62
293.218	101.62
293.449	93.62
293.68	92.62
293.91	88.62
294.141	88.62
294.372	96.62
294.603	86.62
294.833	85.62
295.064	87.62
295.295	73.62
295.525	102.62
295.756	100.62
295.987	141.62
296.217	165.62
296.448	145.62
296.679	99.62
296.909	91.62
297.14	84.62
297.37	105.62
297.601	90.62
297.831	92.62
298.062	90.62
298.292	83.62
298.523	87.62
298.753	88.62
298.984	88.62
299.214	89.62
299.445	91.62
299.675	84.62
299.905	98.62
300.136	81.62
300.366	89.62
300.597	89.62
300.827	99.62
301.057	102.62
301.288	115.62
301.518	99.62
301.748	81.62
301.979	89.62
302.209	98.62
302.439	86.62
302.669	93.62
302.9	87.62
303.13	85.62
303.36	90.62
303.59	94.62
303.82	112.62
304.051	82.62
304.281	84.62
304.511	75.62
304.741	86.62
304.971	92.62
305.201	94.62
305.431	94.62
305.661	98.62
305.891	97.62
306.121	95.62
306.352	119.62
306.582	105.62
306.812	82.62
307.042	85.62
307.272	89.62
307.502	89.62
307.731	99.62
307.961	101.62
308.191	89.62
308.421	80.62
308.651	88.62
308.881	99.62
309.111	94.62
309.341	101.62
309.571	130.62
309.8	89.62
310.03	113.62
310.26	106.62
310.49	104.62
310.72	86.62
310.949	130.62
311.179	93.62
311.409	104.62
311.639	104.62
311.868	101.62
312.098	87.62
312.328	99.62
312.557	111.62
312.787	115.62
313.017	97.62
313.246	96.62
313.476	85.62
313.706	94.62
313.935	88.62
314.165	93.62
314.394	101.62
314.624	102.62
314.853	101.62
315.083	99.62
315.312	84.62
315.542	80.62
315.771	95.62
316.001	98.62
316.23	82.62
316.46	97.62
316.689	87.62
316.919	96.62
317.148	107.62
317.377	95.62
317.607	93.62
317.836	97.62
318.065	82.62
318.295	90.62
318.524	87.62
318.753	116.62
318.983	104.62
319.212	105.62
319.441	113.62
319.67	116.62
319.9	105.62
320.129	80.62
320.358	97.62
320.587	102.62
320.816	104.62
321.046	95.62
321.275	99.62
321.504	94.62
321.733	93.62
321.962	94.62
322.191	91.62
322.42	105.62
322.649	125.62
322.878	133.62
323.108	148.62
323.337	128.62
323.566	138.62
323.795	157.62
324.024	244.62
324.253	501.62
324.482	1033.62
324.71	2091.62
324.939	2805.62
325.168	1034.62
325.397	299.62
325.626	171.62
325.855	148.62
326.084	146.62
326.313	143.62
326.542	154.62
326.77	263.62
326.999	520.62
327.228	1109.62
327.457	2007.62
327.686	1601.62
327.914	461.62
328.143	235.62
328.372	173.62
328.6	135.62
328.829	133.62
329.058	148.62
329.287	162.62
329.515	125.62
329.744	111.62
329.972	101.62
330.201	107.62
330.43	120.62
330.658	139.62
330.887	181.62
331.115	138.62
331.344	102.62
331.572	80.62
331.801	102.62
332.03	98.62
332.258	101.62
332.486	97.62
332.715	91.62
332.943	90.62
333.172	93.62
333.4	117.62
333.629	113.62
333.857	128.62
334.085	116.62
334.314	104.62
334.542	121.62
334.771	131.62
334.999	99.62
335.227	90.62
335.455	94.62
335.684	95.62
335.912	103.62
336.14	102.62
336.369	91.62
336.597	104.62
336.825	97.62
337.053	98.62
337.281	87.62
337.51	105.62
337.738	95.62
337.966	101.62
338.194	88.62
338.422	98.62
338.65	94.62
338.878	83.62
339.106	87.62
339.334	93.62
339.562	88.62
339.79	89.62
340.018	88.62
340.246	103.62
340.474	97.62
340.702	102.62
340.93	98.62
341.158	104.62
341.386	101.62
341.614	100.62
341.842	89.62
342.07	84.62
342.298	83.62
342.526	89.62
342.754	86.62
342.981	87.62
343.209	86.62
343.437	106.62
343.665	91.62
343.893	97.62
344.12	101.62
344.348	88.62
344.576	102.62
344.804	104.62
345.031	100.62
345.259	103.62
345.487	112.62
345.714	96.62
345.942	101.62
346.17	93.62
346.397	96.62
346.625	92.62
346.853	94.62
347.08	89.62
347.308	111.62
347.535	99.62
347.763	101.62
347.99	98.62
348.218	103.62
348.445	128.62
348.673	106.62
348.9	110.62
349.128	97.62
349.355	81.62
349.583	93.62
349.81	89.62
350.037	83.62
350.265	92.62
350.492	91.62
350.72	97.62
350.947	88.62
351.174	111.62
351.402	117.62
351.629	109.62
351.856	95.62
352.083	114.62
352.311	120.62
352.538	114.62
352.765	103.62
352.992	121.62
353.22	133.62
353.447	114.62
353.674	112.62
353.901	90.62
354.128	94.62
354.355	94.62
354.583	97.62
354.81	96.62
355.037	88.62
355.264	86.62
355.491	88.62
355.718	87.62
355.945	95.62
356.172	70.62
356.399	87.62
356.626	96.62
356.853	84.62
357.08	86.62
357.307	82.62
357.534	92.62
357.761	86.62
357.988	103.62
358.215	100.62
358.441	99.62
358.668	88.62
358.895	84.62
359.122	92.62
359.349	87.62
359.576	89.62
359.802	110.62
360.029	120.62
360.256	120.62
360.483	110.62
360.709	92.62
360.936	86.62
361.163	101.62
361.39	91.62
361.616	95.62
361.843	86.62
362.07	95.62
362.296	97.62
362.523	89.62
362.749	90.62
362.976	86.62
363.203	87.62
363.429	89.62
363.656	105.62
363.882	105.62
364.109	85.62
364.335	100.62
364.562	88.62
364.788	88.62
365.015	86.62
365.241	89.62
365.468	115.62
365.694	107.62
365.92	103.62
366.147	94.62
366.373	91.62
366.599	88.62
366.826	83.62
367.052	85.62
367.278	96.62
367.505	88.62
367.731	86.62
367.957	88.62
368.184	90.62
368.41	89.62
368.636	113.62
368.862	130.62
369.089	112.62
369.315	109.62
369.541	102.62
369.767	93.62
369.993	103.62
370.219	90.62
370.445	98.62
370.672	83.62
370.898	91.62
371.124	90.62
371.35	97.62
371.576	85.62
371.802	84.62
372.028	80.62
372.254	95.62
372.48	90.62
372.706	90.62
372.932	92.62
373.158	91.62
373.384	98.62
373.61	84.62
373.835	87.62
374.061	89.62
374.287	91.62
374.513	98.62
374.739	83.62
374.965	96.62
375.191	83.62
375.416	90.62
375.642	80.62
375.868	95.62
376.094	91.62
376.319	75.62
376.545	69.62
376.771	90.62
376.997	96.62
377.222	89.62
377.448	94.62
377.674	85.62
377.899	92.62
378.125	101.62
378.35	87.62
378.576	96.62
378.802	102.62
379.027	74.62
379.253	93.62
379.478	99.62
379.704	88.62
379.929	99.62
380.155	101.62
380.38	90.62
380.606	93.62
380.831	109.62
381.057	90.62
381.282	96.62
381.507	103.62
381.733	93.62
381.958	94.62
382.184	88.62
382.409	101.62
382.634	97.62
382.86	96.62
383.085	106.62
383.31	89.62
383.535	93.62
383.761	102.62
383.986	105.62
384.211	94.62
384.436	89.62
384.662	96.62
384.887	114.62
385.112	112.62
385.337	104.62
385.562	110.62
385.787	112.62
386.013	108.62
386.238	125.62
386.463	102.62
386.688	124.62
386.913	111.62
387.138	127.62
387.363	102.62
387.588	113.62
387.813	91.62
388.038	100.62
388.263	102.62
388.488	117.62
388.713	101.62
388.938	86.62
389.163	102.62
389.387	86.62
389.612	87.62
389.837	94.62
390.062	95.62
390.287	97.62
390.512	104.62
390.736	93.62
390.961	79.62
391.186	90.62
391.411	93.62
391.636	97.62
391.86	89.62
392.085	95.62
392.31	90.62
392.534	100.62
392.759	90.62
392.984	90.62
393.208	116.62
393.433	103.62
393.658	98.62
393.882	89.62
394.107	82.62
394.331	83.62
394.556	87.62
394.78	109.62
395.005	72.62
395.229	74.62
395.454	99.62
395.678	72.62
395.903	79.62
396.127	102.62
396.352	84.62
396.576	95.62
396.801	101.62
397.025	97.62
397.249	94.62
397.474	94.62
397.698	90.62
397.922	85.62
398.147	88.62
398.371	88.62
398.595	91.62
398.82	80.62
399.044	77.62
399.268	93.62
399.492	84.62
399.717	87.62
399.941	91.62
400.165	82.62
400.389	81.62
400.613	93.62
400.837	82.62
401.062	82.62
401.286	97.62
401.51	92.62
401.734	94.62
401.958	99.62
402.182	155.62
402.406	217.62
402.63	145.62
402.854	85.62
403.078	85.62
403.302	77.62
403.526	91.62
403.75	86.62
403.974	76.62
404.198	95.62
404.422	85.62
404.645	89.62
404.869	95.62
405.093	105.62
405.317	84.62
405.541	90.62
405.765	98.62
405.988	135.62
406.212	225.62
406.436	309.62
406.66	185.62
406.883	98.62
407.107	104.62
407.331	110.62
407.555	99.62
407.778	98.62
408.002	100.62
408.226	99.62
408.449	81.62
408.673	72.62
408.896	88.62
409.12	78.62
409.344	90.62
409.567	85.62
409.791	81.62
410.014	109.62
410.238	93.62
410.461	90.62
410.685	100.62
410.908	99.62
411.132	114.62
411.355	93.62
411.578	105.62
411.802	98.62
412.025	85.62
412.249	101.62
412.472	91.62
412.695	77.62
412.919	81.62
413.142	92.62
413.365	86.62
413.589	93.62
413.812	88.62
414.035	88.62
414.258	82.62
414.482	90.62
414.705	92.62
414.928	80.62
415.151	84.62
415.374	95.62
415.597	89.62
415.821	95.62
416.044	90.62
416.267	96.62
416.49	82.62
416.713	91.62
416.936	93.62
417.159	82.62
417.382	84.62
417.605	94.62
417.828	102.62
418.051	100.62
418.274	87.62
418.497	90.62
418.72	86.62
418.943	89.62
419.166	96.62
419.389	82.62
419.611	98.62
419.834	95.62
420.057	76.62
420.28	89.62
420.503	87.62
420.726	95.62
420.948	81.62
421.171	95.62
421.394	96.62
421.617	98.62
421.839	97.62
422.062	93.62
422.285	91.62
422.507	91.62
422.73	122.62
422.953	96.62
423.175	98.62
423.398	88.62
423.621	86.62
423.843	78.62
424.066	75.62
424.288	79.62
424.511	88.62
424.733	93.62
424.956	99.62
425.178	103.62
425.401	97.62
425.623	95.62
425.846	85.62
426.068	99.62
426.291	96.62
426.513	104.62
426.735	103.62
426.958	87.62
427.18	102.62
427.402	141.62
427.625	207.62
427.847	152.62
428.069	93.62
428.292	104.62
428.514	91.62
428.736	90.62
428.958	91.62
429.181	86.62
429.403	85.62
429.625	90.62
429.847	97.62
430.069	110.62
430.292	97.62
430.514	89.62
430.736	81.62
430.958	101.62
431.18	110.62
431.402	93.62
431.624	85.62
431.846	80.62
432.068	80.62
432.29	87.62
432.512	73.62
432.734	86.62
432.956	82.62
433.178	96.62
433.4	95.62
433.622	82.62
433.844	99.62
434.066	81.62
434.287	81.62
434.509	83.62
434.731	104.62
434.953	87.62
435.175	85.62
435.397	91.62
435.618	89.62
435.84	113.62
436.062	123.62
436.284	107.62
436.505	114.62
436.727	91.62
436.949	83.62
437.17	90.62
437.392	96.62
437.614	91.62
437.835	123.62
438.057	139.62
438.278	133.62
438.5	98.62
438.721	117.62
438.943	102.62
439.165	82.62
439.386	95.62
439.608	88.62
439.829	112.62
440.05	130.62
440.272	170.62
440.493	104.62
440.715	84.62
440.936	79.62
441.158	83.62
441.379	88.62
441.6	105.62
441.822	109.62
442.043	113.62
442.264	121.62
442.486	102.62
442.707	101.62
442.928	95.62
443.149	149.62
443.371	135.62
443.592	110.62
443.813	123.62
444.034	114.62
444.255	93.62
444.476	85.62
444.698	73.62
444.919	89.62
445.14	139.62
445.361	126.62
445.582	131.62
445.803	152.62
446.024	145.62
446.245	130.62
446.466	104.62
446.687	90.62
446.908	88.62
447.129	85.62
447.35	85.62
447.571	89.62
447.792	95.62
448.013	113.62
448.234	130.62
448.455	104.62
448.675	133.62
448.896	126.62
449.117	111.62
449.338	113.62
449.559	121.62
449.779	139.62
450	102.62
450.221	103.62
450.442	91.62
450.662	96.62
450.883	131.62
451.104	134.62
451.324	101.62
451.545	87.62
451.766	96.62
451.986	84.62
452.207	84.62
452.428	82.62
452.648	80.62
452.869	123.62
453.089	131.62
453.31	133.62
453.53	103.62
453.751	96.62
453.971	112.62
454.192	127.62
454.412	102.62
454.633	83.62
454.853	85.62
455.073	88.62
455.294	101.62
455.514	110.62
455.734	99.62
455.955	79.62
456.175	87.62
456.395	89.62
456.616	80.62
456.836	89.62
457.056	78.62
457.276	86.62
457.497	89.62
457.717	84.62
457.937	97.62
458.157	83.62
458.377	80.62
458.598	128.62
458.818	200.62
459.038	211.62
459.258	139.62
459.478	91.62
459.698	84.62
459.918	93.62
460.138	103.62
460.358	85.62
460.578	91.62
460.798	90.62
461.018	90.62
461.238	79.62
461.458	80.62
461.678	77.62
461.898	86.62
462.118	86.62
462.338	93.62
462.558	100.62
462.777	83.62
462.997	88.62
463.217	95.62
463.437	71.62
463.657	86.62
463.876	86.62
464.096	86.62
464.316	91.62
464.536	89.62
464.755	106.62
464.975	103.62
465.195	215.62
465.414	214.62
465.634	106.62
465.854	97.62
466.073	93.62
466.293	86.62
466.512	78.62
466.732	80.62
466.951	81.62
467.171	103.62
467.391	96.62
467.61	115.62
467.829	96.62
468.049	114.62
468.268	96.62
468.488	73.62
468.707	90.62
468.927	86.62
469.146	92.62
469.365	81.62
469.585	80.62
469.804	92.62
470.023	102.62
470.243	108.62
470.462	106.62
470.681	111.62
470.901	97.62
471.12	84.62
471.339	84.62
471.558	76.62
471.777	91.62
471.997	95.62
472.216	92.62
472.435	120.62
472.654	100.62
472.873	86.62
473.092	81.62
473.311	81.62
473.53	84.62
473.749	85.62
473.968	93.62
474.187	87.62
474.406	89.62
474.625	92.62
474.844	88.62
475.063	87.62
475.282	86.62
475.501	95.62
475.72	86.62
475.939	107.62
476.158	80.62
476.377	88.62
476.596	90.62
476.814	103.62
477.033	81.62
477.252	77.62
477.471	88.62
477.69	89.62
477.908	99.62
478.127	75.62
478.346	88.62
478.564	92.62
478.783	104.62
479.002	113.62
479.22	93.62
479.439	104.62
479.658	112.62
479.876	81.62
480.095	77.62
480.313	103.62
480.532	90.62
480.751	88.62
480.969	96.62
481.188	139.62
481.406	133.62
481.624	104.62
481.843	95.62
482.061	88.62
482.28	78.62
482.498	69.62
482.717	85.62
482.935	84.62
483.153	91.62
483.372	109.62
483.59	92.62
483.808	72.62
484.027	95.62
484.245	83.62
484.463	91.62
484.681	100.62
484.9	89.62
485.118	92.62
485.336	87.62
485.554	91.62
485.772	93.62
485.99	95.62
486.209	91.62
486.427	99.62
486.645	110.62
486.863	125.62
487.081	95.62
487.299	109.62
487.517	90.62
487.735	97.62
487.953	88.62
488.171	90.62
488.389	106.62
488.607	85.62
488.825	101.62
489.043	91.62
489.261	90.62
489.479	79.62
489.696	87.62
489.914	84.62
490.132	97.62
490.35	75.62
490.568	83.62
490.786	83.62
491.003	101.62
491.221	95.62
491.439	83.62
491.657	90.62
491.874	80.62
492.092	92.62
492.31	89.62
492.527	94.62
492.745	101.62
492.963	93.62
493.18	87.62
493.398	92.62
493.615	89.62
493.833	97.62
494.05	88.62
494.268	88.62
494.485	105.62
494.703	86.62
494.92	111.62
495.138	90.62
495.355	97.62
495.573	93.62
495.79	79.62
496.008	85.62
496.225	78.62
496.442	80.62
496.66	88.62
496.877	95.62
497.094	96.62
497.312	83.62
497.529	90.62
497.746	93.62
497.963	94.62
498.181	85.62
498.398	95.62
498.615	116.62
498.832	106.62
499.049	107.62
499.267	81.62
499.484	86.62
499.701	80.62
499.918	81.62
500.135	88.62
500.352	89.62
500.569	75.62
500.786	90.62
501.003	94.62
501.22	90.62
501.437	93.62
501.654	110.62
501.871	115.62
502.088	104.62
502.305	86.62
502.522	101.62
502.739	79.62
502.956	82.62
503.172	106.62
503.389	109.62
503.606	113.62
503.823	110.62
504.04	94.62
504.256	90.62
504.473	86.62
504.69	84.62
504.907	96.62
505.123	82.62
505.34	78.62
505.557	88.62
505.773	88.62
505.99	81.62
506.207	89.62
506.423	91.62
506.64	91.62
506.856	85.62
507.073	89.62
507.289	92.62
507.506	108.62
507.722	131.62
507.939	111.62
508.155	100.62
508.372	98.62
508.588	97.62
508.805	85.62
509.021	95.62
509.238	100.62
509.454	97.62
509.67	98.62
509.887	127.62
510.103	143.62
510.319	248.62
510.536	1037.62
510.752	3600.62
510.968	986.62
511.184	189.62
511.401	129.62
511.617	106.62
511.833	93.62
512.049	92.62
512.265	92.62
512.481	93.62
512.698	95.62
512.914	87.62
513.13	77.62
513.346	97.62
513.562	88.62
513.778	99.62
513.994	104.62
514.21	97.62
514.426	133.62
514.642	169.62
514.858	157.62
515.074	214.62
