Data from Circ_2022_H10_HRD10591_00080.txt Node
Date: Wed Jan 03 09:53:53 EST 2024
User: Yrep
Spectrometer: HR+D1059
Trigger mode: 1
Integration Time (sec): 1.000000E-1
Scans to average: 1
Electric dark correction enabled: true
Nonlinearity correction enabled: false
Boxcar width: 0
XAxis mode: Wavelengths
Number of Pixels in Spectrum: 2048
>>>>>Begin Spectral Data<<<<<
223.165	-30.38
223.4	-30.38
223.635	-30.38
223.869	-10.38
224.104	-21.38
224.338	-11.38
224.573	-12.38
224.808	-11.38
225.042	-7.38
225.277	-12.38
225.511	-9.38
225.746	19.62
225.98	12.62
226.215	5.62
226.449	15.62
226.683	14.62
226.918	28.62
227.152	29.62
227.387	31.62
227.621	36.62
227.856	50.62
228.09	52.62
228.324	41.62
228.559	42.62
228.793	53.62
229.027	54.62
229.262	57.62
229.496	83.62
229.73	95.62
229.964	76.62
230.199	83.62
230.433	74.62
230.667	72.62
230.901	92.62
231.136	73.62
231.37	87.62
231.604	71.62
231.838	72.62
232.072	80.62
232.306	70.62
232.541	71.62
232.775	84.62
233.009	83.62
233.243	69.62
233.477	79.62
233.711	77.62
233.945	74.62
234.179	73.62
234.413	82.62
234.647	73.62
234.881	87.62
235.115	70.62
235.349	76.62
235.583	75.62
235.817	85.62
236.051	80.62
236.285	82.62
236.519	81.62
236.753	88.62
236.987	73.62
237.221	89.62
237.455	97.62
237.689	82.62
237.922	87.62
238.156	87.62
238.39	72.62
238.624	78.62
238.858	94.62
239.091	74.62
239.325	77.62
239.559	79.62
239.793	79.62
240.027	97.62
240.26	80.62
240.494	66.62
240.728	84.62
240.961	86.62
241.195	74.62
241.429	71.62
241.662	73.62
241.896	86.62
242.13	83.62
242.363	69.62
242.597	74.62
242.83	84.62
243.064	99.62
243.298	80.62
243.531	79.62
243.765	82.62
243.998	83.62
244.232	82.62
244.465	92.62
244.699	76.62
244.932	79.62
245.166	83.62
245.399	69.62
245.633	76.62
245.866	79.62
246.099	96.62
246.333	67.62
246.566	95.62
246.8	77.62
247.033	75.62
247.266	84.62
247.5	65.62
247.733	58.62
247.966	76.62
248.2	84.62
248.433	86.62
248.666	80.62
248.899	81.62
249.133	77.62
249.366	101.62
249.599	90.62
249.832	90.62
250.066	80.62
250.299	74.62
250.532	89.62
250.765	74.62
250.998	69.62
251.231	77.62
251.465	86.62
251.698	88.62
251.931	85.62
252.164	75.62
252.397	84.62
252.63	88.62
252.863	74.62
253.096	94.62
253.329	82.62
253.562	69.62
253.795	73.62
254.028	90.62
254.261	80.62
254.494	85.62
254.727	80.62
254.96	74.62
255.193	74.62
255.426	78.62
255.659	72.62
255.892	76.62
256.124	80.62
256.357	102.62
256.59	99.62
256.823	80.62
257.056	77.62
257.289	88.62
257.521	79.62
257.754	72.62
257.987	79.62
258.22	83.62
258.452	83.62
258.685	73.62
258.918	63.62
259.151	69.62
259.383	80.62
259.616	78.62
259.849	80.62
260.081	83.62
260.314	77.62
260.547	71.62
260.779	90.62
261.012	88.62
261.244	78.62
261.477	82.62
261.71	114.62
261.942	138.62
262.175	141.62
262.407	96.62
262.64	94.62
262.872	88.62
263.105	80.62
263.337	78.62
263.57	83.62
263.802	79.62
264.035	54.62
264.267	77.62
264.499	91.62
264.732	83.62
264.964	74.62
265.197	77.62
265.429	79.62
265.661	80.62
265.894	82.62
266.126	80.62
266.358	73.62
266.591	81.62
266.823	88.62
267.055	84.62
267.287	92.62
267.52	74.62
267.752	85.62
267.984	84.62
268.216	95.62
268.448	90.62
268.681	69.62
268.913	86.62
269.145	73.62
269.377	86.62
269.609	83.62
269.841	89.62
270.073	83.62
270.306	93.62
270.538	82.62
270.77	81.62
271.002	80.62
271.234	78.62
271.466	87.62
271.698	80.62
271.93	84.62
272.162	94.62
272.394	81.62
272.626	83.62
272.858	87.62
273.09	90.62
273.322	82.62
273.553	72.62
273.785	89.62
274.017	83.62
274.249	69.62
274.481	75.62
274.713	93.62
274.945	89.62
275.176	81.62
275.408	87.62
275.64	88.62
275.872	84.62
276.104	90.62
276.335	85.62
276.567	95.62
276.799	129.62
277.031	124.62
277.262	108.62
277.494	98.62
277.726	93.62
277.957	90.62
278.189	79.62
278.421	74.62
278.652	90.62
278.884	86.62
279.115	65.62
279.347	86.62
279.579	88.62
279.81	91.62
280.042	98.62
280.273	121.62
280.505	100.62
280.736	84.62
280.968	84.62
281.199	93.62
281.431	74.62
281.662	87.62
281.894	84.62
282.125	104.62
282.356	129.62
282.588	177.62
282.819	139.62
283.051	93.62
283.282	84.62
283.513	97.62
283.745	106.62
283.976	89.62
284.207	83.62
284.439	91.62
284.67	84.62
284.901	69.62
285.132	82.62
285.364	88.62
285.595	83.62
285.826	100.62
286.057	87.62
286.288	93.62
286.52	91.62
286.751	79.62
286.982	88.62
287.213	95.62
287.444	84.62
287.675	96.62
287.906	81.62
288.138	102.62
288.369	83.62
288.6	84.62
288.831	95.62
289.062	85.62
289.293	100.62
289.524	87.62
289.755	80.62
289.986	85.62
290.217	84.62
290.448	87.62
290.679	82.62
290.91	85.62
291.141	91.62
291.371	81.62
291.602	81.62
291.833	80.62
292.064	71.62
292.295	93.62
292.526	87.62
292.757	87.62
292.987	92.62
293.218	87.62
293.449	74.62
293.68	83.62
293.91	89.62
294.141	82.62
294.372	100.62
294.603	92.62
294.833	77.62
295.064	85.62
295.295	82.62
295.525	96.62
295.756	97.62
295.987	133.62
296.217	167.62
296.448	146.62
296.679	99.62
296.909	68.62
297.14	84.62
297.37	96.62
297.601	82.62
297.831	82.62
298.062	101.62
298.292	85.62
298.523	85.62
298.753	96.62
298.984	77.62
299.214	84.62
299.445	93.62
299.675	96.62
299.905	98.62
300.136	102.62
300.366	86.62
300.597	97.62
300.827	97.62
301.057	101.62
301.288	111.62
301.518	98.62
301.748	94.62
301.979	105.62
302.209	84.62
302.439	102.62
302.669	96.62
302.9	92.62
303.13	94.62
303.36	98.62
303.59	124.62
303.82	118.62
304.051	112.62
304.281	93.62
304.511	96.62
304.741	85.62
304.971	98.62
305.201	80.62
305.431	79.62
305.661	96.62
305.891	99.62
306.121	110.62
306.352	93.62
306.582	104.62
306.812	86.62
307.042	100.62
307.272	117.62
307.502	109.62
307.731	103.62
307.961	100.62
308.191	90.62
308.421	103.62
308.651	84.62
308.881	92.62
309.111	99.62
309.341	92.62
309.571	98.62
309.8	93.62
310.03	115.62
310.26	115.62
310.49	100.62
310.72	107.62
310.949	121.62
311.179	124.62
311.409	96.62
311.639	116.62
311.868	105.62
312.098	94.62
312.328	97.62
312.557	112.62
312.787	124.62
313.017	124.62
313.246	92.62
313.476	88.62
313.706	92.62
313.935	95.62
314.165	107.62
314.394	117.62
314.624	107.62
314.853	103.62
315.083	89.62
315.312	100.62
315.542	96.62
315.771	90.62
316.001	93.62
316.23	81.62
316.46	91.62
316.689	91.62
316.919	102.62
317.148	115.62
317.377	104.62
317.607	97.62
317.836	93.62
318.065	85.62
318.295	100.62
318.524	86.62
318.753	88.62
318.983	88.62
319.212	100.62
319.441	118.62
319.67	115.62
319.9	112.62
320.129	71.62
320.358	92.62
320.587	101.62
320.816	104.62
321.046	129.62
321.275	99.62
321.504	113.62
321.733	105.62
321.962	111.62
322.191	112.62
322.42	106.62
322.649	116.62
322.878	144.62
323.108	138.62
323.337	154.62
323.566	158.62
323.795	187.62
324.024	272.62
324.253	517.62
324.482	1142.62
324.71	2377.62
324.939	3150.62
325.168	1150.62
325.397	319.62
325.626	194.62
325.855	152.62
326.084	143.62
326.313	147.62
326.542	194.62
326.77	283.62
326.999	572.62
327.228	1185.62
327.457	2297.62
327.686	1860.62
327.914	502.62
328.143	297.62
328.372	266.62
328.6	182.62
328.829	152.62
329.058	162.62
329.287	173.62
329.515	132.62
329.744	130.62
329.972	175.62
330.201	264.62
330.43	374.62
330.658	244.62
330.887	214.62
331.115	178.62
331.344	114.62
331.572	113.62
331.801	124.62
332.03	120.62
332.258	103.62
332.486	99.62
332.715	103.62
332.943	95.62
333.172	102.62
333.4	116.62
333.629	106.62
333.857	152.62
334.085	178.62
334.314	260.62
334.542	433.62
334.771	426.62
334.999	172.62
335.227	120.62
335.455	102.62
335.684	95.62
335.912	99.62
336.14	108.62
336.369	100.62
336.597	116.62
336.825	109.62
337.053	94.62
337.281	94.62
337.51	99.62
337.738	105.62
337.966	106.62
338.194	91.62
338.422	97.62
338.65	96.62
338.878	85.62
339.106	93.62
339.334	94.62
339.562	98.62
339.79	82.62
340.018	96.62
340.246	97.62
340.474	94.62
340.702	90.62
340.93	97.62
341.158	103.62
341.386	99.62
341.614	103.62
341.842	105.62
342.07	96.62
342.298	85.62
342.526	88.62
342.754	84.62
342.981	82.62
343.209	102.62
343.437	98.62
343.665	77.62
343.893	93.62
344.12	90.62
344.348	81.62
344.576	89.62
344.804	100.62
345.031	112.62
345.259	99.62
345.487	96.62
345.714	91.62
345.942	101.62
346.17	84.62
346.397	74.62
346.625	92.62
346.853	104.62
347.08	90.62
347.308	101.62
347.535	103.62
347.763	95.62
347.99	102.62
348.218	106.62
348.445	121.62
348.673	122.62
348.9	111.62
349.128	82.62
349.355	103.62
349.583	103.62
349.81	94.62
350.037	109.62
350.265	90.62
350.492	98.62
350.72	99.62
350.947	85.62
351.174	116.62
351.402	103.62
351.629	101.62
351.856	116.62
352.083	105.62
352.311	113.62
352.538	120.62
352.765	117.62
352.992	129.62
353.22	112.62
353.447	130.62
353.674	105.62
353.901	110.62
354.128	91.62
354.355	98.62
354.583	111.62
354.81	99.62
355.037	90.62
355.264	85.62
355.491	85.62
355.718	79.62
355.945	112.62
356.172	92.62
356.399	97.62
356.626	88.62
356.853	83.62
357.08	91.62
357.307	83.62
357.534	94.62
357.761	96.62
357.988	88.62
358.215	100.62
358.441	83.62
358.668	102.62
358.895	93.62
359.122	80.62
359.349	94.62
359.576	98.62
359.802	113.62
360.029	150.62
360.256	136.62
360.483	120.62
360.709	86.62
360.936	87.62
361.163	86.62
361.39	112.62
361.616	97.62
361.843	76.62
362.07	110.62
362.296	110.62
362.523	112.62
362.749	103.62
362.976	89.62
363.203	80.62
363.429	93.62
363.656	92.62
363.882	98.62
364.109	90.62
364.335	97.62
364.562	79.62
364.788	89.62
365.015	110.62
365.241	94.62
365.468	112.62
365.694	100.62
365.92	100.62
366.147	101.62
366.373	105.62
366.599	90.62
366.826	87.62
367.052	72.62
367.278	84.62
367.505	87.62
367.731	80.62
367.957	87.62
368.184	89.62
368.41	102.62
368.636	112.62
368.862	142.62
369.089	105.62
369.315	88.62
369.541	103.62
369.767	80.62
369.993	100.62
370.219	90.62
370.445	105.62
370.672	96.62
370.898	93.62
371.124	91.62
371.35	75.62
371.576	92.62
371.802	93.62
372.028	85.62
372.254	74.62
372.48	76.62
372.706	67.62
372.932	82.62
373.158	86.62
373.384	80.62
373.61	84.62
373.835	79.62
374.061	85.62
374.287	92.62
374.513	81.62
374.739	81.62
374.965	90.62
375.191	94.62
375.416	95.62
375.642	77.62
375.868	80.62
376.094	104.62
376.319	92.62
376.545	81.62
376.771	82.62
376.997	77.62
377.222	71.62
377.448	88.62
377.674	74.62
377.899	104.62
378.125	82.62
378.35	86.62
378.576	95.62
378.802	82.62
379.027	103.62
379.253	103.62
379.478	89.62
379.704	101.62
379.929	89.62
380.155	86.62
380.38	75.62
380.606	96.62
380.831	113.62
381.057	86.62
381.282	80.62
381.507	81.62
381.733	90.62
381.958	94.62
382.184	95.62
382.409	97.62
382.634	95.62
382.86	109.62
383.085	88.62
383.31	96.62
383.535	93.62
383.761	103.62
383.986	93.62
384.211	85.62
384.436	98.62
384.662	94.62
384.887	90.62
385.112	81.62
385.337	99.62
385.562	103.62
385.787	98.62
386.013	100.62
386.238	121.62
386.463	108.62
386.688	105.62
386.913	87.62
387.138	105.62
387.363	101.62
387.588	93.62
387.813	112.62
388.038	113.62
388.263	106.62
388.488	89.62
388.713	100.62
388.938	79.62
389.163	93.62
389.387	82.62
389.612	95.62
389.837	96.62
390.062	104.62
390.287	83.62
390.512	88.62
390.736	89.62
390.961	87.62
391.186	85.62
391.411	98.62
391.636	85.62
391.86	65.62
392.085	77.62
392.31	84.62
392.534	79.62
392.759	93.62
392.984	91.62
393.208	77.62
393.433	96.62
393.658	83.62
393.882	93.62
394.107	77.62
394.331	87.62
394.556	87.62
394.78	77.62
395.005	90.62
395.229	88.62
395.454	88.62
395.678	90.62
395.903	81.62
396.127	94.62
396.352	87.62
396.576	76.62
396.801	81.62
397.025	99.62
397.249	87.62
397.474	94.62
397.698	83.62
397.922	87.62
398.147	70.62
398.371	79.62
398.595	87.62
398.82	80.62
399.044	89.62
399.268	77.62
399.492	87.62
399.717	81.62
399.941	100.62
400.165	109.62
400.389	94.62
400.613	84.62
400.837	86.62
401.062	98.62
401.286	84.62
401.51	93.62
401.734	95.62
401.958	117.62
402.182	148.62
402.406	211.62
402.63	145.62
402.854	99.62
403.078	77.62
403.302	78.62
403.526	81.62
403.75	85.62
403.974	92.62
404.198	89.62
404.422	95.62
404.645	97.62
404.869	88.62
405.093	112.62
405.317	132.62
405.541	119.62
405.765	119.62
405.988	138.62
406.212	205.62
406.436	328.62
406.66	208.62
406.883	120.62
407.107	95.62
407.331	109.62
407.555	93.62
407.778	110.62
408.002	97.62
408.226	86.62
408.449	100.62
408.673	85.62
408.896	89.62
409.12	105.62
409.344	89.62
409.567	85.62
409.791	96.62
410.014	97.62
410.238	84.62
410.461	87.62
410.685	78.62
410.908	103.62
411.132	95.62
411.355	102.62
411.578	84.62
411.802	93.62
412.025	91.62
412.249	100.62
412.472	103.62
412.695	103.62
412.919	96.62
413.142	86.62
413.365	85.62
413.589	77.62
413.812	88.62
414.035	87.62
414.258	87.62
414.482	77.62
414.705	86.62
414.928	99.62
415.151	80.62
415.374	80.62
415.597	84.62
415.821	90.62
416.044	77.62
416.267	80.62
416.49	78.62
416.713	92.62
416.936	90.62
417.159	88.62
417.382	91.62
417.605	94.62
417.828	111.62
418.051	87.62
418.274	79.62
418.497	76.62
418.72	93.62
418.943	78.62
419.166	85.62
419.389	82.62
419.611	87.62
419.834	97.62
420.057	79.62
420.28	103.62
420.503	81.62
420.726	84.62
420.948	82.62
421.171	101.62
421.394	103.62
421.617	80.62
421.839	83.62
422.062	97.62
422.285	106.62
422.507	112.62
422.73	109.62
422.953	89.62
423.175	88.62
423.398	70.62
423.621	91.62
423.843	104.62
424.066	81.62
424.288	101.62
424.511	80.62
424.733	96.62
424.956	136.62
425.178	111.62
425.401	116.62
425.623	103.62
425.846	105.62
426.068	101.62
426.291	89.62
426.513	83.62
426.735	87.62
426.958	109.62
427.18	128.62
427.402	195.62
427.625	248.62
427.847	216.62
428.069	158.62
428.292	93.62
428.514	99.62
428.736	83.62
428.958	90.62
429.181	86.62
429.403	88.62
429.625	107.62
429.847	103.62
430.069	111.62
430.292	84.62
430.514	82.62
430.736	84.62
430.958	100.62
431.18	83.62
431.402	95.62
431.624	86.62
431.846	90.62
432.068	78.62
432.29	83.62
432.512	85.62
432.734	75.62
432.956	93.62
433.178	99.62
433.4	103.62
433.622	81.62
433.844	90.62
434.066	89.62
434.287	72.62
434.509	86.62
434.731	90.62
434.953	84.62
435.175	83.62
435.397	97.62
435.618	86.62
435.84	100.62
436.062	135.62
436.284	128.62
436.505	105.62
436.727	102.62
436.949	98.62
437.17	90.62
437.392	82.62
437.614	101.62
437.835	128.62
438.057	161.62
438.278	124.62
438.5	106.62
438.721	146.62
438.943	98.62
439.165	88.62
439.386	92.62
439.608	104.62
439.829	126.62
440.05	152.62
440.272	185.62
440.493	124.62
440.715	101.62
440.936	90.62
441.158	102.62
441.379	86.62
441.6	108.62
441.822	106.62
442.043	99.62
442.264	123.62
442.486	116.62
442.707	110.62
442.928	134.62
443.149	159.62
443.371	185.62
443.592	124.62
443.813	130.62
444.034	129.62
444.255	90.62
444.476	79.62
444.698	83.62
444.919	96.62
445.14	128.62
445.361	138.62
445.582	138.62
445.803	189.62
446.024	173.62
446.245	170.62
446.466	130.62
446.687	106.62
446.908	104.62
447.129	94.62
447.35	86.62
447.571	92.62
447.792	86.62
448.013	111.62
448.234	137.62
448.455	119.62
448.675	148.62
448.896	154.62
449.117	116.62
449.338	116.62
449.559	156.62
449.779	167.62
450	108.62
450.221	97.62
450.442	94.62
450.662	101.62
450.883	130.62
451.104	138.62
451.324	93.62
451.545	88.62
451.766	86.62
451.986	84.62
452.207	101.62
452.428	105.62
452.648	108.62
452.869	134.62
453.089	137.62
453.31	151.62
453.53	112.62
453.751	91.62
453.971	110.62
454.192	143.62
454.412	115.62
454.633	78.62
454.853	84.62
455.073	83.62
455.294	89.62
455.514	117.62
455.734	99.62
455.955	83.62
456.175	86.62
456.395	91.62
456.616	87.62
456.836	77.62
457.056	73.62
457.276	74.62
457.497	78.62
457.717	90.62
457.937	86.62
458.157	93.62
458.377	81.62
458.598	125.62
458.818	201.62
459.038	222.62
459.258	150.62
459.478	82.62
459.698	95.62
459.918	75.62
460.138	71.62
460.358	89.62
460.578	76.62
460.798	89.62
461.018	87.62
461.238	79.62
461.458	82.62
461.678	89.62
461.898	75.62
462.118	78.62
462.338	77.62
462.558	73.62
462.777	89.62
462.997	95.62
463.217	80.62
463.437	83.62
463.657	93.62
463.876	77.62
464.096	91.62
464.316	91.62
464.536	99.62
464.755	95.62
464.975	121.62
465.195	228.62
465.414	245.62
465.634	105.62
465.854	93.62
466.073	84.62
466.293	87.62
466.512	81.62
466.732	86.62
466.951	76.62
467.171	87.62
467.391	104.62
467.61	133.62
467.829	108.62
468.049	175.62
468.268	186.62
468.488	109.62
468.707	92.62
468.927	99.62
469.146	98.62
469.365	78.62
469.585	93.62
469.804	112.62
470.023	112.62
470.243	91.62
470.462	102.62
470.681	136.62
470.901	91.62
471.12	86.62
471.339	92.62
471.558	94.62
471.777	85.62
471.997	112.62
472.216	269.62
472.435	519.62
472.654	181.62
472.873	88.62
473.092	77.62
473.311	90.62
473.53	83.62
473.749	85.62
473.968	93.62
474.187	135.62
474.406	108.62
474.625	81.62
474.844	89.62
475.063	86.62
475.282	82.62
475.501	90.62
475.72	85.62
475.939	83.62
476.158	91.62
476.377	85.62
476.596	99.62
476.814	109.62
477.033	92.62
477.252	87.62
477.471	82.62
477.69	74.62
477.908	94.62
478.127	92.62
478.346	84.62
478.564	87.62
478.783	97.62
479.002	108.62
479.22	110.62
479.439	113.62
479.658	117.62
479.876	104.62
480.095	96.62
480.313	94.62
480.532	114.62
480.751	114.62
480.969	248.62
481.188	840.62
481.406	562.62
481.624	148.62
481.843	103.62
482.061	97.62
482.28	95.62
482.498	85.62
482.717	83.62
482.935	97.62
483.153	99.62
483.372	91.62
483.59	104.62
483.808	108.62
484.027	94.62
484.245	103.62
484.463	89.62
484.681	95.62
484.9	86.62
485.118	93.62
485.336	85.62
485.554	95.62
485.772	75.62
485.99	89.62
486.209	105.62
486.427	108.62
486.645	121.62
486.863	121.62
487.081	118.62
487.299	104.62
487.517	106.62
487.735	84.62
487.953	90.62
488.171	97.62
488.389	97.62
488.607	85.62
488.825	86.62
489.043	100.62
489.261	85.62
489.479	75.62
489.696	78.62
489.914	87.62
490.132	79.62
490.35	97.62
490.568	98.62
490.786	90.62
491.003	102.62
491.221	103.62
491.439	89.62
491.657	94.62
491.874	85.62
492.092	94.62
492.31	100.62
492.527	69.62
492.745	88.62
492.963	95.62
493.18	86.62
493.398	80.62
493.615	80.62
493.833	94.62
494.05	95.62
494.268	91.62
494.485	76.62
494.703	77.62
494.92	84.62
495.138	89.62
495.355	88.62
495.573	86.62
495.79	76.62
496.008	91.62
496.225	80.62
496.442	94.62
496.66	79.62
496.877	88.62
497.094	84.62
497.312	83.62
497.529	94.62
497.746	98.62
497.963	78.62
498.181	82.62
498.398	90.62
498.615	117.62
498.832	116.62
499.049	85.62
499.267	95.62
499.484	92.62
499.701	110.62
499.918	104.62
500.135	89.62
500.352	94.62
500.569	91.62
500.786	87.62
501.003	80.62
501.22	94.62
501.437	82.62
501.654	95.62
501.871	116.62
502.088	85.62
502.305	74.62
502.522	91.62
502.739	78.62
502.956	101.62
503.172	98.62
503.389	108.62
503.606	94.62
503.823	119.62
504.04	92.62
504.256	86.62
504.473	82.62
504.69	88.62
504.907	85.62
505.123	96.62
505.34	81.62
505.557	83.62
505.773	85.62
505.99	92.62
506.207	84.62
506.423	94.62
506.64	73.62
506.856	87.62
507.073	86.62
507.289	103.62
507.506	108.62
507.722	133.62
507.939	142.62
508.155	100.62
508.372	104.62
508.588	87.62
508.805	95.62
509.021	124.62
509.238	110.62
509.454	111.62
509.67	100.62
509.887	100.62
510.103	139.62
510.319	239.62
510.536	1021.62
510.752	3553.62
510.968	1005.62
511.184	181.62
511.401	115.62
511.617	103.62
511.833	102.62
512.049	88.62
512.265	95.62
512.481	98.62
512.698	118.62
512.914	99.62
513.13	112.62
513.346	94.62
513.562	94.62
513.778	113.62
513.994	101.62
514.21	113.62
