Data from Circ_2022_H10_HRD10591_00012.txt Node
Date: Wed Jan 03 09:53:40 EST 2024
User: Yrep
Spectrometer: HR+D1059
Trigger mode: 1
Integration Time (sec): 1.000000E-1
Scans to average: 1
Electric dark correction enabled: true
Nonlinearity correction enabled: false
Boxcar width: 0
XAxis mode: Wavelengths
Number of Pixels in Spectrum: 2048
>>>>>Begin Spectral Data<<<<<
223.165	-24.38
223.4	-24.38
223.635	-24.38
223.869	-10.38
224.104	-18.38
224.338	-9.38
224.573	-24.38
224.808	-23.38
225.042	-9.38
225.277	-7.38
225.511	-4.38
225.746	-13.38
225.98	14.62
226.215	26.62
226.449	22.62
226.683	17.62
226.918	22.62
227.152	40.62
227.387	38.62
227.621	48.62
227.856	33.62
228.09	40.62
228.324	41.62
228.559	54.62
228.793	67.62
229.027	71.62
229.262	74.62
229.496	74.62
229.73	98.62
229.964	93.62
230.199	73.62
230.433	74.62
230.667	72.62
230.901	77.62
231.136	83.62
231.37	86.62
231.604	88.62
231.838	85.62
232.072	76.62
232.306	77.62
232.541	88.62
232.775	69.62
233.009	78.62
233.243	76.62
233.477	84.62
233.711	69.62
233.945	90.62
234.179	69.62
234.413	93.62
234.647	74.62
234.881	80.62
235.115	78.62
235.349	73.62
235.583	78.62
235.817	81.62
236.051	81.62
236.285	63.62
236.519	83.62
236.753	69.62
236.987	77.62
237.221	87.62
237.455	79.62
237.689	75.62
237.922	68.62
238.156	81.62
238.39	67.62
238.624	74.62
238.858	65.62
239.091	77.62
239.325	62.62
239.559	89.62
239.793	88.62
240.027	59.62
240.26	64.62
240.494	86.62
240.728	79.62
240.961	72.62
241.195	67.62
241.429	78.62
241.662	75.62
241.896	69.62
242.13	72.62
242.363	74.62
242.597	77.62
242.83	80.62
243.064	77.62
243.298	70.62
243.531	85.62
243.765	82.62
243.998	83.62
244.232	75.62
244.465	85.62
244.699	63.62
244.932	69.62
245.166	68.62
245.399	69.62
245.633	67.62
245.866	79.62
246.099	83.62
246.333	72.62
246.566	77.62
246.8	83.62
247.033	81.62
247.266	77.62
247.5	70.62
247.733	82.62
247.966	81.62
248.2	83.62
248.433	83.62
248.666	71.62
248.899	80.62
249.133	73.62
249.366	97.62
249.599	100.62
249.832	69.62
250.066	87.62
250.299	78.62
250.532	73.62
250.765	83.62
250.998	72.62
251.231	81.62
251.465	79.62
251.698	78.62
251.931	74.62
252.164	84.62
252.397	73.62
252.63	82.62
252.863	70.62
253.096	83.62
253.329	88.62
253.562	71.62
253.795	75.62
254.028	91.62
254.261	79.62
254.494	74.62
254.727	72.62
254.96	62.62
255.193	74.62
255.426	79.62
255.659	73.62
255.892	90.62
256.124	83.62
256.357	87.62
256.59	88.62
256.823	89.62
257.056	91.62
257.289	78.62
257.521	82.62
257.754	93.62
257.987	87.62
258.22	89.62
258.452	68.62
258.685	75.62
258.918	85.62
259.151	80.62
259.383	68.62
259.616	88.62
259.849	80.62
260.081	86.62
260.314	66.62
260.547	78.62
260.779	67.62
261.012	73.62
261.244	78.62
261.477	88.62
261.71	94.62
261.942	129.62
262.175	129.62
262.407	88.62
262.64	74.62
262.872	90.62
263.105	77.62
263.337	72.62
263.57	73.62
263.802	81.62
264.035	63.62
264.267	90.62
264.499	83.62
264.732	68.62
264.964	90.62
265.197	75.62
265.429	88.62
265.661	79.62
265.894	86.62
266.126	94.62
266.358	95.62
266.591	86.62
266.823	81.62
267.055	64.62
267.287	84.62
267.52	98.62
267.752	69.62
267.984	90.62
268.216	91.62
268.448	97.62
268.681	93.62
268.913	88.62
269.145	83.62
269.377	89.62
269.609	85.62
269.841	69.62
270.073	78.62
270.306	77.62
270.538	78.62
270.77	82.62
271.002	96.62
271.234	90.62
271.466	91.62
271.698	97.62
271.93	86.62
272.162	81.62
272.394	97.62
272.626	88.62
272.858	87.62
273.09	82.62
273.322	76.62
273.553	86.62
273.785	80.62
274.017	89.62
274.249	85.62
274.481	86.62
274.713	79.62
274.945	88.62
275.176	83.62
275.408	87.62
275.64	75.62
275.872	91.62
276.104	75.62
276.335	93.62
276.567	111.62
276.799	128.62
277.031	108.62
277.262	88.62
277.494	109.62
277.726	81.62
277.957	70.62
278.189	88.62
278.421	85.62
278.652	94.62
278.884	93.62
279.115	84.62
279.347	108.62
279.579	72.62
279.81	101.62
280.042	85.62
280.273	88.62
280.505	74.62
280.736	95.62
280.968	76.62
281.199	91.62
281.431	85.62
281.662	87.62
281.894	76.62
282.125	103.62
282.356	128.62
282.588	150.62
282.819	125.62
283.051	79.62
283.282	96.62
283.513	74.62
283.745	79.62
283.976	79.62
284.207	90.62
284.439	94.62
284.67	82.62
284.901	73.62
285.132	70.62
285.364	93.62
285.595	88.62
285.826	88.62
286.057	77.62
286.288	93.62
286.52	87.62
286.751	74.62
286.982	98.62
287.213	75.62
287.444	79.62
287.675	81.62
287.906	81.62
288.138	89.62
288.369	81.62
288.6	92.62
288.831	88.62
289.062	87.62
289.293	78.62
289.524	91.62
289.755	99.62
289.986	106.62
290.217	71.62
290.448	66.62
290.679	81.62
290.91	77.62
291.141	74.62
291.371	84.62
291.602	76.62
291.833	78.62
292.064	91.62
292.295	74.62
292.526	89.62
292.757	89.62
292.987	89.62
293.218	97.62
293.449	85.62
293.68	100.62
293.91	88.62
294.141	98.62
294.372	97.62
294.603	112.62
294.833	99.62
295.064	92.62
295.295	83.62
295.525	93.62
295.756	98.62
295.987	116.62
296.217	151.62
296.448	126.62
296.679	89.62
296.909	87.62
297.14	88.62
297.37	81.62
297.601	85.62
297.831	96.62
298.062	95.62
298.292	100.62
298.523	79.62
298.753	77.62
298.984	84.62
299.214	102.62
299.445	102.62
299.675	100.62
299.905	108.62
300.136	91.62
300.366	101.62
300.597	83.62
300.827	100.62
301.057	97.62
301.288	121.62
301.518	111.62
301.748	78.62
301.979	113.62
302.209	89.62
302.439	97.62
302.669	86.62
302.9	88.62
303.13	94.62
303.36	93.62
303.59	103.62
303.82	109.62
304.051	97.62
304.281	79.62
304.511	83.62
304.741	85.62
304.971	101.62
305.201	95.62
305.431	86.62
305.661	103.62
305.891	86.62
306.121	93.62
306.352	97.62
306.582	103.62
306.812	91.62
307.042	74.62
307.272	89.62
307.502	83.62
307.731	94.62
307.961	95.62
308.191	82.62
308.421	93.62
308.651	83.62
308.881	79.62
309.111	93.62
309.341	99.62
309.571	98.62
309.8	101.62
310.03	104.62
310.26	100.62
310.49	91.62
310.72	106.62
310.949	96.62
311.179	86.62
311.409	84.62
311.639	78.62
311.868	103.62
312.098	95.62
312.328	101.62
312.557	107.62
312.787	112.62
313.017	114.62
313.246	101.62
313.476	101.62
313.706	99.62
313.935	114.62
314.165	99.62
314.394	103.62
314.624	104.62
314.853	87.62
315.083	90.62
315.312	92.62
315.542	89.62
315.771	101.62
316.001	78.62
316.23	94.62
316.46	87.62
316.689	79.62
316.919	101.62
317.148	103.62
317.377	104.62
317.607	99.62
317.836	82.62
318.065	81.62
318.295	95.62
318.524	95.62
318.753	86.62
318.983	85.62
319.212	109.62
319.441	108.62
319.67	116.62
319.9	101.62
320.129	89.62
320.358	95.62
320.587	100.62
320.816	108.62
321.046	93.62
321.275	97.62
321.504	88.62
321.733	84.62
321.962	95.62
322.191	96.62
322.42	114.62
322.649	127.62
322.878	115.62
323.108	134.62
323.337	139.62
323.566	146.62
323.795	176.62
324.024	242.62
324.253	472.62
324.482	1021.62
324.71	2076.62
324.939	2659.62
325.168	991.62
325.397	291.62
325.626	169.62
325.855	124.62
326.084	134.62
326.313	145.62
326.542	173.62
326.77	266.62
326.999	533.62
327.228	1073.62
327.457	1976.62
327.686	1581.62
327.914	424.62
328.143	228.62
328.372	175.62
328.6	133.62
328.829	131.62
329.058	134.62
329.287	146.62
329.515	121.62
329.744	98.62
329.972	91.62
330.201	96.62
330.43	124.62
330.658	130.62
330.887	178.62
331.115	149.62
331.344	109.62
331.572	112.62
331.801	121.62
332.03	110.62
332.258	88.62
332.486	92.62
332.715	90.62
332.943	86.62
333.172	106.62
333.4	115.62
333.629	106.62
333.857	117.62
334.085	109.62
334.314	88.62
334.542	105.62
334.771	109.62
334.999	113.62
335.227	94.62
335.455	102.62
335.684	84.62
335.912	84.62
336.14	89.62
336.369	89.62
336.597	89.62
336.825	104.62
337.053	86.62
337.281	101.62
337.51	96.62
337.738	97.62
337.966	89.62
338.194	113.62
338.422	94.62
338.65	97.62
338.878	101.62
339.106	105.62
339.334	94.62
339.562	88.62
339.79	85.62
340.018	89.62
340.246	103.62
340.474	93.62
340.702	87.62
340.93	98.62
341.158	99.62
341.386	107.62
341.614	105.62
341.842	100.62
342.07	85.62
342.298	93.62
342.526	87.62
342.754	86.62
342.981	95.62
343.209	87.62
343.437	95.62
343.665	92.62
343.893	85.62
344.12	75.62
344.348	83.62
344.576	91.62
344.804	87.62
345.031	106.62
345.259	109.62
345.487	94.62
345.714	90.62
345.942	113.62
346.17	88.62
346.397	87.62
346.625	92.62
346.853	98.62
347.08	101.62
347.308	100.62
347.535	102.62
347.763	101.62
347.99	114.62
348.218	96.62
348.445	114.62
348.673	97.62
348.9	115.62
349.128	98.62
349.355	88.62
349.583	93.62
349.81	96.62
350.037	89.62
350.265	102.62
350.492	102.62
350.72	84.62
350.947	79.62
351.174	99.62
351.402	114.62
351.629	129.62
351.856	104.62
352.083	117.62
352.311	117.62
352.538	135.62
352.765	134.62
352.992	134.62
353.22	112.62
353.447	105.62
353.674	112.62
353.901	95.62
354.128	97.62
354.355	80.62
354.583	95.62
354.81	109.62
355.037	83.62
355.264	102.62
355.491	87.62
355.718	88.62
355.945	103.62
356.172	86.62
356.399	107.62
356.626	101.62
356.853	101.62
357.08	86.62
357.307	103.62
357.534	89.62
357.761	92.62
357.988	104.62
358.215	100.62
358.441	89.62
358.668	92.62
358.895	89.62
359.122	75.62
359.349	86.62
359.576	90.62
359.802	91.62
360.029	131.62
360.256	138.62
360.483	108.62
360.709	85.62
360.936	94.62
361.163	107.62
361.39	104.62
361.616	93.62
361.843	96.62
362.07	105.62
362.296	109.62
362.523	98.62
362.749	100.62
362.976	87.62
363.203	103.62
363.429	101.62
363.656	83.62
363.882	87.62
364.109	92.62
364.335	82.62
364.562	93.62
364.788	93.62
365.015	94.62
365.241	104.62
365.468	116.62
365.694	111.62
365.92	98.62
366.147	90.62
366.373	84.62
366.599	65.62
366.826	80.62
367.052	84.62
367.278	95.62
367.505	100.62
367.731	84.62
367.957	94.62
368.184	94.62
368.41	103.62
368.636	119.62
368.862	119.62
369.089	127.62
369.315	95.62
369.541	86.62
369.767	89.62
369.993	96.62
370.219	96.62
370.445	80.62
370.672	88.62
370.898	85.62
371.124	79.62
371.35	88.62
371.576	85.62
371.802	69.62
372.028	89.62
372.254	88.62
372.48	85.62
372.706	82.62
372.932	90.62
373.158	83.62
373.384	92.62
373.61	84.62
373.835	96.62
374.061	87.62
374.287	75.62
374.513	85.62
374.739	79.62
374.965	90.62
375.191	96.62
375.416	105.62
375.642	72.62
375.868	83.62
376.094	91.62
376.319	84.62
376.545	82.62
376.771	86.62
376.997	90.62
377.222	76.62
377.448	91.62
377.674	84.62
377.899	91.62
378.125	102.62
378.35	99.62
378.576	90.62
378.802	90.62
379.027	82.62
379.253	82.62
379.478	101.62
379.704	93.62
379.929	99.62
380.155	109.62
380.38	94.62
380.606	90.62
380.831	88.62
381.057	102.62
381.282	87.62
381.507	107.62
381.733	92.62
381.958	89.62
382.184	113.62
382.409	99.62
382.634	115.62
382.86	98.62
383.085	88.62
383.31	102.62
383.535	96.62
383.761	111.62
383.986	102.62
384.211	100.62
384.436	115.62
384.662	100.62
384.887	94.62
385.112	130.62
385.337	111.62
385.562	104.62
385.787	113.62
386.013	93.62
386.238	107.62
386.463	115.62
386.688	112.62
386.913	108.62
387.138	97.62
387.363	101.62
387.588	103.62
387.813	103.62
388.038	110.62
388.263	120.62
388.488	113.62
388.713	124.62
388.938	88.62
389.163	100.62
389.387	80.62
389.612	106.62
389.837	92.62
390.062	81.62
390.287	97.62
390.512	82.62
390.736	100.62
390.961	102.62
391.186	95.62
391.411	85.62
391.636	89.62
391.86	86.62
392.085	81.62
392.31	89.62
392.534	83.62
392.759	82.62
392.984	90.62
393.208	100.62
393.433	102.62
393.658	94.62
393.882	84.62
394.107	90.62
394.331	83.62
394.556	87.62
394.78	90.62
395.005	89.62
395.229	73.62
395.454	82.62
395.678	87.62
395.903	93.62
396.127	91.62
396.352	89.62
396.576	83.62
396.801	121.62
397.025	80.62
397.249	86.62
397.474	89.62
397.698	70.62
397.922	87.62
398.147	85.62
398.371	78.62
398.595	82.62
398.82	92.62
399.044	85.62
399.268	74.62
399.492	89.62
399.717	78.62
399.941	81.62
400.165	100.62
400.389	82.62
400.613	101.62
400.837	89.62
401.062	85.62
401.286	81.62
401.51	98.62
401.734	89.62
401.958	102.62
402.182	149.62
402.406	191.62
402.63	137.62
402.854	88.62
403.078	100.62
403.302	91.62
403.526	85.62
403.75	87.62
403.974	89.62
404.198	84.62
404.422	79.62
404.645	86.62
404.869	84.62
405.093	92.62
405.317	81.62
405.541	100.62
405.765	116.62
405.988	137.62
406.212	209.62
406.436	292.62
406.66	171.62
406.883	115.62
407.107	101.62
407.331	88.62
407.555	109.62
407.778	98.62
408.002	98.62
408.226	97.62
408.449	99.62
408.673	87.62
408.896	99.62
409.12	97.62
409.344	95.62
409.567	95.62
409.791	105.62
410.014	84.62
410.238	82.62
410.461	90.62
410.685	94.62
410.908	75.62
411.132	96.62
411.355	90.62
411.578	80.62
411.802	86.62
412.025	76.62
412.249	72.62
412.472	74.62
412.695	84.62
412.919	88.62
413.142	78.62
413.365	85.62
413.589	95.62
413.812	85.62
414.035	98.62
414.258	83.62
414.482	77.62
414.705	84.62
414.928	96.62
415.151	87.62
415.374	87.62
415.597	85.62
415.821	86.62
416.044	86.62
416.267	85.62
416.49	81.62
416.713	75.62
416.936	85.62
417.159	78.62
417.382	86.62
417.605	101.62
417.828	103.62
418.051	103.62
418.274	75.62
418.497	94.62
418.72	77.62
418.943	93.62
419.166	93.62
419.389	86.62
419.611	83.62
419.834	105.62
420.057	81.62
420.28	83.62
420.503	85.62
420.726	86.62
420.948	79.62
421.171	89.62
421.394	97.62
421.617	75.62
421.839	85.62
422.062	85.62
422.285	103.62
422.507	103.62
422.73	111.62
422.953	91.62
423.175	80.62
423.398	81.62
423.621	83.62
423.843	86.62
424.066	78.62
424.288	83.62
424.511	94.62
424.733	91.62
424.956	114.62
425.178	117.62
425.401	102.62
425.623	97.62
425.846	87.62
426.068	110.62
426.291	102.62
426.513	87.62
426.735	106.62
426.958	97.62
427.18	112.62
427.402	154.62
427.625	195.62
427.847	129.62
428.069	102.62
428.292	79.62
428.514	93.62
428.736	90.62
428.958	73.62
429.181	93.62
429.403	74.62
429.625	88.62
429.847	91.62
430.069	98.62
430.292	97.62
430.514	92.62
430.736	84.62
430.958	98.62
431.18	80.62
431.402	87.62
431.624	84.62
431.846	82.62
432.068	83.62
432.29	94.62
432.512	86.62
432.734	96.62
432.956	82.62
433.178	88.62
433.4	94.62
433.622	87.62
433.844	86.62
434.066	82.62
434.287	91.62
434.509	78.62
434.731	96.62
434.953	99.62
435.175	78.62
435.397	86.62
435.618	97.62
435.84	89.62
436.062	125.62
436.284	119.62
436.505	111.62
436.727	103.62
436.949	87.62
437.17	95.62
437.392	93.62
437.614	96.62
437.835	113.62
438.057	127.62
438.278	124.62
438.5	105.62
438.721	128.62
438.943	96.62
439.165	96.62
439.386	99.62
439.608	89.62
439.829	92.62
440.05	138.62
440.272	154.62
440.493	107.62
440.715	96.62
440.936	81.62
441.158	89.62
441.379	100.62
441.6	98.62
441.822	102.62
442.043	94.62
442.264	102.62
442.486	104.62
442.707	103.62
442.928	110.62
443.149	155.62
443.371	138.62
443.592	115.62
443.813	118.62
444.034	123.62
444.255	104.62
444.476	85.62
444.698	70.62
444.919	77.62
445.14	131.62
445.361	118.62
445.582	125.62
445.803	151.62
446.024	154.62
446.245	146.62
446.466	135.62
446.687	113.62
446.908	93.62
447.129	76.62
447.35	83.62
447.571	105.62
447.792	114.62
448.013	98.62
448.234	106.62
448.455	94.62
448.675	105.62
448.896	121.62
449.117	105.62
449.338	108.62
449.559	135.62
449.779	136.62
450	92.62
450.221	87.62
450.442	85.62
450.662	85.62
450.883	134.62
451.104	128.62
451.324	88.62
451.545	98.62
451.766	91.62
451.986	94.62
452.207	87.62
452.428	87.62
452.648	119.62
452.869	127.62
453.089	125.62
453.31	122.62
453.53	82.62
453.751	88.62
453.971	106.62
454.192	122.62
454.412	90.62
454.633	90.62
454.853	71.62
455.073	91.62
455.294	86.62
455.514	88.62
455.734	83.62
455.955	79.62
456.175	84.62
456.395	79.62
456.616	88.62
456.836	94.62
457.056	93.62
457.276	91.62
457.497	83.62
457.717	83.62
457.937	87.62
458.157	106.62
458.377	85.62
458.598	115.62
458.818	183.62
459.038	198.62
459.258	130.62
459.478	87.62
459.698	86.62
459.918	86.62
460.138	79.62
460.358	90.62
460.578	92.62
460.798	72.62
461.018	85.62
461.238	88.62
461.458	91.62
461.678	95.62
461.898	73.62
462.118	75.62
462.338	98.62
462.558	87.62
462.777	71.62
462.997	75.62
463.217	75.62
463.437	75.62
463.657	92.62
463.876	84.62
464.096	82.62
464.316	91.62
464.536	88.62
464.755	89.62
464.975	112.62
465.195	229.62
465.414	196.62
465.634	68.62
465.854	100.62
466.073	84.62
466.293	84.62
466.512	98.62
466.732	84.62
466.951	76.62
467.171	82.62
467.391	87.62
467.61	111.62
467.829	101.62
468.049	87.62
468.268	85.62
468.488	83.62
468.707	93.62
468.927	96.62
469.146	98.62
469.365	80.62
469.585	81.62
469.804	94.62
470.023	99.62
470.243	92.62
470.462	101.62
470.681	121.62
470.901	98.62
471.12	85.62
471.339	80.62
471.558	74.62
471.777	77.62
471.997	85.62
472.216	95.62
472.435	95.62
472.654	104.62
472.873	90.62
473.092	89.62
473.311	75.62
473.53	79.62
473.749	102.62
473.968	104.62
474.187	109.62
474.406	91.62
474.625	80.62
474.844	82.62
475.063	79.62
475.282	81.62
475.501	70.62
475.72	97.62
475.939	82.62
476.158	95.62
476.377	101.62
476.596	82.62
476.814	98.62
477.033	90.62
477.252	91.62
477.471	83.62
477.69	99.62
477.908	94.62
478.127	89.62
478.346	88.62
478.564	88.62
478.783	98.62
479.002	98.62
479.22	82.62
479.439	97.62
479.658	103.62
479.876	81.62
480.095	80.62
480.313	98.62
480.532	96.62
480.751	95.62
480.969	98.62
481.188	114.62
481.406	113.62
481.624	90.62
481.843	80.62
482.061	99.62
482.28	95.62
482.498	81.62
482.717	96.62
482.935	81.62
483.153	94.62
483.372	81.62
483.59	103.62
483.808	87.62
484.027	80.62
484.245	85.62
484.463	81.62
484.681	94.62
484.9	97.62
485.118	105.62
485.336	86.62
485.554	97.62
485.772	102.62
485.99	99.62
486.209	99.62
486.427	111.62
486.645	117.62
486.863	101.62
487.081	85.62
487.299	111.62
487.517	100.62
487.735	98.62
487.953	98.62
488.171	76.62
488.389	94.62
488.607	106.62
488.825	100.62
489.043	72.62
489.261	102.62
489.479	91.62
489.696	83.62
489.914	88.62
490.132	86.62
490.35	86.62
490.568	86.62
490.786	79.62
491.003	81.62
491.221	93.62
491.439	102.62
491.657	96.62
491.874	95.62
492.092	95.62
492.31	85.62
492.527	82.62
492.745	92.62
492.963	89.62
493.18	95.62
493.398	94.62
493.615	88.62
493.833	90.62
494.05	99.62
494.268	102.62
494.485	92.62
494.703	94.62
494.92	81.62
495.138	95.62
495.355	87.62
495.573	107.62
495.79	96.62
496.008	87.62
496.225	104.62
496.442	95.62
496.66	99.62
496.877	86.62
497.094	85.62
497.312	61.62
497.529	82.62
497.746	81.62
497.963	81.62
498.181	96.62
498.398	90.62
498.615	109.62
498.832	112.62
499.049	78.62
499.267	85.62
499.484	85.62
499.701	91.62
499.918	82.62
500.135	90.62
500.352	82.62
500.569	87.62
500.786	86.62
501.003	79.62
501.22	81.62
501.437	92.62
501.654	101.62
501.871	117.62
502.088	90.62
502.305	90.62
502.522	97.62
502.739	100.62
502.956	81.62
503.172	73.62
503.389	96.62
503.606	110.62
503.823	101.62
504.04	84.62
504.256	95.62
504.473	84.62
504.69	90.62
504.907	98.62
505.123	80.62
505.34	83.62
505.557	89.62
505.773	91.62
505.99	89.62
506.207	92.62
506.423	92.62
506.64	85.62
506.856	101.62
507.073	87.62
507.289	81.62
507.506	92.62
507.722	132.62
507.939	112.62
508.155	105.62
508.372	82.62
508.588	85.62
508.805	94.62
509.021	93.62
509.238	104.62
509.454	105.62
509.67	102.62
509.887	104.62
510.103	151.62
510.319	241.62
510.536	934.62
510.752	3141.62
510.968	897.62
511.184	175.62
511.401	133.62
511.617	101.62
511.833	106.62
512.049	86.62
512.265	81.62
512.481	75.62
512.698	104.62
512.914	110.62
513.13	95.62
513.346	106.62
513.562	105.62
513.778	99.62
513.994	102.62
514.21	101.62
514.426	139.62
514.642	153.62
514.858	163.62
