Data from Circ_2022_H10_HRD10591_00094.txt Node
Date: Wed Jan 03 09:53:56 EST 2024
User: Yrep
Spectrometer: HR+D1059
Trigger mode: 1
Integration Time (sec): 1.000000E-1
Scans to average: 1
Electric dark correction enabled: true
Nonlinearity correction enabled: false
Boxcar width: 0
XAxis mode: Wavelengths
Number of Pixels in Spectrum: 2048
>>>>>Begin Spectral Data<<<<<
223.165	-26.69
223.4	-26.69
223.635	-26.69
223.869	-25.69
224.104	-4.69
224.338	-14.69
224.573	-12.69
224.808	-9.69
225.042	-15.69
225.277	-8.69
225.511	10.31
225.746	13.31
225.98	-4.69
226.215	5.31
226.449	13.31
226.683	25.31
226.918	32.31
227.152	23.31
227.387	29.31
227.621	37.31
227.856	45.31
228.09	58.31
228.324	45.31
228.559	43.31
228.793	50.31
229.027	72.31
229.262	67.31
229.496	75.31
229.73	91.31
229.964	94.31
230.199	69.31
230.433	64.31
230.667	68.31
230.901	73.31
231.136	74.31
231.37	87.31
231.604	70.31
231.838	91.31
232.072	78.31
232.306	77.31
232.541	77.31
232.775	94.31
233.009	89.31
233.243	76.31
233.477	85.31
233.711	80.31
233.945	71.31
234.179	74.31
234.413	79.31
234.647	83.31
234.881	73.31
235.115	67.31
235.349	70.31
235.583	79.31
235.817	70.31
236.051	82.31
236.285	73.31
236.519	63.31
236.753	71.31
236.987	76.31
237.221	65.31
237.455	107.31
237.689	73.31
237.922	72.31
238.156	85.31
238.39	67.31
238.624	79.31
238.858	78.31
239.091	89.31
239.325	85.31
239.559	69.31
239.793	85.31
240.027	78.31
240.26	76.31
240.494	71.31
240.728	72.31
240.961	79.31
241.195	76.31
241.429	91.31
241.662	73.31
241.896	77.31
242.13	80.31
242.363	62.31
242.597	65.31
242.83	75.31
243.064	63.31
243.298	85.31
243.531	74.31
243.765	72.31
243.998	75.31
244.232	78.31
244.465	95.31
244.699	80.31
244.932	66.31
245.166	73.31
245.399	74.31
245.633	75.31
245.866	79.31
246.099	82.31
246.333	78.31
246.566	75.31
246.8	71.31
247.033	72.31
247.266	73.31
247.5	78.31
247.733	78.31
247.966	73.31
248.2	74.31
248.433	77.31
248.666	83.31
248.899	83.31
249.133	94.31
249.366	98.31
249.599	102.31
249.832	86.31
250.066	85.31
250.299	64.31
250.532	71.31
250.765	60.31
250.998	69.31
251.231	80.31
251.465	77.31
251.698	84.31
251.931	75.31
252.164	88.31
252.397	83.31
252.63	76.31
252.863	79.31
253.096	72.31
253.329	68.31
253.562	82.31
253.795	91.31
254.028	66.31
254.261	80.31
254.494	88.31
254.727	72.31
254.96	77.31
255.193	73.31
255.426	71.31
255.659	93.31
255.892	84.31
256.124	86.31
256.357	94.31
256.59	78.31
256.823	92.31
257.056	81.31
257.289	87.31
257.521	75.31
257.754	89.31
257.987	80.31
258.22	74.31
258.452	85.31
258.685	86.31
258.918	67.31
259.151	79.31
259.383	84.31
259.616	87.31
259.849	70.31
260.081	77.31
260.314	91.31
260.547	87.31
260.779	96.31
261.012	84.31
261.244	91.31
261.477	91.31
261.71	77.31
261.942	134.31
262.175	141.31
262.407	88.31
262.64	83.31
262.872	78.31
263.105	77.31
263.337	83.31
263.57	83.31
263.802	79.31
264.035	73.31
264.267	86.31
264.499	89.31
264.732	90.31
264.964	80.31
265.197	73.31
265.429	76.31
265.661	80.31
265.894	81.31
266.126	95.31
266.358	91.31
266.591	78.31
266.823	71.31
267.055	87.31
267.287	91.31
267.52	85.31
267.752	92.31
267.984	72.31
268.216	88.31
268.448	91.31
268.681	73.31
268.913	76.31
269.145	81.31
269.377	81.31
269.609	80.31
269.841	86.31
270.073	81.31
270.306	76.31
270.538	91.31
270.77	79.31
271.002	78.31
271.234	69.31
271.466	71.31
271.698	77.31
271.93	78.31
272.162	76.31
272.394	81.31
272.626	83.31
272.858	93.31
273.09	91.31
273.322	84.31
273.553	79.31
273.785	64.31
274.017	72.31
274.249	87.31
274.481	94.31
274.713	86.31
274.945	92.31
275.176	95.31
275.408	96.31
275.64	93.31
275.872	92.31
276.104	92.31
276.335	110.31
276.567	124.31
276.799	124.31
277.031	138.31
277.262	110.31
277.494	88.31
277.726	92.31
277.957	82.31
278.189	82.31
278.421	76.31
278.652	92.31
278.884	94.31
279.115	104.31
279.347	86.31
279.579	81.31
279.81	82.31
280.042	92.31
280.273	118.31
280.505	94.31
280.736	88.31
280.968	80.31
281.199	100.31
281.431	74.31
281.662	89.31
281.894	97.31
282.125	85.31
282.356	141.31
282.588	178.31
282.819	134.31
283.051	89.31
283.282	78.31
283.513	79.31
283.745	97.31
283.976	78.31
284.207	79.31
284.439	88.31
284.67	67.31
284.901	95.31
285.132	89.31
285.364	93.31
285.595	76.31
285.826	83.31
286.057	82.31
286.288	84.31
286.52	87.31
286.751	73.31
286.982	83.31
287.213	88.31
287.444	78.31
287.675	84.31
287.906	89.31
288.138	86.31
288.369	81.31
288.6	80.31
288.831	83.31
289.062	78.31
289.293	103.31
289.524	85.31
289.755	87.31
289.986	89.31
290.217	97.31
290.448	89.31
290.679	79.31
290.91	96.31
291.141	73.31
291.371	90.31
291.602	87.31
291.833	74.31
292.064	87.31
292.295	89.31
292.526	80.31
292.757	87.31
292.987	93.31
293.218	85.31
293.449	96.31
293.68	83.31
293.91	77.31
294.141	86.31
294.372	78.31
294.603	86.31
294.833	80.31
295.064	99.31
295.295	101.31
295.525	85.31
295.756	107.31
295.987	133.31
296.217	180.31
296.448	151.31
296.679	93.31
296.909	95.31
297.14	89.31
297.37	92.31
297.601	83.31
297.831	92.31
298.062	88.31
298.292	82.31
298.523	102.31
298.753	94.31
298.984	73.31
299.214	91.31
299.445	87.31
299.675	80.31
299.905	109.31
300.136	88.31
300.366	91.31
300.597	85.31
300.827	99.31
301.057	92.31
301.288	117.31
301.518	81.31
301.748	90.31
301.979	93.31
302.209	91.31
302.439	98.31
302.669	95.31
302.9	87.31
303.13	93.31
303.36	117.31
303.59	112.31
303.82	120.31
304.051	100.31
304.281	97.31
304.511	93.31
304.741	83.31
304.971	90.31
305.201	98.31
305.431	72.31
305.661	85.31
305.891	88.31
306.121	98.31
306.352	112.31
306.582	111.31
306.812	108.31
307.042	93.31
307.272	105.31
307.502	106.31
307.731	107.31
307.961	85.31
308.191	81.31
308.421	90.31
308.651	95.31
308.881	99.31
309.111	96.31
309.341	95.31
309.571	89.31
309.8	107.31
310.03	104.31
310.26	107.31
310.49	96.31
310.72	113.31
310.949	123.31
311.179	111.31
311.409	103.31
311.639	91.31
311.868	95.31
312.098	105.31
312.328	110.31
312.557	113.31
312.787	119.31
313.017	108.31
313.246	99.31
313.476	86.31
313.706	95.31
313.935	102.31
314.165	103.31
314.394	101.31
314.624	96.31
314.853	97.31
315.083	100.31
315.312	90.31
315.542	81.31
315.771	106.31
316.001	90.31
316.23	89.31
316.46	92.31
316.689	89.31
316.919	99.31
317.148	89.31
317.377	97.31
317.607	111.31
317.836	96.31
318.065	89.31
318.295	93.31
318.524	95.31
318.753	92.31
318.983	94.31
319.212	107.31
319.441	117.31
319.67	123.31
319.9	104.31
320.129	82.31
320.358	90.31
320.587	93.31
320.816	95.31
321.046	109.31
321.275	100.31
321.504	89.31
321.733	97.31
321.962	96.31
322.191	115.31
322.42	119.31
322.649	129.31
322.878	129.31
323.108	116.31
323.337	147.31
323.566	165.31
323.795	182.31
324.024	265.31
324.253	539.31
324.482	1171.31
324.71	2494.31
324.939	3315.31
325.168	1184.31
325.397	323.31
325.626	175.31
325.855	147.31
326.084	140.31
326.313	164.31
326.542	188.31
326.77	280.31
326.999	597.31
327.228	1245.31
327.457	2338.31
327.686	1883.31
327.914	514.31
328.143	309.31
328.372	268.31
328.6	180.31
328.829	140.31
329.058	170.31
329.287	177.31
329.515	128.31
329.744	128.31
329.972	185.31
330.201	286.31
330.43	379.31
330.658	242.31
330.887	201.31
331.115	179.31
331.344	96.31
331.572	114.31
331.801	119.31
332.03	140.31
332.258	101.31
332.486	97.31
332.715	104.31
332.943	84.31
333.172	102.31
333.4	121.31
333.629	134.31
333.857	153.31
334.085	176.31
334.314	279.31
334.542	467.31
334.771	453.31
334.999	168.31
335.227	118.31
335.455	107.31
335.684	102.31
335.912	100.31
336.14	100.31
336.369	93.31
336.597	111.31
336.825	99.31
337.053	92.31
337.281	88.31
337.51	98.31
337.738	96.31
337.966	107.31
338.194	104.31
338.422	109.31
338.65	91.31
338.878	84.31
339.106	97.31
339.334	100.31
339.562	83.31
339.79	81.31
340.018	84.31
340.246	99.31
340.474	109.31
340.702	91.31
340.93	94.31
341.158	93.31
341.386	102.31
341.614	93.31
341.842	94.31
342.07	85.31
342.298	81.31
342.526	83.31
342.754	93.31
342.981	87.31
343.209	83.31
343.437	96.31
343.665	91.31
343.893	91.31
344.12	90.31
344.348	99.31
344.576	99.31
344.804	93.31
345.031	82.31
345.259	103.31
345.487	96.31
345.714	105.31
345.942	94.31
346.17	80.31
346.397	90.31
346.625	92.31
346.853	88.31
347.08	78.31
347.308	88.31
347.535	111.31
347.763	107.31
347.99	100.31
348.218	95.31
348.445	115.31
348.673	104.31
348.9	92.31
349.128	85.31
349.355	104.31
349.583	88.31
349.81	93.31
350.037	102.31
350.265	85.31
350.492	91.31
350.72	100.31
350.947	100.31
351.174	114.31
351.402	111.31
351.629	101.31
351.856	111.31
352.083	119.31
352.311	112.31
352.538	140.31
352.765	124.31
352.992	107.31
353.22	114.31
353.447	111.31
353.674	106.31
353.901	95.31
354.128	97.31
354.355	92.31
354.583	96.31
354.81	87.31
355.037	91.31
355.264	99.31
355.491	100.31
355.718	94.31
355.945	96.31
356.172	82.31
356.399	94.31
356.626	78.31
356.853	81.31
357.08	89.31
357.307	81.31
357.534	80.31
357.761	92.31
357.988	92.31
358.215	84.31
358.441	93.31
358.668	88.31
358.895	86.31
359.122	93.31
359.349	95.31
359.576	90.31
359.802	125.31
360.029	147.31
360.256	112.31
360.483	114.31
360.709	84.31
360.936	93.31
361.163	96.31
361.39	84.31
361.616	101.31
361.843	90.31
362.07	94.31
362.296	77.31
362.523	81.31
362.749	89.31
362.976	99.31
363.203	100.31
363.429	88.31
363.656	94.31
363.882	87.31
364.109	77.31
364.335	68.31
364.562	94.31
364.788	87.31
365.015	90.31
365.241	79.31
365.468	123.31
365.694	117.31
365.92	100.31
366.147	96.31
366.373	92.31
366.599	94.31
366.826	83.31
367.052	81.31
367.278	98.31
367.505	104.31
367.731	104.31
367.957	90.31
368.184	87.31
368.41	92.31
368.636	129.31
368.862	137.31
369.089	112.31
369.315	86.31
369.541	94.31
369.767	84.31
369.993	76.31
370.219	95.31
370.445	84.31
370.672	80.31
370.898	84.31
371.124	90.31
371.35	79.31
371.576	109.31
371.802	89.31
372.028	73.31
372.254	83.31
372.48	81.31
372.706	86.31
372.932	96.31
373.158	80.31
373.384	73.31
373.61	109.31
373.835	83.31
374.061	91.31
374.287	81.31
374.513	92.31
374.739	88.31
374.965	70.31
375.191	94.31
375.416	86.31
375.642	88.31
375.868	94.31
376.094	89.31
376.319	84.31
376.545	82.31
376.771	88.31
376.997	71.31
377.222	78.31
377.448	92.31
377.674	84.31
377.899	81.31
378.125	92.31
378.35	91.31
378.576	79.31
378.802	76.31
379.027	93.31
379.253	95.31
379.478	89.31
379.704	104.31
379.929	97.31
380.155	93.31
380.38	96.31
380.606	107.31
380.831	96.31
381.057	82.31
381.282	94.31
381.507	98.31
381.733	81.31
381.958	99.31
382.184	87.31
382.409	82.31
382.634	98.31
382.86	88.31
383.085	102.31
383.31	99.31
383.535	108.31
383.761	92.31
383.986	93.31
384.211	95.31
384.436	82.31
384.662	83.31
384.887	115.31
385.112	105.31
385.337	114.31
385.562	92.31
385.787	103.31
386.013	112.31
386.238	124.31
386.463	104.31
386.688	91.31
386.913	77.31
387.138	80.31
387.363	98.31
387.588	90.31
387.813	95.31
388.038	92.31
388.263	111.31
388.488	97.31
388.713	82.31
388.938	91.31
389.163	74.31
389.387	91.31
389.612	97.31
389.837	87.31
390.062	92.31
390.287	85.31
390.512	85.31
390.736	83.31
390.961	79.31
391.186	77.31
391.411	81.31
391.636	86.31
391.86	79.31
392.085	92.31
392.31	83.31
392.534	91.31
392.759	67.31
392.984	81.31
393.208	81.31
393.433	87.31
393.658	75.31
393.882	86.31
394.107	91.31
394.331	87.31
394.556	83.31
394.78	80.31
395.005	79.31
395.229	73.31
395.454	73.31
395.678	69.31
395.903	86.31
396.127	87.31
396.352	79.31
396.576	84.31
396.801	95.31
397.025	88.31
397.249	81.31
397.474	84.31
397.698	89.31
397.922	78.31
398.147	93.31
398.371	75.31
398.595	90.31
398.82	77.31
399.044	80.31
399.268	85.31
399.492	82.31
399.717	89.31
399.941	75.31
400.165	100.31
400.389	97.31
400.613	82.31
400.837	93.31
401.062	79.31
401.286	89.31
401.51	91.31
401.734	97.31
401.958	111.31
402.182	150.31
402.406	216.31
402.63	151.31
402.854	92.31
403.078	81.31
403.302	88.31
403.526	99.31
403.75	102.31
403.974	86.31
404.198	99.31
404.422	88.31
404.645	94.31
404.869	81.31
405.093	103.31
405.317	126.31
405.541	135.31
405.765	118.31
405.988	148.31
406.212	237.31
406.436	350.31
406.66	199.31
406.883	117.31
407.107	97.31
407.331	102.31
407.555	110.31
407.778	104.31
408.002	83.31
408.226	97.31
408.449	72.31
408.673	87.31
408.896	81.31
409.12	94.31
409.344	99.31
409.567	81.31
409.791	96.31
410.014	92.31
410.238	82.31
410.461	89.31
410.685	102.31
410.908	95.31
411.132	103.31
411.355	95.31
411.578	91.31
411.802	77.31
412.025	79.31
412.249	88.31
412.472	111.31
412.695	121.31
412.919	93.31
413.142	97.31
413.365	77.31
413.589	80.31
413.812	89.31
414.035	80.31
414.258	74.31
414.482	77.31
414.705	92.31
414.928	80.31
415.151	98.31
415.374	91.31
415.597	79.31
415.821	88.31
416.044	83.31
416.267	68.31
416.49	81.31
416.713	89.31
416.936	78.31
417.159	92.31
417.382	95.31
417.605	93.31
417.828	104.31
418.051	94.31
418.274	78.31
418.497	87.31
418.72	95.31
418.943	85.31
419.166	82.31
419.389	92.31
419.611	69.31
419.834	92.31
420.057	88.31
420.28	81.31
420.503	81.31
420.726	77.31
420.948	93.31
421.171	86.31
421.394	77.31
421.617	85.31
421.839	83.31
422.062	90.31
422.285	77.31
422.507	87.31
422.73	119.31
422.953	96.31
423.175	80.31
423.398	84.31
423.621	99.31
423.843	79.31
424.066	80.31
424.288	83.31
424.511	98.31
424.733	85.31
424.956	134.31
425.178	105.31
425.401	101.31
425.623	99.31
425.846	86.31
426.068	98.31
426.291	96.31
426.513	89.31
426.735	82.31
426.958	96.31
427.18	108.31
427.402	171.31
427.625	237.31
427.847	189.31
428.069	150.31
428.292	96.31
428.514	93.31
428.736	87.31
428.958	78.31
429.181	95.31
429.403	84.31
429.625	88.31
429.847	92.31
430.069	113.31
430.292	73.31
430.514	82.31
430.736	79.31
430.958	91.31
431.18	75.31
431.402	96.31
431.624	98.31
431.846	91.31
432.068	73.31
432.29	79.31
432.512	83.31
432.734	85.31
432.956	87.31
433.178	105.31
433.4	107.31
433.622	91.31
433.844	95.31
434.066	80.31
434.287	82.31
434.509	86.31
434.731	86.31
434.953	89.31
435.175	89.31
435.397	86.31
435.618	84.31
435.84	117.31
436.062	136.31
436.284	144.31
436.505	121.31
436.727	105.31
436.949	90.31
437.17	84.31
437.392	78.31
437.614	111.31
437.835	117.31
438.057	155.31
438.278	128.31
438.5	123.31
438.721	135.31
438.943	104.31
439.165	96.31
439.386	87.31
439.608	84.31
439.829	107.31
440.05	130.31
440.272	185.31
440.493	131.31
440.715	76.31
440.936	77.31
441.158	80.31
441.379	71.31
441.6	112.31
441.822	103.31
442.043	100.31
442.264	120.31
442.486	117.31
442.707	98.31
442.928	129.31
443.149	160.31
443.371	167.31
443.592	127.31
443.813	124.31
444.034	129.31
444.255	90.31
444.476	73.31
444.698	97.31
444.919	84.31
445.14	132.31
445.361	128.31
445.582	141.31
445.803	183.31
446.024	172.31
446.245	159.31
446.466	130.31
446.687	88.31
446.908	90.31
447.129	79.31
447.35	87.31
447.571	93.31
447.792	95.31
448.013	100.31
448.234	133.31
448.455	115.31
448.675	125.31
448.896	137.31
449.117	112.31
449.338	112.31
449.559	163.31
449.779	157.31
450	98.31
450.221	86.31
450.442	86.31
450.662	98.31
450.883	126.31
451.104	128.31
451.324	111.31
451.545	77.31
451.766	92.31
451.986	79.31
452.207	89.31
452.428	86.31
452.648	106.31
452.869	131.31
453.089	143.31
453.31	148.31
453.53	110.31
453.751	97.31
453.971	136.31
454.192	138.31
454.412	119.31
454.633	88.31
454.853	83.31
455.073	83.31
455.294	94.31
455.514	113.31
455.734	92.31
455.955	92.31
456.175	92.31
456.395	83.31
456.616	77.31
456.836	88.31
457.056	79.31
457.276	73.31
457.497	92.31
457.717	97.31
457.937	87.31
458.157	95.31
458.377	83.31
458.598	124.31
458.818	199.31
459.038	235.31
459.258	155.31
459.478	103.31
459.698	100.31
459.918	85.31
460.138	92.31
460.358	86.31
460.578	91.31
460.798	101.31
461.018	94.31
461.238	81.31
461.458	81.31
461.678	77.31
461.898	89.31
462.118	83.31
462.338	104.31
462.558	80.31
462.777	82.31
462.997	97.31
463.217	93.31
463.437	82.31
463.657	84.31
463.876	94.31
464.096	87.31
464.316	101.31
464.536	92.31
464.755	94.31
464.975	125.31
465.195	238.31
465.414	243.31
465.634	113.31
465.854	90.31
466.073	88.31
466.293	87.31
466.512	88.31
466.732	82.31
466.951	95.31
467.171	87.31
467.391	101.31
467.61	139.31
467.829	117.31
468.049	183.31
468.268	227.31
468.488	126.31
468.707	97.31
468.927	73.31
469.146	88.31
469.365	102.31
469.585	97.31
469.804	115.31
470.023	108.31
470.243	96.31
470.462	119.31
470.681	127.31
470.901	93.31
471.12	95.31
471.339	85.31
471.558	83.31
471.777	99.31
471.997	140.31
472.216	307.31
472.435	597.31
472.654	202.31
472.873	83.31
473.092	91.31
473.311	94.31
473.53	81.31
473.749	95.31
473.968	93.31
474.187	118.31
474.406	111.31
474.625	91.31
474.844	89.31
475.063	82.31
475.282	94.31
475.501	90.31
475.72	96.31
475.939	86.31
476.158	82.31
476.377	73.31
476.596	79.31
476.814	105.31
477.033	104.31
477.252	85.31
477.471	87.31
477.69	79.31
477.908	82.31
478.127	93.31
478.346	93.31
478.564	91.31
478.783	94.31
479.002	95.31
479.22	111.31
479.439	103.31
479.658	111.31
479.876	92.31
480.095	91.31
480.313	105.31
480.532	109.31
480.751	136.31
480.969	280.31
481.188	969.31
481.406	621.31
481.624	173.31
481.843	112.31
482.061	90.31
482.28	93.31
482.498	100.31
482.717	79.31
482.935	86.31
483.153	102.31
483.372	91.31
483.59	85.31
483.808	101.31
484.027	91.31
484.245	95.31
484.463	101.31
484.681	73.31
484.9	91.31
485.118	102.31
485.336	89.31
485.554	104.31
485.772	100.31
485.99	97.31
486.209	97.31
486.427	97.31
486.645	126.31
486.863	126.31
487.081	112.31
487.299	103.31
487.517	98.31
487.735	91.31
487.953	91.31
488.171	84.31
488.389	90.31
488.607	91.31
488.825	85.31
489.043	81.31
489.261	85.31
489.479	77.31
489.696	76.31
489.914	91.31
490.132	81.31
490.35	91.31
490.568	86.31
490.786	106.31
491.003	96.31
491.221	93.31
491.439	95.31
491.657	86.31
491.874	91.31
492.092	105.31
492.31	100.31
492.527	86.31
492.745	97.31
492.963	85.31
493.18	93.31
493.398	89.31
493.615	83.31
493.833	88.31
494.05	93.31
494.268	80.31
494.485	99.31
494.703	85.31
494.92	74.31
495.138	76.31
495.355	80.31
495.573	87.31
495.79	90.31
496.008	99.31
496.225	88.31
496.442	85.31
496.66	84.31
496.877	84.31
497.094	85.31
497.312	76.31
497.529	83.31
497.746	91.31
497.963	84.31
498.181	86.31
498.398	104.31
498.615	126.31
498.832	120.31
499.049	98.31
499.267	95.31
499.484	98.31
499.701	85.31
499.918	77.31
500.135	91.31
500.352	80.31
500.569	84.31
500.786	75.31
501.003	96.31
501.22	85.31
501.437	85.31
501.654	101.31
501.871	133.31
502.088	100.31
502.305	84.31
502.522	86.31
502.739	97.31
502.956	86.31
503.172	87.31
503.389	96.31
503.606	120.31
503.823	109.31
504.04	91.31
504.256	94.31
504.473	89.31
504.69	96.31
504.907	89.31
505.123	89.31
505.34	88.31
505.557	91.31
505.773	92.31
505.99	88.31
506.207	95.31
506.423	91.31
506.64	85.31
506.856	107.31
507.073	91.31
507.289	89.31
507.506	104.31
507.722	125.31
507.939	142.31
508.155	96.31
508.372	82.31
508.588	100.31
508.805	95.31
509.021	83.31
509.238	94.31
509.454	88.31
509.67	98.31
509.887	115.31
510.103	151.31
510.319	280.31
510.536	1085.31
510.752	3919.31
510.968	1071.31
511.184	194.31
511.401	138.31
511.617	101.31
511.833	88.31
512.049	87.31
512.265	98.31
512.481	98.31
512.698	90.31
512.914	97.31
513.13	107.31
513.346	103.31
513.562	95.31
513.778	108.31
513.994	100.31
514.21	102.31
514.426	147.31
514.642	198.31
514.858	165.31
