Data from Circ_2022_H10_HRD10591_00084.txt Node
Date: Wed Jan 03 09:53:54 EST 2024
User: Yrep
Spectrometer: HR+D1059
Trigger mode: 1
Integration Time (sec): 1.000000E-1
Scans to average: 1
Electric dark correction enabled: true
Nonlinearity correction enabled: false
Boxcar width: 0
XAxis mode: Wavelengths
Number of Pixels in Spectrum: 2048
>>>>>Begin Spectral Data<<<<<
223.165	-15.44
223.4	-15.44
223.635	-15.44
223.869	-32.44
224.104	-19.44
224.338	-19.44
224.573	-11.44
224.808	-11.44
225.042	-15.44
225.277	-5.44
225.511	0.56
225.746	-3.44
225.98	13.56
226.215	13.56
226.449	21.56
226.683	17.56
226.918	24.56
227.152	42.56
227.387	39.56
227.621	35.56
227.856	45.56
228.09	51.56
228.324	45.56
228.559	52.56
228.793	45.56
229.027	60.56
229.262	53.56
229.496	69.56
229.73	88.56
229.964	97.56
230.199	77.56
230.433	72.56
230.667	77.56
230.901	74.56
231.136	65.56
231.37	76.56
231.604	69.56
231.838	86.56
232.072	87.56
232.306	73.56
232.541	73.56
232.775	84.56
233.009	87.56
233.243	77.56
233.477	72.56
233.711	76.56
233.945	77.56
234.179	77.56
234.413	83.56
234.647	69.56
234.881	78.56
235.115	77.56
235.349	85.56
235.583	83.56
235.817	67.56
236.051	82.56
236.285	94.56
236.519	89.56
236.753	73.56
236.987	86.56
237.221	84.56
237.455	91.56
237.689	83.56
237.922	72.56
238.156	73.56
238.39	75.56
238.624	71.56
238.858	60.56
239.091	70.56
239.325	76.56
239.559	69.56
239.793	84.56
240.027	80.56
240.26	85.56
240.494	80.56
240.728	74.56
240.961	73.56
241.195	63.56
241.429	60.56
241.662	80.56
241.896	88.56
242.13	70.56
242.363	78.56
242.597	82.56
242.83	80.56
243.064	86.56
243.298	75.56
243.531	86.56
243.765	73.56
243.998	83.56
244.232	80.56
244.465	94.56
244.699	89.56
244.932	80.56
245.166	65.56
245.399	81.56
245.633	65.56
245.866	91.56
246.099	75.56
246.333	84.56
246.566	92.56
246.8	74.56
247.033	71.56
247.266	65.56
247.5	70.56
247.733	71.56
247.966	77.56
248.2	75.56
248.433	85.56
248.666	75.56
248.899	79.56
249.133	94.56
249.366	93.56
249.599	94.56
249.832	74.56
250.066	75.56
250.299	82.56
250.532	104.56
250.765	74.56
250.998	80.56
251.231	81.56
251.465	82.56
251.698	73.56
251.931	85.56
252.164	73.56
252.397	77.56
252.63	74.56
252.863	89.56
253.096	85.56
253.329	82.56
253.562	76.56
253.795	80.56
254.028	87.56
254.261	91.56
254.494	70.56
254.727	100.56
254.96	84.56
255.193	76.56
255.426	79.56
255.659	83.56
255.892	74.56
256.124	89.56
256.357	82.56
256.59	95.56
256.823	81.56
257.056	81.56
257.289	80.56
257.521	99.56
257.754	82.56
257.987	86.56
258.22	89.56
258.452	77.56
258.685	83.56
258.918	77.56
259.151	85.56
259.383	91.56
259.616	92.56
259.849	75.56
260.081	85.56
260.314	85.56
260.547	80.56
260.779	74.56
261.012	74.56
261.244	80.56
261.477	92.56
261.71	92.56
261.942	114.56
262.175	124.56
262.407	86.56
262.64	72.56
262.872	80.56
263.105	86.56
263.337	102.56
263.57	80.56
263.802	82.56
264.035	95.56
264.267	93.56
264.499	83.56
264.732	70.56
264.964	90.56
265.197	106.56
265.429	87.56
265.661	84.56
265.894	84.56
266.126	85.56
266.358	82.56
266.591	80.56
266.823	66.56
267.055	72.56
267.287	83.56
267.52	101.56
267.752	76.56
267.984	87.56
268.216	72.56
268.448	90.56
268.681	85.56
268.913	82.56
269.145	79.56
269.377	90.56
269.609	80.56
269.841	77.56
270.073	85.56
270.306	86.56
270.538	94.56
270.77	86.56
271.002	85.56
271.234	80.56
271.466	105.56
271.698	88.56
271.93	77.56
272.162	78.56
272.394	85.56
272.626	83.56
272.858	77.56
273.09	81.56
273.322	83.56
273.553	95.56
273.785	86.56
274.017	89.56
274.249	92.56
274.481	76.56
274.713	93.56
274.945	80.56
275.176	83.56
275.408	91.56
275.64	83.56
275.872	86.56
276.104	78.56
276.335	95.56
276.567	107.56
276.799	96.56
277.031	110.56
277.262	100.56
277.494	96.56
277.726	91.56
277.957	90.56
278.189	76.56
278.421	73.56
278.652	76.56
278.884	74.56
279.115	76.56
279.347	77.56
279.579	92.56
279.81	86.56
280.042	115.56
280.273	105.56
280.505	103.56
280.736	90.56
280.968	78.56
281.199	90.56
281.431	92.56
281.662	103.56
281.894	101.56
282.125	103.56
282.356	135.56
282.588	145.56
282.819	123.56
283.051	97.56
283.282	95.56
283.513	101.56
283.745	75.56
283.976	88.56
284.207	82.56
284.439	84.56
284.67	70.56
284.901	91.56
285.132	87.56
285.364	71.56
285.595	92.56
285.826	100.56
286.057	91.56
286.288	87.56
286.52	90.56
286.751	91.56
286.982	78.56
287.213	87.56
287.444	81.56
287.675	83.56
287.906	85.56
288.138	72.56
288.369	82.56
288.6	85.56
288.831	68.56
289.062	90.56
289.293	88.56
289.524	97.56
289.755	91.56
289.986	80.56
290.217	91.56
290.448	91.56
290.679	83.56
290.91	72.56
291.141	91.56
291.371	99.56
291.602	85.56
291.833	101.56
292.064	80.56
292.295	78.56
292.526	98.56
292.757	84.56
292.987	98.56
293.218	75.56
293.449	98.56
293.68	90.56
293.91	69.56
294.141	82.56
294.372	89.56
294.603	88.56
294.833	87.56
295.064	92.56
295.295	100.56
295.525	77.56
295.756	96.56
295.987	122.56
296.217	149.56
296.448	139.56
296.679	82.56
296.909	105.56
297.14	97.56
297.37	85.56
297.601	90.56
297.831	73.56
298.062	94.56
298.292	90.56
298.523	96.56
298.753	90.56
298.984	87.56
299.214	93.56
299.445	103.56
299.675	85.56
299.905	97.56
300.136	93.56
300.366	88.56
300.597	86.56
300.827	95.56
301.057	92.56
301.288	100.56
301.518	94.56
301.748	86.56
301.979	101.56
302.209	95.56
302.439	100.56
302.669	95.56
302.9	93.56
303.13	85.56
303.36	95.56
303.59	99.56
303.82	105.56
304.051	102.56
304.281	80.56
304.511	95.56
304.741	79.56
304.971	79.56
305.201	88.56
305.431	97.56
305.661	102.56
305.891	87.56
306.121	89.56
306.352	107.56
306.582	104.56
306.812	89.56
307.042	103.56
307.272	91.56
307.502	97.56
307.731	114.56
307.961	86.56
308.191	90.56
308.421	86.56
308.651	100.56
308.881	99.56
309.111	81.56
309.341	97.56
309.571	95.56
309.8	92.56
310.03	113.56
310.26	106.56
310.49	99.56
310.72	102.56
310.949	111.56
311.179	98.56
311.409	95.56
311.639	99.56
311.868	93.56
312.098	95.56
312.328	92.56
312.557	89.56
312.787	102.56
313.017	104.56
313.246	98.56
313.476	100.56
313.706	90.56
313.935	82.56
314.165	95.56
314.394	97.56
314.624	90.56
314.853	108.56
315.083	101.56
315.312	87.56
315.542	74.56
315.771	98.56
316.001	84.56
316.23	78.56
316.46	100.56
316.689	88.56
316.919	76.56
317.148	96.56
317.377	108.56
317.607	86.56
317.836	90.56
318.065	82.56
318.295	97.56
318.524	97.56
318.753	91.56
318.983	96.56
319.212	106.56
319.441	113.56
319.67	118.56
319.9	105.56
320.129	86.56
320.358	96.56
320.587	109.56
320.816	91.56
321.046	109.56
321.275	100.56
321.504	93.56
321.733	100.56
321.962	109.56
322.191	106.56
322.42	115.56
322.649	113.56
322.878	116.56
323.108	123.56
323.337	135.56
323.566	135.56
323.795	176.56
324.024	229.56
324.253	462.56
324.482	949.56
324.71	1983.56
324.939	2625.56
325.168	981.56
325.397	261.56
325.626	159.56
325.855	133.56
326.084	128.56
326.313	138.56
326.542	171.56
326.77	278.56
326.999	519.56
327.228	1061.56
327.457	2008.56
327.686	1642.56
327.914	431.56
328.143	233.56
328.372	223.56
328.6	152.56
328.829	131.56
329.058	165.56
329.287	145.56
329.515	118.56
329.744	118.56
329.972	149.56
330.201	214.56
330.43	278.56
330.658	197.56
330.887	173.56
331.115	142.56
331.344	108.56
331.572	107.56
331.801	117.56
332.03	99.56
332.258	104.56
332.486	88.56
332.715	88.56
332.943	85.56
333.172	94.56
333.4	109.56
333.629	106.56
333.857	125.56
334.085	147.56
334.314	213.56
334.542	326.56
334.771	309.56
334.999	146.56
335.227	110.56
335.455	114.56
335.684	104.56
335.912	93.56
336.14	97.56
336.369	88.56
336.597	109.56
336.825	106.56
337.053	103.56
337.281	98.56
337.51	93.56
337.738	84.56
337.966	107.56
338.194	111.56
338.422	106.56
338.65	93.56
338.878	96.56
339.106	92.56
339.334	92.56
339.562	93.56
339.79	85.56
340.018	97.56
340.246	106.56
340.474	88.56
340.702	101.56
340.93	93.56
341.158	95.56
341.386	91.56
341.614	94.56
341.842	92.56
342.07	105.56
342.298	88.56
342.526	83.56
342.754	90.56
342.981	95.56
343.209	78.56
343.437	100.56
343.665	92.56
343.893	83.56
344.12	92.56
344.348	103.56
344.576	96.56
344.804	85.56
345.031	105.56
345.259	108.56
345.487	95.56
345.714	116.56
345.942	90.56
346.17	98.56
346.397	90.56
346.625	92.56
346.853	104.56
347.08	81.56
347.308	94.56
347.535	84.56
347.763	91.56
347.99	91.56
348.218	91.56
348.445	115.56
348.673	93.56
348.9	88.56
349.128	84.56
349.355	96.56
349.583	90.56
349.81	97.56
350.037	91.56
350.265	84.56
350.492	103.56
350.72	91.56
350.947	114.56
351.174	105.56
351.402	107.56
351.629	111.56
351.856	102.56
352.083	103.56
352.311	120.56
352.538	111.56
352.765	120.56
352.992	119.56
353.22	109.56
353.447	101.56
353.674	90.56
353.901	96.56
354.128	103.56
354.355	98.56
354.583	98.56
354.81	101.56
355.037	101.56
355.264	94.56
355.491	101.56
355.718	79.56
355.945	90.56
356.172	105.56
356.399	113.56
356.626	91.56
356.853	103.56
357.08	87.56
357.307	76.56
357.534	84.56
357.761	93.56
357.988	78.56
358.215	79.56
358.441	93.56
358.668	103.56
358.895	87.56
359.122	76.56
359.349	83.56
359.576	96.56
359.802	87.56
360.029	139.56
360.256	121.56
360.483	107.56
360.709	84.56
360.936	94.56
361.163	96.56
361.39	106.56
361.616	98.56
361.843	100.56
362.07	89.56
362.296	108.56
362.523	101.56
362.749	100.56
362.976	95.56
363.203	92.56
363.429	91.56
363.656	87.56
363.882	79.56
364.109	95.56
364.335	101.56
364.562	101.56
364.788	86.56
365.015	99.56
365.241	88.56
365.468	114.56
365.694	95.56
365.92	97.56
366.147	90.56
366.373	90.56
366.599	89.56
366.826	89.56
367.052	91.56
367.278	100.56
367.505	92.56
367.731	88.56
367.957	84.56
368.184	96.56
368.41	90.56
368.636	106.56
368.862	123.56
369.089	126.56
369.315	85.56
369.541	92.56
369.767	94.56
369.993	86.56
370.219	112.56
370.445	100.56
370.672	84.56
370.898	83.56
371.124	76.56
371.35	84.56
371.576	85.56
371.802	86.56
372.028	77.56
372.254	92.56
372.48	88.56
372.706	88.56
372.932	88.56
373.158	86.56
373.384	89.56
373.61	98.56
373.835	83.56
374.061	91.56
374.287	92.56
374.513	100.56
374.739	80.56
374.965	78.56
375.191	83.56
375.416	81.56
375.642	77.56
375.868	88.56
376.094	87.56
376.319	78.56
376.545	88.56
376.771	100.56
376.997	83.56
377.222	85.56
377.448	75.56
377.674	91.56
377.899	89.56
378.125	94.56
378.35	89.56
378.576	88.56
378.802	86.56
379.027	81.56
379.253	99.56
379.478	90.56
379.704	88.56
379.929	94.56
380.155	85.56
380.38	97.56
380.606	96.56
380.831	91.56
381.057	78.56
381.282	87.56
381.507	101.56
381.733	98.56
381.958	94.56
382.184	93.56
382.409	89.56
382.634	91.56
382.86	100.56
383.085	99.56
383.31	107.56
383.535	108.56
383.761	91.56
383.986	93.56
384.211	97.56
384.436	88.56
384.662	94.56
384.887	105.56
385.112	96.56
385.337	94.56
385.562	95.56
385.787	108.56
386.013	102.56
386.238	117.56
386.463	96.56
386.688	108.56
386.913	101.56
387.138	105.56
387.363	110.56
387.588	99.56
387.813	95.56
388.038	100.56
388.263	99.56
388.488	117.56
388.713	95.56
388.938	96.56
389.163	91.56
389.387	96.56
389.612	94.56
389.837	95.56
390.062	103.56
390.287	94.56
390.512	87.56
390.736	80.56
390.961	86.56
391.186	86.56
391.411	95.56
391.636	96.56
391.86	90.56
392.085	88.56
392.31	81.56
392.534	87.56
392.759	90.56
392.984	99.56
393.208	99.56
393.433	93.56
393.658	76.56
393.882	77.56
394.107	72.56
394.331	73.56
394.556	80.56
394.78	97.56
395.005	97.56
395.229	88.56
395.454	93.56
395.678	82.56
395.903	101.56
396.127	90.56
396.352	85.56
396.576	96.56
396.801	101.56
397.025	91.56
397.249	112.56
397.474	90.56
397.698	80.56
397.922	79.56
398.147	100.56
398.371	88.56
398.595	89.56
398.82	89.56
399.044	85.56
399.268	98.56
399.492	95.56
399.717	80.56
399.941	95.56
400.165	79.56
400.389	108.56
400.613	77.56
400.837	92.56
401.062	89.56
401.286	92.56
401.51	87.56
401.734	89.56
401.958	101.56
402.182	155.56
402.406	175.56
402.63	125.56
402.854	104.56
403.078	91.56
403.302	82.56
403.526	86.56
403.75	84.56
403.974	83.56
404.198	87.56
404.422	84.56
404.645	82.56
404.869	84.56
405.093	89.56
405.317	111.56
405.541	124.56
405.765	117.56
405.988	127.56
406.212	181.56
406.436	281.56
406.66	166.56
406.883	115.56
407.107	93.56
407.331	96.56
407.555	101.56
407.778	83.56
408.002	92.56
408.226	81.56
408.449	87.56
408.673	87.56
408.896	86.56
409.12	112.56
409.344	100.56
409.567	96.56
409.791	89.56
410.014	95.56
410.238	91.56
410.461	90.56
410.685	89.56
410.908	95.56
411.132	97.56
411.355	97.56
411.578	101.56
411.802	78.56
412.025	96.56
412.249	99.56
412.472	114.56
412.695	103.56
412.919	87.56
413.142	93.56
413.365	86.56
413.589	82.56
413.812	94.56
414.035	88.56
414.258	81.56
414.482	92.56
414.705	86.56
414.928	97.56
415.151	91.56
415.374	95.56
415.597	82.56
415.821	78.56
416.044	101.56
416.267	81.56
416.49	79.56
416.713	86.56
416.936	84.56
417.159	88.56
417.382	91.56
417.605	86.56
417.828	105.56
418.051	92.56
418.274	92.56
418.497	90.56
418.72	105.56
418.943	71.56
419.166	87.56
419.389	88.56
419.611	82.56
419.834	83.56
420.057	90.56
420.28	82.56
420.503	79.56
420.726	87.56
420.948	85.56
421.171	100.56
421.394	90.56
421.617	92.56
421.839	79.56
422.062	88.56
422.285	92.56
422.507	85.56
422.73	118.56
422.953	88.56
423.175	90.56
423.398	78.56
423.621	94.56
423.843	87.56
424.066	86.56
424.288	93.56
424.511	107.56
424.733	117.56
424.956	129.56
425.178	96.56
425.401	102.56
425.623	114.56
425.846	77.56
426.068	107.56
426.291	88.56
426.513	77.56
426.735	100.56
426.958	89.56
427.18	103.56
427.402	155.56
427.625	186.56
427.847	172.56
428.069	130.56
428.292	108.56
428.514	86.56
428.736	93.56
428.958	85.56
429.181	90.56
429.403	86.56
429.625	85.56
429.847	86.56
430.069	108.56
430.292	93.56
430.514	81.56
430.736	82.56
430.958	79.56
431.18	85.56
431.402	86.56
431.624	91.56
431.846	101.56
432.068	83.56
432.29	80.56
432.512	92.56
432.734	93.56
432.956	91.56
433.178	106.56
433.4	80.56
433.622	93.56
433.844	84.56
434.066	93.56
434.287	84.56
434.509	95.56
434.731	77.56
434.953	87.56
435.175	95.56
435.397	99.56
435.618	92.56
435.84	115.56
436.062	137.56
436.284	128.56
436.505	113.56
436.727	104.56
436.949	92.56
437.17	79.56
437.392	78.56
437.614	88.56
437.835	114.56
438.057	135.56
438.278	134.56
438.5	115.56
438.721	122.56
438.943	113.56
439.165	91.56
439.386	78.56
439.608	90.56
439.829	113.56
440.05	145.56
440.272	171.56
440.493	124.56
440.715	90.56
440.936	93.56
441.158	83.56
441.379	83.56
441.6	61.56
441.822	90.56
442.043	89.56
442.264	115.56
442.486	117.56
442.707	101.56
442.928	105.56
443.149	150.56
443.371	157.56
443.592	134.56
443.813	138.56
444.034	131.56
444.255	97.56
444.476	91.56
444.698	85.56
444.919	87.56
445.14	124.56
445.361	129.56
445.582	118.56
445.803	161.56
446.024	155.56
446.245	165.56
446.466	131.56
446.687	84.56
446.908	80.56
447.129	75.56
447.35	91.56
447.571	88.56
447.792	97.56
448.013	90.56
448.234	113.56
448.455	101.56
448.675	127.56
448.896	128.56
449.117	92.56
449.338	111.56
449.559	141.56
449.779	144.56
450	93.56
450.221	92.56
450.442	97.56
450.662	104.56
450.883	112.56
451.104	118.56
451.324	108.56
451.545	86.56
451.766	88.56
451.986	87.56
452.207	90.56
452.428	91.56
452.648	108.56
452.869	112.56
453.089	131.56
453.31	115.56
453.53	89.56
453.751	97.56
453.971	105.56
454.192	118.56
454.412	88.56
454.633	73.56
454.853	94.56
455.073	82.56
455.294	93.56
455.514	101.56
455.734	98.56
455.955	89.56
456.175	101.56
456.395	80.56
456.616	78.56
456.836	86.56
457.056	73.56
457.276	88.56
457.497	101.56
457.717	98.56
457.937	86.56
458.157	88.56
458.377	91.56
458.598	113.56
458.818	177.56
459.038	209.56
459.258	141.56
459.478	104.56
459.698	87.56
459.918	73.56
460.138	85.56
460.358	90.56
460.578	84.56
460.798	104.56
461.018	91.56
461.238	90.56
461.458	66.56
461.678	84.56
461.898	81.56
462.118	77.56
462.338	83.56
462.558	89.56
462.777	100.56
462.997	89.56
463.217	74.56
463.437	79.56
463.657	81.56
463.876	90.56
464.096	74.56
464.316	103.56
464.536	88.56
464.755	96.56
464.975	122.56
465.195	199.56
465.414	200.56
465.634	88.56
465.854	91.56
466.073	73.56
466.293	94.56
466.512	81.56
466.732	101.56
466.951	95.56
467.171	83.56
467.391	90.56
467.61	117.56
467.829	103.56
468.049	141.56
468.268	192.56
468.488	102.56
468.707	78.56
468.927	92.56
469.146	84.56
469.365	95.56
469.585	89.56
469.804	100.56
470.023	94.56
470.243	88.56
470.462	114.56
470.681	124.56
470.901	95.56
471.12	104.56
471.339	88.56
471.558	68.56
471.777	84.56
471.997	102.56
472.216	220.56
472.435	392.56
472.654	151.56
472.873	86.56
473.092	88.56
473.311	90.56
473.53	81.56
473.749	86.56
473.968	103.56
474.187	133.56
474.406	119.56
474.625	89.56
474.844	107.56
475.063	88.56
475.282	95.56
475.501	61.56
475.72	99.56
475.939	77.56
476.158	95.56
476.377	75.56
476.596	92.56
476.814	98.56
477.033	98.56
477.252	100.56
477.471	83.56
477.69	90.56
477.908	82.56
478.127	87.56
478.346	88.56
478.564	82.56
478.783	100.56
479.002	99.56
479.22	114.56
479.439	114.56
479.658	117.56
479.876	104.56
480.095	99.56
480.313	95.56
480.532	118.56
480.751	125.56
480.969	213.56
481.188	651.56
481.406	440.56
481.624	152.56
481.843	92.56
482.061	82.56
482.28	83.56
482.498	99.56
482.717	90.56
482.935	76.56
483.153	81.56
483.372	77.56
483.59	83.56
483.808	95.56
484.027	93.56
484.245	79.56
484.463	95.56
484.681	94.56
484.9	89.56
485.118	88.56
485.336	91.56
485.554	105.56
485.772	107.56
485.99	98.56
486.209	100.56
486.427	96.56
486.645	124.56
486.863	123.56
487.081	107.56
487.299	103.56
487.517	88.56
487.735	92.56
487.953	99.56
488.171	94.56
488.389	91.56
488.607	105.56
488.825	106.56
489.043	92.56
489.261	103.56
489.479	91.56
489.696	87.56
489.914	106.56
490.132	90.56
490.35	96.56
490.568	93.56
490.786	83.56
491.003	86.56
491.221	86.56
491.439	97.56
491.657	89.56
491.874	107.56
492.092	92.56
492.31	84.56
492.527	91.56
492.745	101.56
492.963	94.56
493.18	95.56
493.398	107.56
493.615	101.56
493.833	101.56
494.05	87.56
494.268	90.56
494.485	88.56
494.703	93.56
494.92	89.56
495.138	82.56
495.355	77.56
495.573	84.56
495.79	95.56
496.008	78.56
496.225	93.56
496.442	97.56
496.66	90.56
496.877	103.56
497.094	89.56
497.312	102.56
497.529	90.56
497.746	100.56
497.963	94.56
498.181	98.56
498.398	80.56
498.615	114.56
498.832	114.56
499.049	104.56
499.267	109.56
499.484	92.56
499.701	90.56
499.918	86.56
500.135	96.56
500.352	89.56
500.569	91.56
500.786	82.56
501.003	84.56
501.22	91.56
501.437	98.56
501.654	90.56
501.871	130.56
502.088	96.56
502.305	77.56
502.522	90.56
502.739	90.56
502.956	96.56
503.172	86.56
503.389	99.56
503.606	114.56
503.823	108.56
504.04	98.56
504.256	99.56
504.473	99.56
504.69	85.56
504.907	95.56
505.123	88.56
505.34	93.56
505.557	81.56
505.773	88.56
505.99	79.56
506.207	88.56
506.423	70.56
506.64	82.56
506.856	103.56
507.073	82.56
507.289	80.56
507.506	96.56
507.722	124.56
507.939	123.56
508.155	100.56
508.372	90.56
508.588	79.56
508.805	105.56
509.021	93.56
509.238	102.56
509.454	92.56
509.67	108.56
509.887	111.56
510.103	138.56
510.319	218.56
510.536	840.56
510.752	2867.56
510.968	829.56
511.184	169.56
511.401	118.56
511.617	107.56
511.833	94.56
512.049	91.56
512.265	75.56
512.481	95.56
512.698	81.56
512.914	91.56
513.13	102.56
513.346	95.56
513.562	99.56
513.778	101.56
513.994	106.56
514.21	108.56
514.426	115.56
514.642	152.56
