Data from Circ_2022_H10_HRD10591_00086.txt Node
Date: Wed Jan 03 09:53:54 EST 2024
User: Yrep
Spectrometer: HR+D1059
Trigger mode: 1
Integration Time (sec): 1.000000E-1
Scans to average: 1
Electric dark correction enabled: true
Nonlinearity correction enabled: false
Boxcar width: 0
XAxis mode: Wavelengths
Number of Pixels in Spectrum: 2048
>>>>>Begin Spectral Data<<<<<
223.165	-19
223.4	-19
223.635	-19
223.869	-25
224.104	-16
224.338	-17
224.573	3
224.808	-9
225.042	-11
225.277	12
225.511	-2
225.746	8
225.98	8
226.215	2
226.449	16
226.683	11
226.918	25
227.152	14
227.387	49
227.621	42
227.856	50
228.09	42
228.324	52
228.559	52
228.793	62
229.027	68
229.262	87
229.496	77
229.73	93
229.964	103
230.199	77
230.433	72
230.667	78
230.901	84
231.136	80
231.37	86
231.604	78
231.838	91
232.072	79
232.306	77
232.541	82
232.775	86
233.009	70
233.243	90
233.477	86
233.711	82
233.945	68
234.179	83
234.413	79
234.647	73
234.881	82
235.115	87
235.349	87
235.583	77
235.817	80
236.051	77
236.285	73
236.519	92
236.753	93
236.987	87
237.221	91
237.455	81
237.689	74
237.922	70
238.156	83
238.39	71
238.624	57
238.858	81
239.091	85
239.325	85
239.559	79
239.793	91
240.027	81
240.26	84
240.494	94
240.728	72
240.961	70
241.195	68
241.429	82
241.662	78
241.896	75
242.13	79
242.363	70
242.597	72
242.83	67
243.064	75
243.298	74
243.531	82
243.765	81
243.998	73
244.232	74
244.465	82
244.699	72
244.932	86
245.166	73
245.399	85
245.633	91
245.866	83
246.099	64
246.333	75
246.566	75
246.8	83
247.033	76
247.266	76
247.5	70
247.733	78
247.966	78
248.2	78
248.433	77
248.666	81
248.899	77
249.133	85
249.366	101
249.599	101
249.832	83
250.066	96
250.299	71
250.532	83
250.765	90
250.998	80
251.231	85
251.465	73
251.698	70
251.931	85
252.164	92
252.397	87
252.63	78
252.863	85
253.096	72
253.329	93
253.562	83
253.795	85
254.028	86
254.261	83
254.494	69
254.727	88
254.96	77
255.193	86
255.426	91
255.659	82
255.892	87
256.124	86
256.357	88
256.59	83
256.823	86
257.056	85
257.289	94
257.521	105
257.754	87
257.987	84
258.22	86
258.452	82
258.685	91
258.918	99
259.151	81
259.383	85
259.616	88
259.849	93
260.081	87
260.314	78
260.547	82
260.779	78
261.012	91
261.244	88
261.477	99
261.71	102
261.942	137
262.175	129
262.407	91
262.64	95
262.872	98
263.105	76
263.337	70
263.57	78
263.802	87
264.035	88
264.267	72
264.499	57
264.732	78
264.964	93
265.197	84
265.429	87
265.661	91
265.894	73
266.126	88
266.358	83
266.591	97
266.823	87
267.055	100
267.287	91
267.52	82
267.752	89
267.984	89
268.216	85
268.448	92
268.681	85
268.913	80
269.145	93
269.377	83
269.609	90
269.841	86
270.073	90
270.306	90
270.538	90
270.77	86
271.002	90
271.234	90
271.466	105
271.698	71
271.93	92
272.162	105
272.394	93
272.626	84
272.858	81
273.09	87
273.322	78
273.553	85
273.785	85
274.017	94
274.249	85
274.481	84
274.713	89
274.945	79
275.176	100
275.408	93
275.64	82
275.872	79
276.104	77
276.335	91
276.567	104
276.799	134
277.031	133
277.262	126
277.494	111
277.726	89
277.957	105
278.189	77
278.421	82
278.652	85
278.884	98
279.115	92
279.347	86
279.579	92
279.81	89
280.042	93
280.273	107
280.505	105
280.736	92
280.968	86
281.199	96
281.431	94
281.662	94
281.894	102
282.125	99
282.356	126
282.588	154
282.819	133
283.051	94
283.282	87
283.513	86
283.745	96
283.976	90
284.207	107
284.439	79
284.67	93
284.901	93
285.132	88
285.364	81
285.595	104
285.826	87
286.057	89
286.288	82
286.52	94
286.751	94
286.982	96
287.213	94
287.444	89
287.675	100
287.906	79
288.138	89
288.369	103
288.6	104
288.831	88
289.062	76
289.293	88
289.524	99
289.755	82
289.986	85
290.217	88
290.448	84
290.679	83
290.91	92
291.141	83
291.371	93
291.602	93
291.833	99
292.064	97
292.295	87
292.526	95
292.757	87
292.987	84
293.218	92
293.449	99
293.68	95
293.91	101
294.141	88
294.372	88
294.603	96
294.833	91
295.064	100
295.295	100
295.525	112
295.756	101
295.987	118
296.217	162
296.448	145
296.679	100
296.909	88
297.14	103
297.37	86
297.601	77
297.831	93
298.062	98
298.292	105
298.523	88
298.753	87
298.984	92
299.214	89
299.445	107
299.675	106
299.905	93
300.136	88
300.366	86
300.597	88
300.827	101
301.057	97
301.288	104
301.518	103
301.748	91
301.979	98
302.209	102
302.439	99
302.669	98
302.9	85
303.13	99
303.36	86
303.59	107
303.82	116
304.051	88
304.281	88
304.511	88
304.741	93
304.971	96
305.201	100
305.431	83
305.661	104
305.891	110
306.121	93
306.352	115
306.582	121
306.812	96
307.042	100
307.272	117
307.502	110
307.731	121
307.961	93
308.191	80
308.421	96
308.651	84
308.881	93
309.111	100
309.341	103
309.571	103
309.8	99
310.03	95
310.26	99
310.49	101
310.72	110
310.949	117
311.179	106
311.409	100
311.639	96
311.868	107
312.098	99
312.328	112
312.557	107
312.787	117
313.017	107
313.246	100
313.476	99
313.706	106
313.935	102
314.165	111
314.394	110
314.624	117
314.853	104
315.083	102
315.312	104
315.542	90
315.771	87
316.001	95
316.23	88
316.46	97
316.689	97
316.919	98
317.148	106
317.377	95
317.607	88
317.836	84
318.065	97
318.295	88
318.524	85
318.753	112
318.983	96
319.212	117
319.441	114
319.67	108
319.9	106
320.129	92
320.358	100
320.587	111
320.816	103
321.046	111
321.275	92
321.504	97
321.733	89
321.962	86
322.191	112
322.42	124
322.649	124
322.878	126
323.108	145
323.337	140
323.566	144
323.795	189
324.024	229
324.253	466
324.482	1028
324.71	2147
324.939	2834
325.168	1020
325.397	279
325.626	168
325.855	146
326.084	132
326.313	144
326.542	179
326.77	280
326.999	532
327.228	1127
327.457	2074
327.686	1635
327.914	484
328.143	276
328.372	272
328.6	202
328.829	154
329.058	157
329.287	170
329.515	140
329.744	148
329.972	205
330.201	315
330.43	390
330.658	256
330.887	220
331.115	152
331.344	123
331.572	114
331.801	114
332.03	120
332.258	103
332.486	115
332.715	95
332.943	100
333.172	101
333.4	102
333.629	117
333.857	147
334.085	192
334.314	286
334.542	493
334.771	441
334.999	178
335.227	120
335.455	124
335.684	115
335.912	94
336.14	103
336.369	98
336.597	90
336.825	88
337.053	94
337.281	106
337.51	96
337.738	105
337.966	104
338.194	106
338.422	105
338.65	100
338.878	97
339.106	94
339.334	92
339.562	89
339.79	86
340.018	97
340.246	100
340.474	102
340.702	103
340.93	98
341.158	106
341.386	104
341.614	106
341.842	106
342.07	87
342.298	113
342.526	102
342.754	97
342.981	93
343.209	97
343.437	90
343.665	89
343.893	95
344.12	84
344.348	91
344.576	94
344.804	78
345.031	101
345.259	94
345.487	98
345.714	109
345.942	92
346.17	104
346.397	115
346.625	100
346.853	96
347.08	81
347.308	96
347.535	100
347.763	116
347.99	103
348.218	114
348.445	121
348.673	112
348.9	97
349.128	89
349.355	85
349.583	103
349.81	96
350.037	101
350.265	101
350.492	96
350.72	93
350.947	99
351.174	112
351.402	130
351.629	129
351.856	113
352.083	129
352.311	135
352.538	120
352.765	117
352.992	125
353.22	112
353.447	114
353.674	103
353.901	107
354.128	97
354.355	102
354.583	97
354.81	119
355.037	91
355.264	94
355.491	102
355.718	98
355.945	89
356.172	95
356.399	98
356.626	101
356.853	100
357.08	98
357.307	104
357.534	101
357.761	94
357.988	96
358.215	97
358.441	106
358.668	88
358.895	90
359.122	103
359.349	89
359.576	106
359.802	118
360.029	144
360.256	132
360.483	134
360.709	89
360.936	93
361.163	91
361.39	108
361.616	102
361.843	107
362.07	95
362.296	106
362.523	106
362.749	94
362.976	97
363.203	80
363.429	97
363.656	99
363.882	82
364.109	89
364.335	96
364.562	100
364.788	105
365.015	90
365.241	103
365.468	125
365.694	119
365.92	103
366.147	92
366.373	87
366.599	98
366.826	89
367.052	93
367.278	100
367.505	97
367.731	101
367.957	91
368.184	100
368.41	103
368.636	124
368.862	144
369.089	125
369.315	99
369.541	108
369.767	96
369.993	105
370.219	94
370.445	85
370.672	85
370.898	81
371.124	84
371.35	102
371.576	98
371.802	84
372.028	90
372.254	89
372.48	88
372.706	90
372.932	104
373.158	76
373.384	100
373.61	82
373.835	94
374.061	84
374.287	96
374.513	96
374.739	102
374.965	90
375.191	83
375.416	92
375.642	91
375.868	94
376.094	84
376.319	81
376.545	98
376.771	91
376.997	87
377.222	104
377.448	86
377.674	85
377.899	94
378.125	103
378.35	96
378.576	90
378.802	91
379.027	85
379.253	114
379.478	104
379.704	84
379.929	88
380.155	92
380.38	91
380.606	97
380.831	96
381.057	116
381.282	103
381.507	110
381.733	82
381.958	97
382.184	95
382.409	101
382.634	105
382.86	93
383.085	103
383.31	104
383.535	123
383.761	101
383.986	99
384.211	98
384.436	101
384.662	101
384.887	101
385.112	97
385.337	114
385.562	108
385.787	101
386.013	116
386.238	125
386.463	97
386.688	107
386.913	125
387.138	89
387.363	112
387.588	90
387.813	109
388.038	99
388.263	103
388.488	100
388.713	92
388.938	89
389.163	103
389.387	101
389.612	101
389.837	98
390.062	84
390.287	95
390.512	85
390.736	96
390.961	103
391.186	101
391.411	91
391.636	90
391.86	76
392.085	88
392.31	87
392.534	86
392.759	73
392.984	82
393.208	77
393.433	83
393.658	110
393.882	84
394.107	72
394.331	88
394.556	92
394.78	87
395.005	87
395.229	86
395.454	107
395.678	82
395.903	81
396.127	99
396.352	88
396.576	103
396.801	80
397.025	90
397.249	93
397.474	84
397.698	95
397.922	87
398.147	109
398.371	89
398.595	86
398.82	87
399.044	90
399.268	97
399.492	88
399.717	87
399.941	103
400.165	97
400.389	102
400.613	97
400.837	84
401.062	88
401.286	100
401.51	105
401.734	92
401.958	115
402.182	152
402.406	182
402.63	141
402.854	107
403.078	98
403.302	91
403.526	108
403.75	101
403.974	87
404.198	107
404.422	91
404.645	98
404.869	88
405.093	102
405.317	117
405.541	112
405.765	112
405.988	141
406.212	209
406.436	282
406.66	181
406.883	117
407.107	121
407.331	114
407.555	114
407.778	121
408.002	94
408.226	106
408.449	99
408.673	101
408.896	97
409.12	94
409.344	101
409.567	101
409.791	95
410.014	92
410.238	97
410.461	83
410.685	85
410.908	94
411.132	107
411.355	99
411.578	97
411.802	89
412.025	92
412.249	95
412.472	112
412.695	103
412.919	102
413.142	92
413.365	82
413.589	89
413.812	83
414.035	90
414.258	84
414.482	92
414.705	88
414.928	90
415.151	73
415.374	92
415.597	90
415.821	97
416.044	98
416.267	90
416.49	78
416.713	88
416.936	85
417.159	89
417.382	96
417.605	99
417.828	108
418.051	105
418.274	94
418.497	97
418.72	109
418.943	96
419.166	85
419.389	99
419.611	88
419.834	83
420.057	78
420.28	77
420.503	81
420.726	100
420.948	96
421.171	102
421.394	112
421.617	96
421.839	94
422.062	96
422.285	100
422.507	100
422.73	117
422.953	109
423.175	95
423.398	88
423.621	98
423.843	91
424.066	99
424.288	90
424.511	102
424.733	120
424.956	129
425.178	111
425.401	119
425.623	117
425.846	93
426.068	80
426.291	97
426.513	97
426.735	87
426.958	101
427.18	110
427.402	177
427.625	242
427.847	192
428.069	163
428.292	118
428.514	97
428.736	99
428.958	98
429.181	86
429.403	77
429.625	85
429.847	99
430.069	131
430.292	102
430.514	89
430.736	109
430.958	71
431.18	82
431.402	80
431.624	100
431.846	80
432.068	91
432.29	90
432.512	83
432.734	83
432.956	92
433.178	105
433.4	102
433.622	92
433.844	87
434.066	94
434.287	94
434.509	94
434.731	83
434.953	96
435.175	96
435.397	102
435.618	90
435.84	112
436.062	160
436.284	169
436.505	108
436.727	102
436.949	97
437.17	109
437.392	89
437.614	88
437.835	106
438.057	140
438.278	140
438.5	126
438.721	156
438.943	118
439.165	98
439.386	98
439.608	97
439.829	111
440.05	173
440.272	187
440.493	120
440.715	86
440.936	96
441.158	104
441.379	88
441.6	94
441.822	101
442.043	105
442.264	117
442.486	134
442.707	112
442.928	118
443.149	155
443.371	174
443.592	138
443.813	132
444.034	122
444.255	104
444.476	94
444.698	85
444.919	94
445.14	132
445.361	142
445.582	152
445.803	196
446.024	193
446.245	186
446.466	132
446.687	106
446.908	98
447.129	83
447.35	87
447.571	119
447.792	81
448.013	113
448.234	114
448.455	109
448.675	154
448.896	156
449.117	102
449.338	119
449.559	160
449.779	164
450	101
450.221	98
450.442	104
450.662	113
450.883	116
451.104	119
451.324	104
451.545	105
451.766	91
451.986	89
452.207	101
452.428	110
452.648	117
452.869	132
453.089	124
453.31	125
453.53	100
453.751	100
453.971	109
454.192	133
454.412	103
454.633	95
454.853	79
455.073	90
455.294	95
455.514	126
455.734	100
455.955	83
456.175	105
456.395	83
456.616	91
456.836	84
457.056	86
457.276	90
457.497	90
457.717	98
457.937	101
458.157	85
458.377	94
458.598	141
458.818	199
459.038	230
459.258	151
459.478	108
459.698	93
459.918	85
460.138	80
460.358	84
460.578	89
460.798	109
461.018	90
461.238	89
461.458	94
461.678	89
461.898	75
462.118	87
462.338	89
462.558	90
462.777	82
462.997	91
463.217	82
463.437	91
463.657	84
463.876	91
464.096	80
464.316	84
464.536	100
464.755	103
464.975	120
465.195	214
465.414	220
465.634	99
465.854	87
466.073	86
466.293	88
466.512	83
466.732	81
466.951	98
467.171	96
467.391	84
467.61	129
467.829	114
468.049	167
468.268	215
468.488	128
468.707	95
468.927	96
469.146	90
469.365	72
469.585	85
469.804	108
470.023	107
470.243	90
470.462	105
470.681	134
470.901	99
471.12	85
471.339	93
471.558	93
471.777	105
471.997	126
472.216	269
472.435	541
472.654	184
472.873	102
473.092	113
473.311	99
473.53	76
473.749	98
473.968	109
474.187	144
474.406	110
474.625	90
474.844	80
475.063	75
475.282	83
475.501	95
475.72	100
475.939	95
476.158	79
476.377	100
476.596	83
476.814	107
477.033	83
477.252	83
477.471	86
477.69	91
477.908	95
478.127	97
478.346	84
478.564	92
478.783	96
479.002	86
479.22	100
479.439	105
479.658	113
479.876	105
480.095	78
480.313	100
480.532	112
480.751	136
480.969	260
481.188	935
481.406	635
481.624	156
481.843	97
482.061	86
482.28	87
482.498	102
482.717	90
482.935	75
483.153	94
483.372	86
483.59	85
483.808	84
484.027	96
484.245	98
484.463	98
484.681	98
484.9	89
485.118	90
485.336	107
485.554	100
485.772	98
485.99	88
486.209	88
486.427	102
486.645	100
486.863	129
487.081	110
487.299	97
487.517	85
487.735	108
487.953	94
488.171	88
488.389	84
488.607	94
488.825	90
489.043	78
489.261	99
489.479	100
489.696	97
489.914	87
490.132	73
490.35	106
490.568	98
490.786	86
491.003	82
491.221	85
491.439	98
491.657	102
491.874	86
492.092	96
492.31	85
492.527	97
492.745	97
492.963	92
493.18	83
493.398	89
493.615	88
493.833	91
494.05	88
494.268	88
494.485	91
494.703	84
494.92	82
495.138	87
495.355	87
495.573	79
495.79	87
496.008	100
496.225	83
496.442	94
496.66	96
496.877	97
497.094	90
497.312	99
497.529	104
497.746	93
497.963	98
498.181	90
498.398	102
498.615	114
498.832	108
499.049	96
499.267	79
499.484	94
499.701	104
499.918	92
500.135	85
500.352	98
500.569	90
500.786	100
501.003	86
501.22	98
501.437	93
501.654	96
501.871	131
502.088	95
502.305	95
502.522	88
502.739	97
502.956	94
503.172	98
503.389	107
503.606	116
503.823	109
504.04	105
504.256	74
504.473	98
504.69	100
504.907	104
505.123	80
505.34	92
505.557	96
505.773	95
505.99	84
506.207	98
506.423	96
506.64	93
506.856	84
507.073	96
507.289	104
507.506	111
507.722	133
507.939	124
508.155	99
508.372	81
508.588	87
508.805	92
509.021	100
509.238	107
509.454	115
509.67	102
509.887	122
510.103	128
510.319	229
510.536	857
510.752	2932
510.968	838
511.184	187
511.401	131
511.617	107
511.833	85
512.049	96
512.265	102
512.481	104
512.698	104
512.914	97
513.13	92
513.346	94
513.562	104
513.778	93
513.994	89
514.21	109
514.426	158
514.642	168
514.858	134
515.074	197
515.29	628
515.506	2109
515.721	811
515.937	216
516.153	125
516.369	106
516.585	104
516.801	93
517.016	94
517.232	97
517.448	109
517.664	99
517.879	114
518.095	104
518.311	93
518.527	101
518.742	90
518.958	97
519.173	100
519.389	88
519.605	82
519.82	94
520.036	106
520.251	140
520.467	132
520.682	117
520.898	108
521.113	115
521.329	170
521.544	287
521.76	776
521.975	3577
522.19	2234
522.406	445
522.621	167
522.836	114
523.052	104
523.267	101
523.482	90
523.698	114
523.913	136
524.128	118
524.343	99
524.559	96
524.774	94
524.989	90
525.204	125
525.419	114
525.634	100
525.849	105
526.064	86
526.28	84
526.495	94
526.71	98
526.925	85
527.14	106
527.355	86
527.57	87
527.785	91
527.999	98
528.214	85
528.429	96
528.644	87
528.859	92
529.074	104
529.289	133
529.503	246
529.718	123
529.933	94
530.148	104
530.363	92
530.577	101
530.792	95
531.007	101
531.221	98
531.436	84
531.651	87
531.865	87
532.08	96
532.295	82
532.509	87
532.724	95
532.938	97
533.153	89
533.367	102
533.582	98
533.796	100
534.011	96
534.225	97
534.44	89
534.654	104
534.868	91
535.083	95
535.297	100
535.511	98
535.726	120
535.94	95
536.154	95
536.369	96
536.583	91
536.797	100
537.011	99
537.225	85
537.44	92
537.654	92
537.868	88
538.082	81
538.296	79
538.51	98
538.724	96
538.938	103
539.153	92
539.367	115
539.581	92
539.795	85
540.009	91
540.222	88
540.436	84
540.65	89
540.864	88
541.078	99
541.292	105
541.506	80
541.72	91
541.934	95
542.147	93
542.361	93
542.575	104
542.789	90
543.002	91
543.216	97
543.43	101
543.644	100
543.857	115
544.071	98
544.285	85
544.498	97
544.712	98
544.925	78
545.139	77
545.352	86
545.566	90
545.779	94
545.993	95
546.206	102
546.42	93
546.633	87
546.847	99
547.06	93
547.274	80
547.487	84
547.7	85
547.914	101
548.127	84
548.34	87
548.554	84
548.767	101
548.98	89
549.193	86
549.407	94
549.62	94
549.833	96
550.046	98
550.259	92
550.473	94
550.686	78
550.899	83
551.112	81
551.325	76
551.538	96
551.751	96
551.964	78
552.177	93
552.39	84
552.603	90
552.816	105
553.029	85
553.242	100
553.455	99
553.667	114
553.88	122
554.093	101
554.306	103
554.519	83
554.732	89
554.944	98
555.157	91
555.37	93
555.583	100
555.795	96
556.008	94
556.221	93
556.433	94
556.646	101
556.859	87
557.071	101
557.284	83
557.496	102
557.709	97
557.921	86
558.134	84
558.346	93
558.559	91
558.771	89
558.984	91
559.196	102
559.409	96
559.621	102
559.833	94
560.046	91
560.258	91
560.47	93
560.683	95
560.895	96
561.107	100
561.32	85
561.532	82
561.744	96
561.956	95
562.168	106
562.381	88
562.593	87
562.805	93
563.017	92
563.229	89
563.441	103
563.653	88
563.865	88
564.077	86
564.289	96
564.501	101
564.713	91
564.925	97
565.137	89
565.349	102
565.561	102
565.773	93
565.985	89
566.197	92
566.408	82
566.62	85
566.832	85
567.044	84
567.255	93
567.467	91
567.679	100
567.891	92
568.102	100
568.314	92
568.526	70
568.737	93
568.949	85
569.161	92
569.372	94
569.584	97
569.795	98
570.007	115
570.218	268
570.43	164
570.641	89
570.853	89
571.064	90
571.276	106
571.487	100
571.698	90
571.91	104
572.121	91
572.333	93
572.544	96
572.755	98
572.966	86
573.178	86
573.389	98
573.6	93
573.811	79
574.023	86
574.234	80
574.445	84
574.656	88
574.867	90
575.078	91
575.289	83
575.501	81
575.712	99
575.923	89
576.134	81
576.345	78
576.556	99
576.767	86
576.978	88
577.188	104
577.399	101
577.61	85
577.821	115
578.032	122
578.243	292
578.454	912
578.665	248
578.875	125
579.086	100
579.297	77
579.508	86
579.718	89
579.929	92
580.14	84
580.35	75
580.561	91
