Data from Circ_2022_H10_HRD10591_00042.txt Node
Date: Wed Jan 03 09:53:46 EST 2024
User: Yrep
Spectrometer: HR+D1059
Trigger mode: 1
Integration Time (sec): 1.000000E-1
Scans to average: 1
Electric dark correction enabled: true
Nonlinearity correction enabled: false
Boxcar width: 0
XAxis mode: Wavelengths
Number of Pixels in Spectrum: 2048
>>>>>Begin Spectral Data<<<<<
223.165	-19.44
223.4	-19.44
223.635	-19.44
223.869	-19.44
224.104	-14.44
224.338	-7.44
224.573	-10.44
224.808	-3.44
225.042	2.56
225.277	-6.44
225.511	-11.44
225.746	-5.44
225.98	1.56
226.215	8.56
226.449	28.56
226.683	16.56
226.918	19.56
227.152	20.56
227.387	25.56
227.621	36.56
227.856	37.56
228.09	27.56
228.324	39.56
228.559	50.56
228.793	61.56
229.027	71.56
229.262	67.56
229.496	73.56
229.73	90.56
229.964	72.56
230.199	52.56
230.433	62.56
230.667	75.56
230.901	65.56
231.136	78.56
231.37	86.56
231.604	79.56
231.838	77.56
232.072	79.56
232.306	82.56
232.541	84.56
232.775	86.56
233.009	76.56
233.243	80.56
233.477	81.56
233.711	96.56
233.945	83.56
234.179	74.56
234.413	79.56
234.647	77.56
234.881	66.56
235.115	82.56
235.349	77.56
235.583	75.56
235.817	74.56
236.051	77.56
236.285	73.56
236.519	69.56
236.753	71.56
236.987	64.56
237.221	73.56
237.455	60.56
237.689	70.56
237.922	72.56
238.156	73.56
238.39	71.56
238.624	67.56
238.858	63.56
239.091	86.56
239.325	76.56
239.559	83.56
239.793	84.56
240.027	85.56
240.26	66.56
240.494	64.56
240.728	80.56
240.961	68.56
241.195	71.56
241.429	77.56
241.662	73.56
241.896	74.56
242.13	86.56
242.363	73.56
242.597	78.56
242.83	75.56
243.064	69.56
243.298	74.56
243.531	72.56
243.765	69.56
243.998	84.56
244.232	84.56
244.465	80.56
244.699	97.56
244.932	74.56
245.166	78.56
245.399	82.56
245.633	77.56
245.866	82.56
246.099	87.56
246.333	83.56
246.566	69.56
246.8	73.56
247.033	75.56
247.266	70.56
247.5	72.56
247.733	68.56
247.966	61.56
248.2	64.56
248.433	81.56
248.666	85.56
248.899	76.56
249.133	73.56
249.366	97.56
249.599	108.56
249.832	80.56
250.066	68.56
250.299	71.56
250.532	79.56
250.765	74.56
250.998	86.56
251.231	83.56
251.465	84.56
251.698	85.56
251.931	74.56
252.164	70.56
252.397	82.56
252.63	83.56
252.863	78.56
253.096	78.56
253.329	76.56
253.562	81.56
253.795	83.56
254.028	73.56
254.261	80.56
254.494	73.56
254.727	76.56
254.96	93.56
255.193	75.56
255.426	82.56
255.659	70.56
255.892	74.56
256.124	58.56
256.357	78.56
256.59	84.56
256.823	73.56
257.056	86.56
257.289	96.56
257.521	79.56
257.754	72.56
257.987	79.56
258.22	86.56
258.452	61.56
258.685	82.56
258.918	73.56
259.151	78.56
259.383	76.56
259.616	62.56
259.849	81.56
260.081	76.56
260.314	88.56
260.547	89.56
260.779	89.56
261.012	89.56
261.244	85.56
261.477	86.56
261.71	97.56
261.942	129.56
262.175	133.56
262.407	100.56
262.64	86.56
262.872	96.56
263.105	87.56
263.337	68.56
263.57	80.56
263.802	88.56
264.035	73.56
264.267	82.56
264.499	83.56
264.732	96.56
264.964	80.56
265.197	78.56
265.429	78.56
265.661	76.56
265.894	72.56
266.126	71.56
266.358	94.56
266.591	78.56
266.823	72.56
267.055	73.56
267.287	81.56
267.52	72.56
267.752	80.56
267.984	78.56
268.216	80.56
268.448	91.56
268.681	89.56
268.913	82.56
269.145	77.56
269.377	82.56
269.609	79.56
269.841	80.56
270.073	90.56
270.306	77.56
270.538	72.56
270.77	78.56
271.002	72.56
271.234	89.56
271.466	75.56
271.698	72.56
271.93	76.56
272.162	79.56
272.394	87.56
272.626	88.56
272.858	83.56
273.09	86.56
273.322	74.56
273.553	73.56
273.785	94.56
274.017	91.56
274.249	92.56
274.481	89.56
274.713	79.56
274.945	73.56
275.176	94.56
275.408	93.56
275.64	90.56
275.872	84.56
276.104	68.56
276.335	87.56
276.567	104.56
276.799	119.56
277.031	103.56
277.262	95.56
277.494	68.56
277.726	81.56
277.957	78.56
278.189	98.56
278.421	87.56
278.652	83.56
278.884	84.56
279.115	83.56
279.347	92.56
279.579	86.56
279.81	68.56
280.042	81.56
280.273	79.56
280.505	84.56
280.736	88.56
280.968	80.56
281.199	90.56
281.431	96.56
281.662	73.56
281.894	82.56
282.125	89.56
282.356	125.56
282.588	148.56
282.819	123.56
283.051	81.56
283.282	84.56
283.513	74.56
283.745	79.56
283.976	95.56
284.207	91.56
284.439	77.56
284.67	97.56
284.901	95.56
285.132	90.56
285.364	88.56
285.595	89.56
285.826	88.56
286.057	75.56
286.288	80.56
286.52	93.56
286.751	87.56
286.982	79.56
287.213	91.56
287.444	78.56
287.675	96.56
287.906	83.56
288.138	93.56
288.369	91.56
288.6	86.56
288.831	70.56
289.062	74.56
289.293	81.56
289.524	89.56
289.755	82.56
289.986	87.56
290.217	87.56
290.448	76.56
290.679	87.56
290.91	81.56
291.141	79.56
291.371	80.56
291.602	85.56
291.833	77.56
292.064	100.56
292.295	96.56
292.526	86.56
292.757	78.56
292.987	87.56
293.218	78.56
293.449	74.56
293.68	97.56
293.91	76.56
294.141	94.56
294.372	92.56
294.603	77.56
294.833	89.56
295.064	80.56
295.295	86.56
295.525	85.56
295.756	97.56
295.987	118.56
296.217	144.56
296.448	126.56
296.679	100.56
296.909	93.56
297.14	81.56
297.37	91.56
297.601	73.56
297.831	87.56
298.062	84.56
298.292	90.56
298.523	80.56
298.753	82.56
298.984	95.56
299.214	89.56
299.445	85.56
299.675	92.56
299.905	89.56
300.136	99.56
300.366	84.56
300.597	92.56
300.827	90.56
301.057	104.56
301.288	102.56
301.518	93.56
301.748	78.56
301.979	104.56
302.209	90.56
302.439	92.56
302.669	88.56
302.9	103.56
303.13	87.56
303.36	95.56
303.59	112.56
303.82	100.56
304.051	86.56
304.281	96.56
304.511	89.56
304.741	88.56
304.971	96.56
305.201	83.56
305.431	93.56
305.661	94.56
305.891	78.56
306.121	100.56
306.352	103.56
306.582	114.56
306.812	84.56
307.042	80.56
307.272	86.56
307.502	79.56
307.731	97.56
307.961	79.56
308.191	99.56
308.421	84.56
308.651	92.56
308.881	90.56
309.111	99.56
309.341	87.56
309.571	99.56
309.8	96.56
310.03	98.56
310.26	92.56
310.49	94.56
310.72	98.56
310.949	108.56
311.179	90.56
311.409	90.56
311.639	99.56
311.868	87.56
312.098	91.56
312.328	106.56
312.557	96.56
312.787	115.56
313.017	97.56
313.246	86.56
313.476	82.56
313.706	82.56
313.935	109.56
314.165	102.56
314.394	91.56
314.624	100.56
314.853	101.56
315.083	90.56
315.312	88.56
315.542	86.56
315.771	77.56
316.001	81.56
316.23	96.56
316.46	83.56
316.689	112.56
316.919	92.56
317.148	94.56
317.377	81.56
317.607	97.56
317.836	82.56
318.065	81.56
318.295	98.56
318.524	96.56
318.753	80.56
318.983	79.56
319.212	99.56
319.441	105.56
319.67	96.56
319.9	108.56
320.129	84.56
320.358	88.56
320.587	105.56
320.816	111.56
321.046	99.56
321.275	94.56
321.504	100.56
321.733	94.56
321.962	80.56
322.191	96.56
322.42	90.56
322.649	99.56
322.878	110.56
323.108	122.56
323.337	125.56
323.566	132.56
323.795	159.56
324.024	214.56
324.253	417.56
324.482	923.56
324.71	1835.56
324.939	2445.56
325.168	888.56
325.397	274.56
325.626	149.56
325.855	144.56
326.084	136.56
326.313	154.56
326.542	156.56
326.77	255.56
326.999	478.56
327.228	963.56
327.457	1737.56
327.686	1411.56
327.914	400.56
328.143	201.56
328.372	164.56
328.6	114.56
328.829	114.56
329.058	134.56
329.287	139.56
329.515	106.56
329.744	113.56
329.972	108.56
330.201	117.56
330.43	151.56
330.658	147.56
330.887	152.56
331.115	129.56
331.344	102.56
331.572	109.56
331.801	123.56
332.03	102.56
332.258	101.56
332.486	98.56
332.715	97.56
332.943	87.56
333.172	99.56
333.4	98.56
333.629	108.56
333.857	113.56
334.085	110.56
334.314	125.56
334.542	165.56
334.771	154.56
334.999	108.56
335.227	100.56
335.455	99.56
335.684	107.56
335.912	97.56
336.14	101.56
336.369	108.56
336.597	86.56
336.825	90.56
337.053	90.56
337.281	92.56
337.51	94.56
337.738	98.56
337.966	103.56
338.194	103.56
338.422	100.56
338.65	101.56
338.878	85.56
339.106	104.56
339.334	89.56
339.562	104.56
339.79	86.56
340.018	93.56
340.246	91.56
340.474	96.56
340.702	85.56
340.93	90.56
341.158	99.56
341.386	105.56
341.614	89.56
341.842	95.56
342.07	87.56
342.298	79.56
342.526	90.56
342.754	68.56
342.981	100.56
343.209	88.56
343.437	88.56
343.665	98.56
343.893	88.56
344.12	88.56
344.348	88.56
344.576	83.56
344.804	108.56
345.031	100.56
345.259	98.56
345.487	100.56
345.714	90.56
345.942	84.56
346.17	83.56
346.397	94.56
346.625	100.56
346.853	91.56
347.08	96.56
347.308	92.56
347.535	102.56
347.763	101.56
347.99	105.56
348.218	105.56
348.445	98.56
348.673	98.56
348.9	73.56
349.128	87.56
349.355	94.56
349.583	93.56
349.81	76.56
350.037	86.56
350.265	78.56
350.492	96.56
350.72	103.56
350.947	109.56
351.174	108.56
351.402	97.56
351.629	101.56
351.856	109.56
352.083	106.56
352.311	111.56
352.538	100.56
352.765	101.56
352.992	111.56
353.22	100.56
353.447	99.56
353.674	108.56
353.901	84.56
354.128	101.56
354.355	92.56
354.583	88.56
354.81	98.56
355.037	87.56
355.264	95.56
355.491	84.56
355.718	94.56
355.945	95.56
356.172	94.56
356.399	83.56
356.626	102.56
356.853	92.56
357.08	103.56
357.307	96.56
357.534	92.56
357.761	98.56
357.988	102.56
358.215	92.56
358.441	93.56
358.668	88.56
358.895	89.56
359.122	89.56
359.349	87.56
359.576	79.56
359.802	99.56
360.029	114.56
360.256	101.56
360.483	85.56
360.709	99.56
360.936	96.56
361.163	89.56
361.39	95.56
361.616	103.56
361.843	87.56
362.07	93.56
362.296	93.56
362.523	93.56
362.749	109.56
362.976	88.56
363.203	88.56
363.429	108.56
363.656	96.56
363.882	72.56
364.109	86.56
364.335	92.56
364.562	87.56
364.788	93.56
365.015	83.56
365.241	105.56
365.468	104.56
365.694	104.56
365.92	107.56
366.147	87.56
366.373	76.56
366.599	92.56
366.826	100.56
367.052	86.56
367.278	76.56
367.505	84.56
367.731	81.56
367.957	80.56
368.184	98.56
368.41	89.56
368.636	114.56
368.862	136.56
369.089	114.56
369.315	91.56
369.541	96.56
369.767	95.56
369.993	91.56
370.219	91.56
370.445	89.56
370.672	95.56
370.898	77.56
371.124	81.56
371.35	87.56
371.576	85.56
371.802	92.56
372.028	83.56
372.254	70.56
372.48	73.56
372.706	77.56
372.932	91.56
373.158	92.56
373.384	83.56
373.61	87.56
373.835	81.56
374.061	87.56
374.287	92.56
374.513	84.56
374.739	92.56
374.965	83.56
375.191	93.56
375.416	81.56
375.642	94.56
375.868	82.56
376.094	97.56
376.319	76.56
376.545	73.56
376.771	78.56
376.997	74.56
377.222	93.56
377.448	94.56
377.674	94.56
377.899	92.56
378.125	97.56
378.35	79.56
378.576	74.56
378.802	85.56
379.027	93.56
379.253	95.56
379.478	94.56
379.704	101.56
379.929	90.56
380.155	93.56
380.38	88.56
380.606	90.56
380.831	90.56
381.057	84.56
381.282	90.56
381.507	92.56
381.733	95.56
381.958	97.56
382.184	95.56
382.409	96.56
382.634	98.56
382.86	102.56
383.085	99.56
383.31	86.56
383.535	102.56
383.761	89.56
383.986	110.56
384.211	93.56
384.436	89.56
384.662	82.56
384.887	105.56
385.112	94.56
385.337	117.56
385.562	113.56
385.787	96.56
386.013	105.56
386.238	113.56
386.463	116.56
386.688	108.56
386.913	102.56
387.138	93.56
387.363	78.56
387.588	93.56
387.813	103.56
388.038	102.56
388.263	108.56
388.488	104.56
388.713	87.56
388.938	99.56
389.163	106.56
389.387	89.56
389.612	80.56
389.837	101.56
390.062	97.56
390.287	83.56
390.512	89.56
390.736	90.56
390.961	79.56
391.186	96.56
391.411	89.56
391.636	97.56
391.86	105.56
392.085	81.56
392.31	92.56
392.534	87.56
392.759	76.56
392.984	77.56
393.208	92.56
393.433	95.56
393.658	74.56
393.882	68.56
394.107	81.56
394.331	90.56
394.556	89.56
394.78	99.56
395.005	98.56
395.229	89.56
395.454	85.56
395.678	74.56
395.903	75.56
396.127	95.56
396.352	79.56
396.576	94.56
396.801	86.56
397.025	84.56
397.249	67.56
397.474	79.56
397.698	96.56
397.922	86.56
398.147	102.56
398.371	80.56
398.595	86.56
398.82	82.56
399.044	98.56
399.268	88.56
399.492	86.56
399.717	98.56
399.941	82.56
400.165	85.56
400.389	94.56
400.613	81.56
400.837	77.56
401.062	87.56
401.286	75.56
401.51	82.56
401.734	87.56
401.958	94.56
402.182	147.56
402.406	174.56
402.63	126.56
402.854	87.56
403.078	95.56
403.302	85.56
403.526	86.56
403.75	88.56
403.974	84.56
404.198	89.56
404.422	96.56
404.645	82.56
404.869	91.56
405.093	104.56
405.317	96.56
405.541	97.56
405.765	101.56
405.988	127.56
406.212	206.56
406.436	270.56
406.66	167.56
406.883	106.56
407.107	103.56
407.331	90.56
407.555	96.56
407.778	92.56
408.002	103.56
408.226	84.56
408.449	88.56
408.673	89.56
408.896	90.56
409.12	92.56
409.344	86.56
409.567	93.56
409.791	87.56
410.014	83.56
410.238	77.56
410.461	81.56
410.685	96.56
410.908	97.56
411.132	88.56
411.355	98.56
411.578	106.56
411.802	76.56
412.025	81.56
412.249	67.56
412.472	85.56
412.695	84.56
412.919	90.56
413.142	79.56
413.365	89.56
413.589	87.56
413.812	78.56
414.035	76.56
414.258	79.56
414.482	77.56
414.705	76.56
414.928	76.56
415.151	72.56
415.374	70.56
415.597	88.56
415.821	75.56
416.044	72.56
416.267	89.56
416.49	98.56
416.713	94.56
416.936	86.56
417.159	91.56
417.382	94.56
417.605	83.56
417.828	85.56
418.051	93.56
418.274	73.56
418.497	90.56
418.72	87.56
418.943	96.56
419.166	90.56
419.389	91.56
419.611	87.56
419.834	86.56
420.057	92.56
420.28	91.56
420.503	71.56
420.726	82.56
420.948	86.56
421.171	94.56
421.394	94.56
421.617	78.56
421.839	78.56
422.062	83.56
422.285	79.56
422.507	101.56
422.73	83.56
422.953	90.56
423.175	99.56
423.398	86.56
423.621	87.56
423.843	80.56
424.066	79.56
424.288	83.56
424.511	90.56
424.733	93.56
424.956	116.56
425.178	98.56
425.401	106.56
425.623	105.56
425.846	96.56
426.068	89.56
426.291	93.56
426.513	109.56
426.735	96.56
426.958	83.56
427.18	101.56
427.402	131.56
427.625	178.56
427.847	134.56
428.069	114.56
428.292	81.56
428.514	86.56
428.736	78.56
428.958	89.56
429.181	96.56
429.403	76.56
429.625	80.56
429.847	82.56
430.069	94.56
430.292	86.56
430.514	97.56
430.736	94.56
430.958	83.56
431.18	77.56
431.402	75.56
431.624	106.56
431.846	93.56
432.068	78.56
432.29	70.56
432.512	82.56
432.734	79.56
432.956	84.56
433.178	104.56
433.4	94.56
433.622	87.56
433.844	93.56
434.066	96.56
434.287	86.56
434.509	88.56
434.731	86.56
434.953	92.56
435.175	86.56
435.397	88.56
435.618	94.56
435.84	109.56
436.062	118.56
436.284	112.56
436.505	94.56
436.727	94.56
436.949	74.56
437.17	88.56
437.392	78.56
437.614	107.56
437.835	106.56
438.057	125.56
438.278	95.56
438.5	104.56
438.721	124.56
438.943	82.56
439.165	91.56
439.386	83.56
439.608	95.56
439.829	100.56
440.05	131.56
440.272	137.56
440.493	89.56
440.715	88.56
440.936	80.56
441.158	93.56
441.379	82.56
441.6	86.56
441.822	97.56
442.043	80.56
442.264	100.56
442.486	95.56
442.707	89.56
442.928	108.56
443.149	153.56
443.371	132.56
443.592	97.56
443.813	104.56
444.034	108.56
444.255	78.56
444.476	80.56
444.698	76.56
444.919	87.56
445.14	105.56
445.361	122.56
445.582	119.56
445.803	144.56
446.024	122.56
446.245	134.56
446.466	124.56
446.687	94.56
446.908	76.56
447.129	83.56
447.35	91.56
447.571	96.56
447.792	79.56
448.013	99.56
448.234	114.56
448.455	100.56
448.675	111.56
448.896	116.56
449.117	100.56
449.338	104.56
449.559	110.56
449.779	122.56
450	96.56
450.221	85.56
450.442	76.56
450.662	93.56
450.883	109.56
451.104	96.56
451.324	89.56
451.545	92.56
451.766	77.56
451.986	87.56
452.207	86.56
452.428	99.56
452.648	95.56
452.869	120.56
453.089	128.56
453.31	136.56
453.53	93.56
453.751	91.56
453.971	100.56
454.192	115.56
454.412	98.56
454.633	81.56
454.853	90.56
455.073	79.56
455.294	91.56
455.514	96.56
455.734	75.56
455.955	80.56
456.175	83.56
456.395	81.56
456.616	80.56
456.836	71.56
457.056	83.56
457.276	72.56
457.497	82.56
457.717	79.56
457.937	79.56
458.157	92.56
458.377	102.56
458.598	126.56
458.818	162.56
459.038	187.56
459.258	132.56
459.478	89.56
459.698	83.56
459.918	89.56
460.138	74.56
460.358	88.56
460.578	85.56
460.798	95.56
461.018	94.56
461.238	92.56
461.458	66.56
461.678	83.56
461.898	72.56
462.118	98.56
462.338	73.56
462.558	84.56
462.777	79.56
462.997	85.56
463.217	79.56
463.437	80.56
463.657	80.56
463.876	95.56
464.096	78.56
464.316	97.56
464.536	89.56
464.755	84.56
464.975	105.56
465.195	202.56
465.414	181.56
465.634	87.56
465.854	89.56
466.073	84.56
466.293	83.56
466.512	87.56
466.732	93.56
466.951	104.56
467.171	92.56
467.391	100.56
467.61	114.56
467.829	95.56
468.049	89.56
468.268	101.56
468.488	91.56
468.707	90.56
468.927	87.56
469.146	89.56
469.365	74.56
469.585	80.56
469.804	85.56
470.023	92.56
470.243	80.56
470.462	92.56
470.681	109.56
470.901	76.56
471.12	91.56
471.339	84.56
471.558	84.56
471.777	82.56
471.997	105.56
472.216	119.56
472.435	167.56
472.654	101.56
472.873	97.56
473.092	83.56
473.311	93.56
473.53	78.56
473.749	70.56
473.968	83.56
474.187	102.56
474.406	100.56
474.625	88.56
474.844	79.56
475.063	84.56
475.282	92.56
475.501	92.56
475.72	81.56
475.939	81.56
476.158	87.56
476.377	91.56
476.596	93.56
476.814	93.56
477.033	97.56
477.252	92.56
477.471	78.56
477.69	87.56
477.908	93.56
478.127	84.56
478.346	79.56
478.564	95.56
478.783	94.56
479.002	85.56
479.22	84.56
479.439	96.56
479.658	105.56
479.876	105.56
480.095	83.56
480.313	87.56
480.532	85.56
480.751	98.56
480.969	128.56
481.188	238.56
481.406	163.56
481.624	99.56
481.843	81.56
482.061	71.56
482.28	88.56
482.498	87.56
482.717	84.56
482.935	89.56
483.153	88.56
483.372	87.56
483.59	87.56
483.808	87.56
484.027	93.56
484.245	85.56
484.463	83.56
484.681	102.56
484.9	88.56
485.118	98.56
485.336	88.56
485.554	86.56
485.772	105.56
485.99	95.56
486.209	82.56
486.427	108.56
486.645	124.56
486.863	113.56
487.081	105.56
487.299	88.56
487.517	97.56
487.735	94.56
487.953	86.56
488.171	105.56
488.389	98.56
488.607	94.56
488.825	91.56
489.043	77.56
489.261	87.56
489.479	84.56
489.696	91.56
489.914	102.56
490.132	90.56
490.35	88.56
490.568	79.56
490.786	80.56
491.003	74.56
491.221	103.56
491.439	85.56
491.657	91.56
491.874	81.56
492.092	82.56
492.31	86.56
492.527	84.56
492.745	99.56
492.963	81.56
493.18	96.56
493.398	91.56
493.615	94.56
493.833	83.56
494.05	95.56
494.268	103.56
494.485	87.56
494.703	86.56
494.92	90.56
495.138	64.56
495.355	86.56
495.573	81.56
495.79	99.56
496.008	91.56
496.225	82.56
496.442	78.56
496.66	90.56
496.877	85.56
497.094	87.56
497.312	88.56
497.529	94.56
497.746	86.56
497.963	69.56
498.181	80.56
498.398	91.56
498.615	118.56
498.832	112.56
499.049	94.56
499.267	81.56
499.484	96.56
499.701	84.56
499.918	91.56
500.135	93.56
500.352	97.56
500.569	82.56
500.786	86.56
501.003	84.56
501.22	93.56
501.437	102.56
501.654	95.56
501.871	109.56
502.088	98.56
502.305	85.56
502.522	87.56
502.739	90.56
502.956	90.56
503.172	92.56
503.389	79.56
503.606	113.56
503.823	108.56
504.04	86.56
504.256	91.56
504.473	83.56
504.69	88.56
504.907	82.56
505.123	80.56
505.34	76.56
505.557	79.56
505.773	79.56
505.99	88.56
506.207	93.56
506.423	94.56
506.64	87.56
506.856	75.56
507.073	99.56
507.289	82.56
507.506	86.56
507.722	114.56
507.939	113.56
508.155	107.56
508.372	90.56
508.588	85.56
508.805	96.56
509.021	86.56
509.238	104.56
509.454	102.56
509.67	103.56
509.887	109.56
510.103	146.56
510.319	242.56
510.536	933.56
510.752	3184.56
510.968	882.56
511.184	172.56
511.401	114.56
511.617	90.56
511.833	96.56
512.049	84.56
512.265	92.56
512.481	86.56
512.698	79.56
512.914	91.56
513.13	90.56
513.346	86.56
513.562	86.56
513.778	93.56
513.994	104.56
514.21	110.56
514.426	120.56
514.642	156.56
514.858	131.56
515.074	187.56
515.29	592.56
515.506	2130.56
515.721	769.56
515.937	196.56
516.153	117.56
