Data from Circ_2022_H10_HRD10591_00074.txt Node
Date: Wed Jan 03 09:53:52 EST 2024
User: Yrep
Spectrometer: HR+D1059
Trigger mode: 1
Integration Time (sec): 1.000000E-1
Scans to average: 1
Electric dark correction enabled: true
Nonlinearity correction enabled: false
Boxcar width: 0
XAxis mode: Wavelengths
Number of Pixels in Spectrum: 2048
>>>>>Begin Spectral Data<<<<<
223.165	-22.75
223.4	-22.75
223.635	-22.75
223.869	-17.75
224.104	-17.75
224.338	-26.75
224.573	-9.75
224.808	-13.75
225.042	-10.75
225.277	4.25
225.511	5.25
225.746	-1.75
225.98	9.25
226.215	18.25
226.449	9.25
226.683	16.25
226.918	20.25
227.152	38.25
227.387	32.25
227.621	45.25
227.856	40.25
228.09	58.25
228.324	63.25
228.559	58.25
228.793	59.25
229.027	61.25
229.262	83.25
229.496	82.25
229.73	91.25
229.964	104.25
230.199	86.25
230.433	70.25
230.667	83.25
230.901	88.25
231.136	79.25
231.37	78.25
231.604	84.25
231.838	89.25
232.072	81.25
232.306	75.25
232.541	89.25
232.775	79.25
233.009	93.25
233.243	67.25
233.477	76.25
233.711	89.25
233.945	90.25
234.179	86.25
234.413	75.25
234.647	91.25
234.881	79.25
235.115	72.25
235.349	75.25
235.583	90.25
235.817	92.25
236.051	81.25
236.285	58.25
236.519	71.25
236.753	78.25
236.987	80.25
237.221	92.25
237.455	94.25
237.689	87.25
237.922	75.25
238.156	79.25
238.39	91.25
238.624	74.25
238.858	86.25
239.091	78.25
239.325	82.25
239.559	87.25
239.793	84.25
240.027	81.25
240.26	78.25
240.494	97.25
240.728	88.25
240.961	93.25
241.195	69.25
241.429	79.25
241.662	67.25
241.896	79.25
242.13	72.25
242.363	90.25
242.597	86.25
242.83	81.25
243.064	81.25
243.298	88.25
243.531	96.25
243.765	64.25
243.998	79.25
244.232	88.25
244.465	83.25
244.699	89.25
244.932	67.25
245.166	68.25
245.399	94.25
245.633	88.25
245.866	90.25
246.099	83.25
246.333	82.25
246.566	74.25
246.8	73.25
247.033	83.25
247.266	77.25
247.5	69.25
247.733	97.25
247.966	67.25
248.2	72.25
248.433	88.25
248.666	94.25
248.899	93.25
249.133	97.25
249.366	94.25
249.599	92.25
249.832	92.25
250.066	85.25
250.299	78.25
250.532	86.25
250.765	64.25
250.998	71.25
251.231	82.25
251.465	81.25
251.698	75.25
251.931	80.25
252.164	67.25
252.397	90.25
252.63	88.25
252.863	73.25
253.096	91.25
253.329	78.25
253.562	85.25
253.795	82.25
254.028	87.25
254.261	84.25
254.494	81.25
254.727	87.25
254.96	71.25
255.193	91.25
255.426	78.25
255.659	83.25
255.892	77.25
256.124	86.25
256.357	85.25
256.59	74.25
256.823	86.25
257.056	77.25
257.289	97.25
257.521	82.25
257.754	74.25
257.987	89.25
258.22	85.25
258.452	104.25
258.685	95.25
258.918	84.25
259.151	95.25
259.383	86.25
259.616	86.25
259.849	91.25
260.081	82.25
260.314	66.25
260.547	85.25
260.779	87.25
261.012	93.25
261.244	91.25
261.477	87.25
261.71	101.25
261.942	120.25
262.175	139.25
262.407	90.25
262.64	91.25
262.872	82.25
263.105	74.25
263.337	73.25
263.57	99.25
263.802	93.25
264.035	75.25
264.267	81.25
264.499	83.25
264.732	99.25
264.964	96.25
265.197	88.25
265.429	81.25
265.661	90.25
265.894	85.25
266.126	82.25
266.358	83.25
266.591	81.25
266.823	88.25
267.055	89.25
267.287	81.25
267.52	97.25
267.752	78.25
267.984	98.25
268.216	83.25
268.448	80.25
268.681	86.25
268.913	90.25
269.145	92.25
269.377	95.25
269.609	84.25
269.841	75.25
270.073	84.25
270.306	80.25
270.538	97.25
270.77	79.25
271.002	89.25
271.234	92.25
271.466	97.25
271.698	99.25
271.93	88.25
272.162	92.25
272.394	81.25
272.626	97.25
272.858	92.25
273.09	80.25
273.322	68.25
273.553	84.25
273.785	86.25
274.017	97.25
274.249	94.25
274.481	82.25
274.713	82.25
274.945	102.25
275.176	88.25
275.408	86.25
275.64	91.25
275.872	79.25
276.104	94.25
276.335	103.25
276.567	108.25
276.799	111.25
277.031	105.25
277.262	99.25
277.494	90.25
277.726	91.25
277.957	84.25
278.189	89.25
278.421	97.25
278.652	80.25
278.884	92.25
279.115	92.25
279.347	92.25
279.579	82.25
279.81	95.25
280.042	87.25
280.273	95.25
280.505	109.25
280.736	91.25
280.968	79.25
281.199	86.25
281.431	90.25
281.662	93.25
281.894	106.25
282.125	95.25
282.356	123.25
282.588	168.25
282.819	126.25
283.051	89.25
283.282	87.25
283.513	99.25
283.745	107.25
283.976	92.25
284.207	91.25
284.439	87.25
284.67	95.25
284.901	82.25
285.132	89.25
285.364	91.25
285.595	94.25
285.826	85.25
286.057	77.25
286.288	82.25
286.52	82.25
286.751	86.25
286.982	89.25
287.213	91.25
287.444	100.25
287.675	87.25
287.906	76.25
288.138	88.25
288.369	88.25
288.6	109.25
288.831	104.25
289.062	90.25
289.293	94.25
289.524	87.25
289.755	91.25
289.986	91.25
290.217	87.25
290.448	89.25
290.679	81.25
290.91	91.25
291.141	88.25
291.371	97.25
291.602	90.25
291.833	94.25
292.064	82.25
292.295	92.25
292.526	92.25
292.757	106.25
292.987	88.25
293.218	72.25
293.449	82.25
293.68	92.25
293.91	89.25
294.141	97.25
294.372	92.25
294.603	101.25
294.833	93.25
295.064	96.25
295.295	98.25
295.525	92.25
295.756	106.25
295.987	120.25
296.217	143.25
296.448	143.25
296.679	118.25
296.909	94.25
297.14	89.25
297.37	89.25
297.601	83.25
297.831	91.25
298.062	96.25
298.292	90.25
298.523	100.25
298.753	92.25
298.984	93.25
299.214	89.25
299.445	102.25
299.675	96.25
299.905	113.25
300.136	83.25
300.366	73.25
300.597	98.25
300.827	97.25
301.057	103.25
301.288	100.25
301.518	103.25
301.748	67.25
301.979	89.25
302.209	89.25
302.439	90.25
302.669	97.25
302.9	79.25
303.13	93.25
303.36	114.25
303.59	102.25
303.82	115.25
304.051	113.25
304.281	95.25
304.511	94.25
304.741	87.25
304.971	90.25
305.201	104.25
305.431	77.25
305.661	80.25
305.891	95.25
306.121	94.25
306.352	113.25
306.582	117.25
306.812	94.25
307.042	106.25
307.272	103.25
307.502	93.25
307.731	103.25
307.961	93.25
308.191	106.25
308.421	91.25
308.651	100.25
308.881	101.25
309.111	94.25
309.341	85.25
309.571	111.25
309.8	98.25
310.03	91.25
310.26	95.25
310.49	108.25
310.72	99.25
310.949	91.25
311.179	106.25
311.409	97.25
311.639	92.25
311.868	96.25
312.098	101.25
312.328	93.25
312.557	125.25
312.787	119.25
313.017	94.25
313.246	92.25
313.476	94.25
313.706	91.25
313.935	103.25
314.165	105.25
314.394	103.25
314.624	107.25
314.853	108.25
315.083	98.25
315.312	90.25
315.542	87.25
315.771	101.25
316.001	100.25
316.23	92.25
316.46	94.25
316.689	95.25
316.919	104.25
317.148	97.25
317.377	84.25
317.607	99.25
317.836	97.25
318.065	82.25
318.295	82.25
318.524	99.25
318.753	111.25
318.983	99.25
319.212	121.25
319.441	110.25
319.67	113.25
319.9	95.25
320.129	79.25
320.358	102.25
320.587	108.25
320.816	110.25
321.046	102.25
321.275	92.25
321.504	90.25
321.733	109.25
321.962	105.25
322.191	92.25
322.42	112.25
322.649	128.25
322.878	111.25
323.108	131.25
323.337	131.25
323.566	157.25
323.795	171.25
324.024	220.25
324.253	423.25
324.482	905.25
324.71	1911.25
324.939	2520.25
325.168	919.25
325.397	284.25
325.626	177.25
325.855	124.25
326.084	123.25
326.313	151.25
326.542	157.25
326.77	247.25
326.999	498.25
327.228	1012.25
327.457	1855.25
327.686	1479.25
327.914	424.25
328.143	244.25
328.372	222.25
328.6	163.25
328.829	140.25
329.058	142.25
329.287	153.25
329.515	138.25
329.744	129.25
329.972	153.25
330.201	203.25
330.43	295.25
330.658	186.25
330.887	153.25
331.115	138.25
331.344	116.25
331.572	135.25
331.801	106.25
332.03	95.25
332.258	125.25
332.486	95.25
332.715	101.25
332.943	101.25
333.172	99.25
333.4	99.25
333.629	122.25
333.857	132.25
334.085	167.25
334.314	212.25
334.542	321.25
334.771	318.25
334.999	145.25
335.227	110.25
335.455	103.25
335.684	82.25
335.912	102.25
336.14	96.25
336.369	106.25
336.597	95.25
336.825	103.25
337.053	107.25
337.281	98.25
337.51	93.25
337.738	112.25
337.966	84.25
338.194	101.25
338.422	97.25
338.65	107.25
338.878	96.25
339.106	103.25
339.334	103.25
339.562	76.25
339.79	113.25
340.018	104.25
340.246	112.25
340.474	99.25
340.702	101.25
340.93	103.25
341.158	89.25
341.386	106.25
341.614	94.25
341.842	106.25
342.07	101.25
342.298	86.25
342.526	92.25
342.754	97.25
342.981	101.25
343.209	95.25
343.437	102.25
343.665	87.25
343.893	100.25
344.12	91.25
344.348	89.25
344.576	97.25
344.804	100.25
345.031	104.25
345.259	114.25
345.487	101.25
345.714	99.25
345.942	100.25
346.17	91.25
346.397	113.25
346.625	94.25
346.853	100.25
347.08	91.25
347.308	93.25
347.535	102.25
347.763	109.25
347.99	103.25
348.218	100.25
348.445	114.25
348.673	110.25
348.9	110.25
349.128	91.25
349.355	102.25
349.583	94.25
349.81	101.25
350.037	117.25
350.265	100.25
350.492	101.25
350.72	99.25
350.947	114.25
351.174	93.25
351.402	129.25
351.629	114.25
351.856	113.25
352.083	115.25
352.311	133.25
352.538	124.25
352.765	115.25
352.992	118.25
353.22	116.25
353.447	102.25
353.674	115.25
353.901	103.25
354.128	95.25
354.355	89.25
354.583	108.25
354.81	104.25
355.037	94.25
355.264	99.25
355.491	89.25
355.718	93.25
355.945	97.25
356.172	108.25
356.399	102.25
356.626	74.25
356.853	99.25
357.08	103.25
357.307	94.25
357.534	91.25
357.761	104.25
357.988	94.25
358.215	103.25
358.441	93.25
358.668	104.25
358.895	93.25
359.122	88.25
359.349	92.25
359.576	97.25
359.802	118.25
360.029	139.25
360.256	129.25
360.483	106.25
360.709	82.25
360.936	93.25
361.163	91.25
361.39	94.25
361.616	102.25
361.843	93.25
362.07	87.25
362.296	104.25
362.523	97.25
362.749	78.25
362.976	89.25
363.203	107.25
363.429	106.25
363.656	90.25
363.882	93.25
364.109	98.25
364.335	80.25
364.562	105.25
364.788	98.25
365.015	102.25
365.241	100.25
365.468	110.25
365.694	121.25
365.92	90.25
366.147	108.25
366.373	95.25
366.599	82.25
366.826	85.25
367.052	97.25
367.278	91.25
367.505	92.25
367.731	86.25
367.957	94.25
368.184	97.25
368.41	111.25
368.636	117.25
368.862	128.25
369.089	102.25
369.315	103.25
369.541	90.25
369.767	91.25
369.993	93.25
370.219	107.25
370.445	87.25
370.672	88.25
370.898	93.25
371.124	96.25
371.35	95.25
371.576	89.25
371.802	85.25
372.028	85.25
372.254	78.25
372.48	76.25
372.706	97.25
372.932	75.25
373.158	101.25
373.384	101.25
373.61	88.25
373.835	94.25
374.061	105.25
374.287	98.25
374.513	100.25
374.739	84.25
374.965	88.25
375.191	87.25
375.416	86.25
375.642	88.25
375.868	94.25
376.094	97.25
376.319	99.25
376.545	92.25
376.771	85.25
376.997	87.25
377.222	94.25
377.448	90.25
377.674	86.25
377.899	93.25
378.125	75.25
378.35	92.25
378.576	86.25
378.802	96.25
379.027	104.25
379.253	89.25
379.478	85.25
379.704	97.25
379.929	98.25
380.155	101.25
380.38	112.25
380.606	83.25
380.831	112.25
381.057	110.25
381.282	90.25
381.507	101.25
381.733	101.25
381.958	101.25
382.184	106.25
382.409	98.25
382.634	99.25
382.86	106.25
383.085	95.25
383.31	100.25
383.535	114.25
383.761	103.25
383.986	103.25
384.211	93.25
384.436	91.25
384.662	99.25
384.887	113.25
385.112	120.25
385.337	103.25
385.562	92.25
385.787	96.25
386.013	132.25
386.238	121.25
386.463	101.25
386.688	108.25
386.913	100.25
387.138	88.25
387.363	102.25
387.588	111.25
387.813	107.25
388.038	121.25
388.263	117.25
388.488	118.25
388.713	92.25
388.938	113.25
389.163	99.25
389.387	90.25
389.612	96.25
389.837	102.25
390.062	98.25
390.287	87.25
390.512	90.25
390.736	91.25
390.961	86.25
391.186	89.25
391.411	96.25
391.636	93.25
391.86	89.25
392.085	96.25
392.31	89.25
392.534	93.25
392.759	91.25
392.984	74.25
393.208	89.25
393.433	94.25
393.658	94.25
393.882	90.25
394.107	93.25
394.331	81.25
394.556	90.25
394.78	101.25
395.005	101.25
395.229	99.25
395.454	77.25
395.678	87.25
395.903	88.25
396.127	105.25
396.352	91.25
396.576	83.25
396.801	84.25
397.025	102.25
397.249	99.25
397.474	87.25
397.698	80.25
397.922	103.25
398.147	92.25
398.371	91.25
398.595	99.25
398.82	87.25
399.044	98.25
399.268	106.25
399.492	87.25
399.717	94.25
399.941	88.25
400.165	108.25
400.389	92.25
400.613	109.25
400.837	88.25
401.062	78.25
401.286	77.25
401.51	104.25
401.734	93.25
401.958	91.25
402.182	139.25
402.406	163.25
402.63	130.25
402.854	93.25
403.078	95.25
403.302	93.25
403.526	82.25
403.75	91.25
403.974	86.25
404.198	94.25
404.422	90.25
404.645	92.25
404.869	113.25
405.093	107.25
405.317	123.25
405.541	123.25
405.765	108.25
405.988	125.25
406.212	203.25
406.436	267.25
406.66	163.25
406.883	113.25
407.107	107.25
407.331	103.25
407.555	108.25
407.778	113.25
408.002	106.25
408.226	92.25
408.449	94.25
408.673	98.25
408.896	106.25
409.12	110.25
409.344	83.25
409.567	91.25
409.791	87.25
410.014	99.25
410.238	99.25
410.461	103.25
410.685	100.25
410.908	89.25
411.132	100.25
411.355	94.25
411.578	111.25
411.802	99.25
412.025	101.25
412.249	83.25
412.472	94.25
412.695	102.25
412.919	93.25
413.142	100.25
413.365	93.25
413.589	98.25
413.812	75.25
414.035	96.25
414.258	97.25
414.482	102.25
414.705	84.25
414.928	91.25
415.151	104.25
415.374	107.25
415.597	116.25
415.821	109.25
416.044	97.25
416.267	87.25
416.49	98.25
416.713	103.25
416.936	92.25
417.159	87.25
417.382	103.25
417.605	101.25
417.828	111.25
418.051	91.25
418.274	88.25
418.497	90.25
418.72	100.25
418.943	106.25
419.166	87.25
419.389	104.25
419.611	95.25
419.834	80.25
420.057	95.25
420.28	105.25
420.503	97.25
420.726	94.25
420.948	106.25
421.171	92.25
421.394	98.25
421.617	98.25
421.839	99.25
422.062	97.25
422.285	97.25
422.507	107.25
422.73	109.25
422.953	103.25
423.175	104.25
423.398	86.25
423.621	87.25
423.843	100.25
424.066	100.25
424.288	85.25
424.511	86.25
424.733	87.25
424.956	124.25
425.178	104.25
425.401	103.25
425.623	131.25
425.846	88.25
426.068	93.25
426.291	94.25
426.513	111.25
426.735	100.25
426.958	113.25
427.18	111.25
427.402	160.25
427.625	193.25
427.847	162.25
428.069	134.25
428.292	110.25
428.514	93.25
428.736	100.25
428.958	98.25
429.181	102.25
429.403	94.25
429.625	87.25
429.847	99.25
430.069	103.25
430.292	99.25
430.514	79.25
430.736	85.25
430.958	92.25
431.18	83.25
431.402	81.25
431.624	91.25
431.846	86.25
432.068	89.25
432.29	95.25
432.512	90.25
432.734	95.25
432.956	94.25
433.178	100.25
433.4	105.25
433.622	94.25
433.844	95.25
434.066	88.25
434.287	77.25
434.509	90.25
434.731	98.25
434.953	101.25
435.175	87.25
435.397	91.25
435.618	108.25
435.84	109.25
436.062	140.25
436.284	125.25
436.505	117.25
436.727	105.25
436.949	79.25
437.17	71.25
437.392	91.25
437.614	92.25
437.835	123.25
438.057	133.25
438.278	127.25
438.5	121.25
438.721	148.25
438.943	108.25
439.165	91.25
439.386	99.25
439.608	116.25
439.829	118.25
440.05	147.25
440.272	181.25
440.493	108.25
440.715	100.25
440.936	78.25
441.158	97.25
441.379	97.25
441.6	86.25
441.822	109.25
442.043	111.25
442.264	109.25
442.486	112.25
442.707	90.25
442.928	123.25
443.149	162.25
443.371	148.25
443.592	122.25
443.813	119.25
444.034	133.25
444.255	102.25
444.476	85.25
444.698	98.25
444.919	93.25
445.14	145.25
445.361	140.25
445.582	143.25
445.803	153.25
446.024	159.25
446.245	152.25
446.466	115.25
446.687	100.25
446.908	84.25
447.129	102.25
447.35	97.25
447.571	96.25
447.792	94.25
448.013	115.25
448.234	123.25
448.455	121.25
448.675	135.25
448.896	143.25
449.117	101.25
449.338	115.25
449.559	151.25
449.779	152.25
450	97.25
450.221	101.25
450.442	94.25
450.662	114.25
450.883	116.25
451.104	132.25
451.324	102.25
451.545	94.25
451.766	89.25
451.986	75.25
452.207	86.25
452.428	93.25
452.648	119.25
452.869	117.25
453.089	129.25
453.31	143.25
453.53	104.25
453.751	102.25
453.971	117.25
454.192	118.25
454.412	90.25
454.633	93.25
454.853	98.25
455.073	98.25
455.294	96.25
455.514	116.25
455.734	93.25
455.955	90.25
456.175	90.25
456.395	82.25
456.616	85.25
456.836	80.25
457.056	91.25
457.276	88.25
457.497	93.25
457.717	86.25
457.937	78.25
458.157	82.25
458.377	95.25
458.598	135.25
458.818	194.25
459.038	200.25
459.258	138.25
459.478	107.25
459.698	86.25
459.918	98.25
460.138	87.25
460.358	80.25
460.578	82.25
460.798	91.25
461.018	88.25
461.238	93.25
461.458	80.25
461.678	94.25
461.898	88.25
462.118	102.25
462.338	99.25
462.558	90.25
462.777	100.25
462.997	79.25
463.217	86.25
463.437	104.25
463.657	106.25
463.876	96.25
464.096	94.25
464.316	103.25
464.536	105.25
464.755	93.25
464.975	124.25
465.195	204.25
465.414	193.25
465.634	110.25
465.854	91.25
466.073	95.25
466.293	82.25
466.512	91.25
466.732	83.25
466.951	91.25
467.171	94.25
467.391	86.25
467.61	110.25
467.829	115.25
468.049	141.25
468.268	185.25
468.488	109.25
468.707	97.25
468.927	84.25
469.146	102.25
469.365	86.25
469.585	87.25
469.804	99.25
470.023	101.25
470.243	104.25
470.462	125.25
470.681	133.25
470.901	106.25
471.12	103.25
471.339	107.25
471.558	100.25
471.777	101.25
471.997	124.25
472.216	210.25
472.435	404.25
472.654	157.25
472.873	90.25
473.092	82.25
473.311	98.25
473.53	89.25
473.749	105.25
473.968	106.25
474.187	111.25
474.406	99.25
474.625	91.25
474.844	80.25
475.063	86.25
475.282	91.25
475.501	89.25
475.72	94.25
475.939	90.25
476.158	89.25
476.377	100.25
476.596	101.25
476.814	91.25
477.033	89.25
477.252	93.25
477.471	74.25
477.69	83.25
477.908	95.25
478.127	101.25
478.346	100.25
478.564	102.25
478.783	100.25
479.002	79.25
479.22	90.25
479.439	102.25
479.658	109.25
479.876	110.25
480.095	100.25
480.313	99.25
480.532	98.25
480.751	123.25
480.969	224.25
481.188	643.25
481.406	459.25
481.624	137.25
481.843	97.25
482.061	89.25
482.28	85.25
482.498	98.25
482.717	92.25
482.935	81.25
483.153	98.25
483.372	91.25
483.59	96.25
483.808	79.25
484.027	95.25
484.245	90.25
484.463	87.25
484.681	94.25
484.9	95.25
485.118	94.25
485.336	102.25
485.554	80.25
485.772	91.25
485.99	104.25
486.209	106.25
486.427	115.25
486.645	129.25
486.863	127.25
487.081	95.25
487.299	105.25
487.517	98.25
487.735	101.25
487.953	101.25
488.171	87.25
488.389	112.25
488.607	102.25
488.825	86.25
489.043	97.25
489.261	107.25
489.479	88.25
489.696	88.25
489.914	93.25
490.132	94.25
490.35	94.25
490.568	108.25
490.786	89.25
491.003	85.25
491.221	98.25
491.439	94.25
491.657	108.25
491.874	110.25
492.092	88.25
492.31	90.25
492.527	98.25
492.745	88.25
492.963	85.25
493.18	99.25
493.398	97.25
493.615	98.25
493.833	100.25
494.05	87.25
494.268	89.25
494.485	100.25
494.703	113.25
494.92	99.25
495.138	100.25
495.355	92.25
495.573	96.25
495.79	93.25
496.008	86.25
496.225	87.25
496.442	80.25
496.66	100.25
496.877	86.25
497.094	95.25
497.312	91.25
497.529	98.25
497.746	98.25
497.963	89.25
498.181	90.25
498.398	98.25
498.615	116.25
498.832	108.25
499.049	85.25
499.267	99.25
499.484	77.25
499.701	92.25
499.918	97.25
500.135	87.25
500.352	98.25
500.569	91.25
500.786	93.25
501.003	96.25
501.22	83.25
501.437	103.25
501.654	102.25
501.871	127.25
502.088	94.25
502.305	108.25
502.522	94.25
502.739	91.25
502.956	88.25
503.172	109.25
503.389	106.25
503.606	113.25
503.823	110.25
504.04	93.25
504.256	86.25
504.473	92.25
504.69	79.25
504.907	92.25
505.123	89.25
505.34	102.25
505.557	115.25
505.773	106.25
505.99	85.25
506.207	84.25
506.423	91.25
506.64	95.25
506.856	79.25
507.073	86.25
507.289	97.25
507.506	131.25
507.722	141.25
507.939	135.25
508.155	100.25
508.372	104.25
508.588	108.25
508.805	90.25
509.021	105.25
509.238	95.25
509.454	106.25
509.67	92.25
509.887	112.25
510.103	142.25
510.319	222.25
510.536	803.25
510.752	2825.25
510.968	805.25
511.184	171.25
511.401	120.25
511.617	115.25
511.833	89.25
512.049	99.25
512.265	81.25
512.481	92.25
512.698	100.25
512.914	98.25
513.13	105.25
513.346	97.25
