Data from Circ_2022_H10_HRD10591_00027.txt Node
Date: Wed Jan 03 09:53:43 EST 2024
User: Yrep
Spectrometer: HR+D1059
Trigger mode: 1
Integration Time (sec): 1.000000E-1
Scans to average: 1
Electric dark correction enabled: true
Nonlinearity correction enabled: false
Boxcar width: 0
XAxis mode: Wavelengths
Number of Pixels in Spectrum: 2048
>>>>>Begin Spectral Data<<<<<
223.165	-4.19
223.4	-4.19
223.635	-4.19
223.869	-16.19
224.104	-25.19
224.338	-27.19
224.573	-23.19
224.808	-24.19
225.042	-2.19
225.277	-10.19
225.511	7.81
225.746	-1.19
225.98	22.81
226.215	0.81
226.449	13.81
226.683	36.81
226.918	31.81
227.152	19.81
227.387	43.81
227.621	42.81
227.856	40.81
228.09	41.81
228.324	41.81
228.559	55.81
228.793	74.81
229.027	71.81
229.262	73.81
229.496	86.81
229.73	97.81
229.964	83.81
230.199	82.81
230.433	70.81
230.667	84.81
230.901	78.81
231.136	74.81
231.37	81.81
231.604	76.81
231.838	91.81
232.072	79.81
232.306	91.81
232.541	75.81
232.775	72.81
233.009	84.81
233.243	100.81
233.477	98.81
233.711	87.81
233.945	75.81
234.179	73.81
234.413	78.81
234.647	91.81
234.881	89.81
235.115	78.81
235.349	73.81
235.583	84.81
235.817	78.81
236.051	65.81
236.285	81.81
236.519	69.81
236.753	86.81
236.987	69.81
237.221	88.81
237.455	98.81
237.689	100.81
237.922	77.81
238.156	67.81
238.39	78.81
238.624	79.81
238.858	77.81
239.091	79.81
239.325	86.81
239.559	89.81
239.793	73.81
240.027	79.81
240.26	82.81
240.494	78.81
240.728	87.81
240.961	73.81
241.195	76.81
241.429	59.81
241.662	84.81
241.896	70.81
242.13	84.81
242.363	91.81
242.597	77.81
242.83	91.81
243.064	83.81
243.298	71.81
243.531	68.81
243.765	69.81
243.998	79.81
244.232	93.81
244.465	89.81
244.699	91.81
244.932	84.81
245.166	72.81
245.399	88.81
245.633	62.81
245.866	75.81
246.099	80.81
246.333	83.81
246.566	76.81
246.8	86.81
247.033	78.81
247.266	86.81
247.5	85.81
247.733	83.81
247.966	74.81
248.2	90.81
248.433	76.81
248.666	87.81
248.899	81.81
249.133	88.81
249.366	105.81
249.599	102.81
249.832	85.81
250.066	78.81
250.299	81.81
250.532	80.81
250.765	85.81
250.998	87.81
251.231	82.81
251.465	88.81
251.698	85.81
251.931	71.81
252.164	88.81
252.397	87.81
252.63	92.81
252.863	84.81
253.096	72.81
253.329	81.81
253.562	81.81
253.795	80.81
254.028	83.81
254.261	87.81
254.494	93.81
254.727	77.81
254.96	78.81
255.193	89.81
255.426	83.81
255.659	80.81
255.892	78.81
256.124	90.81
256.357	94.81
256.59	83.81
256.823	86.81
257.056	84.81
257.289	70.81
257.521	81.81
257.754	86.81
257.987	76.81
258.22	97.81
258.452	77.81
258.685	83.81
258.918	85.81
259.151	84.81
259.383	80.81
259.616	75.81
259.849	83.81
260.081	85.81
260.314	72.81
260.547	97.81
260.779	83.81
261.012	83.81
261.244	75.81
261.477	77.81
261.71	94.81
261.942	142.81
262.175	141.81
262.407	102.81
262.64	89.81
262.872	83.81
263.105	83.81
263.337	81.81
263.57	84.81
263.802	91.81
264.035	89.81
264.267	93.81
264.499	83.81
264.732	89.81
264.964	75.81
265.197	80.81
265.429	100.81
265.661	91.81
265.894	74.81
266.126	82.81
266.358	81.81
266.591	88.81
266.823	94.81
267.055	83.81
267.287	94.81
267.52	94.81
267.752	89.81
267.984	83.81
268.216	90.81
268.448	99.81
268.681	82.81
268.913	89.81
269.145	86.81
269.377	87.81
269.609	78.81
269.841	87.81
270.073	91.81
270.306	90.81
270.538	93.81
270.77	81.81
271.002	79.81
271.234	90.81
271.466	91.81
271.698	81.81
271.93	88.81
272.162	92.81
272.394	86.81
272.626	88.81
272.858	94.81
273.09	88.81
273.322	92.81
273.553	90.81
273.785	91.81
274.017	86.81
274.249	83.81
274.481	90.81
274.713	84.81
274.945	85.81
275.176	93.81
275.408	90.81
275.64	99.81
275.872	79.81
276.104	91.81
276.335	93.81
276.567	116.81
276.799	122.81
277.031	91.81
277.262	115.81
277.494	92.81
277.726	74.81
277.957	94.81
278.189	88.81
278.421	88.81
278.652	82.81
278.884	94.81
279.115	106.81
279.347	90.81
279.579	94.81
279.81	89.81
280.042	83.81
280.273	93.81
280.505	69.81
280.736	81.81
280.968	86.81
281.199	79.81
281.431	100.81
281.662	83.81
281.894	106.81
282.125	116.81
282.356	157.81
282.588	189.81
282.819	119.81
283.051	87.81
283.282	94.81
283.513	89.81
283.745	101.81
283.976	93.81
284.207	75.81
284.439	97.81
284.67	93.81
284.901	105.81
285.132	89.81
285.364	90.81
285.595	81.81
285.826	75.81
286.057	87.81
286.288	82.81
286.52	83.81
286.751	85.81
286.982	92.81
287.213	76.81
287.444	78.81
287.675	77.81
287.906	85.81
288.138	96.81
288.369	99.81
288.6	102.81
288.831	82.81
289.062	104.81
289.293	109.81
289.524	84.81
289.755	78.81
289.986	82.81
290.217	88.81
290.448	94.81
290.679	98.81
290.91	90.81
291.141	85.81
291.371	97.81
291.602	93.81
291.833	73.81
292.064	84.81
292.295	90.81
292.526	104.81
292.757	83.81
292.987	100.81
293.218	82.81
293.449	77.81
293.68	97.81
293.91	79.81
294.141	91.81
294.372	89.81
294.603	78.81
294.833	102.81
295.064	93.81
295.295	87.81
295.525	98.81
295.756	122.81
295.987	131.81
296.217	162.81
296.448	153.81
296.679	103.81
296.909	96.81
297.14	95.81
297.37	97.81
297.601	88.81
297.831	76.81
298.062	103.81
298.292	86.81
298.523	95.81
298.753	88.81
298.984	92.81
299.214	83.81
299.445	89.81
299.675	100.81
299.905	104.81
300.136	100.81
300.366	99.81
300.597	96.81
300.827	108.81
301.057	111.81
301.288	118.81
301.518	91.81
301.748	83.81
301.979	99.81
302.209	108.81
302.439	102.81
302.669	88.81
302.9	97.81
303.13	94.81
303.36	91.81
303.59	106.81
303.82	111.81
304.051	109.81
304.281	97.81
304.511	99.81
304.741	87.81
304.971	87.81
305.201	87.81
305.431	90.81
305.661	95.81
305.891	94.81
306.121	105.81
306.352	122.81
306.582	110.81
306.812	102.81
307.042	82.81
307.272	99.81
307.502	91.81
307.731	85.81
307.961	91.81
308.191	107.81
308.421	94.81
308.651	88.81
308.881	96.81
309.111	93.81
309.341	93.81
309.571	109.81
309.8	96.81
310.03	101.81
310.26	114.81
310.49	101.81
310.72	106.81
310.949	120.81
311.179	109.81
311.409	94.81
311.639	97.81
311.868	113.81
312.098	95.81
312.328	98.81
312.557	106.81
312.787	121.81
313.017	116.81
313.246	79.81
313.476	93.81
313.706	88.81
313.935	105.81
314.165	99.81
314.394	113.81
314.624	101.81
314.853	103.81
315.083	99.81
315.312	85.81
315.542	103.81
315.771	105.81
316.001	99.81
316.23	76.81
316.46	92.81
316.689	86.81
316.919	99.81
317.148	95.81
317.377	102.81
317.607	83.81
317.836	92.81
318.065	98.81
318.295	102.81
318.524	100.81
318.753	92.81
318.983	103.81
319.212	110.81
319.441	113.81
319.67	129.81
319.9	106.81
320.129	87.81
320.358	97.81
320.587	116.81
320.816	102.81
321.046	106.81
321.275	119.81
321.504	104.81
321.733	104.81
321.962	111.81
322.191	109.81
322.42	127.81
322.649	131.81
322.878	132.81
323.108	124.81
323.337	135.81
323.566	163.81
323.795	168.81
324.024	261.81
324.253	539.81
324.482	1185.81
324.71	2349.81
324.939	3177.81
325.168	1160.81
325.397	317.81
325.626	187.81
325.855	165.81
326.084	146.81
326.313	150.81
326.542	170.81
326.77	293.81
326.999	583.81
327.228	1188.81
327.457	2261.81
327.686	1828.81
327.914	507.81
328.143	254.81
328.372	183.81
328.6	142.81
328.829	139.81
329.058	166.81
329.287	152.81
329.515	131.81
329.744	115.81
329.972	101.81
330.201	118.81
330.43	137.81
330.658	156.81
330.887	173.81
331.115	154.81
331.344	112.81
331.572	101.81
331.801	116.81
332.03	124.81
332.258	106.81
332.486	90.81
332.715	94.81
332.943	110.81
333.172	99.81
333.4	102.81
333.629	127.81
333.857	134.81
334.085	123.81
334.314	107.81
334.542	125.81
334.771	125.81
334.999	108.81
335.227	94.81
335.455	109.81
335.684	101.81
335.912	94.81
336.14	93.81
336.369	99.81
336.597	119.81
336.825	90.81
337.053	81.81
337.281	85.81
337.51	103.81
337.738	99.81
337.966	108.81
338.194	99.81
338.422	105.81
338.65	110.81
338.878	88.81
339.106	85.81
339.334	91.81
339.562	93.81
339.79	83.81
340.018	105.81
340.246	110.81
340.474	105.81
340.702	109.81
340.93	100.81
341.158	90.81
341.386	105.81
341.614	106.81
341.842	94.81
342.07	111.81
342.298	90.81
342.526	86.81
342.754	88.81
342.981	72.81
343.209	89.81
343.437	108.81
343.665	87.81
343.893	83.81
344.12	106.81
344.348	86.81
344.576	88.81
344.804	102.81
345.031	116.81
345.259	95.81
345.487	108.81
345.714	102.81
345.942	107.81
346.17	96.81
346.397	105.81
346.625	86.81
346.853	107.81
347.08	104.81
347.308	113.81
347.535	108.81
347.763	107.81
347.99	109.81
348.218	113.81
348.445	109.81
348.673	111.81
348.9	99.81
349.128	94.81
349.355	99.81
349.583	86.81
349.81	91.81
350.037	97.81
350.265	99.81
350.492	92.81
350.72	98.81
350.947	114.81
351.174	101.81
351.402	123.81
351.629	106.81
351.856	112.81
352.083	110.81
352.311	129.81
352.538	125.81
352.765	115.81
352.992	126.81
353.22	119.81
353.447	107.81
353.674	100.81
353.901	113.81
354.128	104.81
354.355	85.81
354.583	116.81
354.81	97.81
355.037	93.81
355.264	88.81
355.491	102.81
355.718	99.81
355.945	91.81
356.172	101.81
356.399	97.81
356.626	90.81
356.853	75.81
357.08	89.81
357.307	101.81
357.534	86.81
357.761	78.81
357.988	99.81
358.215	102.81
358.441	99.81
358.668	100.81
358.895	90.81
359.122	89.81
359.349	92.81
359.576	103.81
359.802	116.81
360.029	158.81
360.256	131.81
360.483	111.81
360.709	90.81
360.936	109.81
361.163	95.81
361.39	113.81
361.616	102.81
361.843	105.81
362.07	91.81
362.296	98.81
362.523	99.81
362.749	98.81
362.976	98.81
363.203	92.81
363.429	83.81
363.656	91.81
363.882	90.81
364.109	75.81
364.335	93.81
364.562	103.81
364.788	97.81
365.015	100.81
365.241	108.81
365.468	140.81
365.694	122.81
365.92	106.81
366.147	103.81
366.373	89.81
366.599	91.81
366.826	92.81
367.052	87.81
367.278	99.81
367.505	87.81
367.731	99.81
367.957	95.81
368.184	106.81
368.41	115.81
368.636	123.81
368.862	134.81
369.089	116.81
369.315	95.81
369.541	95.81
369.767	95.81
369.993	93.81
370.219	99.81
370.445	96.81
370.672	94.81
370.898	78.81
371.124	96.81
371.35	80.81
371.576	87.81
371.802	80.81
372.028	89.81
372.254	93.81
372.48	95.81
372.706	92.81
372.932	104.81
373.158	78.81
373.384	99.81
373.61	98.81
373.835	99.81
374.061	96.81
374.287	108.81
374.513	90.81
374.739	96.81
374.965	99.81
375.191	100.81
375.416	86.81
375.642	84.81
375.868	82.81
376.094	83.81
376.319	74.81
376.545	81.81
376.771	92.81
376.997	86.81
377.222	98.81
377.448	94.81
377.674	81.81
377.899	94.81
378.125	84.81
378.35	92.81
378.576	97.81
378.802	102.81
379.027	108.81
379.253	96.81
379.478	101.81
379.704	89.81
379.929	92.81
380.155	105.81
380.38	85.81
380.606	102.81
380.831	106.81
381.057	80.81
381.282	91.81
381.507	81.81
381.733	102.81
381.958	109.81
382.184	96.81
382.409	106.81
382.634	121.81
382.86	94.81
383.085	123.81
383.31	102.81
383.535	97.81
383.761	90.81
383.986	91.81
384.211	101.81
384.436	93.81
384.662	107.81
384.887	111.81
385.112	93.81
385.337	98.81
385.562	113.81
385.787	106.81
386.013	127.81
386.238	131.81
386.463	126.81
386.688	129.81
386.913	96.81
387.138	102.81
387.363	113.81
387.588	91.81
387.813	93.81
388.038	114.81
388.263	121.81
388.488	114.81
388.713	94.81
388.938	101.81
389.163	100.81
389.387	104.81
389.612	114.81
389.837	100.81
390.062	92.81
390.287	90.81
390.512	85.81
390.736	80.81
390.961	119.81
391.186	100.81
391.411	109.81
391.636	103.81
391.86	95.81
392.085	100.81
392.31	98.81
392.534	95.81
392.759	77.81
392.984	97.81
393.208	93.81
393.433	102.81
393.658	99.81
393.882	77.81
394.107	84.81
394.331	82.81
394.556	94.81
394.78	90.81
395.005	104.81
395.229	95.81
395.454	89.81
395.678	77.81
395.903	77.81
396.127	84.81
396.352	100.81
396.576	90.81
396.801	74.81
397.025	87.81
397.249	87.81
397.474	94.81
397.698	93.81
397.922	96.81
398.147	88.81
398.371	89.81
398.595	83.81
398.82	82.81
399.044	88.81
399.268	92.81
399.492	93.81
399.717	74.81
399.941	95.81
400.165	102.81
400.389	98.81
400.613	86.81
400.837	89.81
401.062	97.81
401.286	94.81
401.51	95.81
401.734	99.81
401.958	122.81
402.182	159.81
402.406	217.81
402.63	161.81
402.854	100.81
403.078	94.81
403.302	104.81
403.526	91.81
403.75	113.81
403.974	90.81
404.198	99.81
404.422	87.81
404.645	94.81
404.869	92.81
405.093	100.81
405.317	116.81
405.541	109.81
405.765	102.81
405.988	146.81
406.212	226.81
406.436	348.81
406.66	215.81
406.883	116.81
407.107	99.81
407.331	110.81
407.555	99.81
407.778	105.81
408.002	96.81
408.226	85.81
408.449	98.81
408.673	91.81
408.896	116.81
409.12	111.81
409.344	94.81
409.567	102.81
409.791	91.81
410.014	96.81
410.238	80.81
410.461	100.81
410.685	93.81
410.908	90.81
411.132	110.81
411.355	116.81
411.578	85.81
411.802	70.81
412.025	89.81
412.249	101.81
412.472	103.81
412.695	106.81
412.919	89.81
413.142	94.81
413.365	84.81
413.589	89.81
413.812	82.81
414.035	86.81
414.258	90.81
414.482	93.81
414.705	91.81
414.928	84.81
415.151	99.81
415.374	87.81
415.597	103.81
415.821	89.81
416.044	71.81
416.267	89.81
416.49	96.81
416.713	91.81
416.936	83.81
417.159	85.81
417.382	90.81
417.605	98.81
417.828	107.81
418.051	105.81
418.274	87.81
418.497	91.81
418.72	90.81
418.943	89.81
419.166	82.81
419.389	85.81
419.611	82.81
419.834	78.81
420.057	99.81
420.28	80.81
420.503	93.81
420.726	89.81
420.948	86.81
421.171	89.81
421.394	89.81
421.617	74.81
421.839	88.81
422.062	86.81
422.285	87.81
422.507	95.81
422.73	109.81
422.953	83.81
423.175	92.81
423.398	89.81
423.621	92.81
423.843	104.81
424.066	87.81
424.288	97.81
424.511	104.81
424.733	92.81
424.956	98.81
425.178	101.81
425.401	121.81
425.623	117.81
425.846	95.81
426.068	99.81
426.291	104.81
426.513	94.81
426.735	106.81
426.958	98.81
427.18	117.81
427.402	149.81
427.625	247.81
427.847	171.81
428.069	114.81
428.292	90.81
428.514	98.81
428.736	94.81
428.958	76.81
429.181	87.81
429.403	93.81
429.625	98.81
429.847	93.81
430.069	111.81
430.292	98.81
430.514	100.81
430.736	101.81
430.958	85.81
431.18	83.81
431.402	83.81
431.624	90.81
431.846	94.81
432.068	92.81
432.29	90.81
432.512	86.81
432.734	94.81
432.956	97.81
433.178	95.81
433.4	101.81
433.622	101.81
433.844	101.81
434.066	85.81
434.287	89.81
434.509	102.81
434.731	87.81
434.953	82.81
435.175	93.81
435.397	91.81
435.618	90.81
435.84	114.81
436.062	130.81
436.284	129.81
436.505	101.81
436.727	106.81
436.949	103.81
437.17	99.81
437.392	97.81
437.614	100.81
437.835	133.81
438.057	147.81
438.278	122.81
438.5	120.81
438.721	135.81
438.943	117.81
439.165	95.81
439.386	88.81
439.608	88.81
439.829	109.81
440.05	147.81
440.272	173.81
440.493	107.81
440.715	103.81
440.936	90.81
441.158	87.81
441.379	108.81
441.6	85.81
441.822	111.81
442.043	101.81
442.264	115.81
442.486	108.81
442.707	102.81
442.928	120.81
443.149	155.81
443.371	173.81
443.592	135.81
443.813	134.81
444.034	114.81
444.255	90.81
444.476	79.81
444.698	93.81
444.919	87.81
445.14	125.81
445.361	137.81
445.582	135.81
445.803	188.81
446.024	162.81
446.245	141.81
446.466	129.81
446.687	94.81
446.908	94.81
447.129	96.81
447.35	93.81
447.571	103.81
447.792	105.81
448.013	106.81
448.234	113.81
448.455	94.81
448.675	122.81
448.896	138.81
449.117	106.81
449.338	130.81
449.559	132.81
449.779	145.81
450	129.81
450.221	100.81
450.442	101.81
450.662	98.81
450.883	124.81
451.104	126.81
451.324	102.81
451.545	105.81
451.766	88.81
451.986	84.81
452.207	81.81
452.428	108.81
452.648	114.81
452.869	129.81
453.089	128.81
453.31	148.81
453.53	108.81
453.751	94.81
453.971	119.81
454.192	131.81
454.412	101.81
454.633	87.81
454.853	89.81
455.073	99.81
455.294	102.81
455.514	103.81
455.734	82.81
455.955	81.81
456.175	92.81
456.395	86.81
456.616	84.81
456.836	70.81
457.056	77.81
457.276	88.81
457.497	96.81
457.717	81.81
457.937	80.81
458.157	101.81
458.377	107.81
458.598	139.81
458.818	206.81
459.038	207.81
459.258	147.81
459.478	87.81
459.698	75.81
459.918	94.81
460.138	86.81
460.358	84.81
460.578	103.81
460.798	91.81
461.018	98.81
461.238	84.81
461.458	105.81
461.678	82.81
461.898	90.81
462.118	87.81
462.338	86.81
462.558	80.81
462.777	82.81
462.997	103.81
463.217	91.81
463.437	97.81
463.657	94.81
463.876	89.81
464.096	92.81
464.316	102.81
464.536	114.81
464.755	113.81
464.975	133.81
465.195	224.81
465.414	222.81
465.634	118.81
465.854	80.81
466.073	85.81
466.293	95.81
466.512	95.81
466.732	86.81
466.951	90.81
467.171	87.81
467.391	97.81
467.61	119.81
467.829	94.81
468.049	97.81
468.268	90.81
468.488	100.81
468.707	95.81
468.927	88.81
469.146	86.81
469.365	84.81
469.585	101.81
469.804	99.81
470.023	105.81
470.243	100.81
470.462	116.81
470.681	131.81
470.901	87.81
471.12	83.81
471.339	92.81
471.558	81.81
471.777	88.81
471.997	92.81
472.216	101.81
472.435	114.81
472.654	93.81
472.873	87.81
473.092	73.81
473.311	94.81
473.53	94.81
473.749	95.81
473.968	108.81
474.187	116.81
474.406	97.81
474.625	89.81
474.844	82.81
475.063	90.81
475.282	85.81
475.501	84.81
475.72	91.81
475.939	92.81
476.158	100.81
476.377	86.81
476.596	89.81
476.814	90.81
477.033	99.81
477.252	99.81
477.471	76.81
477.69	95.81
477.908	78.81
478.127	80.81
478.346	96.81
478.564	95.81
478.783	109.81
479.002	103.81
479.22	81.81
479.439	126.81
479.658	111.81
479.876	95.81
480.095	105.81
480.313	97.81
480.532	87.81
480.751	91.81
480.969	100.81
481.188	181.81
481.406	144.81
481.624	101.81
481.843	89.81
482.061	97.81
482.28	89.81
482.498	96.81
482.717	89.81
482.935	90.81
483.153	88.81
483.372	99.81
483.59	102.81
483.808	113.81
484.027	113.81
484.245	98.81
484.463	78.81
484.681	92.81
484.9	97.81
485.118	86.81
485.336	99.81
485.554	103.81
485.772	98.81
485.99	86.81
486.209	115.81
486.427	106.81
486.645	115.81
486.863	133.81
487.081	117.81
487.299	98.81
487.517	104.81
487.735	98.81
487.953	94.81
488.171	100.81
488.389	108.81
488.607	108.81
488.825	91.81
489.043	99.81
489.261	101.81
489.479	82.81
489.696	95.81
489.914	93.81
490.132	88.81
490.35	102.81
490.568	92.81
490.786	88.81
491.003	74.81
491.221	88.81
491.439	86.81
491.657	83.81
491.874	91.81
492.092	86.81
492.31	93.81
492.527	100.81
492.745	96.81
492.963	82.81
493.18	88.81
493.398	105.81
493.615	108.81
493.833	106.81
494.05	80.81
494.268	95.81
494.485	97.81
494.703	90.81
494.92	83.81
495.138	83.81
495.355	95.81
495.573	86.81
495.79	82.81
496.008	92.81
496.225	97.81
496.442	86.81
496.66	92.81
496.877	90.81
497.094	94.81
497.312	98.81
497.529	101.81
497.746	86.81
497.963	93.81
498.181	90.81
498.398	111.81
498.615	107.81
498.832	105.81
499.049	96.81
499.267	118.81
499.484	98.81
499.701	112.81
499.918	98.81
500.135	92.81
500.352	85.81
500.569	85.81
500.786	92.81
501.003	89.81
501.22	81.81
501.437	75.81
501.654	100.81
501.871	134.81
502.088	97.81
502.305	94.81
502.522	91.81
502.739	98.81
502.956	96.81
503.172	99.81
503.389	106.81
503.606	119.81
503.823	111.81
504.04	96.81
504.256	78.81
504.473	94.81
504.69	102.81
504.907	84.81
505.123	85.81
505.34	100.81
505.557	101.81
505.773	94.81
505.99	96.81
506.207	89.81
506.423	100.81
506.64	109.81
506.856	103.81
507.073	90.81
507.289	93.81
507.506	115.81
507.722	134.81
507.939	140.81
508.155	101.81
508.372	94.81
508.588	88.81
508.805	97.81
509.021	85.81
509.238	94.81
509.454	106.81
509.67	101.81
509.887	126.81
510.103	147.81
510.319	278.81
510.536	1064.81
510.752	3816.81
510.968	1044.81
511.184	213.81
511.401	130.81
511.617	106.81
511.833	103.81
512.049	99.81
512.265	89.81
512.481	100.81
512.698	106.81
512.914	101.81
513.13	98.81
513.346	100.81
513.562	87.81
