Data from Circ_2022_H10_HRD10591_00004.txt Node
Date: Wed Jan 03 09:53:38 EST 2024
User: Yrep
Spectrometer: HR+D1059
Trigger mode: 1
Integration Time (sec): 1.000000E-1
Scans to average: 1
Electric dark correction enabled: true
Nonlinearity correction enabled: false
Boxcar width: 0
XAxis mode: Wavelengths
Number of Pixels in Spectrum: 2048
>>>>>Begin Spectral Data<<<<<
223.165	-14.06
223.4	-14.06
223.635	-14.06
223.869	-19.06
224.104	-23.06
224.338	-20.06
224.573	-10.06
224.808	-18.06
225.042	8.94
225.277	-7.06
225.511	-2.06
225.746	18.94
225.98	10.94
226.215	12.94
226.449	12.94
226.683	11.94
226.918	19.94
227.152	16.94
227.387	48.94
227.621	36.94
227.856	32.94
228.09	45.94
228.324	51.94
228.559	51.94
228.793	52.94
229.027	64.94
229.262	83.94
229.496	70.94
229.73	86.94
229.964	86.94
230.199	83.94
230.433	73.94
230.667	75.94
230.901	74.94
231.136	64.94
231.37	81.94
231.604	77.94
231.838	68.94
232.072	81.94
232.306	65.94
232.541	72.94
232.775	64.94
233.009	74.94
233.243	83.94
233.477	90.94
233.711	72.94
233.945	94.94
234.179	83.94
234.413	84.94
234.647	87.94
234.881	74.94
235.115	72.94
235.349	68.94
235.583	76.94
235.817	92.94
236.051	84.94
236.285	70.94
236.519	69.94
236.753	70.94
236.987	84.94
237.221	82.94
237.455	85.94
237.689	84.94
237.922	69.94
238.156	71.94
238.39	77.94
238.624	65.94
238.858	77.94
239.091	87.94
239.325	84.94
239.559	80.94
239.793	88.94
240.027	72.94
240.26	60.94
240.494	64.94
240.728	63.94
240.961	84.94
241.195	79.94
241.429	84.94
241.662	85.94
241.896	67.94
242.13	86.94
242.363	82.94
242.597	80.94
242.83	76.94
243.064	69.94
243.298	59.94
243.531	73.94
243.765	76.94
243.998	98.94
244.232	86.94
244.465	86.94
244.699	92.94
244.932	81.94
245.166	73.94
245.399	73.94
245.633	80.94
245.866	73.94
246.099	71.94
246.333	86.94
246.566	91.94
246.8	77.94
247.033	78.94
247.266	85.94
247.5	64.94
247.733	83.94
247.966	88.94
248.2	87.94
248.433	73.94
248.666	83.94
248.899	81.94
249.133	88.94
249.366	113.94
249.599	109.94
249.832	92.94
250.066	65.94
250.299	74.94
250.532	65.94
250.765	83.94
250.998	85.94
251.231	86.94
251.465	84.94
251.698	65.94
251.931	80.94
252.164	71.94
252.397	76.94
252.63	77.94
252.863	76.94
253.096	84.94
253.329	96.94
253.562	86.94
253.795	74.94
254.028	92.94
254.261	83.94
254.494	85.94
254.727	85.94
254.96	71.94
255.193	81.94
255.426	86.94
255.659	91.94
255.892	77.94
256.124	69.94
256.357	77.94
256.59	80.94
256.823	81.94
257.056	85.94
257.289	81.94
257.521	68.94
257.754	65.94
257.987	81.94
258.22	78.94
258.452	78.94
258.685	83.94
258.918	87.94
259.151	72.94
259.383	80.94
259.616	83.94
259.849	91.94
260.081	69.94
260.314	84.94
260.547	76.94
260.779	76.94
261.012	81.94
261.244	77.94
261.477	90.94
261.71	101.94
261.942	125.94
262.175	159.94
262.407	96.94
262.64	79.94
262.872	95.94
263.105	86.94
263.337	73.94
263.57	77.94
263.802	91.94
264.035	88.94
264.267	80.94
264.499	83.94
264.732	84.94
264.964	83.94
265.197	80.94
265.429	74.94
265.661	78.94
265.894	83.94
266.126	88.94
266.358	78.94
266.591	92.94
266.823	75.94
267.055	79.94
267.287	73.94
267.52	76.94
267.752	73.94
267.984	78.94
268.216	63.94
268.448	79.94
268.681	73.94
268.913	74.94
269.145	76.94
269.377	88.94
269.609	76.94
269.841	81.94
270.073	91.94
270.306	88.94
270.538	84.94
270.77	89.94
271.002	84.94
271.234	97.94
271.466	82.94
271.698	83.94
271.93	87.94
272.162	80.94
272.394	92.94
272.626	79.94
272.858	88.94
273.09	89.94
273.322	82.94
273.553	78.94
273.785	83.94
274.017	82.94
274.249	67.94
274.481	83.94
274.713	91.94
274.945	86.94
275.176	90.94
275.408	91.94
275.64	89.94
275.872	86.94
276.104	91.94
276.335	104.94
276.567	114.94
276.799	132.94
277.031	105.94
277.262	89.94
277.494	86.94
277.726	79.94
277.957	77.94
278.189	80.94
278.421	85.94
278.652	95.94
278.884	87.94
279.115	82.94
279.347	79.94
279.579	87.94
279.81	87.94
280.042	87.94
280.273	95.94
280.505	81.94
280.736	99.94
280.968	86.94
281.199	78.94
281.431	82.94
281.662	70.94
281.894	85.94
282.125	109.94
282.356	147.94
282.588	173.94
282.819	134.94
283.051	86.94
283.282	90.94
283.513	91.94
283.745	80.94
283.976	78.94
284.207	87.94
284.439	87.94
284.67	81.94
284.901	89.94
285.132	81.94
285.364	81.94
285.595	88.94
285.826	91.94
286.057	94.94
286.288	85.94
286.52	97.94
286.751	82.94
286.982	85.94
287.213	82.94
287.444	88.94
287.675	84.94
287.906	88.94
288.138	86.94
288.369	102.94
288.6	113.94
288.831	96.94
289.062	100.94
289.293	91.94
289.524	90.94
289.755	75.94
289.986	97.94
290.217	94.94
290.448	85.94
290.679	93.94
290.91	91.94
291.141	68.94
291.371	99.94
291.602	80.94
291.833	93.94
292.064	83.94
292.295	96.94
292.526	92.94
292.757	88.94
292.987	100.94
293.218	84.94
293.449	74.94
293.68	77.94
293.91	101.94
294.141	80.94
294.372	100.94
294.603	89.94
294.833	78.94
295.064	98.94
295.295	89.94
295.525	92.94
295.756	116.94
295.987	131.94
296.217	186.94
296.448	155.94
296.679	106.94
296.909	94.94
297.14	107.94
297.37	94.94
297.601	83.94
297.831	100.94
298.062	93.94
298.292	89.94
298.523	95.94
298.753	88.94
298.984	80.94
299.214	88.94
299.445	100.94
299.675	86.94
299.905	102.94
300.136	82.94
300.366	82.94
300.597	72.94
300.827	91.94
301.057	100.94
301.288	123.94
301.518	94.94
301.748	88.94
301.979	99.94
302.209	90.94
302.439	93.94
302.669	81.94
302.9	85.94
303.13	95.94
303.36	85.94
303.59	102.94
303.82	117.94
304.051	87.94
304.281	78.94
304.511	96.94
304.741	86.94
304.971	85.94
305.201	94.94
305.431	88.94
305.661	89.94
305.891	89.94
306.121	99.94
306.352	110.94
306.582	107.94
306.812	86.94
307.042	87.94
307.272	85.94
307.502	107.94
307.731	115.94
307.961	102.94
308.191	101.94
308.421	100.94
308.651	100.94
308.881	96.94
309.111	98.94
309.341	103.94
309.571	90.94
309.8	98.94
310.03	106.94
310.26	102.94
310.49	100.94
310.72	103.94
310.949	134.94
311.179	118.94
311.409	83.94
311.639	107.94
311.868	90.94
312.098	101.94
312.328	101.94
312.557	112.94
312.787	135.94
313.017	122.94
313.246	88.94
313.476	94.94
313.706	100.94
313.935	107.94
314.165	100.94
314.394	114.94
314.624	109.94
314.853	103.94
315.083	101.94
315.312	99.94
315.542	86.94
315.771	88.94
316.001	91.94
316.23	100.94
316.46	84.94
316.689	92.94
316.919	101.94
317.148	96.94
317.377	95.94
317.607	101.94
317.836	88.94
318.065	114.94
318.295	87.94
318.524	92.94
318.753	95.94
318.983	122.94
319.212	125.94
319.441	126.94
319.67	121.94
319.9	94.94
320.129	88.94
320.358	96.94
320.587	113.94
320.816	95.94
321.046	108.94
321.275	111.94
321.504	113.94
321.733	98.94
321.962	102.94
322.191	111.94
322.42	109.94
322.649	123.94
322.878	111.94
323.108	143.94
323.337	152.94
323.566	160.94
323.795	189.94
324.024	271.94
324.253	551.94
324.482	1259.94
324.71	2610.94
324.939	3464.94
325.168	1239.94
325.397	363.94
325.626	187.94
325.855	158.94
326.084	164.94
326.313	163.94
326.542	176.94
326.77	303.94
326.999	627.94
327.228	1359.94
327.457	2444.94
327.686	2038.94
327.914	533.94
328.143	264.94
328.372	194.94
328.6	162.94
328.829	136.94
329.058	174.94
329.287	175.94
329.515	127.94
329.744	104.94
329.972	121.94
330.201	112.94
330.43	117.94
330.658	143.94
330.887	213.94
331.115	169.94
331.344	107.94
331.572	116.94
331.801	120.94
332.03	123.94
332.258	106.94
332.486	99.94
332.715	96.94
332.943	92.94
333.172	92.94
333.4	110.94
333.629	125.94
333.857	134.94
334.085	125.94
334.314	107.94
334.542	95.94
334.771	95.94
334.999	88.94
335.227	94.94
335.455	99.94
335.684	104.94
335.912	101.94
336.14	99.94
336.369	79.94
336.597	112.94
336.825	99.94
337.053	96.94
337.281	87.94
337.51	88.94
337.738	94.94
337.966	96.94
338.194	102.94
338.422	100.94
338.65	85.94
338.878	94.94
339.106	89.94
339.334	96.94
339.562	100.94
339.79	91.94
340.018	99.94
340.246	113.94
340.474	109.94
340.702	97.94
340.93	96.94
341.158	101.94
341.386	99.94
341.614	101.94
341.842	108.94
342.07	106.94
342.298	110.94
342.526	90.94
342.754	78.94
342.981	99.94
343.209	81.94
343.437	107.94
343.665	77.94
343.893	98.94
344.12	77.94
344.348	97.94
344.576	96.94
344.804	101.94
345.031	101.94
345.259	107.94
345.487	103.94
345.714	108.94
345.942	89.94
346.17	101.94
346.397	103.94
346.625	93.94
346.853	91.94
347.08	88.94
347.308	85.94
347.535	94.94
347.763	112.94
347.99	95.94
348.218	115.94
348.445	125.94
348.673	110.94
348.9	107.94
349.128	94.94
349.355	93.94
349.583	73.94
349.81	96.94
350.037	111.94
350.265	109.94
350.492	90.94
350.72	111.94
350.947	116.94
351.174	110.94
351.402	125.94
351.629	101.94
351.856	109.94
352.083	116.94
352.311	119.94
352.538	112.94
352.765	129.94
352.992	116.94
353.22	139.94
353.447	116.94
353.674	116.94
353.901	94.94
354.128	97.94
354.355	92.94
354.583	102.94
354.81	96.94
355.037	88.94
355.264	93.94
355.491	90.94
355.718	88.94
355.945	83.94
356.172	81.94
356.399	90.94
356.626	88.94
356.853	102.94
357.08	93.94
357.307	93.94
357.534	84.94
357.761	94.94
357.988	98.94
358.215	99.94
358.441	84.94
358.668	98.94
358.895	89.94
359.122	90.94
359.349	85.94
359.576	99.94
359.802	123.94
360.029	136.94
360.256	129.94
360.483	120.94
360.709	86.94
360.936	87.94
361.163	105.94
361.39	115.94
361.616	95.94
361.843	93.94
362.07	97.94
362.296	132.94
362.523	100.94
362.749	90.94
362.976	99.94
363.203	101.94
363.429	85.94
363.656	99.94
363.882	85.94
364.109	89.94
364.335	78.94
364.562	85.94
364.788	86.94
365.015	109.94
365.241	99.94
365.468	127.94
365.694	115.94
365.92	101.94
366.147	92.94
366.373	78.94
366.599	107.94
366.826	75.94
367.052	95.94
367.278	103.94
367.505	83.94
367.731	91.94
367.957	85.94
368.184	96.94
368.41	108.94
368.636	123.94
368.862	142.94
369.089	133.94
369.315	100.94
369.541	108.94
369.767	91.94
369.993	93.94
370.219	110.94
370.445	84.94
370.672	90.94
370.898	93.94
371.124	97.94
371.35	78.94
371.576	81.94
371.802	71.94
372.028	75.94
372.254	94.94
372.48	80.94
372.706	85.94
372.932	78.94
373.158	94.94
373.384	85.94
373.61	91.94
373.835	92.94
374.061	91.94
374.287	88.94
374.513	93.94
374.739	95.94
374.965	83.94
375.191	82.94
375.416	85.94
375.642	93.94
375.868	110.94
376.094	94.94
376.319	100.94
376.545	89.94
376.771	83.94
376.997	78.94
377.222	92.94
377.448	89.94
377.674	103.94
377.899	89.94
378.125	90.94
378.35	104.94
378.576	92.94
378.802	88.94
379.027	93.94
379.253	97.94
379.478	101.94
379.704	96.94
379.929	88.94
380.155	102.94
380.38	91.94
380.606	86.94
380.831	112.94
381.057	104.94
381.282	99.94
381.507	93.94
381.733	115.94
381.958	107.94
382.184	112.94
382.409	99.94
382.634	97.94
382.86	111.94
383.085	101.94
383.31	109.94
383.535	111.94
383.761	102.94
383.986	98.94
384.211	101.94
384.436	121.94
384.662	113.94
384.887	114.94
385.112	97.94
385.337	108.94
385.562	118.94
385.787	102.94
386.013	116.94
386.238	146.94
386.463	111.94
386.688	125.94
386.913	104.94
387.138	107.94
387.363	112.94
387.588	111.94
387.813	98.94
388.038	107.94
388.263	128.94
388.488	123.94
388.713	96.94
388.938	90.94
389.163	97.94
389.387	92.94
389.612	95.94
389.837	103.94
390.062	99.94
390.287	96.94
390.512	97.94
390.736	85.94
390.961	90.94
391.186	76.94
391.411	79.94
391.636	104.94
391.86	87.94
392.085	79.94
392.31	82.94
392.534	88.94
392.759	85.94
392.984	90.94
393.208	88.94
393.433	108.94
393.658	115.94
393.882	82.94
394.107	87.94
394.331	87.94
394.556	86.94
394.78	85.94
395.005	79.94
395.229	90.94
395.454	84.94
395.678	78.94
395.903	88.94
396.127	68.94
396.352	84.94
396.576	90.94
396.801	99.94
397.025	102.94
397.249	84.94
397.474	92.94
397.698	95.94
397.922	86.94
398.147	83.94
398.371	91.94
398.595	76.94
398.82	81.94
399.044	83.94
399.268	87.94
399.492	72.94
399.717	100.94
399.941	89.94
400.165	89.94
400.389	84.94
400.613	82.94
400.837	95.94
401.062	84.94
401.286	76.94
401.51	101.94
401.734	104.94
401.958	116.94
402.182	169.94
402.406	220.94
402.63	160.94
402.854	107.94
403.078	84.94
403.302	70.94
403.526	82.94
403.75	77.94
403.974	95.94
404.198	85.94
404.422	82.94
404.645	73.94
404.869	98.94
405.093	99.94
405.317	113.94
405.541	105.94
405.765	121.94
405.988	132.94
406.212	235.94
406.436	346.94
406.66	216.94
406.883	127.94
407.107	106.94
407.331	100.94
407.555	133.94
407.778	90.94
408.002	95.94
408.226	89.94
408.449	93.94
408.673	87.94
408.896	110.94
409.12	119.94
409.344	88.94
409.567	81.94
409.791	80.94
410.014	87.94
410.238	80.94
410.461	87.94
410.685	91.94
410.908	91.94
411.132	112.94
411.355	97.94
411.578	95.94
411.802	79.94
412.025	90.94
412.249	81.94
412.472	105.94
412.695	95.94
412.919	89.94
413.142	84.94
413.365	90.94
413.589	85.94
413.812	88.94
414.035	80.94
414.258	92.94
414.482	91.94
414.705	83.94
414.928	91.94
415.151	100.94
415.374	89.94
415.597	92.94
415.821	84.94
416.044	93.94
416.267	97.94
416.49	80.94
416.713	86.94
416.936	87.94
417.159	85.94
417.382	89.94
417.605	84.94
417.828	94.94
418.051	92.94
418.274	74.94
418.497	74.94
418.72	88.94
418.943	88.94
419.166	90.94
419.389	90.94
419.611	81.94
419.834	78.94
420.057	95.94
420.28	84.94
420.503	79.94
420.726	87.94
420.948	89.94
421.171	95.94
421.394	88.94
421.617	81.94
421.839	73.94
422.062	90.94
422.285	97.94
422.507	105.94
422.73	123.94
422.953	112.94
423.175	112.94
423.398	112.94
423.621	86.94
423.843	91.94
424.066	83.94
424.288	93.94
424.511	98.94
424.733	109.94
424.956	109.94
425.178	100.94
425.401	86.94
425.623	105.94
425.846	91.94
426.068	92.94
426.291	99.94
426.513	77.94
426.735	95.94
426.958	94.94
427.18	116.94
427.402	166.94
427.625	238.94
427.847	174.94
428.069	117.94
428.292	96.94
428.514	105.94
428.736	91.94
428.958	90.94
429.181	99.94
429.403	88.94
429.625	81.94
429.847	98.94
430.069	101.94
430.292	97.94
430.514	88.94
430.736	83.94
430.958	79.94
431.18	74.94
431.402	77.94
431.624	92.94
431.846	87.94
432.068	81.94
432.29	74.94
432.512	97.94
432.734	90.94
432.956	84.94
433.178	110.94
433.4	101.94
433.622	100.94
433.844	87.94
434.066	90.94
434.287	94.94
434.509	96.94
434.731	103.94
434.953	77.94
435.175	87.94
435.397	103.94
435.618	87.94
435.84	94.94
436.062	145.94
436.284	126.94
436.505	107.94
436.727	100.94
436.949	95.94
437.17	95.94
437.392	81.94
437.614	100.94
437.835	136.94
438.057	150.94
438.278	137.94
438.5	123.94
438.721	138.94
438.943	91.94
439.165	91.94
439.386	92.94
439.608	99.94
439.829	113.94
440.05	155.94
440.272	190.94
440.493	100.94
440.715	81.94
440.936	91.94
441.158	92.94
441.379	104.94
441.6	108.94
441.822	108.94
442.043	91.94
442.264	121.94
442.486	111.94
442.707	104.94
442.928	131.94
443.149	177.94
443.371	180.94
443.592	116.94
443.813	132.94
444.034	120.94
444.255	91.94
444.476	84.94
444.698	76.94
444.919	88.94
445.14	128.94
445.361	141.94
445.582	143.94
445.803	178.94
446.024	167.94
446.245	173.94
446.466	140.94
446.687	89.94
446.908	80.94
447.129	87.94
447.35	87.94
447.571	97.94
447.792	87.94
448.013	97.94
448.234	131.94
448.455	106.94
448.675	121.94
448.896	142.94
449.117	92.94
449.338	120.94
449.559	138.94
449.779	143.94
450	112.94
450.221	87.94
450.442	80.94
450.662	101.94
450.883	121.94
451.104	143.94
451.324	111.94
451.545	86.94
451.766	92.94
451.986	67.94
452.207	82.94
452.428	97.94
452.648	91.94
452.869	137.94
453.089	134.94
453.31	143.94
453.53	109.94
453.751	91.94
453.971	123.94
454.192	147.94
454.412	97.94
454.633	109.94
454.853	81.94
455.073	85.94
455.294	95.94
455.514	95.94
455.734	104.94
455.955	92.94
456.175	77.94
456.395	79.94
456.616	82.94
456.836	83.94
457.056	87.94
457.276	96.94
457.497	83.94
457.717	84.94
457.937	83.94
458.157	107.94
458.377	96.94
458.598	135.94
458.818	209.94
459.038	243.94
459.258	161.94
459.478	83.94
459.698	80.94
459.918	73.94
460.138	89.94
460.358	92.94
460.578	97.94
460.798	95.94
461.018	104.94
461.238	87.94
461.458	92.94
461.678	81.94
461.898	85.94
462.118	76.94
462.338	97.94
462.558	96.94
462.777	80.94
462.997	88.94
463.217	91.94
463.437	82.94
463.657	83.94
463.876	93.94
464.096	92.94
464.316	95.94
464.536	101.94
464.755	97.94
464.975	134.94
465.195	249.94
465.414	266.94
465.634	125.94
465.854	85.94
466.073	81.94
466.293	82.94
466.512	78.94
466.732	85.94
466.951	83.94
467.171	73.94
467.391	89.94
467.61	110.94
467.829	102.94
468.049	97.94
468.268	94.94
468.488	77.94
468.707	72.94
468.927	83.94
469.146	60.94
469.365	85.94
469.585	91.94
469.804	117.94
470.023	109.94
470.243	91.94
470.462	108.94
470.681	144.94
470.901	94.94
471.12	90.94
471.339	86.94
471.558	94.94
471.777	85.94
471.997	75.94
472.216	84.94
472.435	102.94
472.654	93.94
472.873	88.94
473.092	93.94
473.311	89.94
473.53	84.94
473.749	90.94
473.968	92.94
474.187	108.94
474.406	103.94
474.625	97.94
474.844	80.94
475.063	93.94
475.282	84.94
475.501	81.94
475.72	86.94
475.939	77.94
476.158	80.94
476.377	78.94
476.596	96.94
476.814	95.94
477.033	113.94
477.252	87.94
477.471	87.94
477.69	102.94
477.908	96.94
478.127	85.94
478.346	83.94
478.564	80.94
478.783	102.94
479.002	92.94
479.22	98.94
479.439	109.94
479.658	118.94
479.876	108.94
480.095	85.94
480.313	87.94
480.532	92.94
480.751	75.94
480.969	84.94
481.188	144.94
481.406	118.94
481.624	91.94
481.843	95.94
482.061	87.94
482.28	93.94
482.498	70.94
482.717	88.94
482.935	94.94
483.153	82.94
483.372	88.94
483.59	100.94
483.808	93.94
484.027	78.94
484.245	91.94
484.463	99.94
484.681	88.94
484.9	91.94
485.118	104.94
485.336	86.94
485.554	95.94
485.772	87.94
485.99	108.94
486.209	109.94
486.427	104.94
486.645	128.94
486.863	133.94
487.081	101.94
487.299	107.94
487.517	89.94
487.735	98.94
487.953	89.94
488.171	96.94
488.389	105.94
488.607	96.94
488.825	88.94
489.043	87.94
489.261	80.94
489.479	77.94
489.696	84.94
489.914	76.94
490.132	89.94
490.35	74.94
490.568	91.94
490.786	89.94
491.003	94.94
491.221	89.94
491.439	90.94
491.657	91.94
491.874	100.94
492.092	92.94
492.31	83.94
492.527	97.94
492.745	97.94
492.963	80.94
493.18	99.94
493.398	79.94
493.615	89.94
493.833	105.94
494.05	100.94
494.268	91.94
494.485	92.94
494.703	90.94
494.92	95.94
495.138	84.94
495.355	84.94
495.573	90.94
495.79	87.94
496.008	98.94
496.225	86.94
496.442	73.94
496.66	77.94
496.877	72.94
497.094	74.94
497.312	86.94
497.529	82.94
497.746	96.94
497.963	88.94
498.181	92.94
498.398	88.94
498.615	106.94
498.832	111.94
499.049	103.94
499.267	87.94
499.484	94.94
499.701	100.94
499.918	85.94
500.135	91.94
500.352	90.94
500.569	76.94
500.786	84.94
501.003	88.94
501.22	75.94
501.437	91.94
501.654	110.94
501.871	132.94
502.088	100.94
502.305	93.94
502.522	82.94
502.739	91.94
502.956	92.94
503.172	84.94
503.389	97.94
503.606	123.94
503.823	122.94
504.04	85.94
504.256	93.94
504.473	86.94
504.69	94.94
504.907	100.94
505.123	80.94
505.34	86.94
505.557	90.94
505.773	87.94
505.99	82.94
506.207	98.94
506.423	101.94
506.64	80.94
506.856	79.94
507.073	84.94
507.289	99.94
507.506	101.94
507.722	130.94
507.939	142.94
508.155	125.94
508.372	94.94
508.588	96.94
508.805	93.94
509.021	91.94
509.238	83.94
509.454	95.94
509.67	106.94
509.887	105.94
510.103	155.94
510.319	279.94
510.536	1129.94
510.752	4024.94
510.968	1116.94
511.184	212.94
511.401	124.94
511.617	119.94
511.833	95.94
512.049	102.94
512.265	95.94
512.481	93.94
512.698	98.94
512.914	94.94
513.13	102.94
513.346	103.94
513.562	92.94
513.778	101.94
513.994	107.94
514.21	113.94
