Data from Circ_2022_H10_HRD10591_00024.txt Node
Date: Wed Jan 03 09:53:42 EST 2024
User: Yrep
Spectrometer: HR+D1059
Trigger mode: 1
Integration Time (sec): 1.000000E-1
Scans to average: 1
Electric dark correction enabled: true
Nonlinearity correction enabled: false
Boxcar width: 0
XAxis mode: Wavelengths
Number of Pixels in Spectrum: 2048
>>>>>Begin Spectral Data<<<<<
223.165	-2.88
223.4	-2.88
223.635	-2.88
223.869	-16.88
224.104	-30.88
224.338	-4.88
224.573	-10.88
224.808	-21.88
225.042	-9.88
225.277	-21.88
225.511	5.12
225.746	15.12
225.98	-11.88
226.215	6.12
226.449	23.12
226.683	20.12
226.918	28.12
227.152	34.12
227.387	21.12
227.621	43.12
227.856	39.12
228.09	41.12
228.324	59.12
228.559	58.12
228.793	67.12
229.027	51.12
229.262	52.12
229.496	76.12
229.73	98.12
229.964	81.12
230.199	78.12
230.433	61.12
230.667	79.12
230.901	80.12
231.136	93.12
231.37	88.12
231.604	73.12
231.838	91.12
232.072	92.12
232.306	90.12
232.541	88.12
232.775	76.12
233.009	95.12
233.243	87.12
233.477	87.12
233.711	79.12
233.945	87.12
234.179	76.12
234.413	77.12
234.647	81.12
234.881	70.12
235.115	85.12
235.349	74.12
235.583	82.12
235.817	83.12
236.051	80.12
236.285	75.12
236.519	77.12
236.753	92.12
236.987	70.12
237.221	87.12
237.455	83.12
237.689	76.12
237.922	95.12
238.156	76.12
238.39	73.12
238.624	73.12
238.858	79.12
239.091	68.12
239.325	89.12
239.559	92.12
239.793	77.12
240.027	90.12
240.26	72.12
240.494	89.12
240.728	81.12
240.961	77.12
241.195	85.12
241.429	79.12
241.662	64.12
241.896	65.12
242.13	68.12
242.363	85.12
242.597	76.12
242.83	82.12
243.064	78.12
243.298	69.12
243.531	72.12
243.765	90.12
243.998	85.12
244.232	80.12
244.465	80.12
244.699	82.12
244.932	84.12
245.166	82.12
245.399	82.12
245.633	85.12
245.866	81.12
246.099	77.12
246.333	74.12
246.566	84.12
246.8	69.12
247.033	82.12
247.266	84.12
247.5	79.12
247.733	86.12
247.966	89.12
248.2	70.12
248.433	82.12
248.666	84.12
248.899	98.12
249.133	80.12
249.366	84.12
249.599	95.12
249.832	75.12
250.066	81.12
250.299	87.12
250.532	86.12
250.765	80.12
250.998	81.12
251.231	84.12
251.465	71.12
251.698	84.12
251.931	66.12
252.164	88.12
252.397	75.12
252.63	84.12
252.863	78.12
253.096	88.12
253.329	67.12
253.562	74.12
253.795	74.12
254.028	80.12
254.261	80.12
254.494	68.12
254.727	86.12
254.96	85.12
255.193	77.12
255.426	82.12
255.659	80.12
255.892	74.12
256.124	76.12
256.357	80.12
256.59	85.12
256.823	82.12
257.056	84.12
257.289	81.12
257.521	89.12
257.754	86.12
257.987	86.12
258.22	87.12
258.452	75.12
258.685	91.12
258.918	77.12
259.151	79.12
259.383	85.12
259.616	91.12
259.849	73.12
260.081	97.12
260.314	66.12
260.547	73.12
260.779	82.12
261.012	77.12
261.244	66.12
261.477	86.12
261.71	113.12
261.942	133.12
262.175	153.12
262.407	103.12
262.64	88.12
262.872	93.12
263.105	84.12
263.337	95.12
263.57	81.12
263.802	80.12
264.035	72.12
264.267	95.12
264.499	80.12
264.732	74.12
264.964	77.12
265.197	85.12
265.429	84.12
265.661	80.12
265.894	91.12
266.126	85.12
266.358	98.12
266.591	90.12
266.823	82.12
267.055	88.12
267.287	80.12
267.52	87.12
267.752	72.12
267.984	76.12
268.216	77.12
268.448	101.12
268.681	91.12
268.913	80.12
269.145	89.12
269.377	96.12
269.609	89.12
269.841	87.12
270.073	83.12
270.306	90.12
270.538	80.12
270.77	69.12
271.002	87.12
271.234	87.12
271.466	95.12
271.698	92.12
271.93	92.12
272.162	88.12
272.394	86.12
272.626	91.12
272.858	82.12
273.09	78.12
273.322	75.12
273.553	83.12
273.785	99.12
274.017	82.12
274.249	82.12
274.481	83.12
274.713	86.12
274.945	94.12
275.176	90.12
275.408	95.12
275.64	91.12
275.872	96.12
276.104	75.12
276.335	93.12
276.567	108.12
276.799	148.12
277.031	111.12
277.262	100.12
277.494	84.12
277.726	85.12
277.957	76.12
278.189	91.12
278.421	92.12
278.652	97.12
278.884	81.12
279.115	63.12
279.347	86.12
279.579	91.12
279.81	85.12
280.042	102.12
280.273	92.12
280.505	91.12
280.736	81.12
280.968	99.12
281.199	91.12
281.431	89.12
281.662	98.12
281.894	92.12
282.125	108.12
282.356	154.12
282.588	181.12
282.819	148.12
283.051	102.12
283.282	89.12
283.513	96.12
283.745	78.12
283.976	83.12
284.207	73.12
284.439	84.12
284.67	81.12
284.901	74.12
285.132	87.12
285.364	87.12
285.595	83.12
285.826	87.12
286.057	83.12
286.288	91.12
286.52	93.12
286.751	84.12
286.982	85.12
287.213	91.12
287.444	82.12
287.675	95.12
287.906	90.12
288.138	92.12
288.369	85.12
288.6	96.12
288.831	86.12
289.062	96.12
289.293	91.12
289.524	92.12
289.755	88.12
289.986	98.12
290.217	82.12
290.448	92.12
290.679	82.12
290.91	80.12
291.141	87.12
291.371	91.12
291.602	89.12
291.833	97.12
292.064	95.12
292.295	88.12
292.526	89.12
292.757	90.12
292.987	90.12
293.218	82.12
293.449	71.12
293.68	81.12
293.91	91.12
294.141	88.12
294.372	84.12
294.603	88.12
294.833	87.12
295.064	90.12
295.295	105.12
295.525	101.12
295.756	118.12
295.987	133.12
296.217	177.12
296.448	157.12
296.679	90.12
296.909	101.12
297.14	100.12
297.37	86.12
297.601	93.12
297.831	96.12
298.062	93.12
298.292	103.12
298.523	87.12
298.753	83.12
298.984	95.12
299.214	103.12
299.445	87.12
299.675	96.12
299.905	98.12
300.136	84.12
300.366	89.12
300.597	98.12
300.827	101.12
301.057	111.12
301.288	115.12
301.518	99.12
301.748	93.12
301.979	81.12
302.209	98.12
302.439	86.12
302.669	103.12
302.9	90.12
303.13	105.12
303.36	111.12
303.59	106.12
303.82	116.12
304.051	101.12
304.281	109.12
304.511	89.12
304.741	76.12
304.971	88.12
305.201	79.12
305.431	90.12
305.661	99.12
305.891	103.12
306.121	100.12
306.352	113.12
306.582	109.12
306.812	106.12
307.042	92.12
307.272	92.12
307.502	90.12
307.731	102.12
307.961	93.12
308.191	100.12
308.421	99.12
308.651	81.12
308.881	85.12
309.111	90.12
309.341	105.12
309.571	99.12
309.8	115.12
310.03	99.12
310.26	110.12
310.49	94.12
310.72	111.12
310.949	120.12
311.179	125.12
311.409	117.12
311.639	96.12
311.868	89.12
312.098	93.12
312.328	96.12
312.557	107.12
312.787	120.12
313.017	131.12
313.246	100.12
313.476	93.12
313.706	93.12
313.935	117.12
314.165	109.12
314.394	106.12
314.624	103.12
314.853	110.12
315.083	101.12
315.312	111.12
315.542	95.12
315.771	91.12
316.001	104.12
316.23	113.12
316.46	102.12
316.689	94.12
316.919	107.12
317.148	105.12
317.377	103.12
317.607	93.12
317.836	91.12
318.065	85.12
318.295	93.12
318.524	91.12
318.753	97.12
318.983	93.12
319.212	117.12
319.441	135.12
319.67	120.12
319.9	101.12
320.129	100.12
320.358	91.12
320.587	102.12
320.816	104.12
321.046	111.12
321.275	99.12
321.504	100.12
321.733	97.12
321.962	97.12
322.191	112.12
322.42	111.12
322.649	122.12
322.878	117.12
323.108	133.12
323.337	153.12
323.566	175.12
323.795	204.12
324.024	266.12
324.253	535.12
324.482	1205.12
324.71	2494.12
324.939	3395.12
325.168	1207.12
325.397	333.12
325.626	201.12
325.855	149.12
326.084	153.12
326.313	156.12
326.542	189.12
326.77	292.12
326.999	623.12
327.228	1239.12
327.457	2348.12
327.686	1893.12
327.914	508.12
328.143	268.12
328.372	199.12
328.6	167.12
328.829	142.12
329.058	162.12
329.287	167.12
329.515	140.12
329.744	113.12
329.972	122.12
330.201	119.12
330.43	164.12
330.658	183.12
330.887	202.12
331.115	165.12
331.344	102.12
331.572	133.12
331.801	127.12
332.03	111.12
332.258	107.12
332.486	101.12
332.715	95.12
332.943	85.12
333.172	85.12
333.4	102.12
333.629	116.12
333.857	141.12
334.085	122.12
334.314	109.12
334.542	123.12
334.771	135.12
334.999	108.12
335.227	118.12
335.455	104.12
335.684	102.12
335.912	84.12
336.14	88.12
336.369	103.12
336.597	103.12
336.825	106.12
337.053	99.12
337.281	108.12
337.51	90.12
337.738	97.12
337.966	103.12
338.194	112.12
338.422	91.12
338.65	99.12
338.878	101.12
339.106	91.12
339.334	96.12
339.562	99.12
339.79	106.12
340.018	92.12
340.246	92.12
340.474	106.12
340.702	104.12
340.93	100.12
341.158	95.12
341.386	101.12
341.614	110.12
341.842	123.12
342.07	91.12
342.298	80.12
342.526	100.12
342.754	91.12
342.981	80.12
343.209	90.12
343.437	100.12
343.665	98.12
343.893	107.12
344.12	83.12
344.348	79.12
344.576	87.12
344.804	95.12
345.031	111.12
345.259	115.12
345.487	109.12
345.714	91.12
345.942	91.12
346.17	113.12
346.397	116.12
346.625	108.12
346.853	107.12
347.08	83.12
347.308	111.12
347.535	100.12
347.763	118.12
347.99	113.12
348.218	124.12
348.445	116.12
348.673	112.12
348.9	100.12
349.128	107.12
349.355	96.12
349.583	91.12
349.81	104.12
350.037	97.12
350.265	91.12
350.492	92.12
350.72	104.12
350.947	118.12
351.174	107.12
351.402	113.12
351.629	130.12
351.856	112.12
352.083	120.12
352.311	124.12
352.538	123.12
352.765	125.12
352.992	127.12
353.22	131.12
353.447	109.12
353.674	112.12
353.901	95.12
354.128	103.12
354.355	104.12
354.583	95.12
354.81	114.12
355.037	95.12
355.264	89.12
355.491	100.12
355.718	103.12
355.945	91.12
356.172	85.12
356.399	94.12
356.626	87.12
356.853	87.12
357.08	91.12
357.307	92.12
357.534	107.12
357.761	91.12
357.988	86.12
358.215	81.12
358.441	85.12
358.668	95.12
358.895	96.12
359.122	96.12
359.349	99.12
359.576	93.12
359.802	121.12
360.029	145.12
360.256	156.12
360.483	118.12
360.709	92.12
360.936	108.12
361.163	91.12
361.39	100.12
361.616	105.12
361.843	89.12
362.07	95.12
362.296	101.12
362.523	94.12
362.749	96.12
362.976	100.12
363.203	100.12
363.429	81.12
363.656	97.12
363.882	84.12
364.109	86.12
364.335	102.12
364.562	90.12
364.788	103.12
365.015	99.12
365.241	95.12
365.468	132.12
365.694	106.12
365.92	113.12
366.147	113.12
366.373	89.12
366.599	95.12
366.826	99.12
367.052	97.12
367.278	94.12
367.505	100.12
367.731	95.12
367.957	98.12
368.184	109.12
368.41	113.12
368.636	121.12
368.862	146.12
369.089	126.12
369.315	94.12
369.541	90.12
369.767	89.12
369.993	91.12
370.219	104.12
370.445	105.12
370.672	85.12
370.898	76.12
371.124	90.12
371.35	95.12
371.576	90.12
371.802	100.12
372.028	84.12
372.254	95.12
372.48	100.12
372.706	81.12
372.932	93.12
373.158	100.12
373.384	91.12
373.61	99.12
373.835	96.12
374.061	91.12
374.287	97.12
374.513	94.12
374.739	90.12
374.965	85.12
375.191	92.12
375.416	75.12
375.642	90.12
375.868	97.12
376.094	89.12
376.319	98.12
376.545	92.12
376.771	84.12
376.997	71.12
377.222	99.12
377.448	99.12
377.674	86.12
377.899	82.12
378.125	113.12
378.35	98.12
378.576	87.12
378.802	98.12
379.027	96.12
379.253	88.12
379.478	85.12
379.704	90.12
379.929	95.12
380.155	93.12
380.38	98.12
380.606	97.12
380.831	89.12
381.057	95.12
381.282	108.12
381.507	94.12
381.733	98.12
381.958	100.12
382.184	94.12
382.409	111.12
382.634	103.12
382.86	105.12
383.085	100.12
383.31	102.12
383.535	102.12
383.761	89.12
383.986	90.12
384.211	103.12
384.436	101.12
384.662	90.12
384.887	112.12
385.112	94.12
385.337	113.12
385.562	102.12
385.787	101.12
386.013	98.12
386.238	118.12
386.463	123.12
386.688	114.12
386.913	113.12
387.138	102.12
387.363	106.12
387.588	100.12
387.813	100.12
388.038	106.12
388.263	117.12
388.488	104.12
388.713	83.12
388.938	96.12
389.163	115.12
389.387	101.12
389.612	89.12
389.837	85.12
390.062	89.12
390.287	88.12
390.512	99.12
390.736	98.12
390.961	96.12
391.186	85.12
391.411	85.12
391.636	92.12
391.86	88.12
392.085	91.12
392.31	86.12
392.534	92.12
392.759	84.12
392.984	92.12
393.208	102.12
393.433	102.12
393.658	104.12
393.882	78.12
394.107	90.12
394.331	80.12
394.556	88.12
394.78	81.12
395.005	85.12
395.229	79.12
395.454	105.12
395.678	90.12
395.903	83.12
396.127	88.12
396.352	97.12
396.576	84.12
396.801	84.12
397.025	91.12
397.249	82.12
397.474	76.12
397.698	85.12
397.922	84.12
398.147	87.12
398.371	78.12
398.595	84.12
398.82	87.12
399.044	92.12
399.268	92.12
399.492	100.12
399.717	88.12
399.941	105.12
400.165	94.12
400.389	96.12
400.613	89.12
400.837	90.12
401.062	84.12
401.286	93.12
401.51	99.12
401.734	101.12
401.958	100.12
402.182	171.12
402.406	215.12
402.63	168.12
402.854	98.12
403.078	99.12
403.302	92.12
403.526	104.12
403.75	96.12
403.974	82.12
404.198	95.12
404.422	83.12
404.645	102.12
404.869	97.12
405.093	122.12
405.317	115.12
405.541	125.12
405.765	127.12
405.988	149.12
406.212	245.12
406.436	350.12
406.66	218.12
406.883	120.12
407.107	109.12
407.331	104.12
407.555	107.12
407.778	96.12
408.002	90.12
408.226	103.12
408.449	79.12
408.673	85.12
408.896	95.12
409.12	101.12
409.344	85.12
409.567	81.12
409.791	90.12
410.014	84.12
410.238	91.12
410.461	99.12
410.685	98.12
410.908	90.12
411.132	107.12
411.355	94.12
411.578	92.12
411.802	102.12
412.025	97.12
412.249	97.12
412.472	97.12
412.695	99.12
412.919	113.12
413.142	104.12
413.365	89.12
413.589	86.12
413.812	82.12
414.035	83.12
414.258	96.12
414.482	89.12
414.705	85.12
414.928	84.12
415.151	81.12
415.374	94.12
415.597	100.12
415.821	98.12
416.044	91.12
416.267	90.12
416.49	96.12
416.713	88.12
416.936	89.12
417.159	85.12
417.382	80.12
417.605	76.12
417.828	106.12
418.051	98.12
418.274	93.12
418.497	77.12
418.72	92.12
418.943	95.12
419.166	82.12
419.389	88.12
419.611	82.12
419.834	99.12
420.057	93.12
420.28	80.12
420.503	87.12
420.726	86.12
420.948	89.12
421.171	107.12
421.394	101.12
421.617	96.12
421.839	94.12
422.062	80.12
422.285	85.12
422.507	98.12
422.73	113.12
422.953	95.12
423.175	91.12
423.398	93.12
423.621	88.12
423.843	85.12
424.066	86.12
424.288	105.12
424.511	104.12
424.733	97.12
424.956	118.12
425.178	103.12
425.401	116.12
425.623	102.12
425.846	97.12
426.068	99.12
426.291	99.12
426.513	81.12
426.735	93.12
426.958	103.12
427.18	115.12
427.402	162.12
427.625	232.12
427.847	186.12
428.069	125.12
428.292	83.12
428.514	85.12
428.736	80.12
428.958	88.12
429.181	91.12
429.403	79.12
429.625	93.12
429.847	91.12
430.069	106.12
430.292	88.12
430.514	86.12
430.736	100.12
430.958	91.12
431.18	77.12
431.402	85.12
431.624	72.12
431.846	80.12
432.068	91.12
432.29	89.12
432.512	99.12
432.734	96.12
432.956	92.12
433.178	108.12
433.4	107.12
433.622	93.12
433.844	95.12
434.066	106.12
434.287	80.12
434.509	104.12
434.731	89.12
434.953	83.12
435.175	91.12
435.397	111.12
435.618	79.12
435.84	101.12
436.062	147.12
436.284	115.12
436.505	118.12
436.727	116.12
436.949	83.12
437.17	101.12
437.392	96.12
437.614	100.12
437.835	130.12
438.057	165.12
438.278	128.12
438.5	123.12
438.721	119.12
438.943	109.12
439.165	101.12
439.386	98.12
439.608	91.12
439.829	116.12
440.05	141.12
440.272	182.12
440.493	104.12
440.715	100.12
440.936	93.12
441.158	95.12
441.379	81.12
441.6	92.12
441.822	115.12
442.043	104.12
442.264	121.12
442.486	108.12
442.707	110.12
442.928	119.12
443.149	179.12
443.371	182.12
443.592	124.12
443.813	109.12
444.034	126.12
444.255	92.12
444.476	86.12
444.698	95.12
444.919	77.12
445.14	144.12
445.361	142.12
445.582	139.12
445.803	166.12
446.024	152.12
446.245	171.12
446.466	127.12
446.687	86.12
446.908	99.12
447.129	96.12
447.35	107.12
447.571	105.12
447.792	83.12
448.013	103.12
448.234	136.12
448.455	125.12
448.675	122.12
448.896	138.12
449.117	102.12
449.338	102.12
449.559	138.12
449.779	138.12
450	104.12
450.221	116.12
450.442	98.12
450.662	109.12
450.883	128.12
451.104	143.12
451.324	113.12
451.545	109.12
451.766	94.12
451.986	86.12
452.207	89.12
452.428	104.12
452.648	127.12
452.869	131.12
453.089	142.12
453.31	151.12
453.53	99.12
453.751	104.12
453.971	125.12
454.192	144.12
454.412	100.12
454.633	84.12
454.853	87.12
455.073	78.12
455.294	92.12
455.514	97.12
455.734	104.12
455.955	86.12
456.175	79.12
456.395	103.12
456.616	78.12
456.836	89.12
457.056	86.12
457.276	88.12
457.497	98.12
457.717	96.12
457.937	87.12
458.157	90.12
458.377	94.12
458.598	130.12
458.818	215.12
459.038	228.12
459.258	155.12
459.478	117.12
459.698	103.12
459.918	86.12
460.138	74.12
460.358	91.12
460.578	87.12
460.798	80.12
461.018	94.12
461.238	84.12
461.458	94.12
461.678	83.12
461.898	87.12
462.118	88.12
462.338	86.12
462.558	95.12
462.777	83.12
462.997	78.12
463.217	77.12
463.437	89.12
463.657	79.12
463.876	93.12
464.096	99.12
464.316	87.12
464.536	84.12
464.755	105.12
464.975	137.12
465.195	247.12
465.414	253.12
465.634	114.12
465.854	97.12
466.073	94.12
466.293	89.12
466.512	87.12
466.732	87.12
466.951	96.12
467.171	96.12
467.391	99.12
467.61	113.12
467.829	122.12
468.049	101.12
468.268	111.12
468.488	72.12
468.707	79.12
468.927	84.12
469.146	91.12
469.365	84.12
469.585	79.12
469.804	121.12
470.023	125.12
470.243	93.12
470.462	115.12
470.681	143.12
470.901	113.12
471.12	105.12
471.339	108.12
471.558	95.12
471.777	92.12
471.997	99.12
472.216	117.12
472.435	137.12
472.654	92.12
472.873	94.12
473.092	74.12
473.311	91.12
473.53	77.12
473.749	83.12
473.968	102.12
474.187	106.12
474.406	108.12
474.625	92.12
474.844	86.12
475.063	92.12
475.282	93.12
475.501	91.12
475.72	92.12
475.939	83.12
476.158	96.12
476.377	88.12
476.596	102.12
476.814	105.12
477.033	113.12
477.252	89.12
477.471	99.12
477.69	90.12
477.908	99.12
478.127	85.12
478.346	92.12
478.564	95.12
478.783	101.12
479.002	93.12
479.22	100.12
479.439	101.12
479.658	127.12
479.876	106.12
480.095	97.12
480.313	109.12
480.532	84.12
480.751	94.12
480.969	105.12
481.188	172.12
481.406	158.12
481.624	103.12
481.843	108.12
482.061	80.12
482.28	99.12
482.498	89.12
482.717	95.12
482.935	88.12
483.153	91.12
483.372	94.12
483.59	100.12
483.808	90.12
484.027	104.12
484.245	95.12
484.463	98.12
484.681	92.12
484.9	98.12
485.118	77.12
485.336	94.12
485.554	100.12
485.772	100.12
485.99	112.12
486.209	102.12
486.427	104.12
486.645	104.12
486.863	129.12
487.081	97.12
487.299	100.12
487.517	96.12
487.735	100.12
487.953	96.12
488.171	90.12
488.389	99.12
488.607	110.12
488.825	103.12
489.043	93.12
489.261	89.12
489.479	81.12
489.696	96.12
489.914	87.12
490.132	88.12
490.35	99.12
490.568	94.12
490.786	95.12
491.003	91.12
491.221	90.12
491.439	96.12
491.657	91.12
491.874	98.12
492.092	90.12
492.31	83.12
492.527	87.12
492.745	101.12
492.963	89.12
493.18	95.12
493.398	98.12
493.615	95.12
493.833	98.12
494.05	82.12
494.268	97.12
494.485	83.12
494.703	93.12
494.92	85.12
495.138	85.12
495.355	90.12
495.573	94.12
495.79	99.12
496.008	104.12
496.225	91.12
496.442	73.12
496.66	98.12
496.877	92.12
497.094	112.12
497.312	91.12
497.529	81.12
497.746	84.12
497.963	94.12
498.181	87.12
498.398	95.12
498.615	116.12
498.832	112.12
499.049	99.12
499.267	92.12
499.484	88.12
499.701	87.12
499.918	92.12
500.135	91.12
500.352	90.12
500.569	73.12
500.786	99.12
501.003	98.12
501.22	99.12
501.437	84.12
501.654	113.12
501.871	114.12
502.088	111.12
502.305	80.12
502.522	83.12
502.739	88.12
502.956	102.12
503.172	111.12
503.389	99.12
503.606	118.12
503.823	114.12
504.04	89.12
504.256	91.12
504.473	91.12
504.69	96.12
504.907	89.12
505.123	98.12
505.34	89.12
505.557	96.12
505.773	97.12
505.99	90.12
506.207	96.12
506.423	84.12
506.64	92.12
506.856	111.12
507.073	94.12
507.289	92.12
507.506	110.12
507.722	135.12
507.939	136.12
508.155	115.12
508.372	116.12
508.588	92.12
508.805	101.12
509.021	91.12
509.238	102.12
509.454	126.12
509.67	112.12
509.887	117.12
510.103	156.12
510.319	275.12
510.536	1106.12
510.752	3926.12
510.968	1081.12
511.184	206.12
511.401	129.12
511.617	110.12
511.833	92.12
512.049	94.12
512.265	96.12
512.481	99.12
512.698	93.12
512.914	107.12
513.13	96.12
513.346	96.12
513.562	91.12
