Data from Circ_2022_H10_HRD10591_00073.txt Node
Date: Wed Jan 03 09:53:52 EST 2024
User: Yrep
Spectrometer: HR+D1059
Trigger mode: 1
Integration Time (sec): 1.000000E-1
Scans to average: 1
Electric dark correction enabled: true
Nonlinearity correction enabled: false
Boxcar width: 0
XAxis mode: Wavelengths
Number of Pixels in Spectrum: 2048
>>>>>Begin Spectral Data<<<<<
223.165	-14.19
223.4	-14.19
223.635	-14.19
223.869	-7.19
224.104	-18.19
224.338	-25.19
224.573	-10.19
224.808	-25.19
225.042	-14.19
225.277	-4.19
225.511	0.81
225.746	-1.19
225.98	11.81
226.215	12.81
226.449	14.81
226.683	30.81
226.918	25.81
227.152	22.81
227.387	34.81
227.621	43.81
227.856	45.81
228.09	54.81
228.324	42.81
228.559	56.81
228.793	65.81
229.027	71.81
229.262	73.81
229.496	71.81
229.73	100.81
229.964	109.81
230.199	80.81
230.433	75.81
230.667	86.81
230.901	82.81
231.136	71.81
231.37	69.81
231.604	83.81
231.838	86.81
232.072	83.81
232.306	81.81
232.541	68.81
232.775	86.81
233.009	78.81
233.243	86.81
233.477	101.81
233.711	85.81
233.945	72.81
234.179	65.81
234.413	94.81
234.647	70.81
234.881	75.81
235.115	58.81
235.349	88.81
235.583	77.81
235.817	87.81
236.051	90.81
236.285	71.81
236.519	80.81
236.753	72.81
236.987	90.81
237.221	97.81
237.455	88.81
237.689	88.81
237.922	79.81
238.156	73.81
238.39	77.81
238.624	83.81
238.858	82.81
239.091	78.81
239.325	76.81
239.559	81.81
239.793	90.81
240.027	73.81
240.26	78.81
240.494	81.81
240.728	79.81
240.961	72.81
241.195	67.81
241.429	85.81
241.662	78.81
241.896	78.81
242.13	72.81
242.363	76.81
242.597	69.81
242.83	79.81
243.064	70.81
243.298	77.81
243.531	66.81
243.765	65.81
243.998	82.81
244.232	78.81
244.465	93.81
244.699	81.81
244.932	75.81
245.166	74.81
245.399	77.81
245.633	73.81
245.866	73.81
246.099	77.81
246.333	92.81
246.566	70.81
246.8	82.81
247.033	89.81
247.266	74.81
247.5	79.81
247.733	85.81
247.966	70.81
248.2	67.81
248.433	85.81
248.666	64.81
248.899	83.81
249.133	98.81
249.366	102.81
249.599	103.81
249.832	89.81
250.066	82.81
250.299	87.81
250.532	88.81
250.765	68.81
250.998	64.81
251.231	84.81
251.465	82.81
251.698	71.81
251.931	80.81
252.164	66.81
252.397	75.81
252.63	73.81
252.863	72.81
253.096	74.81
253.329	78.81
253.562	88.81
253.795	66.81
254.028	80.81
254.261	80.81
254.494	78.81
254.727	89.81
254.96	85.81
255.193	85.81
255.426	78.81
255.659	86.81
255.892	76.81
256.124	90.81
256.357	82.81
256.59	84.81
256.823	82.81
257.056	94.81
257.289	90.81
257.521	99.81
257.754	84.81
257.987	82.81
258.22	92.81
258.452	90.81
258.685	88.81
258.918	79.81
259.151	72.81
259.383	75.81
259.616	74.81
259.849	84.81
260.081	97.81
260.314	79.81
260.547	90.81
260.779	82.81
261.012	82.81
261.244	92.81
261.477	100.81
261.71	114.81
261.942	141.81
262.175	142.81
262.407	91.81
262.64	98.81
262.872	70.81
263.105	73.81
263.337	96.81
263.57	83.81
263.802	77.81
264.035	76.81
264.267	85.81
264.499	75.81
264.732	88.81
264.964	81.81
265.197	70.81
265.429	87.81
265.661	81.81
265.894	88.81
266.126	94.81
266.358	87.81
266.591	75.81
266.823	92.81
267.055	96.81
267.287	101.81
267.52	86.81
267.752	98.81
267.984	78.81
268.216	71.81
268.448	81.81
268.681	90.81
268.913	86.81
269.145	93.81
269.377	97.81
269.609	78.81
269.841	94.81
270.073	92.81
270.306	89.81
270.538	82.81
270.77	81.81
271.002	90.81
271.234	91.81
271.466	102.81
271.698	95.81
271.93	92.81
272.162	89.81
272.394	101.81
272.626	94.81
272.858	67.81
273.09	74.81
273.322	76.81
273.553	75.81
273.785	59.81
274.017	71.81
274.249	78.81
274.481	87.81
274.713	81.81
274.945	101.81
275.176	86.81
275.408	96.81
275.64	91.81
275.872	73.81
276.104	89.81
276.335	115.81
276.567	121.81
276.799	142.81
277.031	139.81
277.262	110.81
277.494	108.81
277.726	109.81
277.957	80.81
278.189	87.81
278.421	95.81
278.652	96.81
278.884	82.81
279.115	90.81
279.347	89.81
279.579	93.81
279.81	98.81
280.042	94.81
280.273	110.81
280.505	100.81
280.736	89.81
280.968	90.81
281.199	80.81
281.431	95.81
281.662	90.81
281.894	81.81
282.125	89.81
282.356	135.81
282.588	188.81
282.819	138.81
283.051	105.81
283.282	87.81
283.513	82.81
283.745	92.81
283.976	94.81
284.207	100.81
284.439	92.81
284.67	95.81
284.901	86.81
285.132	87.81
285.364	78.81
285.595	94.81
285.826	89.81
286.057	98.81
286.288	74.81
286.52	73.81
286.751	78.81
286.982	85.81
287.213	96.81
287.444	82.81
287.675	80.81
287.906	93.81
288.138	94.81
288.369	103.81
288.6	100.81
288.831	88.81
289.062	72.81
289.293	88.81
289.524	74.81
289.755	82.81
289.986	82.81
290.217	84.81
290.448	87.81
290.679	102.81
290.91	88.81
291.141	109.81
291.371	94.81
291.602	87.81
291.833	95.81
292.064	92.81
292.295	86.81
292.526	78.81
292.757	102.81
292.987	79.81
293.218	86.81
293.449	94.81
293.68	78.81
293.91	101.81
294.141	85.81
294.372	96.81
294.603	96.81
294.833	94.81
295.064	92.81
295.295	96.81
295.525	95.81
295.756	94.81
295.987	139.81
296.217	177.81
296.448	154.81
296.679	106.81
296.909	76.81
297.14	79.81
297.37	92.81
297.601	91.81
297.831	104.81
298.062	92.81
298.292	100.81
298.523	98.81
298.753	103.81
298.984	103.81
299.214	82.81
299.445	86.81
299.675	94.81
299.905	90.81
300.136	94.81
300.366	74.81
300.597	88.81
300.827	101.81
301.057	110.81
301.288	111.81
301.518	110.81
301.748	91.81
301.979	115.81
302.209	87.81
302.439	90.81
302.669	94.81
302.9	93.81
303.13	94.81
303.36	85.81
303.59	115.81
303.82	103.81
304.051	107.81
304.281	92.81
304.511	93.81
304.741	92.81
304.971	90.81
305.201	87.81
305.431	76.81
305.661	87.81
305.891	90.81
306.121	97.81
306.352	111.81
306.582	109.81
306.812	100.81
307.042	109.81
307.272	113.81
307.502	106.81
307.731	102.81
307.961	86.81
308.191	82.81
308.421	95.81
308.651	96.81
308.881	97.81
309.111	89.81
309.341	97.81
309.571	115.81
309.8	102.81
310.03	109.81
310.26	112.81
310.49	109.81
310.72	113.81
310.949	130.81
311.179	107.81
311.409	97.81
311.639	113.81
311.868	117.81
312.098	94.81
312.328	118.81
312.557	115.81
312.787	134.81
313.017	130.81
313.246	104.81
313.476	93.81
313.706	73.81
313.935	111.81
314.165	119.81
314.394	133.81
314.624	110.81
314.853	119.81
315.083	104.81
315.312	110.81
315.542	85.81
315.771	85.81
316.001	87.81
316.23	101.81
316.46	82.81
316.689	102.81
316.919	100.81
317.148	110.81
317.377	111.81
317.607	95.81
317.836	102.81
318.065	100.81
318.295	84.81
318.524	100.81
318.753	99.81
318.983	91.81
319.212	109.81
319.441	129.81
319.67	111.81
319.9	112.81
320.129	106.81
320.358	87.81
320.587	94.81
320.816	98.81
321.046	122.81
321.275	95.81
321.504	100.81
321.733	111.81
321.962	119.81
322.191	127.81
322.42	133.81
322.649	117.81
322.878	134.81
323.108	137.81
323.337	163.81
323.566	179.81
323.795	218.81
324.024	280.81
324.253	577.81
324.482	1292.81
324.71	2679.81
324.939	3581.81
325.168	1265.81
325.397	345.81
325.626	179.81
325.855	157.81
326.084	164.81
326.313	163.81
326.542	199.81
326.77	312.81
326.999	628.81
327.228	1346.81
327.457	2540.81
327.686	2050.81
327.914	555.81
328.143	323.81
328.372	304.81
328.6	196.81
328.829	173.81
329.058	223.81
329.287	187.81
329.515	139.81
329.744	140.81
329.972	184.81
330.201	279.81
330.43	399.81
330.658	271.81
330.887	247.81
331.115	193.81
331.344	131.81
331.572	126.81
331.801	122.81
332.03	109.81
332.258	110.81
332.486	94.81
332.715	89.81
332.943	104.81
333.172	90.81
333.4	104.81
333.629	128.81
333.857	157.81
334.085	186.81
334.314	282.81
334.542	476.81
334.771	439.81
334.999	177.81
335.227	120.81
335.455	111.81
335.684	101.81
335.912	98.81
336.14	98.81
336.369	105.81
336.597	104.81
336.825	116.81
337.053	102.81
337.281	81.81
337.51	104.81
337.738	92.81
337.966	125.81
338.194	123.81
338.422	109.81
338.65	100.81
338.878	99.81
339.106	101.81
339.334	86.81
339.562	108.81
339.79	87.81
340.018	92.81
340.246	107.81
340.474	101.81
340.702	114.81
340.93	89.81
341.158	90.81
341.386	99.81
341.614	104.81
341.842	101.81
342.07	103.81
342.298	98.81
342.526	89.81
342.754	76.81
342.981	73.81
343.209	85.81
343.437	98.81
343.665	103.81
343.893	94.81
344.12	85.81
344.348	91.81
344.576	95.81
344.804	93.81
345.031	112.81
345.259	137.81
345.487	117.81
345.714	97.81
345.942	93.81
346.17	88.81
346.397	101.81
346.625	88.81
346.853	109.81
347.08	80.81
347.308	80.81
347.535	102.81
347.763	119.81
347.99	118.81
348.218	107.81
348.445	128.81
348.673	119.81
348.9	103.81
349.128	105.81
349.355	90.81
349.583	78.81
349.81	97.81
350.037	98.81
350.265	98.81
350.492	92.81
350.72	98.81
350.947	120.81
351.174	134.81
351.402	145.81
351.629	106.81
351.856	98.81
352.083	123.81
352.311	111.81
352.538	137.81
352.765	105.81
352.992	125.81
353.22	107.81
353.447	123.81
353.674	106.81
353.901	95.81
354.128	95.81
354.355	106.81
354.583	87.81
354.81	113.81
355.037	88.81
355.264	106.81
355.491	94.81
355.718	108.81
355.945	93.81
356.172	102.81
356.399	86.81
356.626	98.81
356.853	87.81
357.08	96.81
357.307	97.81
357.534	102.81
357.761	101.81
357.988	111.81
358.215	93.81
358.441	109.81
358.668	87.81
358.895	97.81
359.122	83.81
359.349	77.81
359.576	88.81
359.802	117.81
360.029	165.81
360.256	171.81
360.483	126.81
360.709	107.81
360.936	102.81
361.163	110.81
361.39	119.81
361.616	112.81
361.843	88.81
362.07	93.81
362.296	105.81
362.523	117.81
362.749	107.81
362.976	100.81
363.203	104.81
363.429	94.81
363.656	94.81
363.882	98.81
364.109	87.81
364.335	97.81
364.562	117.81
364.788	103.81
365.015	111.81
365.241	126.81
365.468	126.81
365.694	134.81
365.92	109.81
366.147	89.81
366.373	85.81
366.599	97.81
366.826	90.81
367.052	91.81
367.278	101.81
367.505	91.81
367.731	101.81
367.957	101.81
368.184	99.81
368.41	113.81
368.636	130.81
368.862	139.81
369.089	128.81
369.315	112.81
369.541	98.81
369.767	86.81
369.993	100.81
370.219	98.81
370.445	97.81
370.672	79.81
370.898	89.81
371.124	88.81
371.35	95.81
371.576	76.81
371.802	95.81
372.028	88.81
372.254	74.81
372.48	101.81
372.706	90.81
372.932	100.81
373.158	86.81
373.384	80.81
373.61	79.81
373.835	89.81
374.061	88.81
374.287	104.81
374.513	90.81
374.739	93.81
374.965	88.81
375.191	95.81
375.416	96.81
375.642	87.81
375.868	76.81
376.094	77.81
376.319	102.81
376.545	79.81
376.771	89.81
376.997	80.81
377.222	84.81
377.448	107.81
377.674	87.81
377.899	88.81
378.125	83.81
378.35	83.81
378.576	86.81
378.802	96.81
379.027	90.81
379.253	95.81
379.478	95.81
379.704	93.81
379.929	99.81
380.155	97.81
380.38	96.81
380.606	97.81
380.831	97.81
381.057	104.81
381.282	91.81
381.507	88.81
381.733	93.81
381.958	91.81
382.184	97.81
382.409	86.81
382.634	101.81
382.86	92.81
383.085	88.81
383.31	103.81
383.535	97.81
383.761	95.81
383.986	98.81
384.211	85.81
384.436	95.81
384.662	119.81
384.887	98.81
385.112	89.81
385.337	101.81
385.562	96.81
385.787	92.81
386.013	120.81
386.238	115.81
386.463	102.81
386.688	101.81
386.913	100.81
387.138	99.81
387.363	97.81
387.588	105.81
387.813	97.81
388.038	112.81
388.263	96.81
388.488	97.81
388.713	83.81
388.938	97.81
389.163	94.81
389.387	80.81
389.612	103.81
389.837	89.81
390.062	77.81
390.287	98.81
390.512	88.81
390.736	104.81
390.961	103.81
391.186	102.81
391.411	102.81
391.636	87.81
391.86	79.81
392.085	66.81
392.31	86.81
392.534	84.81
392.759	83.81
392.984	97.81
393.208	81.81
393.433	92.81
393.658	103.81
393.882	86.81
394.107	86.81
394.331	82.81
394.556	91.81
394.78	89.81
395.005	87.81
395.229	69.81
395.454	80.81
395.678	101.81
395.903	81.81
396.127	73.81
396.352	81.81
396.576	68.81
396.801	82.81
397.025	99.81
397.249	92.81
397.474	93.81
397.698	84.81
397.922	102.81
398.147	85.81
398.371	96.81
398.595	74.81
398.82	94.81
399.044	96.81
399.268	92.81
399.492	92.81
399.717	98.81
399.941	89.81
400.165	98.81
400.389	77.81
400.613	87.81
400.837	78.81
401.062	90.81
401.286	84.81
401.51	98.81
401.734	94.81
401.958	121.81
402.182	170.81
402.406	217.81
402.63	171.81
402.854	105.81
403.078	93.81
403.302	75.81
403.526	91.81
403.75	90.81
403.974	82.81
404.198	92.81
404.422	95.81
404.645	84.81
404.869	97.81
405.093	109.81
405.317	130.81
405.541	143.81
405.765	102.81
405.988	147.81
406.212	238.81
406.436	353.81
406.66	241.81
406.883	126.81
407.107	113.81
407.331	109.81
407.555	115.81
407.778	124.81
408.002	97.81
408.226	93.81
408.449	100.81
408.673	101.81
408.896	78.81
409.12	96.81
409.344	91.81
409.567	81.81
409.791	86.81
410.014	92.81
410.238	89.81
410.461	99.81
410.685	90.81
410.908	105.81
411.132	114.81
411.355	94.81
411.578	86.81
411.802	100.81
412.025	102.81
412.249	101.81
412.472	106.81
412.695	120.81
412.919	100.81
413.142	103.81
413.365	99.81
413.589	82.81
413.812	88.81
414.035	90.81
414.258	92.81
414.482	84.81
414.705	84.81
414.928	90.81
415.151	95.81
415.374	101.81
415.597	77.81
415.821	82.81
416.044	86.81
416.267	74.81
416.49	73.81
416.713	82.81
416.936	89.81
417.159	103.81
417.382	88.81
417.605	111.81
417.828	86.81
418.051	95.81
418.274	97.81
418.497	90.81
418.72	93.81
418.943	91.81
419.166	83.81
419.389	91.81
419.611	90.81
419.834	93.81
420.057	85.81
420.28	97.81
420.503	90.81
420.726	95.81
420.948	95.81
421.171	98.81
421.394	94.81
421.617	82.81
421.839	102.81
422.062	98.81
422.285	99.81
422.507	94.81
422.73	111.81
422.953	105.81
423.175	95.81
423.398	99.81
423.621	97.81
423.843	64.81
424.066	90.81
424.288	88.81
424.511	90.81
424.733	124.81
424.956	134.81
425.178	120.81
425.401	138.81
425.623	113.81
425.846	95.81
426.068	107.81
426.291	109.81
426.513	83.81
426.735	91.81
426.958	107.81
427.18	139.81
427.402	227.81
427.625	288.81
427.847	206.81
428.069	155.81
428.292	110.81
428.514	96.81
428.736	94.81
428.958	101.81
429.181	74.81
429.403	91.81
429.625	101.81
429.847	97.81
430.069	116.81
430.292	106.81
430.514	86.81
430.736	89.81
430.958	90.81
431.18	73.81
431.402	91.81
431.624	87.81
431.846	93.81
432.068	84.81
432.29	85.81
432.512	101.81
432.734	81.81
432.956	103.81
433.178	95.81
433.4	100.81
433.622	94.81
433.844	105.81
434.066	98.81
434.287	90.81
434.509	88.81
434.731	87.81
434.953	90.81
435.175	95.81
435.397	98.81
435.618	84.81
435.84	121.81
436.062	154.81
436.284	148.81
436.505	114.81
436.727	121.81
436.949	91.81
437.17	93.81
437.392	81.81
437.614	113.81
437.835	138.81
438.057	170.81
438.278	158.81
438.5	130.81
438.721	164.81
438.943	131.81
439.165	114.81
439.386	100.81
439.608	88.81
439.829	129.81
440.05	161.81
440.272	207.81
440.493	118.81
440.715	92.81
440.936	82.81
441.158	87.81
441.379	103.81
441.6	90.81
441.822	113.81
442.043	115.81
442.264	144.81
442.486	134.81
442.707	103.81
442.928	125.81
443.149	206.81
443.371	198.81
443.592	137.81
443.813	149.81
444.034	150.81
444.255	95.81
444.476	98.81
444.698	90.81
444.919	83.81
445.14	147.81
445.361	150.81
445.582	166.81
445.803	222.81
446.024	207.81
446.245	221.81
446.466	167.81
446.687	106.81
446.908	81.81
447.129	81.81
447.35	95.81
447.571	90.81
447.792	105.81
448.013	104.81
448.234	126.81
448.455	127.81
448.675	151.81
448.896	157.81
449.117	122.81
449.338	110.81
449.559	157.81
449.779	158.81
450	109.81
450.221	86.81
450.442	93.81
450.662	109.81
450.883	133.81
451.104	159.81
451.324	108.81
451.545	86.81
451.766	73.81
451.986	94.81
452.207	94.81
452.428	98.81
452.648	120.81
452.869	146.81
453.089	159.81
453.31	149.81
453.53	109.81
453.751	88.81
453.971	149.81
454.192	158.81
454.412	94.81
454.633	89.81
454.853	86.81
455.073	84.81
455.294	93.81
455.514	130.81
455.734	92.81
455.955	90.81
456.175	95.81
456.395	94.81
456.616	82.81
456.836	75.81
457.056	82.81
457.276	88.81
457.497	82.81
457.717	89.81
457.937	88.81
458.157	77.81
458.377	105.81
458.598	141.81
458.818	264.81
459.038	275.81
459.258	177.81
459.478	120.81
459.698	99.81
459.918	87.81
460.138	77.81
460.358	84.81
460.578	95.81
460.798	89.81
461.018	91.81
461.238	80.81
461.458	87.81
461.678	85.81
461.898	79.81
462.118	89.81
462.338	91.81
462.558	93.81
462.777	99.81
462.997	94.81
463.217	76.81
463.437	84.81
463.657	94.81
463.876	98.81
464.096	101.81
464.316	116.81
464.536	106.81
464.755	114.81
464.975	142.81
465.195	273.81
465.414	287.81
465.634	117.81
465.854	89.81
466.073	85.81
466.293	99.81
466.512	106.81
466.732	98.81
466.951	90.81
467.171	91.81
467.391	104.81
467.61	138.81
467.829	131.81
468.049	162.81
468.268	203.81
468.488	101.81
468.707	100.81
468.927	105.81
469.146	89.81
469.365	81.81
469.585	90.81
469.804	103.81
470.023	106.81
470.243	102.81
470.462	113.81
470.681	149.81
470.901	105.81
471.12	90.81
471.339	83.81
471.558	87.81
471.777	101.81
471.997	133.81
472.216	275.81
472.435	546.81
472.654	187.81
472.873	104.81
473.092	94.81
473.311	86.81
473.53	96.81
473.749	88.81
473.968	96.81
474.187	153.81
474.406	127.81
474.625	82.81
474.844	100.81
475.063	102.81
475.282	78.81
475.501	88.81
475.72	88.81
475.939	98.81
476.158	88.81
476.377	79.81
476.596	91.81
476.814	97.81
477.033	104.81
477.252	100.81
477.471	87.81
477.69	88.81
477.908	90.81
478.127	85.81
478.346	81.81
478.564	97.81
478.783	97.81
479.002	100.81
479.22	95.81
479.439	101.81
479.658	137.81
479.876	95.81
480.095	107.81
480.313	100.81
480.532	114.81
480.751	127.81
480.969	256.81
481.188	920.81
481.406	606.81
481.624	161.81
481.843	100.81
482.061	86.81
482.28	97.81
482.498	81.81
482.717	96.81
482.935	95.81
483.153	91.81
483.372	81.81
483.59	80.81
483.808	81.81
484.027	86.81
484.245	85.81
484.463	82.81
484.681	87.81
484.9	95.81
485.118	93.81
485.336	104.81
485.554	93.81
485.772	101.81
485.99	90.81
486.209	109.81
486.427	115.81
486.645	125.81
486.863	134.81
487.081	109.81
487.299	93.81
487.517	80.81
487.735	88.81
487.953	80.81
488.171	90.81
488.389	108.81
488.607	99.81
488.825	90.81
489.043	95.81
489.261	82.81
489.479	83.81
489.696	76.81
489.914	88.81
490.132	86.81
490.35	89.81
490.568	86.81
490.786	94.81
491.003	90.81
491.221	93.81
491.439	98.81
491.657	98.81
491.874	82.81
492.092	98.81
492.31	97.81
492.527	100.81
492.745	98.81
492.963	88.81
493.18	101.81
493.398	99.81
493.615	98.81
493.833	91.81
494.05	95.81
494.268	85.81
494.485	96.81
494.703	98.81
494.92	80.81
495.138	97.81
495.355	86.81
495.573	76.81
495.79	78.81
496.008	77.81
496.225	96.81
496.442	97.81
496.66	86.81
496.877	96.81
497.094	73.81
497.312	88.81
497.529	83.81
497.746	77.81
497.963	86.81
498.181	92.81
498.398	94.81
498.615	137.81
498.832	110.81
499.049	100.81
499.267	91.81
499.484	98.81
499.701	90.81
499.918	89.81
500.135	86.81
500.352	86.81
500.569	96.81
500.786	93.81
501.003	90.81
501.22	101.81
501.437	93.81
501.654	110.81
501.871	134.81
502.088	98.81
502.305	79.81
502.522	83.81
502.739	86.81
502.956	102.81
503.172	98.81
503.389	115.81
503.606	137.81
503.823	95.81
504.04	101.81
504.256	92.81
504.473	98.81
504.69	85.81
504.907	88.81
505.123	74.81
505.34	97.81
505.557	82.81
505.773	91.81
505.99	91.81
506.207	86.81
506.423	102.81
506.64	67.81
506.856	88.81
507.073	90.81
507.289	100.81
507.506	95.81
507.722	152.81
507.939	144.81
508.155	98.81
508.372	91.81
508.588	82.81
508.805	99.81
509.021	97.81
509.238	96.81
509.454	114.81
509.67	117.81
509.887	117.81
510.103	148.81
510.319	271.81
510.536	1117.81
510.752	4034.81
510.968	1092.81
511.184	212.81
511.401	130.81
511.617	103.81
511.833	85.81
512.049	93.81
512.265	94.81
512.481	90.81
512.698	107.81
512.914	98.81
513.13	106.81
513.346	86.81
