Data from Circ_2022_H10_HRD10591_00075.txt Node
Date: Wed Jan 03 09:53:52 EST 2024
User: Yrep
Spectrometer: HR+D1059
Trigger mode: 1
Integration Time (sec): 1.000000E-1
Scans to average: 1
Electric dark correction enabled: true
Nonlinearity correction enabled: false
Boxcar width: 0
XAxis mode: Wavelengths
Number of Pixels in Spectrum: 2048
>>>>>Begin Spectral Data<<<<<
223.165	-13.12
223.4	-13.12
223.635	-13.12
223.869	-5.12
224.104	-36.12
224.338	-20.12
224.573	-13.12
224.808	-11.12
225.042	-17.12
225.277	-7.12
225.511	3.88
225.746	6.88
225.98	7.88
226.215	19.88
226.449	29.88
226.683	12.88
226.918	18.88
227.152	22.88
227.387	35.88
227.621	36.88
227.856	42.88
228.09	38.88
228.324	47.88
228.559	39.88
228.793	56.88
229.027	72.88
229.262	69.88
229.496	77.88
229.73	101.88
229.964	82.88
230.199	88.88
230.433	72.88
230.667	97.88
230.901	78.88
231.136	81.88
231.37	79.88
231.604	88.88
231.838	81.88
232.072	96.88
232.306	79.88
232.541	76.88
232.775	80.88
233.009	78.88
233.243	89.88
233.477	94.88
233.711	86.88
233.945	81.88
234.179	82.88
234.413	81.88
234.647	66.88
234.881	67.88
235.115	76.88
235.349	83.88
235.583	84.88
235.817	88.88
236.051	74.88
236.285	70.88
236.519	84.88
236.753	90.88
236.987	90.88
237.221	85.88
237.455	94.88
237.689	88.88
237.922	78.88
238.156	82.88
238.39	76.88
238.624	74.88
238.858	65.88
239.091	84.88
239.325	78.88
239.559	69.88
239.793	74.88
240.027	81.88
240.26	71.88
240.494	91.88
240.728	90.88
240.961	80.88
241.195	77.88
241.429	81.88
241.662	71.88
241.896	78.88
242.13	74.88
242.363	70.88
242.597	80.88
242.83	82.88
243.064	71.88
243.298	67.88
243.531	79.88
243.765	83.88
243.998	68.88
244.232	79.88
244.465	88.88
244.699	72.88
244.932	80.88
245.166	85.88
245.399	73.88
245.633	66.88
245.866	63.88
246.099	86.88
246.333	78.88
246.566	88.88
246.8	70.88
247.033	84.88
247.266	82.88
247.5	75.88
247.733	81.88
247.966	85.88
248.2	74.88
248.433	71.88
248.666	79.88
248.899	71.88
249.133	74.88
249.366	95.88
249.599	101.88
249.832	66.88
250.066	94.88
250.299	95.88
250.532	90.88
250.765	68.88
250.998	78.88
251.231	87.88
251.465	82.88
251.698	86.88
251.931	81.88
252.164	80.88
252.397	72.88
252.63	85.88
252.863	73.88
253.096	70.88
253.329	90.88
253.562	96.88
253.795	86.88
254.028	83.88
254.261	80.88
254.494	81.88
254.727	89.88
254.96	70.88
255.193	70.88
255.426	74.88
255.659	68.88
255.892	95.88
256.124	77.88
256.357	84.88
256.59	65.88
256.823	73.88
257.056	89.88
257.289	83.88
257.521	87.88
257.754	94.88
257.987	81.88
258.22	83.88
258.452	90.88
258.685	86.88
258.918	79.88
259.151	82.88
259.383	100.88
259.616	79.88
259.849	86.88
260.081	75.88
260.314	91.88
260.547	87.88
260.779	74.88
261.012	81.88
261.244	90.88
261.477	93.88
261.71	101.88
261.942	127.88
262.175	134.88
262.407	100.88
262.64	85.88
262.872	94.88
263.105	83.88
263.337	80.88
263.57	89.88
263.802	89.88
264.035	77.88
264.267	75.88
264.499	56.88
264.732	68.88
264.964	69.88
265.197	87.88
265.429	89.88
265.661	76.88
265.894	83.88
266.126	80.88
266.358	87.88
266.591	83.88
266.823	86.88
267.055	79.88
267.287	77.88
267.52	86.88
267.752	90.88
267.984	98.88
268.216	73.88
268.448	85.88
268.681	87.88
268.913	82.88
269.145	97.88
269.377	78.88
269.609	83.88
269.841	71.88
270.073	93.88
270.306	90.88
270.538	84.88
270.77	78.88
271.002	95.88
271.234	84.88
271.466	84.88
271.698	72.88
271.93	83.88
272.162	84.88
272.394	95.88
272.626	82.88
272.858	75.88
273.09	84.88
273.322	81.88
273.553	99.88
273.785	96.88
274.017	94.88
274.249	80.88
274.481	98.88
274.713	85.88
274.945	85.88
275.176	100.88
275.408	96.88
275.64	96.88
275.872	84.88
276.104	96.88
276.335	102.88
276.567	102.88
276.799	121.88
277.031	124.88
277.262	105.88
277.494	98.88
277.726	86.88
277.957	78.88
278.189	82.88
278.421	91.88
278.652	90.88
278.884	84.88
279.115	86.88
279.347	87.88
279.579	77.88
279.81	95.88
280.042	110.88
280.273	107.88
280.505	103.88
280.736	85.88
280.968	97.88
281.199	97.88
281.431	96.88
281.662	85.88
281.894	86.88
282.125	112.88
282.356	134.88
282.588	166.88
282.819	128.88
283.051	90.88
283.282	90.88
283.513	95.88
283.745	90.88
283.976	95.88
284.207	82.88
284.439	86.88
284.67	76.88
284.901	81.88
285.132	87.88
285.364	98.88
285.595	87.88
285.826	85.88
286.057	87.88
286.288	79.88
286.52	73.88
286.751	96.88
286.982	83.88
287.213	84.88
287.444	82.88
287.675	84.88
287.906	91.88
288.138	91.88
288.369	82.88
288.6	104.88
288.831	86.88
289.062	86.88
289.293	98.88
289.524	98.88
289.755	90.88
289.986	71.88
290.217	80.88
290.448	83.88
290.679	84.88
290.91	98.88
291.141	96.88
291.371	73.88
291.602	88.88
291.833	94.88
292.064	78.88
292.295	94.88
292.526	96.88
292.757	102.88
292.987	99.88
293.218	74.88
293.449	91.88
293.68	79.88
293.91	86.88
294.141	91.88
294.372	92.88
294.603	95.88
294.833	102.88
295.064	87.88
295.295	99.88
295.525	100.88
295.756	106.88
295.987	116.88
296.217	167.88
296.448	149.88
296.679	106.88
296.909	89.88
297.14	94.88
297.37	87.88
297.601	96.88
297.831	97.88
298.062	85.88
298.292	88.88
298.523	84.88
298.753	86.88
298.984	85.88
299.214	85.88
299.445	97.88
299.675	95.88
299.905	101.88
300.136	93.88
300.366	94.88
300.597	80.88
300.827	106.88
301.057	98.88
301.288	114.88
301.518	96.88
301.748	101.88
301.979	99.88
302.209	78.88
302.439	98.88
302.669	76.88
302.9	96.88
303.13	86.88
303.36	92.88
303.59	107.88
303.82	122.88
304.051	97.88
304.281	82.88
304.511	94.88
304.741	102.88
304.971	95.88
305.201	98.88
305.431	98.88
305.661	88.88
305.891	86.88
306.121	96.88
306.352	103.88
306.582	128.88
306.812	108.88
307.042	106.88
307.272	102.88
307.502	115.88
307.731	110.88
307.961	92.88
308.191	94.88
308.421	88.88
308.651	98.88
308.881	84.88
309.111	93.88
309.341	88.88
309.571	100.88
309.8	96.88
310.03	103.88
310.26	100.88
310.49	101.88
310.72	118.88
310.949	125.88
311.179	102.88
311.409	101.88
311.639	101.88
311.868	101.88
312.098	92.88
312.328	113.88
312.557	115.88
312.787	128.88
313.017	101.88
313.246	88.88
313.476	96.88
313.706	100.88
313.935	101.88
314.165	98.88
314.394	117.88
314.624	105.88
314.853	106.88
315.083	99.88
315.312	91.88
315.542	90.88
315.771	83.88
316.001	90.88
316.23	94.88
316.46	83.88
316.689	86.88
316.919	102.88
317.148	92.88
317.377	118.88
317.607	95.88
317.836	99.88
318.065	97.88
318.295	103.88
318.524	94.88
318.753	91.88
318.983	99.88
319.212	102.88
319.441	114.88
319.67	107.88
319.9	87.88
320.129	86.88
320.358	88.88
320.587	112.88
320.816	99.88
321.046	116.88
321.275	107.88
321.504	87.88
321.733	99.88
321.962	111.88
322.191	110.88
322.42	111.88
322.649	121.88
322.878	129.88
323.108	126.88
323.337	152.88
323.566	167.88
323.795	196.88
324.024	262.88
324.253	512.88
324.482	1118.88
324.71	2312.88
324.939	3094.88
325.168	1116.88
325.397	308.88
325.626	174.88
325.855	167.88
326.084	150.88
326.313	164.88
326.542	189.88
326.77	278.88
326.999	558.88
327.228	1211.88
327.457	2238.88
327.686	1824.88
327.914	502.88
328.143	295.88
328.372	262.88
328.6	201.88
328.829	158.88
329.058	173.88
329.287	180.88
329.515	144.88
329.744	133.88
329.972	172.88
330.201	280.88
330.43	379.88
330.658	251.88
330.887	213.88
331.115	164.88
331.344	117.88
331.572	110.88
331.801	108.88
332.03	112.88
332.258	100.88
332.486	87.88
332.715	94.88
332.943	103.88
333.172	113.88
333.4	106.88
333.629	123.88
333.857	135.88
334.085	186.88
334.314	280.88
334.542	480.88
334.771	442.88
334.999	183.88
335.227	122.88
335.455	91.88
335.684	91.88
335.912	97.88
336.14	100.88
336.369	101.88
336.597	115.88
336.825	119.88
337.053	95.88
337.281	89.88
337.51	90.88
337.738	111.88
337.966	99.88
338.194	100.88
338.422	103.88
338.65	101.88
338.878	91.88
339.106	89.88
339.334	103.88
339.562	88.88
339.79	99.88
340.018	101.88
340.246	90.88
340.474	88.88
340.702	103.88
340.93	106.88
341.158	93.88
341.386	91.88
341.614	100.88
341.842	109.88
342.07	88.88
342.298	96.88
342.526	86.88
342.754	87.88
342.981	90.88
343.209	91.88
343.437	108.88
343.665	86.88
343.893	106.88
344.12	79.88
344.348	96.88
344.576	92.88
344.804	97.88
345.031	101.88
345.259	112.88
345.487	96.88
345.714	103.88
345.942	111.88
346.17	104.88
346.397	104.88
346.625	101.88
346.853	102.88
347.08	95.88
347.308	99.88
347.535	104.88
347.763	94.88
347.99	106.88
348.218	111.88
348.445	118.88
348.673	117.88
348.9	98.88
349.128	94.88
349.355	92.88
349.583	99.88
349.81	107.88
350.037	97.88
350.265	97.88
350.492	102.88
350.72	93.88
350.947	97.88
351.174	116.88
351.402	130.88
351.629	113.88
351.856	104.88
352.083	106.88
352.311	107.88
352.538	133.88
352.765	121.88
352.992	120.88
353.22	107.88
353.447	112.88
353.674	99.88
353.901	95.88
354.128	100.88
354.355	81.88
354.583	107.88
354.81	93.88
355.037	78.88
355.264	92.88
355.491	95.88
355.718	90.88
355.945	96.88
356.172	99.88
356.399	98.88
356.626	87.88
356.853	106.88
357.08	90.88
357.307	92.88
357.534	67.88
357.761	90.88
357.988	96.88
358.215	83.88
358.441	96.88
358.668	98.88
358.895	96.88
359.122	104.88
359.349	108.88
359.576	94.88
359.802	105.88
360.029	148.88
360.256	138.88
360.483	111.88
360.709	76.88
360.936	112.88
361.163	104.88
361.39	105.88
361.616	94.88
361.843	103.88
362.07	98.88
362.296	110.88
362.523	108.88
362.749	89.88
362.976	105.88
363.203	95.88
363.429	98.88
363.656	105.88
363.882	95.88
364.109	91.88
364.335	94.88
364.562	100.88
364.788	100.88
365.015	111.88
365.241	101.88
365.468	140.88
365.694	112.88
365.92	103.88
366.147	101.88
366.373	80.88
366.599	93.88
366.826	91.88
367.052	100.88
367.278	104.88
367.505	98.88
367.731	94.88
367.957	89.88
368.184	90.88
368.41	113.88
368.636	127.88
368.862	132.88
369.089	105.88
369.315	102.88
369.541	102.88
369.767	84.88
369.993	100.88
370.219	98.88
370.445	86.88
370.672	83.88
370.898	101.88
371.124	89.88
371.35	89.88
371.576	100.88
371.802	88.88
372.028	81.88
372.254	87.88
372.48	92.88
372.706	83.88
372.932	92.88
373.158	87.88
373.384	95.88
373.61	84.88
373.835	103.88
374.061	94.88
374.287	105.88
374.513	98.88
374.739	85.88
374.965	90.88
375.191	76.88
375.416	78.88
375.642	87.88
375.868	92.88
376.094	99.88
376.319	73.88
376.545	91.88
376.771	88.88
376.997	87.88
377.222	92.88
377.448	94.88
377.674	87.88
377.899	103.88
378.125	88.88
378.35	94.88
378.576	97.88
378.802	85.88
379.027	76.88
379.253	96.88
379.478	79.88
379.704	96.88
379.929	83.88
380.155	89.88
380.38	92.88
380.606	87.88
380.831	94.88
381.057	108.88
381.282	91.88
381.507	94.88
381.733	92.88
381.958	88.88
382.184	110.88
382.409	96.88
382.634	98.88
382.86	95.88
383.085	86.88
383.31	104.88
383.535	95.88
383.761	106.88
383.986	95.88
384.211	89.88
384.436	82.88
384.662	109.88
384.887	103.88
385.112	95.88
385.337	103.88
385.562	90.88
385.787	106.88
386.013	108.88
386.238	127.88
386.463	118.88
386.688	115.88
386.913	97.88
387.138	95.88
387.363	100.88
387.588	95.88
387.813	94.88
388.038	103.88
388.263	110.88
388.488	114.88
388.713	95.88
388.938	107.88
389.163	97.88
389.387	88.88
389.612	95.88
389.837	104.88
390.062	104.88
390.287	100.88
390.512	101.88
390.736	104.88
390.961	98.88
391.186	93.88
391.411	87.88
391.636	100.88
391.86	82.88
392.085	92.88
392.31	94.88
392.534	96.88
392.759	74.88
392.984	84.88
393.208	90.88
393.433	82.88
393.658	94.88
393.882	87.88
394.107	80.88
394.331	94.88
394.556	89.88
394.78	84.88
395.005	93.88
395.229	83.88
395.454	75.88
395.678	89.88
395.903	86.88
396.127	98.88
396.352	81.88
396.576	79.88
396.801	90.88
397.025	82.88
397.249	77.88
397.474	95.88
397.698	90.88
397.922	91.88
398.147	89.88
398.371	94.88
398.595	82.88
398.82	66.88
399.044	95.88
399.268	87.88
399.492	82.88
399.717	95.88
399.941	107.88
400.165	104.88
400.389	102.88
400.613	102.88
400.837	92.88
401.062	79.88
401.286	94.88
401.51	90.88
401.734	97.88
401.958	116.88
402.182	150.88
402.406	191.88
402.63	138.88
402.854	115.88
403.078	92.88
403.302	103.88
403.526	91.88
403.75	86.88
403.974	83.88
404.198	87.88
404.422	78.88
404.645	84.88
404.869	95.88
405.093	94.88
405.317	115.88
405.541	110.88
405.765	110.88
405.988	127.88
406.212	221.88
406.436	320.88
406.66	214.88
406.883	114.88
407.107	105.88
407.331	114.88
407.555	128.88
407.778	107.88
408.002	103.88
408.226	90.88
408.449	98.88
408.673	78.88
408.896	96.88
409.12	94.88
409.344	92.88
409.567	100.88
409.791	87.88
410.014	82.88
410.238	103.88
410.461	96.88
410.685	90.88
410.908	95.88
411.132	113.88
411.355	104.88
411.578	88.88
411.802	82.88
412.025	84.88
412.249	85.88
412.472	116.88
412.695	113.88
412.919	96.88
413.142	78.88
413.365	83.88
413.589	92.88
413.812	104.88
414.035	90.88
414.258	87.88
414.482	90.88
414.705	83.88
414.928	101.88
415.151	91.88
415.374	90.88
415.597	73.88
415.821	89.88
416.044	76.88
416.267	82.88
416.49	98.88
416.713	70.88
416.936	99.88
417.159	92.88
417.382	102.88
417.605	86.88
417.828	104.88
418.051	97.88
418.274	96.88
418.497	87.88
418.72	85.88
418.943	72.88
419.166	85.88
419.389	93.88
419.611	86.88
419.834	94.88
420.057	90.88
420.28	92.88
420.503	98.88
420.726	83.88
420.948	90.88
421.171	106.88
421.394	100.88
421.617	101.88
421.839	92.88
422.062	94.88
422.285	88.88
422.507	103.88
422.73	117.88
422.953	89.88
423.175	95.88
423.398	98.88
423.621	95.88
423.843	89.88
424.066	91.88
424.288	87.88
424.511	93.88
424.733	97.88
424.956	127.88
425.178	131.88
425.401	114.88
425.623	104.88
425.846	89.88
426.068	108.88
426.291	94.88
426.513	89.88
426.735	100.88
426.958	98.88
427.18	124.88
427.402	175.88
427.625	248.88
427.847	199.88
428.069	153.88
428.292	105.88
428.514	86.88
428.736	83.88
428.958	88.88
429.181	87.88
429.403	92.88
429.625	91.88
429.847	81.88
430.069	111.88
430.292	107.88
430.514	84.88
430.736	91.88
430.958	86.88
431.18	93.88
431.402	94.88
431.624	85.88
431.846	79.88
432.068	75.88
432.29	83.88
432.512	78.88
432.734	79.88
432.956	86.88
433.178	92.88
433.4	108.88
433.622	112.88
433.844	97.88
434.066	92.88
434.287	102.88
434.509	90.88
434.731	80.88
434.953	86.88
435.175	89.88
435.397	76.88
435.618	90.88
435.84	113.88
436.062	158.88
436.284	142.88
436.505	113.88
436.727	116.88
436.949	100.88
437.17	90.88
437.392	80.88
437.614	102.88
437.835	127.88
438.057	163.88
438.278	131.88
438.5	126.88
438.721	163.88
438.943	117.88
439.165	82.88
439.386	102.88
439.608	87.88
439.829	114.88
440.05	148.88
440.272	197.88
440.493	120.88
440.715	87.88
440.936	89.88
441.158	94.88
441.379	96.88
441.6	90.88
441.822	115.88
442.043	103.88
442.264	123.88
442.486	124.88
442.707	96.88
442.928	123.88
443.149	162.88
443.371	177.88
443.592	126.88
443.813	152.88
444.034	126.88
444.255	110.88
444.476	77.88
444.698	75.88
444.919	81.88
445.14	121.88
445.361	129.88
445.582	145.88
445.803	195.88
446.024	194.88
446.245	175.88
446.466	144.88
446.687	113.88
446.908	89.88
447.129	87.88
447.35	91.88
447.571	98.88
447.792	95.88
448.013	106.88
448.234	115.88
448.455	124.88
448.675	130.88
448.896	129.88
449.117	127.88
449.338	99.88
449.559	165.88
449.779	161.88
450	112.88
450.221	81.88
450.442	93.88
450.662	110.88
450.883	127.88
451.104	146.88
451.324	117.88
451.545	79.88
451.766	89.88
451.986	90.88
452.207	78.88
452.428	81.88
452.648	106.88
452.869	124.88
453.089	131.88
453.31	146.88
453.53	89.88
453.751	106.88
453.971	120.88
454.192	131.88
454.412	85.88
454.633	83.88
454.853	88.88
455.073	98.88
455.294	106.88
455.514	110.88
455.734	93.88
455.955	85.88
456.175	90.88
456.395	90.88
456.616	74.88
456.836	90.88
457.056	87.88
457.276	82.88
457.497	87.88
457.717	80.88
457.937	87.88
458.157	97.88
458.377	91.88
458.598	137.88
458.818	207.88
459.038	238.88
459.258	160.88
459.478	94.88
459.698	106.88
459.918	89.88
460.138	80.88
460.358	98.88
460.578	93.88
460.798	91.88
461.018	89.88
461.238	82.88
461.458	83.88
461.678	77.88
461.898	86.88
462.118	84.88
462.338	99.88
462.558	79.88
462.777	87.88
462.997	88.88
463.217	84.88
463.437	82.88
463.657	72.88
463.876	96.88
464.096	103.88
464.316	101.88
464.536	102.88
464.755	111.88
464.975	125.88
465.195	245.88
465.414	239.88
465.634	107.88
465.854	98.88
466.073	86.88
466.293	87.88
466.512	88.88
466.732	76.88
466.951	80.88
467.171	93.88
467.391	105.88
467.61	124.88
467.829	120.88
468.049	174.88
468.268	223.88
468.488	102.88
468.707	82.88
468.927	84.88
469.146	92.88
469.365	83.88
469.585	96.88
469.804	114.88
470.023	110.88
470.243	91.88
470.462	108.88
470.681	129.88
470.901	100.88
471.12	98.88
471.339	90.88
471.558	78.88
471.777	98.88
471.997	120.88
472.216	275.88
472.435	518.88
472.654	188.88
472.873	95.88
473.092	90.88
473.311	89.88
473.53	80.88
473.749	94.88
473.968	99.88
474.187	136.88
474.406	128.88
474.625	88.88
474.844	81.88
475.063	85.88
475.282	90.88
475.501	91.88
475.72	88.88
475.939	97.88
476.158	94.88
476.377	89.88
476.596	99.88
476.814	102.88
477.033	117.88
477.252	95.88
477.471	90.88
477.69	96.88
477.908	109.88
478.127	100.88
478.346	86.88
478.564	98.88
478.783	86.88
479.002	96.88
479.22	90.88
479.439	110.88
479.658	115.88
479.876	128.88
480.095	103.88
480.313	102.88
480.532	104.88
480.751	111.88
480.969	272.88
481.188	858.88
481.406	570.88
481.624	139.88
481.843	99.88
482.061	87.88
482.28	88.88
482.498	87.88
482.717	80.88
482.935	95.88
483.153	87.88
483.372	92.88
483.59	96.88
483.808	89.88
484.027	104.88
484.245	83.88
484.463	87.88
484.681	82.88
484.9	89.88
485.118	90.88
485.336	80.88
485.554	82.88
485.772	95.88
485.99	100.88
486.209	79.88
486.427	112.88
486.645	120.88
486.863	135.88
487.081	121.88
487.299	111.88
487.517	92.88
487.735	95.88
487.953	87.88
488.171	81.88
488.389	104.88
488.607	105.88
488.825	90.88
489.043	98.88
489.261	94.88
489.479	88.88
489.696	91.88
489.914	98.88
490.132	87.88
490.35	84.88
490.568	86.88
490.786	81.88
491.003	100.88
491.221	91.88
491.439	98.88
491.657	86.88
491.874	99.88
492.092	85.88
492.31	95.88
492.527	88.88
492.745	85.88
492.963	90.88
493.18	83.88
493.398	87.88
493.615	91.88
493.833	97.88
494.05	94.88
494.268	81.88
494.485	69.88
494.703	61.88
494.92	83.88
495.138	91.88
495.355	90.88
495.573	88.88
495.79	77.88
496.008	87.88
496.225	98.88
496.442	91.88
496.66	83.88
496.877	90.88
497.094	89.88
497.312	84.88
497.529	100.88
497.746	94.88
497.963	74.88
498.181	101.88
498.398	99.88
498.615	126.88
498.832	120.88
499.049	82.88
499.267	90.88
499.484	84.88
499.701	100.88
499.918	90.88
500.135	93.88
500.352	83.88
500.569	99.88
500.786	92.88
501.003	80.88
501.22	94.88
501.437	87.88
501.654	109.88
501.871	138.88
502.088	100.88
502.305	81.88
502.522	88.88
502.739	87.88
502.956	80.88
503.172	84.88
503.389	116.88
503.606	116.88
503.823	112.88
504.04	92.88
504.256	92.88
504.473	94.88
504.69	89.88
504.907	78.88
505.123	97.88
505.34	95.88
505.557	84.88
505.773	92.88
505.99	110.88
506.207	83.88
506.423	78.88
506.64	96.88
506.856	83.88
507.073	79.88
507.289	104.88
507.506	114.88
507.722	136.88
507.939	142.88
508.155	97.88
508.372	80.88
508.588	91.88
508.805	92.88
509.021	105.88
509.238	103.88
509.454	111.88
509.67	96.88
509.887	120.88
510.103	147.88
510.319	244.88
510.536	958.88
510.752	3363.88
510.968	933.88
511.184	188.88
511.401	128.88
511.617	103.88
511.833	103.88
512.049	101.88
512.265	83.88
512.481	92.88
512.698	93.88
512.914	79.88
513.13	87.88
513.346	109.88
513.562	105.88
513.778	105.88
