Data from Circ_2022_H10_HRD10591_00014.txt Node
Date: Wed Jan 03 09:53:40 EST 2024
User: Yrep
Spectrometer: HR+D1059
Trigger mode: 1
Integration Time (sec): 1.000000E-1
Scans to average: 1
Electric dark correction enabled: true
Nonlinearity correction enabled: false
Boxcar width: 0
XAxis mode: Wavelengths
Number of Pixels in Spectrum: 2048
>>>>>Begin Spectral Data<<<<<
223.165	-25.75
223.4	-25.75
223.635	-25.75
223.869	-20.75
224.104	-4.75
224.338	1.25
224.573	-7.75
224.808	-17.75
225.042	-12.75
225.277	-0.75
225.511	-8.75
225.746	8.25
225.98	7.25
226.215	7.25
226.449	6.25
226.683	9.25
226.918	18.25
227.152	41.25
227.387	29.25
227.621	49.25
227.856	28.25
228.09	36.25
228.324	60.25
228.559	29.25
228.793	57.25
229.027	57.25
229.262	72.25
229.496	77.25
229.73	88.25
229.964	99.25
230.199	86.25
230.433	69.25
230.667	86.25
230.901	88.25
231.136	71.25
231.37	70.25
231.604	75.25
231.838	73.25
232.072	62.25
232.306	80.25
232.541	62.25
232.775	82.25
233.009	66.25
233.243	87.25
233.477	69.25
233.711	87.25
233.945	81.25
234.179	67.25
234.413	83.25
234.647	77.25
234.881	67.25
235.115	78.25
235.349	66.25
235.583	70.25
235.817	78.25
236.051	76.25
236.285	74.25
236.519	78.25
236.753	80.25
236.987	67.25
237.221	83.25
237.455	80.25
237.689	66.25
237.922	81.25
238.156	75.25
238.39	73.25
238.624	72.25
238.858	76.25
239.091	84.25
239.325	70.25
239.559	85.25
239.793	82.25
240.027	86.25
240.26	73.25
240.494	79.25
240.728	75.25
240.961	87.25
241.195	75.25
241.429	75.25
241.662	70.25
241.896	63.25
242.13	75.25
242.363	83.25
242.597	76.25
242.83	61.25
243.064	79.25
243.298	72.25
243.531	79.25
243.765	66.25
243.998	73.25
244.232	86.25
244.465	77.25
244.699	69.25
244.932	76.25
245.166	65.25
245.399	68.25
245.633	84.25
245.866	80.25
246.099	83.25
246.333	78.25
246.566	74.25
246.8	80.25
247.033	62.25
247.266	68.25
247.5	84.25
247.733	72.25
247.966	96.25
248.2	77.25
248.433	79.25
248.666	78.25
248.899	72.25
249.133	80.25
249.366	98.25
249.599	95.25
249.832	100.25
250.066	78.25
250.299	71.25
250.532	78.25
250.765	56.25
250.998	87.25
251.231	80.25
251.465	67.25
251.698	83.25
251.931	95.25
252.164	68.25
252.397	85.25
252.63	79.25
252.863	71.25
253.096	70.25
253.329	85.25
253.562	70.25
253.795	85.25
254.028	81.25
254.261	76.25
254.494	78.25
254.727	95.25
254.96	80.25
255.193	80.25
255.426	76.25
255.659	80.25
255.892	69.25
256.124	71.25
256.357	72.25
256.59	73.25
256.823	88.25
257.056	71.25
257.289	73.25
257.521	79.25
257.754	83.25
257.987	71.25
258.22	71.25
258.452	80.25
258.685	72.25
258.918	71.25
259.151	74.25
259.383	77.25
259.616	89.25
259.849	76.25
260.081	77.25
260.314	92.25
260.547	75.25
260.779	71.25
261.012	87.25
261.244	84.25
261.477	88.25
261.71	104.25
261.942	115.25
262.175	122.25
262.407	87.25
262.64	79.25
262.872	80.25
263.105	73.25
263.337	68.25
263.57	78.25
263.802	79.25
264.035	99.25
264.267	78.25
264.499	102.25
264.732	93.25
264.964	83.25
265.197	92.25
265.429	84.25
265.661	79.25
265.894	81.25
266.126	87.25
266.358	80.25
266.591	79.25
266.823	95.25
267.055	82.25
267.287	79.25
267.52	76.25
267.752	87.25
267.984	87.25
268.216	73.25
268.448	81.25
268.681	75.25
268.913	98.25
269.145	79.25
269.377	76.25
269.609	66.25
269.841	89.25
270.073	83.25
270.306	72.25
270.538	90.25
270.77	89.25
271.002	75.25
271.234	81.25
271.466	77.25
271.698	73.25
271.93	71.25
272.162	76.25
272.394	86.25
272.626	78.25
272.858	78.25
273.09	93.25
273.322	71.25
273.553	80.25
273.785	84.25
274.017	86.25
274.249	97.25
274.481	70.25
274.713	73.25
274.945	86.25
275.176	80.25
275.408	87.25
275.64	77.25
275.872	88.25
276.104	77.25
276.335	93.25
276.567	93.25
276.799	112.25
277.031	93.25
277.262	81.25
277.494	88.25
277.726	88.25
277.957	87.25
278.189	90.25
278.421	78.25
278.652	82.25
278.884	70.25
279.115	85.25
279.347	78.25
279.579	90.25
279.81	92.25
280.042	96.25
280.273	79.25
280.505	77.25
280.736	77.25
280.968	72.25
281.199	90.25
281.431	98.25
281.662	91.25
281.894	88.25
282.125	101.25
282.356	131.25
282.588	168.25
282.819	120.25
283.051	95.25
283.282	89.25
283.513	77.25
283.745	72.25
283.976	86.25
284.207	86.25
284.439	80.25
284.67	80.25
284.901	76.25
285.132	78.25
285.364	93.25
285.595	91.25
285.826	78.25
286.057	98.25
286.288	95.25
286.52	81.25
286.751	89.25
286.982	89.25
287.213	76.25
287.444	92.25
287.675	89.25
287.906	82.25
288.138	91.25
288.369	92.25
288.6	88.25
288.831	73.25
289.062	94.25
289.293	94.25
289.524	87.25
289.755	81.25
289.986	74.25
290.217	75.25
290.448	81.25
290.679	68.25
290.91	88.25
291.141	71.25
291.371	71.25
291.602	87.25
291.833	94.25
292.064	79.25
292.295	83.25
292.526	87.25
292.757	94.25
292.987	93.25
293.218	93.25
293.449	71.25
293.68	86.25
293.91	73.25
294.141	91.25
294.372	88.25
294.603	107.25
294.833	69.25
295.064	85.25
295.295	82.25
295.525	87.25
295.756	107.25
295.987	114.25
296.217	168.25
296.448	123.25
296.679	93.25
296.909	84.25
297.14	87.25
297.37	85.25
297.601	93.25
297.831	96.25
298.062	85.25
298.292	95.25
298.523	99.25
298.753	84.25
298.984	88.25
299.214	88.25
299.445	94.25
299.675	91.25
299.905	88.25
300.136	81.25
300.366	94.25
300.597	99.25
300.827	80.25
301.057	93.25
301.288	99.25
301.518	90.25
301.748	93.25
301.979	82.25
302.209	78.25
302.439	86.25
302.669	89.25
302.9	92.25
303.13	97.25
303.36	84.25
303.59	109.25
303.82	103.25
304.051	93.25
304.281	81.25
304.511	88.25
304.741	91.25
304.971	81.25
305.201	95.25
305.431	100.25
305.661	92.25
305.891	86.25
306.121	89.25
306.352	91.25
306.582	113.25
306.812	96.25
307.042	92.25
307.272	94.25
307.502	98.25
307.731	97.25
307.961	87.25
308.191	95.25
308.421	88.25
308.651	93.25
308.881	87.25
309.111	85.25
309.341	94.25
309.571	94.25
309.8	92.25
310.03	96.25
310.26	108.25
310.49	104.25
310.72	116.25
310.949	110.25
311.179	100.25
311.409	83.25
311.639	107.25
311.868	94.25
312.098	80.25
312.328	109.25
312.557	111.25
312.787	116.25
313.017	103.25
313.246	94.25
313.476	91.25
313.706	90.25
313.935	97.25
314.165	99.25
314.394	98.25
314.624	95.25
314.853	99.25
315.083	108.25
315.312	73.25
315.542	83.25
315.771	88.25
316.001	93.25
316.23	86.25
316.46	97.25
316.689	76.25
316.919	86.25
317.148	110.25
317.377	99.25
317.607	87.25
317.836	100.25
318.065	91.25
318.295	77.25
318.524	91.25
318.753	79.25
318.983	107.25
319.212	112.25
319.441	107.25
319.67	110.25
319.9	88.25
320.129	80.25
320.358	96.25
320.587	94.25
320.816	116.25
321.046	109.25
321.275	105.25
321.504	83.25
321.733	92.25
321.962	94.25
322.191	106.25
322.42	113.25
322.649	110.25
322.878	121.25
323.108	128.25
323.337	133.25
323.566	148.25
323.795	173.25
324.024	240.25
324.253	480.25
324.482	1075.25
324.71	2275.25
324.939	2954.25
325.168	1062.25
325.397	297.25
325.626	175.25
325.855	151.25
326.084	131.25
326.313	147.25
326.542	174.25
326.77	285.25
326.999	564.25
327.228	1151.25
327.457	2114.25
327.686	1762.25
327.914	476.25
328.143	228.25
328.372	178.25
328.6	144.25
328.829	135.25
329.058	158.25
329.287	165.25
329.515	123.25
329.744	108.25
329.972	111.25
330.201	94.25
330.43	130.25
330.658	148.25
330.887	168.25
331.115	151.25
331.344	110.25
331.572	114.25
331.801	120.25
332.03	111.25
332.258	93.25
332.486	98.25
332.715	97.25
332.943	97.25
333.172	100.25
333.4	95.25
333.629	104.25
333.857	121.25
334.085	104.25
334.314	87.25
334.542	108.25
334.771	109.25
334.999	93.25
335.227	115.25
335.455	106.25
335.684	89.25
335.912	91.25
336.14	96.25
336.369	108.25
336.597	100.25
336.825	97.25
337.053	92.25
337.281	83.25
337.51	87.25
337.738	99.25
337.966	82.25
338.194	99.25
338.422	96.25
338.65	91.25
338.878	98.25
339.106	86.25
339.334	69.25
339.562	80.25
339.79	98.25
340.018	96.25
340.246	69.25
340.474	92.25
340.702	113.25
340.93	93.25
341.158	87.25
341.386	99.25
341.614	88.25
341.842	91.25
342.07	86.25
342.298	98.25
342.526	92.25
342.754	93.25
342.981	84.25
343.209	88.25
343.437	88.25
343.665	91.25
343.893	79.25
344.12	99.25
344.348	88.25
344.576	79.25
344.804	105.25
345.031	92.25
345.259	100.25
345.487	89.25
345.714	92.25
345.942	89.25
346.17	91.25
346.397	99.25
346.625	86.25
346.853	100.25
347.08	98.25
347.308	89.25
347.535	95.25
347.763	101.25
347.99	79.25
348.218	116.25
348.445	101.25
348.673	94.25
348.9	96.25
349.128	109.25
349.355	77.25
349.583	108.25
349.81	83.25
350.037	95.25
350.265	74.25
350.492	100.25
350.72	101.25
350.947	108.25
351.174	116.25
351.402	112.25
351.629	93.25
351.856	91.25
352.083	113.25
352.311	101.25
352.538	123.25
352.765	112.25
352.992	129.25
353.22	127.25
353.447	100.25
353.674	97.25
353.901	93.25
354.128	90.25
354.355	100.25
354.583	97.25
354.81	81.25
355.037	89.25
355.264	91.25
355.491	74.25
355.718	82.25
355.945	95.25
356.172	84.25
356.399	101.25
356.626	96.25
356.853	107.25
357.08	80.25
357.307	90.25
357.534	98.25
357.761	86.25
357.988	91.25
358.215	87.25
358.441	79.25
358.668	90.25
358.895	88.25
359.122	84.25
359.349	74.25
359.576	107.25
359.802	127.25
360.029	132.25
360.256	128.25
360.483	100.25
360.709	95.25
360.936	85.25
361.163	103.25
361.39	96.25
361.616	95.25
361.843	92.25
362.07	93.25
362.296	97.25
362.523	86.25
362.749	92.25
362.976	98.25
363.203	89.25
363.429	95.25
363.656	98.25
363.882	92.25
364.109	85.25
364.335	97.25
364.562	88.25
364.788	88.25
365.015	92.25
365.241	102.25
365.468	107.25
365.694	109.25
365.92	93.25
366.147	84.25
366.373	93.25
366.599	81.25
366.826	105.25
367.052	99.25
367.278	68.25
367.505	104.25
367.731	93.25
367.957	97.25
368.184	92.25
368.41	97.25
368.636	112.25
368.862	128.25
369.089	123.25
369.315	93.25
369.541	103.25
369.767	89.25
369.993	78.25
370.219	98.25
370.445	84.25
370.672	94.25
370.898	83.25
371.124	87.25
371.35	92.25
371.576	87.25
371.802	95.25
372.028	96.25
372.254	88.25
372.48	77.25
372.706	83.25
372.932	95.25
373.158	80.25
373.384	100.25
373.61	96.25
373.835	85.25
374.061	78.25
374.287	88.25
374.513	90.25
374.739	91.25
374.965	81.25
375.191	84.25
375.416	91.25
375.642	93.25
375.868	79.25
376.094	94.25
376.319	94.25
376.545	80.25
376.771	93.25
376.997	88.25
377.222	89.25
377.448	84.25
377.674	98.25
377.899	94.25
378.125	81.25
378.35	91.25
378.576	83.25
378.802	97.25
379.027	109.25
379.253	88.25
379.478	84.25
379.704	95.25
379.929	89.25
380.155	82.25
380.38	106.25
380.606	89.25
380.831	88.25
381.057	98.25
381.282	98.25
381.507	87.25
381.733	94.25
381.958	109.25
382.184	91.25
382.409	100.25
382.634	101.25
382.86	110.25
383.085	102.25
383.31	111.25
383.535	96.25
383.761	90.25
383.986	107.25
384.211	99.25
384.436	104.25
384.662	92.25
384.887	101.25
385.112	112.25
385.337	113.25
385.562	102.25
385.787	94.25
386.013	110.25
386.238	119.25
386.463	111.25
386.688	134.25
386.913	109.25
387.138	103.25
387.363	95.25
387.588	113.25
387.813	108.25
388.038	112.25
388.263	121.25
388.488	129.25
388.713	93.25
388.938	91.25
389.163	93.25
389.387	81.25
389.612	84.25
389.837	96.25
390.062	92.25
390.287	79.25
390.512	86.25
390.736	83.25
390.961	99.25
391.186	104.25
391.411	86.25
391.636	87.25
391.86	89.25
392.085	96.25
392.31	84.25
392.534	92.25
392.759	86.25
392.984	76.25
393.208	87.25
393.433	101.25
393.658	93.25
393.882	86.25
394.107	87.25
394.331	87.25
394.556	76.25
394.78	83.25
395.005	89.25
395.229	82.25
395.454	89.25
395.678	81.25
395.903	80.25
396.127	94.25
396.352	92.25
396.576	91.25
396.801	74.25
397.025	104.25
397.249	87.25
397.474	82.25
397.698	92.25
397.922	78.25
398.147	90.25
398.371	82.25
398.595	94.25
398.82	72.25
399.044	79.25
399.268	84.25
399.492	80.25
399.717	83.25
399.941	90.25
400.165	91.25
400.389	101.25
400.613	89.25
400.837	81.25
401.062	98.25
401.286	90.25
401.51	87.25
401.734	83.25
401.958	104.25
402.182	152.25
402.406	206.25
402.63	149.25
402.854	98.25
403.078	72.25
403.302	78.25
403.526	83.25
403.75	72.25
403.974	78.25
404.198	79.25
404.422	85.25
404.645	111.25
404.869	94.25
405.093	99.25
405.317	104.25
405.541	114.25
405.765	114.25
405.988	139.25
406.212	228.25
406.436	293.25
406.66	207.25
406.883	105.25
407.107	101.25
407.331	103.25
407.555	84.25
407.778	104.25
408.002	93.25
408.226	79.25
408.449	89.25
408.673	78.25
408.896	99.25
409.12	95.25
409.344	90.25
409.567	90.25
409.791	74.25
410.014	105.25
410.238	103.25
410.461	94.25
410.685	86.25
410.908	95.25
411.132	111.25
411.355	95.25
411.578	88.25
411.802	94.25
412.025	88.25
412.249	88.25
412.472	95.25
412.695	73.25
412.919	93.25
413.142	89.25
413.365	88.25
413.589	95.25
413.812	87.25
414.035	97.25
414.258	79.25
414.482	96.25
414.705	96.25
414.928	84.25
415.151	92.25
415.374	96.25
415.597	91.25
415.821	86.25
416.044	83.25
416.267	79.25
416.49	85.25
416.713	89.25
416.936	78.25
417.159	92.25
417.382	86.25
417.605	76.25
417.828	88.25
418.051	83.25
418.274	67.25
418.497	101.25
418.72	83.25
418.943	77.25
419.166	90.25
419.389	84.25
419.611	75.25
419.834	91.25
420.057	92.25
420.28	77.25
420.503	90.25
420.726	87.25
420.948	82.25
421.171	100.25
421.394	109.25
421.617	89.25
421.839	97.25
422.062	88.25
422.285	89.25
422.507	104.25
422.73	106.25
422.953	87.25
423.175	87.25
423.398	93.25
423.621	83.25
423.843	92.25
424.066	85.25
424.288	99.25
424.511	85.25
424.733	84.25
424.956	113.25
425.178	93.25
425.401	117.25
425.623	99.25
425.846	89.25
426.068	112.25
426.291	85.25
426.513	81.25
426.735	75.25
426.958	93.25
427.18	117.25
427.402	147.25
427.625	206.25
427.847	167.25
428.069	108.25
428.292	98.25
428.514	82.25
428.736	95.25
428.958	91.25
429.181	80.25
429.403	83.25
429.625	86.25
429.847	92.25
430.069	96.25
430.292	91.25
430.514	89.25
430.736	85.25
430.958	92.25
431.18	84.25
431.402	92.25
431.624	89.25
431.846	73.25
432.068	85.25
432.29	83.25
432.512	77.25
432.734	80.25
432.956	95.25
433.178	89.25
433.4	95.25
433.622	94.25
433.844	92.25
434.066	101.25
434.287	105.25
434.509	95.25
434.731	85.25
434.953	87.25
435.175	98.25
435.397	92.25
435.618	88.25
435.84	108.25
436.062	135.25
436.284	116.25
436.505	97.25
436.727	99.25
436.949	88.25
437.17	92.25
437.392	92.25
437.614	103.25
437.835	135.25
438.057	128.25
438.278	114.25
438.5	107.25
438.721	128.25
438.943	101.25
439.165	77.25
439.386	99.25
439.608	95.25
439.829	101.25
440.05	145.25
440.272	186.25
440.493	102.25
440.715	97.25
440.936	82.25
441.158	90.25
441.379	91.25
441.6	97.25
441.822	99.25
442.043	103.25
442.264	107.25
442.486	120.25
442.707	83.25
442.928	100.25
443.149	162.25
443.371	145.25
443.592	103.25
443.813	123.25
444.034	130.25
444.255	107.25
444.476	76.25
444.698	86.25
444.919	80.25
445.14	131.25
445.361	133.25
445.582	125.25
445.803	166.25
446.024	149.25
446.245	144.25
446.466	139.25
446.687	84.25
446.908	91.25
447.129	86.25
447.35	89.25
447.571	76.25
447.792	110.25
448.013	105.25
448.234	111.25
448.455	98.25
448.675	131.25
448.896	126.25
449.117	107.25
449.338	118.25
449.559	132.25
449.779	136.25
450	96.25
450.221	95.25
450.442	87.25
450.662	111.25
450.883	125.25
451.104	130.25
451.324	95.25
451.545	86.25
451.766	88.25
451.986	88.25
452.207	83.25
452.428	89.25
452.648	109.25
452.869	120.25
453.089	118.25
453.31	124.25
453.53	87.25
453.751	80.25
453.971	137.25
454.192	119.25
454.412	95.25
454.633	99.25
454.853	69.25
455.073	87.25
455.294	75.25
455.514	100.25
455.734	93.25
455.955	87.25
456.175	83.25
456.395	77.25
456.616	86.25
456.836	88.25
457.056	83.25
457.276	81.25
457.497	83.25
457.717	87.25
457.937	87.25
458.157	86.25
458.377	88.25
458.598	110.25
458.818	204.25
459.038	219.25
459.258	128.25
459.478	96.25
459.698	91.25
459.918	81.25
460.138	96.25
460.358	83.25
460.578	78.25
460.798	84.25
461.018	89.25
461.238	95.25
461.458	102.25
461.678	82.25
461.898	80.25
462.118	76.25
462.338	80.25
462.558	92.25
462.777	91.25
462.997	95.25
463.217	100.25
463.437	87.25
463.657	75.25
463.876	79.25
464.096	88.25
464.316	99.25
464.536	93.25
464.755	101.25
464.975	131.25
465.195	228.25
465.414	217.25
465.634	97.25
465.854	78.25
466.073	88.25
466.293	92.25
466.512	80.25
466.732	79.25
466.951	77.25
467.171	99.25
467.391	91.25
467.61	112.25
467.829	105.25
468.049	98.25
468.268	93.25
468.488	83.25
468.707	95.25
468.927	98.25
469.146	100.25
469.365	93.25
469.585	92.25
469.804	84.25
470.023	103.25
470.243	98.25
470.462	123.25
470.681	129.25
470.901	101.25
471.12	83.25
471.339	88.25
471.558	92.25
471.777	91.25
471.997	85.25
472.216	104.25
472.435	101.25
472.654	81.25
472.873	79.25
473.092	99.25
473.311	88.25
473.53	68.25
473.749	84.25
473.968	97.25
474.187	123.25
474.406	98.25
474.625	93.25
474.844	81.25
475.063	83.25
475.282	68.25
475.501	81.25
475.72	104.25
475.939	82.25
476.158	87.25
476.377	89.25
476.596	79.25
476.814	93.25
477.033	97.25
477.252	93.25
477.471	87.25
477.69	96.25
477.908	80.25
478.127	83.25
478.346	80.25
478.564	97.25
478.783	96.25
479.002	97.25
479.22	101.25
479.439	95.25
479.658	109.25
479.876	91.25
480.095	88.25
480.313	104.25
480.532	92.25
480.751	85.25
480.969	85.25
481.188	112.25
481.406	94.25
481.624	79.25
481.843	87.25
482.061	77.25
482.28	90.25
482.498	83.25
482.717	90.25
482.935	83.25
483.153	107.25
483.372	76.25
483.59	81.25
483.808	98.25
484.027	85.25
484.245	89.25
484.463	80.25
484.681	89.25
484.9	89.25
485.118	76.25
485.336	82.25
485.554	96.25
485.772	92.25
485.99	98.25
486.209	96.25
486.427	94.25
486.645	124.25
486.863	114.25
487.081	100.25
487.299	88.25
487.517	91.25
487.735	86.25
487.953	96.25
488.171	97.25
488.389	88.25
488.607	108.25
488.825	85.25
489.043	90.25
489.261	96.25
489.479	86.25
489.696	85.25
489.914	93.25
490.132	87.25
490.35	94.25
490.568	85.25
490.786	91.25
491.003	87.25
491.221	82.25
491.439	84.25
491.657	92.25
491.874	87.25
492.092	80.25
492.31	103.25
492.527	91.25
492.745	91.25
492.963	84.25
493.18	89.25
493.398	92.25
493.615	95.25
493.833	91.25
494.05	99.25
494.268	102.25
494.485	88.25
494.703	75.25
494.92	92.25
495.138	88.25
495.355	82.25
495.573	78.25
495.79	82.25
496.008	84.25
496.225	88.25
496.442	100.25
496.66	97.25
496.877	83.25
497.094	93.25
497.312	76.25
497.529	80.25
497.746	94.25
497.963	89.25
498.181	88.25
498.398	108.25
498.615	109.25
498.832	108.25
499.049	91.25
499.267	79.25
499.484	84.25
499.701	94.25
499.918	89.25
500.135	96.25
500.352	84.25
500.569	86.25
500.786	95.25
501.003	95.25
501.22	88.25
501.437	100.25
501.654	97.25
501.871	124.25
502.088	102.25
502.305	84.25
502.522	112.25
502.739	96.25
502.956	92.25
503.172	79.25
503.389	84.25
503.606	104.25
503.823	97.25
504.04	85.25
504.256	87.25
504.473	105.25
504.69	84.25
504.907	107.25
505.123	85.25
505.34	89.25
505.557	82.25
505.773	96.25
505.99	89.25
506.207	81.25
506.423	96.25
506.64	109.25
506.856	91.25
507.073	88.25
507.289	86.25
507.506	96.25
507.722	128.25
507.939	131.25
508.155	99.25
508.372	84.25
508.588	94.25
508.805	71.25
509.021	83.25
509.238	104.25
509.454	103.25
509.67	102.25
509.887	116.25
510.103	139.25
510.319	261.25
510.536	979.25
510.752	3515.25
510.968	990.25
511.184	187.25
511.401	120.25
511.617	85.25
511.833	91.25
512.049	92.25
512.265	88.25
512.481	93.25
512.698	88.25
512.914	93.25
513.13	99.25
513.346	88.25
513.562	85.25
513.778	92.25
513.994	89.25
514.21	113.25
514.426	137.25
514.642	169.25
514.858	141.25
515.074	229.25
515.29	706.25
515.506	2478.25
515.721	902.25
