Data from Circ_2022_H10_HRD10591_00049.txt Node
Date: Wed Jan 03 09:53:47 EST 2024
User: Yrep
Spectrometer: HR+D1059
Trigger mode: 1
Integration Time (sec): 1.000000E-1
Scans to average: 1
Electric dark correction enabled: true
Nonlinearity correction enabled: false
Boxcar width: 0
XAxis mode: Wavelengths
Number of Pixels in Spectrum: 2048
>>>>>Begin Spectral Data<<<<<
223.165	-33.38
223.4	-33.38
223.635	-33.38
223.869	-30.38
224.104	-26.38
224.338	-12.38
224.573	-2.38
224.808	-6.38
225.042	-17.38
225.277	-6.38
225.511	5.62
225.746	5.62
225.98	-1.38
226.215	0.62
226.449	24.62
226.683	24.62
226.918	40.62
227.152	34.62
227.387	29.62
227.621	33.62
227.856	40.62
228.09	39.62
228.324	70.62
228.559	56.62
228.793	50.62
229.027	61.62
229.262	60.62
229.496	78.62
229.73	95.62
229.964	73.62
230.199	77.62
230.433	84.62
230.667	77.62
230.901	84.62
231.136	76.62
231.37	80.62
231.604	73.62
231.838	72.62
232.072	84.62
232.306	78.62
232.541	92.62
232.775	72.62
233.009	72.62
233.243	82.62
233.477	98.62
233.711	85.62
233.945	79.62
234.179	74.62
234.413	71.62
234.647	70.62
234.881	75.62
235.115	82.62
235.349	71.62
235.583	75.62
235.817	87.62
236.051	89.62
236.285	79.62
236.519	71.62
236.753	87.62
236.987	94.62
237.221	97.62
237.455	78.62
237.689	74.62
237.922	67.62
238.156	79.62
238.39	81.62
238.624	85.62
238.858	85.62
239.091	86.62
239.325	81.62
239.559	69.62
239.793	74.62
240.027	59.62
240.26	74.62
240.494	80.62
240.728	68.62
240.961	85.62
241.195	82.62
241.429	74.62
241.662	69.62
241.896	73.62
242.13	73.62
242.363	74.62
242.597	62.62
242.83	76.62
243.064	70.62
243.298	76.62
243.531	67.62
243.765	68.62
243.998	73.62
244.232	76.62
244.465	78.62
244.699	77.62
244.932	71.62
245.166	89.62
245.399	81.62
245.633	78.62
245.866	82.62
246.099	73.62
246.333	80.62
246.566	76.62
246.8	68.62
247.033	97.62
247.266	78.62
247.5	84.62
247.733	79.62
247.966	78.62
248.2	79.62
248.433	86.62
248.666	81.62
248.899	90.62
249.133	91.62
249.366	104.62
249.599	101.62
249.832	92.62
250.066	85.62
250.299	78.62
250.532	64.62
250.765	80.62
250.998	80.62
251.231	79.62
251.465	76.62
251.698	80.62
251.931	82.62
252.164	81.62
252.397	62.62
252.63	90.62
252.863	84.62
253.096	82.62
253.329	70.62
253.562	75.62
253.795	84.62
254.028	85.62
254.261	82.62
254.494	86.62
254.727	86.62
254.96	81.62
255.193	85.62
255.426	84.62
255.659	79.62
255.892	84.62
256.124	83.62
256.357	80.62
256.59	85.62
256.823	68.62
257.056	80.62
257.289	78.62
257.521	82.62
257.754	81.62
257.987	73.62
258.22	76.62
258.452	68.62
258.685	79.62
258.918	78.62
259.151	86.62
259.383	98.62
259.616	79.62
259.849	65.62
260.081	67.62
260.314	76.62
260.547	88.62
260.779	80.62
261.012	81.62
261.244	86.62
261.477	102.62
261.71	96.62
261.942	133.62
262.175	143.62
262.407	95.62
262.64	94.62
262.872	91.62
263.105	81.62
263.337	91.62
263.57	81.62
263.802	84.62
264.035	61.62
264.267	70.62
264.499	74.62
264.732	75.62
264.964	79.62
265.197	76.62
265.429	78.62
265.661	93.62
265.894	71.62
266.126	89.62
266.358	77.62
266.591	83.62
266.823	81.62
267.055	77.62
267.287	85.62
267.52	82.62
267.752	74.62
267.984	88.62
268.216	84.62
268.448	91.62
268.681	98.62
268.913	77.62
269.145	88.62
269.377	86.62
269.609	97.62
269.841	78.62
270.073	86.62
270.306	84.62
270.538	80.62
270.77	63.62
271.002	72.62
271.234	78.62
271.466	90.62
271.698	77.62
271.93	74.62
272.162	77.62
272.394	81.62
272.626	92.62
272.858	85.62
273.09	92.62
273.322	95.62
273.553	71.62
273.785	79.62
274.017	81.62
274.249	81.62
274.481	92.62
274.713	81.62
274.945	100.62
275.176	87.62
275.408	90.62
275.64	86.62
275.872	88.62
276.104	89.62
276.335	94.62
276.567	96.62
276.799	130.62
277.031	102.62
277.262	113.62
277.494	92.62
277.726	85.62
277.957	73.62
278.189	84.62
278.421	84.62
278.652	92.62
278.884	90.62
279.115	91.62
279.347	84.62
279.579	70.62
279.81	79.62
280.042	86.62
280.273	108.62
280.505	98.62
280.736	89.62
280.968	100.62
281.199	79.62
281.431	84.62
281.662	94.62
281.894	84.62
282.125	102.62
282.356	146.62
282.588	168.62
282.819	126.62
283.051	98.62
283.282	103.62
283.513	95.62
283.745	89.62
283.976	89.62
284.207	86.62
284.439	92.62
284.67	82.62
284.901	85.62
285.132	88.62
285.364	89.62
285.595	84.62
285.826	84.62
286.057	69.62
286.288	82.62
286.52	82.62
286.751	85.62
286.982	79.62
287.213	95.62
287.444	100.62
287.675	91.62
287.906	85.62
288.138	93.62
288.369	95.62
288.6	87.62
288.831	93.62
289.062	84.62
289.293	79.62
289.524	93.62
289.755	70.62
289.986	84.62
290.217	67.62
290.448	87.62
290.679	81.62
290.91	78.62
291.141	87.62
291.371	87.62
291.602	81.62
291.833	85.62
292.064	88.62
292.295	89.62
292.526	98.62
292.757	100.62
292.987	83.62
293.218	85.62
293.449	87.62
293.68	83.62
293.91	74.62
294.141	87.62
294.372	88.62
294.603	94.62
294.833	93.62
295.064	95.62
295.295	90.62
295.525	92.62
295.756	94.62
295.987	134.62
296.217	155.62
296.448	149.62
296.679	104.62
296.909	92.62
297.14	90.62
297.37	101.62
297.601	89.62
297.831	78.62
298.062	85.62
298.292	78.62
298.523	95.62
298.753	90.62
298.984	98.62
299.214	98.62
299.445	78.62
299.675	93.62
299.905	108.62
300.136	86.62
300.366	90.62
300.597	87.62
300.827	92.62
301.057	90.62
301.288	105.62
301.518	96.62
301.748	87.62
301.979	101.62
302.209	95.62
302.439	89.62
302.669	79.62
302.9	79.62
303.13	87.62
303.36	96.62
303.59	99.62
303.82	114.62
304.051	94.62
304.281	74.62
304.511	105.62
304.741	85.62
304.971	106.62
305.201	87.62
305.431	77.62
305.661	80.62
305.891	78.62
306.121	86.62
306.352	123.62
306.582	114.62
306.812	109.62
307.042	98.62
307.272	85.62
307.502	99.62
307.731	95.62
307.961	85.62
308.191	84.62
308.421	95.62
308.651	104.62
308.881	93.62
309.111	95.62
309.341	105.62
309.571	104.62
309.8	103.62
310.03	106.62
310.26	101.62
310.49	93.62
310.72	104.62
310.949	111.62
311.179	116.62
311.409	104.62
311.639	95.62
311.868	92.62
312.098	113.62
312.328	99.62
312.557	102.62
312.787	104.62
313.017	102.62
313.246	98.62
313.476	86.62
313.706	98.62
313.935	102.62
314.165	113.62
314.394	115.62
314.624	98.62
314.853	113.62
315.083	90.62
315.312	84.62
315.542	94.62
315.771	92.62
316.001	84.62
316.23	86.62
316.46	113.62
316.689	80.62
316.919	98.62
317.148	97.62
317.377	79.62
317.607	87.62
317.836	89.62
318.065	92.62
318.295	98.62
318.524	96.62
318.753	97.62
318.983	89.62
319.212	104.62
319.441	111.62
319.67	113.62
319.9	86.62
320.129	89.62
320.358	108.62
320.587	97.62
320.816	92.62
321.046	94.62
321.275	108.62
321.504	86.62
321.733	109.62
321.962	115.62
322.191	113.62
322.42	105.62
322.649	119.62
322.878	117.62
323.108	126.62
323.337	136.62
323.566	155.62
323.795	172.62
324.024	244.62
324.253	456.62
324.482	1009.62
324.71	2098.62
324.939	2840.62
325.168	1039.62
325.397	306.62
325.626	172.62
325.855	141.62
326.084	137.62
326.313	145.62
326.542	154.62
326.77	269.62
326.999	553.62
327.228	1082.62
327.457	2007.62
327.686	1673.62
327.914	455.62
328.143	260.62
328.372	214.62
328.6	166.62
328.829	126.62
329.058	163.62
329.287	161.62
329.515	119.62
329.744	103.62
329.972	135.62
330.201	165.62
330.43	230.62
330.658	192.62
330.887	196.62
331.115	168.62
331.344	123.62
331.572	112.62
331.801	112.62
332.03	111.62
332.258	105.62
332.486	106.62
332.715	103.62
332.943	100.62
333.172	102.62
333.4	104.62
333.629	111.62
333.857	145.62
334.085	136.62
334.314	172.62
334.542	249.62
334.771	240.62
334.999	135.62
335.227	105.62
335.455	110.62
335.684	98.62
335.912	92.62
336.14	105.62
336.369	97.62
336.597	108.62
336.825	101.62
337.053	80.62
337.281	96.62
337.51	97.62
337.738	79.62
337.966	91.62
338.194	109.62
338.422	102.62
338.65	100.62
338.878	87.62
339.106	81.62
339.334	96.62
339.562	83.62
339.79	97.62
340.018	108.62
340.246	100.62
340.474	91.62
340.702	91.62
340.93	86.62
341.158	100.62
341.386	93.62
341.614	99.62
341.842	100.62
342.07	104.62
342.298	104.62
342.526	86.62
342.754	89.62
342.981	93.62
343.209	90.62
343.437	95.62
343.665	80.62
343.893	99.62
344.12	92.62
344.348	95.62
344.576	80.62
344.804	73.62
345.031	103.62
345.259	101.62
345.487	110.62
345.714	86.62
345.942	90.62
346.17	102.62
346.397	93.62
346.625	97.62
346.853	95.62
347.08	94.62
347.308	101.62
347.535	97.62
347.763	101.62
347.99	104.62
348.218	115.62
348.445	88.62
348.673	114.62
348.9	94.62
349.128	99.62
349.355	97.62
349.583	89.62
349.81	85.62
350.037	81.62
350.265	101.62
350.492	99.62
350.72	94.62
350.947	122.62
351.174	112.62
351.402	118.62
351.629	92.62
351.856	109.62
352.083	104.62
352.311	123.62
352.538	114.62
352.765	100.62
352.992	139.62
353.22	116.62
353.447	97.62
353.674	101.62
353.901	99.62
354.128	89.62
354.355	94.62
354.583	92.62
354.81	84.62
355.037	88.62
355.264	92.62
355.491	96.62
355.718	110.62
355.945	96.62
356.172	99.62
356.399	93.62
356.626	94.62
356.853	101.62
357.08	88.62
357.307	93.62
357.534	90.62
357.761	97.62
357.988	100.62
358.215	88.62
358.441	97.62
358.668	98.62
358.895	94.62
359.122	100.62
359.349	95.62
359.576	102.62
359.802	114.62
360.029	137.62
360.256	126.62
360.483	100.62
360.709	78.62
360.936	87.62
361.163	107.62
361.39	106.62
361.616	94.62
361.843	102.62
362.07	96.62
362.296	97.62
362.523	96.62
362.749	83.62
362.976	99.62
363.203	98.62
363.429	102.62
363.656	101.62
363.882	95.62
364.109	94.62
364.335	99.62
364.562	90.62
364.788	98.62
365.015	87.62
365.241	109.62
365.468	134.62
365.694	94.62
365.92	93.62
366.147	85.62
366.373	92.62
366.599	93.62
366.826	81.62
367.052	89.62
367.278	91.62
367.505	90.62
367.731	94.62
367.957	88.62
368.184	95.62
368.41	109.62
368.636	120.62
368.862	124.62
369.089	118.62
369.315	117.62
369.541	82.62
369.767	80.62
369.993	85.62
370.219	85.62
370.445	89.62
370.672	93.62
370.898	75.62
371.124	89.62
371.35	89.62
371.576	79.62
371.802	82.62
372.028	87.62
372.254	87.62
372.48	79.62
372.706	88.62
372.932	91.62
373.158	86.62
373.384	86.62
373.61	100.62
373.835	96.62
374.061	87.62
374.287	98.62
374.513	82.62
374.739	100.62
374.965	109.62
375.191	93.62
375.416	78.62
375.642	87.62
375.868	94.62
376.094	87.62
376.319	88.62
376.545	82.62
376.771	81.62
376.997	83.62
377.222	86.62
377.448	91.62
377.674	84.62
377.899	87.62
378.125	89.62
378.35	90.62
378.576	102.62
378.802	92.62
379.027	82.62
379.253	97.62
379.478	92.62
379.704	74.62
379.929	96.62
380.155	94.62
380.38	119.62
380.606	94.62
380.831	95.62
381.057	100.62
381.282	95.62
381.507	101.62
381.733	99.62
381.958	91.62
382.184	100.62
382.409	99.62
382.634	81.62
382.86	98.62
383.085	98.62
383.31	114.62
383.535	101.62
383.761	84.62
383.986	99.62
384.211	91.62
384.436	96.62
384.662	112.62
384.887	99.62
385.112	98.62
385.337	94.62
385.562	94.62
385.787	111.62
386.013	110.62
386.238	124.62
386.463	94.62
386.688	106.62
386.913	110.62
387.138	104.62
387.363	97.62
387.588	99.62
387.813	102.62
388.038	92.62
388.263	106.62
388.488	111.62
388.713	102.62
388.938	96.62
389.163	84.62
389.387	101.62
389.612	94.62
389.837	97.62
390.062	97.62
390.287	86.62
390.512	80.62
390.736	82.62
390.961	89.62
391.186	88.62
391.411	109.62
391.636	100.62
391.86	91.62
392.085	104.62
392.31	95.62
392.534	84.62
392.759	91.62
392.984	81.62
393.208	82.62
393.433	77.62
393.658	95.62
393.882	97.62
394.107	93.62
394.331	81.62
394.556	90.62
394.78	85.62
395.005	93.62
395.229	84.62
395.454	89.62
395.678	82.62
395.903	96.62
396.127	87.62
396.352	94.62
396.576	78.62
396.801	89.62
397.025	81.62
397.249	73.62
397.474	93.62
397.698	84.62
397.922	81.62
398.147	96.62
398.371	94.62
398.595	85.62
398.82	84.62
399.044	82.62
399.268	90.62
399.492	82.62
399.717	86.62
399.941	100.62
400.165	94.62
400.389	95.62
400.613	103.62
400.837	93.62
401.062	92.62
401.286	99.62
401.51	98.62
401.734	98.62
401.958	110.62
402.182	136.62
402.406	195.62
402.63	156.62
402.854	111.62
403.078	85.62
403.302	74.62
403.526	84.62
403.75	92.62
403.974	90.62
404.198	86.62
404.422	92.62
404.645	94.62
404.869	96.62
405.093	95.62
405.317	120.62
405.541	103.62
405.765	109.62
405.988	122.62
406.212	197.62
406.436	290.62
406.66	206.62
406.883	105.62
407.107	106.62
407.331	107.62
407.555	102.62
407.778	97.62
408.002	93.62
408.226	99.62
408.449	77.62
408.673	96.62
408.896	95.62
409.12	113.62
409.344	81.62
409.567	99.62
409.791	86.62
410.014	91.62
410.238	90.62
410.461	87.62
410.685	91.62
410.908	106.62
411.132	99.62
411.355	101.62
411.578	81.62
411.802	94.62
412.025	96.62
412.249	79.62
412.472	104.62
412.695	100.62
412.919	99.62
413.142	77.62
413.365	91.62
413.589	88.62
413.812	85.62
414.035	79.62
414.258	78.62
414.482	94.62
414.705	91.62
414.928	90.62
415.151	89.62
415.374	93.62
415.597	95.62
415.821	90.62
416.044	78.62
416.267	69.62
416.49	96.62
416.713	93.62
416.936	94.62
417.159	79.62
417.382	85.62
417.605	95.62
417.828	89.62
418.051	95.62
418.274	105.62
418.497	91.62
418.72	93.62
418.943	78.62
419.166	83.62
419.389	78.62
419.611	89.62
419.834	91.62
420.057	87.62
420.28	85.62
420.503	80.62
420.726	86.62
420.948	81.62
421.171	96.62
421.394	79.62
421.617	77.62
421.839	84.62
422.062	75.62
422.285	82.62
422.507	90.62
422.73	100.62
422.953	81.62
423.175	90.62
423.398	86.62
423.621	86.62
423.843	85.62
424.066	93.62
424.288	74.62
424.511	105.62
424.733	97.62
424.956	133.62
425.178	103.62
425.401	93.62
425.623	98.62
425.846	101.62
426.068	98.62
426.291	88.62
426.513	88.62
426.735	81.62
426.958	94.62
427.18	124.62
427.402	164.62
427.625	236.62
427.847	176.62
428.069	133.62
428.292	98.62
428.514	86.62
428.736	83.62
428.958	81.62
429.181	71.62
429.403	85.62
429.625	84.62
429.847	91.62
430.069	112.62
430.292	95.62
430.514	96.62
430.736	91.62
430.958	96.62
431.18	82.62
431.402	82.62
431.624	99.62
431.846	79.62
432.068	95.62
432.29	79.62
432.512	88.62
432.734	77.62
432.956	97.62
433.178	98.62
433.4	93.62
433.622	83.62
433.844	78.62
434.066	104.62
434.287	86.62
434.509	87.62
434.731	79.62
434.953	87.62
435.175	90.62
435.397	72.62
435.618	93.62
435.84	108.62
436.062	144.62
436.284	123.62
436.505	109.62
436.727	126.62
436.949	104.62
437.17	79.62
437.392	87.62
437.614	97.62
437.835	127.62
438.057	140.62
438.278	128.62
438.5	118.62
438.721	143.62
438.943	97.62
439.165	88.62
439.386	79.62
439.608	81.62
439.829	109.62
440.05	152.62
440.272	164.62
440.493	112.62
440.715	85.62
440.936	94.62
441.158	88.62
441.379	80.62
441.6	102.62
441.822	97.62
442.043	121.62
442.264	123.62
442.486	112.62
442.707	98.62
442.928	110.62
443.149	180.62
443.371	174.62
443.592	126.62
443.813	146.62
444.034	135.62
444.255	98.62
444.476	81.62
444.698	87.62
444.919	75.62
445.14	149.62
445.361	151.62
445.582	152.62
445.803	175.62
446.024	170.62
446.245	151.62
446.466	117.62
446.687	95.62
446.908	87.62
447.129	83.62
447.35	85.62
447.571	99.62
447.792	88.62
448.013	102.62
448.234	112.62
448.455	108.62
448.675	142.62
448.896	144.62
449.117	118.62
449.338	112.62
449.559	150.62
449.779	149.62
450	85.62
450.221	86.62
450.442	84.62
450.662	94.62
450.883	125.62
451.104	125.62
451.324	109.62
451.545	78.62
451.766	94.62
451.986	93.62
452.207	87.62
452.428	87.62
452.648	97.62
452.869	132.62
453.089	128.62
453.31	137.62
453.53	98.62
453.751	92.62
453.971	111.62
454.192	126.62
454.412	93.62
454.633	94.62
454.853	86.62
455.073	90.62
455.294	85.62
455.514	109.62
455.734	104.62
455.955	81.62
456.175	67.62
456.395	111.62
456.616	75.62
456.836	70.62
457.056	80.62
457.276	80.62
457.497	88.62
457.717	83.62
457.937	85.62
458.157	87.62
458.377	97.62
458.598	129.62
458.818	192.62
459.038	208.62
459.258	138.62
459.478	111.62
459.698	84.62
459.918	85.62
460.138	89.62
460.358	74.62
460.578	86.62
460.798	89.62
461.018	92.62
461.238	93.62
461.458	81.62
461.678	69.62
461.898	91.62
462.118	88.62
462.338	88.62
462.558	86.62
462.777	80.62
462.997	86.62
463.217	74.62
463.437	83.62
463.657	81.62
463.876	88.62
464.096	84.62
464.316	99.62
464.536	95.62
464.755	101.62
464.975	125.62
465.195	225.62
465.414	227.62
465.634	114.62
465.854	106.62
466.073	91.62
466.293	83.62
466.512	88.62
466.732	86.62
466.951	94.62
467.171	92.62
467.391	100.62
467.61	123.62
467.829	108.62
468.049	125.62
468.268	148.62
468.488	85.62
468.707	81.62
468.927	83.62
469.146	78.62
469.365	87.62
469.585	83.62
469.804	106.62
470.023	97.62
470.243	87.62
470.462	113.62
470.681	120.62
470.901	99.62
471.12	97.62
471.339	78.62
471.558	86.62
471.777	86.62
471.997	115.62
472.216	156.62
472.435	258.62
472.654	127.62
472.873	82.62
473.092	74.62
473.311	84.62
473.53	77.62
473.749	90.62
473.968	105.62
474.187	120.62
474.406	116.62
474.625	87.62
474.844	81.62
475.063	81.62
475.282	72.62
475.501	74.62
475.72	94.62
475.939	95.62
476.158	83.62
476.377	105.62
476.596	109.62
476.814	95.62
477.033	114.62
477.252	91.62
477.471	85.62
477.69	98.62
477.908	82.62
478.127	68.62
478.346	83.62
478.564	94.62
478.783	108.62
479.002	84.62
479.22	93.62
479.439	104.62
479.658	113.62
479.876	108.62
480.095	92.62
480.313	89.62
480.532	104.62
480.751	112.62
480.969	154.62
481.188	429.62
481.406	297.62
481.624	99.62
481.843	80.62
482.061	85.62
482.28	74.62
482.498	91.62
482.717	79.62
482.935	93.62
483.153	86.62
483.372	93.62
483.59	97.62
483.808	73.62
484.027	85.62
484.245	98.62
484.463	98.62
484.681	90.62
484.9	84.62
485.118	97.62
485.336	99.62
485.554	83.62
485.772	103.62
485.99	103.62
486.209	84.62
486.427	102.62
486.645	127.62
486.863	128.62
487.081	108.62
487.299	91.62
487.517	93.62
487.735	95.62
487.953	90.62
488.171	85.62
488.389	101.62
488.607	93.62
488.825	93.62
489.043	76.62
489.261	95.62
489.479	83.62
489.696	74.62
489.914	88.62
490.132	79.62
490.35	71.62
490.568	93.62
490.786	90.62
491.003	94.62
491.221	98.62
491.439	75.62
491.657	94.62
491.874	91.62
492.092	92.62
492.31	96.62
492.527	94.62
492.745	83.62
492.963	79.62
493.18	92.62
493.398	83.62
493.615	90.62
493.833	92.62
494.05	92.62
494.268	78.62
494.485	94.62
494.703	85.62
494.92	85.62
495.138	89.62
495.355	92.62
495.573	96.62
495.79	83.62
496.008	85.62
496.225	86.62
496.442	81.62
496.66	84.62
496.877	79.62
497.094	75.62
497.312	87.62
497.529	76.62
497.746	84.62
497.963	93.62
498.181	103.62
498.398	88.62
498.615	105.62
498.832	100.62
499.049	82.62
499.267	98.62
499.484	82.62
499.701	99.62
499.918	103.62
500.135	98.62
500.352	93.62
500.569	111.62
500.786	85.62
501.003	93.62
501.22	89.62
501.437	88.62
501.654	101.62
501.871	113.62
502.088	96.62
502.305	82.62
502.522	99.62
502.739	99.62
502.956	92.62
503.172	103.62
503.389	99.62
503.606	124.62
503.823	97.62
504.04	97.62
504.256	89.62
504.473	85.62
504.69	93.62
504.907	78.62
505.123	81.62
505.34	90.62
505.557	89.62
505.773	87.62
505.99	76.62
506.207	94.62
506.423	95.62
506.64	84.62
506.856	98.62
507.073	91.62
507.289	97.62
507.506	110.62
507.722	125.62
507.939	126.62
508.155	100.62
508.372	91.62
508.588	86.62
508.805	100.62
509.021	97.62
509.238	96.62
509.454	110.62
509.67	112.62
509.887	110.62
510.103	148.62
510.319	248.62
510.536	904.62
510.752	3248.62
510.968	942.62
511.184	180.62
511.401	120.62
511.617	104.62
511.833	93.62
512.049	99.62
512.265	90.62
512.481	100.62
512.698	103.62
512.914	84.62
513.13	99.62
513.346	108.62
513.562	92.62
513.778	89.62
513.994	98.62
514.21	120.62
514.426	141.62
514.642	175.62
514.858	158.62
