Data from Circ_2022_H10_HRD10591_00017.txt Node
Date: Wed Jan 03 09:53:41 EST 2024
User: Yrep
Spectrometer: HR+D1059
Trigger mode: 1
Integration Time (sec): 1.000000E-1
Scans to average: 1
Electric dark correction enabled: true
Nonlinearity correction enabled: false
Boxcar width: 0
XAxis mode: Wavelengths
Number of Pixels in Spectrum: 2048
>>>>>Begin Spectral Data<<<<<
223.165	-12
223.4	-12
223.635	-12
223.869	-22
224.104	-26
224.338	-20
224.573	-24
224.808	-14
225.042	-3
225.277	2
225.511	0
225.746	3
225.98	20
226.215	12
226.449	17
226.683	14
226.918	20
227.152	33
227.387	29
227.621	31
227.856	35
228.09	48
228.324	49
228.559	53
228.793	57
229.027	42
229.262	53
229.496	63
229.73	91
229.964	81
230.199	82
230.433	73
230.667	69
230.901	88
231.136	78
231.37	79
231.604	81
231.838	87
232.072	66
232.306	81
232.541	79
232.775	64
233.009	81
233.243	77
233.477	83
233.711	82
233.945	96
234.179	77
234.413	77
234.647	78
234.881	89
235.115	87
235.349	80
235.583	82
235.817	74
236.051	68
236.285	77
236.519	76
236.753	85
236.987	77
237.221	75
237.455	92
237.689	68
237.922	78
238.156	71
238.39	72
238.624	66
238.858	75
239.091	82
239.325	84
239.559	79
239.793	86
240.027	64
240.26	89
240.494	77
240.728	86
240.961	76
241.195	74
241.429	87
241.662	71
241.896	72
242.13	68
242.363	87
242.597	83
242.83	69
243.064	65
243.298	84
243.531	93
243.765	94
243.998	73
244.232	92
244.465	79
244.699	79
244.932	68
245.166	79
245.399	87
245.633	69
245.866	73
246.099	88
246.333	89
246.566	69
246.8	80
247.033	82
247.266	64
247.5	74
247.733	77
247.966	83
248.2	89
248.433	86
248.666	82
248.899	76
249.133	80
249.366	88
249.599	94
249.832	94
250.066	82
250.299	80
250.532	81
250.765	83
250.998	68
251.231	76
251.465	87
251.698	74
251.931	93
252.164	66
252.397	73
252.63	71
252.863	81
253.096	59
253.329	77
253.562	81
253.795	71
254.028	85
254.261	87
254.494	63
254.727	86
254.96	91
255.193	74
255.426	73
255.659	83
255.892	79
256.124	85
256.357	85
256.59	93
256.823	85
257.056	88
257.289	71
257.521	80
257.754	87
257.987	84
258.22	85
258.452	83
258.685	84
258.918	92
259.151	97
259.383	81
259.616	69
259.849	88
260.081	74
260.314	82
260.547	89
260.779	83
261.012	95
261.244	88
261.477	85
261.71	88
261.942	129
262.175	131
262.407	105
262.64	79
262.872	86
263.105	65
263.337	76
263.57	72
263.802	70
264.035	86
264.267	86
264.499	67
264.732	93
264.964	83
265.197	97
265.429	100
265.661	71
265.894	63
266.126	84
266.358	96
266.591	85
266.823	85
267.055	81
267.287	77
267.52	90
267.752	81
267.984	71
268.216	78
268.448	91
268.681	77
268.913	73
269.145	80
269.377	82
269.609	77
269.841	75
270.073	73
270.306	75
270.538	93
270.77	91
271.002	89
271.234	89
271.466	89
271.698	78
271.93	91
272.162	92
272.394	73
272.626	82
272.858	79
273.09	77
273.322	82
273.553	83
273.785	93
274.017	89
274.249	109
274.481	81
274.713	96
274.945	83
275.176	92
275.408	84
275.64	97
275.872	79
276.104	80
276.335	93
276.567	111
276.799	121
277.031	110
277.262	101
277.494	97
277.726	83
277.957	83
278.189	92
278.421	80
278.652	74
278.884	83
279.115	74
279.347	80
279.579	95
279.81	86
280.042	99
280.273	93
280.505	103
280.736	95
280.968	83
281.199	88
281.431	76
281.662	99
281.894	101
282.125	109
282.356	133
282.588	175
282.819	121
283.051	91
283.282	87
283.513	94
283.745	91
283.976	83
284.207	87
284.439	82
284.67	89
284.901	84
285.132	103
285.364	80
285.595	94
285.826	85
286.057	105
286.288	87
286.52	92
286.751	87
286.982	91
287.213	77
287.444	89
287.675	99
287.906	98
288.138	88
288.369	98
288.6	101
288.831	82
289.062	96
289.293	82
289.524	87
289.755	83
289.986	95
290.217	80
290.448	97
290.679	88
290.91	81
291.141	83
291.371	96
291.602	90
291.833	78
292.064	79
292.295	103
292.526	88
292.757	86
292.987	73
293.218	77
293.449	94
293.68	94
293.91	86
294.141	86
294.372	92
294.603	88
294.833	103
295.064	91
295.295	82
295.525	107
295.756	99
295.987	137
296.217	160
296.448	175
296.679	105
296.909	90
297.14	84
297.37	89
297.601	102
297.831	103
298.062	101
298.292	96
298.523	87
298.753	87
298.984	82
299.214	83
299.445	93
299.675	98
299.905	107
300.136	97
300.366	83
300.597	90
300.827	103
301.057	95
301.288	119
301.518	103
301.748	95
301.979	98
302.209	92
302.439	96
302.669	102
302.9	82
303.13	100
303.36	92
303.59	108
303.82	127
304.051	97
304.281	93
304.511	88
304.741	92
304.971	96
305.201	102
305.431	96
305.661	101
305.891	100
306.121	95
306.352	107
306.582	104
306.812	101
307.042	94
307.272	92
307.502	103
307.731	97
307.961	82
308.191	85
308.421	92
308.651	90
308.881	103
309.111	103
309.341	99
309.571	99
309.8	98
310.03	107
310.26	104
310.49	103
310.72	104
310.949	99
311.179	98
311.409	97
311.639	114
311.868	102
312.098	102
312.328	97
312.557	99
312.787	128
313.017	117
313.246	90
313.476	88
313.706	96
313.935	106
314.165	103
314.394	99
314.624	105
314.853	96
315.083	105
315.312	84
315.542	89
315.771	90
316.001	89
316.23	98
316.46	89
316.689	86
316.919	86
317.148	115
317.377	101
317.607	95
317.836	87
318.065	119
318.295	77
318.524	79
318.753	102
318.983	111
319.212	106
319.441	114
319.67	127
319.9	103
320.129	103
320.358	100
320.587	105
320.816	90
321.046	104
321.275	104
321.504	91
321.733	99
321.962	112
322.191	106
322.42	103
322.649	126
322.878	128
323.108	147
323.337	137
323.566	152
323.795	183
324.024	257
324.253	526
324.482	1139
324.71	2399
324.939	3154
325.168	1165
325.397	316
325.626	177
325.855	145
326.084	134
326.313	145
326.542	180
326.77	269
326.999	601
327.228	1233
327.457	2272
327.686	1787
327.914	488
328.143	229
328.372	193
328.6	146
328.829	140
329.058	168
329.287	155
329.515	115
329.744	111
329.972	108
330.201	103
330.43	112
330.658	139
330.887	197
331.115	151
331.344	116
331.572	111
331.801	118
332.03	113
332.258	89
332.486	80
332.715	89
332.943	96
333.172	93
333.4	107
333.629	119
333.857	133
334.085	109
334.314	103
334.542	102
334.771	117
334.999	111
335.227	115
335.455	93
335.684	111
335.912	97
336.14	109
336.369	103
336.597	108
336.825	112
337.053	108
337.281	100
337.51	101
337.738	106
337.966	97
338.194	107
338.422	102
338.65	96
338.878	104
339.106	101
339.334	100
339.562	107
339.79	95
340.018	92
340.246	95
340.474	93
340.702	115
340.93	98
341.158	106
341.386	96
341.614	102
341.842	102
342.07	104
342.298	90
342.526	99
342.754	94
342.981	98
343.209	85
343.437	101
343.665	92
343.893	100
344.12	88
344.348	109
344.576	96
344.804	100
345.031	102
345.259	113
345.487	109
345.714	97
345.942	118
346.17	106
346.397	113
346.625	94
346.853	79
347.08	83
347.308	96
347.535	104
347.763	109
347.99	113
348.218	116
348.445	110
348.673	115
348.9	105
349.128	109
349.355	86
349.583	100
349.81	95
350.037	80
350.265	103
350.492	103
350.72	103
350.947	98
351.174	106
351.402	140
351.629	118
351.856	118
352.083	100
352.311	108
352.538	127
352.765	112
352.992	114
353.22	115
353.447	109
353.674	94
353.901	105
354.128	98
354.355	89
354.583	100
354.81	106
355.037	111
355.264	94
355.491	88
355.718	100
355.945	84
356.172	94
356.399	81
356.626	94
356.853	85
357.08	106
357.307	92
357.534	89
357.761	95
357.988	90
358.215	90
358.441	101
358.668	105
358.895	104
359.122	97
359.349	91
359.576	91
359.802	115
360.029	145
360.256	145
360.483	120
360.709	103
360.936	104
361.163	106
361.39	102
361.616	107
361.843	102
362.07	94
362.296	114
362.523	84
362.749	101
362.976	96
363.203	102
363.429	96
363.656	98
363.882	96
364.109	108
364.335	97
364.562	111
364.788	90
365.015	85
365.241	108
365.468	123
365.694	127
365.92	109
366.147	91
366.373	86
366.599	106
366.826	88
367.052	76
367.278	97
367.505	95
367.731	96
367.957	103
368.184	108
368.41	107
368.636	123
368.862	138
369.089	128
369.315	107
369.541	112
369.767	91
369.993	104
370.219	97
370.445	75
370.672	93
370.898	88
371.124	94
371.35	85
371.576	101
371.802	87
372.028	97
372.254	105
372.48	97
372.706	100
372.932	86
373.158	78
373.384	80
373.61	104
373.835	82
374.061	95
374.287	109
374.513	98
374.739	98
374.965	95
375.191	95
375.416	108
375.642	101
375.868	83
376.094	95
376.319	95
376.545	98
376.771	96
376.997	84
377.222	112
377.448	97
377.674	91
377.899	87
378.125	103
378.35	108
378.576	83
378.802	74
379.027	98
379.253	91
379.478	103
379.704	94
379.929	92
380.155	90
380.38	101
380.606	93
380.831	87
381.057	96
381.282	101
381.507	106
381.733	92
381.958	110
382.184	100
382.409	115
382.634	117
382.86	114
383.085	105
383.31	102
383.535	109
383.761	108
383.986	113
384.211	111
384.436	107
384.662	100
384.887	102
385.112	108
385.337	102
385.562	117
385.787	111
386.013	133
386.238	129
386.463	116
386.688	123
386.913	109
387.138	105
387.363	105
387.588	100
387.813	115
388.038	113
388.263	119
388.488	105
388.713	111
388.938	95
389.163	99
389.387	105
389.612	86
389.837	98
390.062	102
390.287	96
390.512	91
390.736	99
390.961	99
391.186	91
391.411	102
391.636	99
391.86	97
392.085	86
392.31	77
392.534	73
392.759	106
392.984	79
393.208	93
393.433	95
393.658	106
393.882	78
394.107	84
394.331	87
394.556	87
394.78	98
395.005	87
395.229	90
395.454	81
395.678	98
395.903	75
396.127	89
396.352	80
396.576	92
396.801	100
397.025	104
397.249	81
397.474	89
397.698	108
397.922	88
398.147	84
398.371	85
398.595	92
398.82	90
399.044	86
399.268	79
399.492	85
399.717	95
399.941	87
400.165	95
400.389	93
400.613	87
400.837	90
401.062	78
401.286	94
401.51	90
401.734	93
401.958	106
402.182	149
402.406	202
402.63	143
402.854	104
403.078	77
403.302	97
403.526	91
403.75	86
403.974	80
404.198	93
404.422	97
404.645	93
404.869	96
405.093	101
405.317	106
405.541	104
405.765	111
405.988	154
406.212	243
406.436	311
406.66	210
406.883	117
407.107	103
407.331	92
407.555	98
407.778	97
408.002	113
408.226	91
408.449	86
408.673	102
408.896	95
409.12	93
409.344	89
409.567	86
409.791	80
410.014	91
410.238	89
410.461	87
410.685	88
410.908	96
411.132	115
411.355	95
411.578	93
411.802	94
412.025	84
412.249	102
412.472	93
412.695	104
412.919	99
413.142	86
413.365	86
413.589	77
413.812	83
414.035	102
414.258	96
414.482	84
414.705	82
414.928	84
415.151	96
415.374	94
415.597	99
415.821	86
416.044	83
416.267	95
416.49	86
416.713	97
416.936	92
417.159	105
417.382	101
417.605	90
417.828	115
418.051	100
418.274	103
418.497	90
418.72	99
418.943	81
419.166	81
419.389	98
419.611	96
419.834	88
420.057	85
420.28	85
420.503	93
420.726	89
420.948	89
421.171	93
421.394	87
421.617	98
421.839	96
422.062	99
422.285	92
422.507	98
422.73	107
422.953	104
423.175	87
423.398	101
423.621	86
423.843	74
424.066	93
424.288	87
424.511	84
424.733	103
424.956	104
425.178	92
425.401	119
425.623	113
425.846	100
426.068	108
426.291	89
426.513	82
426.735	87
426.958	118
427.18	110
427.402	166
427.625	224
427.847	178
428.069	123
428.292	85
428.514	89
428.736	83
428.958	88
429.181	91
429.403	71
429.625	88
429.847	101
430.069	113
430.292	99
430.514	80
430.736	104
430.958	96
431.18	96
431.402	87
431.624	87
431.846	93
432.068	104
432.29	85
432.512	88
432.734	93
432.956	83
433.178	98
433.4	111
433.622	102
433.844	95
434.066	93
434.287	83
434.509	82
434.731	92
434.953	88
435.175	92
435.397	89
435.618	85
435.84	111
436.062	139
436.284	122
436.505	105
436.727	94
436.949	86
437.17	98
437.392	93
437.614	91
437.835	132
438.057	115
438.278	132
438.5	117
438.721	123
438.943	101
439.165	96
439.386	103
439.608	92
439.829	109
440.05	148
440.272	160
440.493	110
440.715	86
440.936	93
441.158	97
441.379	93
441.6	94
441.822	104
442.043	114
442.264	116
442.486	103
442.707	87
442.928	121
443.149	180
443.371	170
443.592	124
443.813	125
444.034	100
444.255	96
444.476	95
444.698	88
444.919	84
445.14	135
445.361	123
445.582	136
445.803	161
446.024	157
446.245	154
446.466	117
446.687	99
446.908	91
447.129	94
447.35	86
447.571	101
447.792	82
448.013	98
448.234	119
448.455	112
448.675	106
448.896	124
449.117	108
449.338	125
449.559	121
449.779	153
450	108
450.221	79
450.442	98
450.662	92
450.883	114
451.104	146
451.324	107
451.545	76
451.766	98
451.986	101
452.207	88
452.428	106
452.648	114
452.869	123
453.089	147
453.31	138
453.53	100
453.751	92
453.971	111
454.192	139
454.412	104
454.633	80
454.853	95
455.073	97
455.294	94
455.514	112
455.734	87
455.955	79
456.175	98
456.395	88
456.616	77
456.836	79
457.056	84
457.276	83
457.497	99
457.717	86
457.937	96
458.157	94
458.377	105
458.598	112
458.818	199
459.038	216
459.258	153
459.478	95
459.698	75
459.918	84
460.138	75
460.358	77
460.578	87
460.798	97
461.018	83
461.238	82
461.458	94
461.678	78
461.898	86
462.118	92
462.338	88
462.558	86
462.777	92
462.997	95
463.217	90
463.437	79
463.657	75
463.876	87
464.096	88
464.316	100
464.536	102
464.755	105
464.975	134
465.195	213
465.414	224
465.634	109
465.854	81
466.073	91
466.293	87
466.512	70
466.732	91
466.951	104
467.171	96
467.391	115
467.61	109
467.829	96
468.049	99
468.268	81
468.488	72
468.707	80
468.927	85
469.146	98
469.365	73
469.585	88
469.804	92
470.023	92
470.243	102
470.462	115
470.681	132
470.901	99
471.12	80
471.339	96
471.558	89
471.777	85
471.997	85
472.216	99
472.435	108
472.654	106
472.873	93
473.092	106
473.311	95
473.53	81
473.749	91
473.968	90
474.187	107
474.406	106
474.625	90
474.844	95
475.063	98
475.282	83
475.501	81
475.72	85
475.939	83
476.158	88
476.377	78
476.596	81
476.814	100
477.033	114
477.252	104
477.471	95
477.69	98
477.908	89
478.127	83
478.346	93
478.564	106
478.783	106
479.002	109
479.22	98
479.439	102
479.658	113
479.876	101
480.095	97
480.313	98
480.532	99
480.751	88
480.969	92
481.188	129
481.406	118
481.624	99
481.843	91
482.061	104
482.28	101
482.498	97
482.717	94
482.935	92
483.153	75
483.372	103
483.59	74
483.808	89
484.027	96
484.245	85
484.463	101
484.681	100
484.9	87
485.118	95
485.336	99
485.554	99
485.772	108
485.99	101
486.209	101
486.427	108
486.645	114
486.863	121
487.081	105
487.299	101
487.517	102
487.735	91
487.953	84
488.171	104
488.389	94
488.607	101
488.825	104
489.043	93
489.261	92
489.479	93
489.696	90
489.914	94
490.132	103
490.35	100
490.568	97
490.786	85
491.003	87
491.221	91
491.439	101
491.657	101
491.874	96
492.092	75
492.31	106
492.527	81
492.745	90
492.963	100
493.18	99
493.398	100
493.615	113
493.833	89
494.05	89
494.268	102
494.485	85
494.703	97
494.92	101
495.138	116
495.355	80
495.573	95
495.79	91
496.008	100
496.225	91
496.442	102
496.66	107
496.877	96
497.094	95
497.312	83
497.529	98
497.746	95
497.963	89
498.181	97
498.398	91
498.615	112
498.832	102
499.049	89
499.267	91
499.484	81
499.701	80
499.918	93
500.135	92
500.352	90
500.569	103
500.786	92
501.003	100
501.22	79
501.437	93
501.654	98
501.871	119
502.088	92
502.305	94
502.522	96
502.739	99
502.956	83
503.172	99
503.389	109
503.606	116
503.823	96
504.04	91
504.256	87
504.473	86
504.69	92
504.907	111
505.123	104
505.34	87
505.557	77
505.773	77
505.99	86
506.207	92
506.423	92
506.64	79
506.856	82
507.073	77
507.289	95
507.506	99
507.722	121
507.939	125
508.155	99
508.372	95
508.588	104
508.805	100
509.021	91
509.238	95
509.454	101
509.67	102
509.887	123
510.103	153
510.319	257
510.536	1041
510.752	3727
510.968	1026
511.184	211
511.401	137
511.617	111
511.833	103
512.049	85
512.265	100
512.481	103
512.698	98
512.914	88
513.13	93
513.346	90
513.562	94
513.778	98
513.994	100
514.21	114
514.426	125
514.642	179
514.858	152
515.074	234
515.29	719
515.506	2630
515.721	937
515.937	193
516.153	132
516.369	106
516.585	105
516.801	100
517.016	115
517.232	98
517.448	107
517.664	100
517.879	105
518.095	97
518.311	85
518.527	95
518.742	98
518.958	94
519.173	115
519.389	91
519.605	105
519.82	103
520.036	110
520.251	146
520.467	139
520.682	117
520.898	129
521.113	133
521.329	194
521.544	274
521.76	914
521.975	4344
522.19	2627
522.406	519
522.621	170
522.836	133
523.052	107
523.267	89
523.482	92
523.698	115
523.913	135
524.128	127
524.343	98
524.559	86
524.774	90
524.989	106
525.204	116
525.419	102
525.634	89
525.849	86
526.064	90
526.28	99
526.495	97
526.71	91
526.925	88
527.14	93
527.355	87
527.57	90
527.785	90
527.999	104
528.214	109
528.429	101
528.644	109
528.859	98
529.074	106
529.289	138
529.503	263
529.718	129
529.933	95
530.148	70
530.363	89
530.577	99
530.792	81
531.007	102
531.221	105
531.436	98
531.651	97
531.865	86
532.08	88
532.295	91
532.509	98
532.724	99
532.938	98
533.153	89
533.367	101
533.582	79
533.796	98
534.011	97
534.225	99
534.44	87
534.654	91
534.868	81
535.083	93
535.297	100
535.511	111
535.726	105
535.94	100
536.154	93
536.369	97
536.583	96
536.797	101
537.011	99
537.225	91
537.44	94
537.654	84
537.868	86
538.082	94
538.296	94
538.51	88
538.724	68
538.938	93
539.153	102
539.367	108
539.581	102
539.795	76
540.009	101
540.222	95
540.436	81
540.65	96
540.864	86
541.078	106
541.292	90
541.506	88
541.72	90
541.934	87
542.147	98
542.361	91
542.575	91
542.789	82
543.002	99
543.216	93
543.43	112
543.644	98
543.857	76
544.071	93
544.285	99
544.498	91
544.712	94
544.925	87
545.139	102
545.352	87
545.566	85
545.779	82
545.993	95
546.206	94
546.42	97
546.633	90
546.847	108
547.06	94
547.274	92
547.487	83
547.7	89
547.914	74
548.127	89
548.34	76
548.554	89
548.767	88
548.98	99
549.193	87
549.407	91
549.62	99
549.833	83
550.046	90
550.259	91
550.473	84
550.686	86
550.899	97
551.112	87
551.325	103
551.538	83
551.751	79
551.964	92
552.177	96
552.39	105
552.603	99
552.816	102
553.029	88
553.242	92
553.455	108
553.667	127
553.88	102
554.093	90
554.306	88
554.519	93
554.732	101
554.944	103
555.157	83
555.37	104
555.583	101
555.795	89
556.008	98
556.221	96
556.433	98
556.646	90
556.859	98
557.071	92
557.284	87
557.496	88
557.709	86
557.921	93
558.134	106
558.346	79
558.559	89
558.771	83
558.984	91
559.196	96
559.409	84
559.621	88
559.833	92
560.046	91
560.258	90
560.47	93
560.683	77
560.895	105
561.107	86
561.32	97
561.532	88
561.744	83
561.956	87
562.168	95
562.381	87
562.593	97
562.805	93
563.017	101
563.229	79
563.441	86
563.653	91
563.865	99
564.077	83
564.289	82
564.501	70
564.713	91
564.925	101
565.137	111
565.349	97
565.561	90
565.773	98
565.985	86
566.197	80
566.408	73
566.62	91
566.832	93
567.044	92
567.255	73
567.467	81
567.679	81
567.891	86
568.102	84
568.314	83
568.526	86
568.737	98
568.949	82
569.161	91
569.372	100
569.584	79
569.795	98
570.007	139
570.218	340
570.43	173
570.641	90
570.853	94
571.064	96
571.276	92
571.487	89
571.698	92
571.91	97
572.121	96
572.333	96
572.544	79
572.755	92
572.966	81
573.178	90
573.389	95
573.6	92
573.811	90
574.023	93
574.234	96
574.445	82
574.656	91
574.867	81
575.078	73
575.289	87
575.501	87
575.712	82
575.923	71
576.134	95
576.345	80
576.556	74
576.767	70
576.978	88
577.188	91
577.399	90
577.61	95
577.821	106
578.032	132
578.243	357
578.454	1191
578.665	295
578.875	123
579.086	97
579.297	92
579.508	93
579.718	100
579.929	87
580.14	89
580.35	95
580.561	82
580.772	95
580.982	91
