Data from Circ_2022_H10_HRD10591_00046.txt Node
Date: Wed Jan 03 09:53:46 EST 2024
User: Yrep
Spectrometer: HR+D1059
Trigger mode: 1
Integration Time (sec): 1.000000E-1
Scans to average: 1
Electric dark correction enabled: true
Nonlinearity correction enabled: false
Boxcar width: 0
XAxis mode: Wavelengths
Number of Pixels in Spectrum: 2048
>>>>>Begin Spectral Data<<<<<
223.165	-21.12
223.4	-21.12
223.635	-21.12
223.869	-6.12
224.104	-12.12
224.338	-16.12
224.573	-9.12
224.808	-21.12
225.042	-16.12
225.277	-0.12
225.511	-7.12
225.746	6.88
225.98	4.88
226.215	34.88
226.449	6.88
226.683	17.88
226.918	17.88
227.152	19.88
227.387	43.88
227.621	53.88
227.856	51.88
228.09	41.88
228.324	58.88
228.559	55.88
228.793	66.88
229.027	69.88
229.262	73.88
229.496	62.88
229.73	98.88
229.964	86.88
230.199	74.88
230.433	67.88
230.667	65.88
230.901	83.88
231.136	68.88
231.37	83.88
231.604	71.88
231.838	78.88
232.072	69.88
232.306	64.88
232.541	101.88
232.775	94.88
233.009	80.88
233.243	81.88
233.477	76.88
233.711	74.88
233.945	74.88
234.179	76.88
234.413	76.88
234.647	86.88
234.881	78.88
235.115	66.88
235.349	64.88
235.583	69.88
235.817	73.88
236.051	76.88
236.285	86.88
236.519	82.88
236.753	70.88
236.987	73.88
237.221	80.88
237.455	85.88
237.689	69.88
237.922	77.88
238.156	100.88
238.39	74.88
238.624	80.88
238.858	82.88
239.091	85.88
239.325	85.88
239.559	82.88
239.793	77.88
240.027	70.88
240.26	81.88
240.494	79.88
240.728	83.88
240.961	78.88
241.195	77.88
241.429	85.88
241.662	88.88
241.896	71.88
242.13	90.88
242.363	80.88
242.597	79.88
242.83	68.88
243.064	76.88
243.298	72.88
243.531	80.88
243.765	73.88
243.998	94.88
244.232	92.88
244.465	87.88
244.699	86.88
244.932	87.88
245.166	78.88
245.399	70.88
245.633	73.88
245.866	75.88
246.099	89.88
246.333	88.88
246.566	71.88
246.8	76.88
247.033	91.88
247.266	79.88
247.5	97.88
247.733	87.88
247.966	82.88
248.2	88.88
248.433	67.88
248.666	81.88
248.899	95.88
249.133	87.88
249.366	82.88
249.599	94.88
249.832	73.88
250.066	66.88
250.299	95.88
250.532	90.88
250.765	67.88
250.998	72.88
251.231	66.88
251.465	84.88
251.698	81.88
251.931	66.88
252.164	98.88
252.397	62.88
252.63	72.88
252.863	83.88
253.096	74.88
253.329	82.88
253.562	92.88
253.795	82.88
254.028	87.88
254.261	73.88
254.494	87.88
254.727	74.88
254.96	74.88
255.193	90.88
255.426	68.88
255.659	69.88
255.892	77.88
256.124	77.88
256.357	87.88
256.59	90.88
256.823	78.88
257.056	73.88
257.289	87.88
257.521	83.88
257.754	85.88
257.987	79.88
258.22	85.88
258.452	86.88
258.685	77.88
258.918	82.88
259.151	95.88
259.383	68.88
259.616	84.88
259.849	90.88
260.081	70.88
260.314	84.88
260.547	90.88
260.779	78.88
261.012	72.88
261.244	104.88
261.477	77.88
261.71	104.88
261.942	137.88
262.175	135.88
262.407	99.88
262.64	85.88
262.872	102.88
263.105	91.88
263.337	91.88
263.57	80.88
263.802	83.88
264.035	95.88
264.267	76.88
264.499	98.88
264.732	75.88
264.964	89.88
265.197	95.88
265.429	94.88
265.661	85.88
265.894	93.88
266.126	93.88
266.358	89.88
266.591	91.88
266.823	90.88
267.055	91.88
267.287	80.88
267.52	82.88
267.752	88.88
267.984	82.88
268.216	93.88
268.448	80.88
268.681	80.88
268.913	91.88
269.145	100.88
269.377	83.88
269.609	75.88
269.841	82.88
270.073	79.88
270.306	82.88
270.538	87.88
270.77	81.88
271.002	79.88
271.234	89.88
271.466	69.88
271.698	77.88
271.93	85.88
272.162	82.88
272.394	89.88
272.626	91.88
272.858	90.88
273.09	102.88
273.322	96.88
273.553	93.88
273.785	85.88
274.017	82.88
274.249	80.88
274.481	90.88
274.713	96.88
274.945	85.88
275.176	89.88
275.408	97.88
275.64	75.88
275.872	87.88
276.104	90.88
276.335	95.88
276.567	110.88
276.799	126.88
277.031	118.88
277.262	72.88
277.494	77.88
277.726	84.88
277.957	85.88
278.189	85.88
278.421	86.88
278.652	94.88
278.884	78.88
279.115	84.88
279.347	82.88
279.579	87.88
279.81	84.88
280.042	87.88
280.273	91.88
280.505	85.88
280.736	85.88
280.968	93.88
281.199	86.88
281.431	85.88
281.662	80.88
281.894	86.88
282.125	99.88
282.356	131.88
282.588	160.88
282.819	134.88
283.051	94.88
283.282	86.88
283.513	95.88
283.745	88.88
283.976	93.88
284.207	90.88
284.439	88.88
284.67	82.88
284.901	88.88
285.132	79.88
285.364	78.88
285.595	96.88
285.826	81.88
286.057	95.88
286.288	81.88
286.52	81.88
286.751	87.88
286.982	89.88
287.213	81.88
287.444	84.88
287.675	76.88
287.906	94.88
288.138	87.88
288.369	108.88
288.6	96.88
288.831	90.88
289.062	90.88
289.293	86.88
289.524	86.88
289.755	96.88
289.986	100.88
290.217	92.88
290.448	90.88
290.679	80.88
290.91	99.88
291.141	86.88
291.371	89.88
291.602	104.88
291.833	91.88
292.064	92.88
292.295	93.88
292.526	89.88
292.757	96.88
292.987	88.88
293.218	96.88
293.449	88.88
293.68	81.88
293.91	86.88
294.141	100.88
294.372	89.88
294.603	97.88
294.833	76.88
295.064	94.88
295.295	77.88
295.525	96.88
295.756	115.88
295.987	128.88
296.217	160.88
296.448	128.88
296.679	104.88
296.909	91.88
297.14	85.88
297.37	103.88
297.601	89.88
297.831	94.88
298.062	82.88
298.292	93.88
298.523	100.88
298.753	85.88
298.984	94.88
299.214	83.88
299.445	86.88
299.675	102.88
299.905	93.88
300.136	109.88
300.366	101.88
300.597	97.88
300.827	86.88
301.057	99.88
301.288	111.88
301.518	87.88
301.748	90.88
301.979	99.88
302.209	88.88
302.439	87.88
302.669	87.88
302.9	100.88
303.13	88.88
303.36	96.88
303.59	93.88
303.82	120.88
304.051	103.88
304.281	100.88
304.511	90.88
304.741	89.88
304.971	88.88
305.201	96.88
305.431	90.88
305.661	91.88
305.891	74.88
306.121	90.88
306.352	117.88
306.582	98.88
306.812	105.88
307.042	97.88
307.272	85.88
307.502	102.88
307.731	110.88
307.961	93.88
308.191	97.88
308.421	90.88
308.651	90.88
308.881	96.88
309.111	93.88
309.341	110.88
309.571	104.88
309.8	99.88
310.03	80.88
310.26	99.88
310.49	99.88
310.72	107.88
310.949	102.88
311.179	103.88
311.409	88.88
311.639	98.88
311.868	87.88
312.098	93.88
312.328	115.88
312.557	105.88
312.787	118.88
313.017	104.88
313.246	101.88
313.476	94.88
313.706	86.88
313.935	95.88
314.165	102.88
314.394	110.88
314.624	95.88
314.853	95.88
315.083	90.88
315.312	89.88
315.542	89.88
315.771	91.88
316.001	110.88
316.23	104.88
316.46	80.88
316.689	103.88
316.919	99.88
317.148	85.88
317.377	104.88
317.607	79.88
317.836	88.88
318.065	97.88
318.295	93.88
318.524	97.88
318.753	111.88
318.983	106.88
319.212	94.88
319.441	118.88
319.67	101.88
319.9	97.88
320.129	102.88
320.358	101.88
320.587	109.88
320.816	106.88
321.046	104.88
321.275	99.88
321.504	92.88
321.733	84.88
321.962	99.88
322.191	107.88
322.42	104.88
322.649	122.88
322.878	101.88
323.108	129.88
323.337	149.88
323.566	138.88
323.795	177.88
324.024	239.88
324.253	448.88
324.482	957.88
324.71	1967.88
324.939	2661.88
325.168	979.88
325.397	285.88
325.626	169.88
325.855	133.88
326.084	141.88
326.313	125.88
326.542	155.88
326.77	261.88
326.999	476.88
327.228	1012.88
327.457	1906.88
327.686	1541.88
327.914	447.88
328.143	232.88
328.372	187.88
328.6	134.88
328.829	128.88
329.058	136.88
329.287	151.88
329.515	128.88
329.744	109.88
329.972	109.88
330.201	156.88
330.43	201.88
330.658	169.88
330.887	159.88
331.115	153.88
331.344	97.88
331.572	94.88
331.801	114.88
332.03	104.88
332.258	100.88
332.486	91.88
332.715	87.88
332.943	82.88
333.172	102.88
333.4	111.88
333.629	120.88
333.857	121.88
334.085	127.88
334.314	147.88
334.542	193.88
334.771	193.88
334.999	131.88
335.227	98.88
335.455	95.88
335.684	91.88
335.912	96.88
336.14	93.88
336.369	98.88
336.597	109.88
336.825	101.88
337.053	85.88
337.281	80.88
337.51	94.88
337.738	111.88
337.966	94.88
338.194	85.88
338.422	104.88
338.65	89.88
338.878	76.88
339.106	83.88
339.334	93.88
339.562	91.88
339.79	90.88
340.018	83.88
340.246	104.88
340.474	100.88
340.702	96.88
340.93	85.88
341.158	97.88
341.386	96.88
341.614	87.88
341.842	98.88
342.07	97.88
342.298	82.88
342.526	83.88
342.754	111.88
342.981	81.88
343.209	89.88
343.437	109.88
343.665	86.88
343.893	84.88
344.12	84.88
344.348	82.88
344.576	87.88
344.804	111.88
345.031	96.88
345.259	110.88
345.487	95.88
345.714	110.88
345.942	92.88
346.17	100.88
346.397	88.88
346.625	80.88
346.853	98.88
347.08	103.88
347.308	89.88
347.535	97.88
347.763	106.88
347.99	102.88
348.218	102.88
348.445	118.88
348.673	88.88
348.9	101.88
349.128	99.88
349.355	89.88
349.583	97.88
349.81	101.88
350.037	80.88
350.265	92.88
350.492	85.88
350.72	104.88
350.947	87.88
351.174	123.88
351.402	117.88
351.629	106.88
351.856	105.88
352.083	91.88
352.311	96.88
352.538	125.88
352.765	99.88
352.992	116.88
353.22	126.88
353.447	109.88
353.674	94.88
353.901	107.88
354.128	100.88
354.355	95.88
354.583	89.88
354.81	98.88
355.037	80.88
355.264	104.88
355.491	106.88
355.718	78.88
355.945	97.88
356.172	106.88
356.399	87.88
356.626	93.88
356.853	85.88
357.08	98.88
357.307	100.88
357.534	102.88
357.761	86.88
357.988	81.88
358.215	101.88
358.441	87.88
358.668	86.88
358.895	94.88
359.122	101.88
359.349	90.88
359.576	94.88
359.802	110.88
360.029	110.88
360.256	123.88
360.483	104.88
360.709	98.88
360.936	90.88
361.163	79.88
361.39	95.88
361.616	95.88
361.843	86.88
362.07	88.88
362.296	94.88
362.523	102.88
362.749	93.88
362.976	103.88
363.203	103.88
363.429	97.88
363.656	82.88
363.882	111.88
364.109	86.88
364.335	94.88
364.562	79.88
364.788	81.88
365.015	93.88
365.241	110.88
365.468	107.88
365.694	121.88
365.92	96.88
366.147	97.88
366.373	87.88
366.599	97.88
366.826	88.88
367.052	86.88
367.278	97.88
367.505	102.88
367.731	93.88
367.957	106.88
368.184	104.88
368.41	101.88
368.636	113.88
368.862	136.88
369.089	106.88
369.315	89.88
369.541	96.88
369.767	84.88
369.993	87.88
370.219	86.88
370.445	88.88
370.672	91.88
370.898	98.88
371.124	80.88
371.35	85.88
371.576	97.88
371.802	75.88
372.028	80.88
372.254	83.88
372.48	86.88
372.706	95.88
372.932	94.88
373.158	94.88
373.384	91.88
373.61	87.88
373.835	99.88
374.061	85.88
374.287	99.88
374.513	75.88
374.739	104.88
374.965	88.88
375.191	98.88
375.416	97.88
375.642	69.88
375.868	90.88
376.094	77.88
376.319	97.88
376.545	90.88
376.771	84.88
376.997	94.88
377.222	90.88
377.448	90.88
377.674	89.88
377.899	74.88
378.125	82.88
378.35	86.88
378.576	74.88
378.802	87.88
379.027	109.88
379.253	93.88
379.478	84.88
379.704	75.88
379.929	94.88
380.155	93.88
380.38	101.88
380.606	104.88
380.831	91.88
381.057	85.88
381.282	87.88
381.507	86.88
381.733	98.88
381.958	79.88
382.184	96.88
382.409	87.88
382.634	102.88
382.86	93.88
383.085	110.88
383.31	101.88
383.535	90.88
383.761	93.88
383.986	99.88
384.211	102.88
384.436	96.88
384.662	88.88
384.887	97.88
385.112	102.88
385.337	95.88
385.562	99.88
385.787	98.88
386.013	110.88
386.238	115.88
386.463	126.88
386.688	103.88
386.913	93.88
387.138	78.88
387.363	102.88
387.588	115.88
387.813	102.88
388.038	99.88
388.263	109.88
388.488	92.88
388.713	88.88
388.938	103.88
389.163	77.88
389.387	82.88
389.612	103.88
389.837	91.88
390.062	84.88
390.287	99.88
390.512	106.88
390.736	86.88
390.961	99.88
391.186	109.88
391.411	98.88
391.636	97.88
391.86	87.88
392.085	89.88
392.31	90.88
392.534	86.88
392.759	82.88
392.984	82.88
393.208	83.88
393.433	93.88
393.658	89.88
393.882	95.88
394.107	86.88
394.331	95.88
394.556	81.88
394.78	92.88
395.005	79.88
395.229	85.88
395.454	78.88
395.678	74.88
395.903	96.88
396.127	90.88
396.352	99.88
396.576	75.88
396.801	87.88
397.025	103.88
397.249	87.88
397.474	80.88
397.698	90.88
397.922	80.88
398.147	85.88
398.371	87.88
398.595	78.88
398.82	86.88
399.044	88.88
399.268	99.88
399.492	89.88
399.717	79.88
399.941	104.88
400.165	86.88
400.389	97.88
400.613	82.88
400.837	90.88
401.062	87.88
401.286	92.88
401.51	101.88
401.734	105.88
401.958	105.88
402.182	140.88
402.406	175.88
402.63	146.88
402.854	110.88
403.078	97.88
403.302	103.88
403.526	79.88
403.75	75.88
403.974	86.88
404.198	90.88
404.422	78.88
404.645	84.88
404.869	96.88
405.093	94.88
405.317	109.88
405.541	102.88
405.765	106.88
405.988	129.88
406.212	208.88
406.436	295.88
406.66	188.88
406.883	88.88
407.107	97.88
407.331	102.88
407.555	106.88
407.778	94.88
408.002	88.88
408.226	96.88
408.449	95.88
408.673	81.88
408.896	87.88
409.12	96.88
409.344	99.88
409.567	95.88
409.791	95.88
410.014	96.88
410.238	96.88
410.461	85.88
410.685	88.88
410.908	98.88
411.132	91.88
411.355	93.88
411.578	91.88
411.802	84.88
412.025	77.88
412.249	91.88
412.472	90.88
412.695	101.88
412.919	107.88
413.142	92.88
413.365	88.88
413.589	93.88
413.812	70.88
414.035	91.88
414.258	91.88
414.482	85.88
414.705	85.88
414.928	75.88
415.151	86.88
415.374	98.88
415.597	87.88
415.821	82.88
416.044	91.88
416.267	89.88
416.49	93.88
416.713	75.88
416.936	97.88
417.159	87.88
417.382	101.88
417.605	87.88
417.828	92.88
418.051	83.88
418.274	98.88
418.497	92.88
418.72	87.88
418.943	86.88
419.166	84.88
419.389	86.88
419.611	93.88
419.834	93.88
420.057	93.88
420.28	80.88
420.503	82.88
420.726	93.88
420.948	85.88
421.171	94.88
421.394	102.88
421.617	91.88
421.839	89.88
422.062	72.88
422.285	93.88
422.507	99.88
422.73	104.88
422.953	94.88
423.175	89.88
423.398	73.88
423.621	86.88
423.843	87.88
424.066	88.88
424.288	86.88
424.511	85.88
424.733	112.88
424.956	103.88
425.178	94.88
425.401	108.88
425.623	102.88
425.846	103.88
426.068	94.88
426.291	101.88
426.513	97.88
426.735	106.88
426.958	103.88
427.18	112.88
427.402	157.88
427.625	193.88
427.847	144.88
428.069	122.88
428.292	108.88
428.514	85.88
428.736	95.88
428.958	89.88
429.181	73.88
429.403	75.88
429.625	87.88
429.847	94.88
430.069	98.88
430.292	99.88
430.514	84.88
430.736	75.88
430.958	84.88
431.18	84.88
431.402	90.88
431.624	94.88
431.846	88.88
432.068	84.88
432.29	84.88
432.512	82.88
432.734	82.88
432.956	97.88
433.178	108.88
433.4	103.88
433.622	97.88
433.844	88.88
434.066	91.88
434.287	106.88
434.509	80.88
434.731	89.88
434.953	88.88
435.175	93.88
435.397	87.88
435.618	94.88
435.84	112.88
436.062	124.88
436.284	122.88
436.505	113.88
436.727	87.88
436.949	89.88
437.17	87.88
437.392	87.88
437.614	88.88
437.835	117.88
438.057	117.88
438.278	119.88
438.5	112.88
438.721	128.88
438.943	112.88
439.165	91.88
439.386	93.88
439.608	103.88
439.829	93.88
440.05	146.88
440.272	140.88
440.493	89.88
440.715	82.88
440.936	79.88
441.158	93.88
441.379	84.88
441.6	98.88
441.822	82.88
442.043	97.88
442.264	104.88
442.486	102.88
442.707	96.88
442.928	116.88
443.149	155.88
443.371	149.88
443.592	118.88
443.813	122.88
444.034	118.88
444.255	86.88
444.476	71.88
444.698	97.88
444.919	81.88
445.14	130.88
445.361	141.88
445.582	129.88
445.803	162.88
446.024	145.88
446.245	133.88
446.466	104.88
446.687	86.88
446.908	84.88
447.129	83.88
447.35	91.88
447.571	91.88
447.792	96.88
448.013	88.88
448.234	110.88
448.455	109.88
448.675	104.88
448.896	118.88
449.117	97.88
449.338	105.88
449.559	138.88
449.779	143.88
450	111.88
450.221	93.88
450.442	96.88
450.662	94.88
450.883	115.88
451.104	146.88
451.324	100.88
451.545	83.88
451.766	94.88
451.986	100.88
452.207	90.88
452.428	94.88
452.648	99.88
452.869	125.88
453.089	133.88
453.31	125.88
453.53	91.88
453.751	95.88
453.971	111.88
454.192	120.88
454.412	102.88
454.633	98.88
454.853	89.88
455.073	89.88
455.294	87.88
455.514	106.88
455.734	90.88
455.955	75.88
456.175	80.88
456.395	81.88
456.616	89.88
456.836	98.88
457.056	77.88
457.276	96.88
457.497	94.88
457.717	91.88
457.937	78.88
458.157	85.88
458.377	95.88
458.598	139.88
458.818	203.88
459.038	201.88
459.258	131.88
459.478	102.88
459.698	81.88
459.918	84.88
460.138	100.88
460.358	90.88
460.578	85.88
460.798	96.88
461.018	85.88
461.238	87.88
461.458	88.88
461.678	81.88
461.898	102.88
462.118	90.88
462.338	88.88
462.558	78.88
462.777	80.88
462.997	74.88
463.217	96.88
463.437	83.88
463.657	84.88
463.876	90.88
464.096	100.88
464.316	119.88
464.536	106.88
464.755	106.88
464.975	113.88
465.195	209.88
465.414	183.88
465.634	94.88
465.854	85.88
466.073	106.88
466.293	93.88
466.512	85.88
466.732	80.88
466.951	81.88
467.171	82.88
467.391	92.88
467.61	129.88
467.829	121.88
468.049	117.88
468.268	132.88
468.488	95.88
468.707	81.88
468.927	82.88
469.146	83.88
469.365	97.88
469.585	102.88
469.804	110.88
470.023	114.88
470.243	99.88
470.462	99.88
470.681	129.88
470.901	85.88
471.12	84.88
471.339	81.88
471.558	86.88
471.777	92.88
471.997	83.88
472.216	146.88
472.435	222.88
472.654	130.88
472.873	79.88
473.092	80.88
473.311	77.88
473.53	85.88
473.749	92.88
473.968	95.88
474.187	103.88
474.406	112.88
474.625	71.88
474.844	95.88
475.063	97.88
475.282	91.88
475.501	79.88
475.72	82.88
475.939	89.88
476.158	90.88
476.377	86.88
476.596	90.88
476.814	101.88
477.033	104.88
477.252	96.88
477.471	94.88
477.69	88.88
477.908	75.88
478.127	75.88
478.346	92.88
478.564	89.88
478.783	102.88
479.002	85.88
479.22	88.88
479.439	91.88
479.658	104.88
479.876	94.88
480.095	85.88
480.313	90.88
480.532	90.88
480.751	96.88
480.969	148.88
481.188	346.88
481.406	243.88
481.624	103.88
481.843	89.88
482.061	73.88
482.28	91.88
482.498	82.88
482.717	77.88
482.935	93.88
483.153	67.88
483.372	81.88
483.59	85.88
483.808	84.88
484.027	83.88
484.245	93.88
484.463	89.88
484.681	97.88
484.9	103.88
485.118	104.88
485.336	103.88
485.554	83.88
485.772	94.88
485.99	92.88
486.209	93.88
486.427	103.88
486.645	120.88
486.863	123.88
487.081	99.88
487.299	109.88
487.517	79.88
487.735	98.88
487.953	88.88
488.171	98.88
488.389	94.88
488.607	105.88
488.825	88.88
489.043	88.88
489.261	92.88
489.479	79.88
489.696	90.88
489.914	104.88
490.132	88.88
490.35	89.88
490.568	85.88
490.786	79.88
491.003	93.88
491.221	86.88
491.439	95.88
491.657	106.88
491.874	88.88
492.092	98.88
492.31	109.88
492.527	95.88
492.745	90.88
492.963	81.88
493.18	88.88
493.398	88.88
493.615	85.88
493.833	82.88
494.05	89.88
494.268	74.88
494.485	88.88
494.703	89.88
494.92	87.88
495.138	100.88
495.355	80.88
495.573	93.88
495.79	95.88
496.008	96.88
496.225	100.88
496.442	81.88
496.66	83.88
496.877	87.88
497.094	108.88
497.312	90.88
497.529	87.88
497.746	80.88
497.963	98.88
498.181	97.88
498.398	88.88
498.615	106.88
498.832	106.88
499.049	90.88
499.267	77.88
499.484	85.88
499.701	94.88
499.918	114.88
500.135	98.88
500.352	93.88
500.569	88.88
500.786	75.88
501.003	88.88
501.22	78.88
501.437	104.88
501.654	99.88
501.871	105.88
502.088	111.88
502.305	91.88
502.522	90.88
502.739	94.88
502.956	79.88
503.172	94.88
503.389	89.88
503.606	116.88
503.823	104.88
504.04	102.88
504.256	84.88
504.473	87.88
504.69	75.88
504.907	84.88
505.123	86.88
505.34	93.88
505.557	83.88
505.773	89.88
505.99	88.88
506.207	99.88
506.423	84.88
506.64	82.88
506.856	72.88
507.073	98.88
507.289	94.88
507.506	95.88
507.722	114.88
507.939	127.88
508.155	93.88
508.372	83.88
508.588	84.88
508.805	89.88
509.021	103.88
509.238	94.88
509.454	87.88
509.67	106.88
509.887	115.88
510.103	138.88
510.319	244.88
510.536	999.88
510.752	3471.88
510.968	977.88
511.184	197.88
511.401	125.88
511.617	109.88
511.833	107.88
512.049	101.88
512.265	88.88
512.481	85.88
512.698	96.88
512.914	89.88
513.13	88.88
513.346	98.88
513.562	92.88
513.778	93.88
513.994	107.88
514.21	109.88
514.426	144.88
514.642	167.88
514.858	146.88
515.074	206.88
