Data from Circ_2022_H10_HRD10591_00089.txt Node
Date: Wed Jan 03 09:53:55 EST 2024
User: Yrep
Spectrometer: HR+D1059
Trigger mode: 1
Integration Time (sec): 1.000000E-1
Scans to average: 1
Electric dark correction enabled: true
Nonlinearity correction enabled: false
Boxcar width: 0
XAxis mode: Wavelengths
Number of Pixels in Spectrum: 2048
>>>>>Begin Spectral Data<<<<<
223.165	-18.19
223.4	-18.19
223.635	-18.19
223.869	-27.19
224.104	-19.19
224.338	-24.19
224.573	-16.19
224.808	4.81
225.042	-6.19
225.277	5.81
225.511	4.81
225.746	2.81
225.98	5.81
226.215	10.81
226.449	6.81
226.683	10.81
226.918	22.81
227.152	35.81
227.387	29.81
227.621	37.81
227.856	42.81
228.09	52.81
228.324	51.81
228.559	40.81
228.793	60.81
229.027	44.81
229.262	57.81
229.496	69.81
229.73	72.81
229.964	73.81
230.199	72.81
230.433	63.81
230.667	68.81
230.901	67.81
231.136	78.81
231.37	67.81
231.604	70.81
231.838	70.81
232.072	64.81
232.306	78.81
232.541	68.81
232.775	74.81
233.009	96.81
233.243	74.81
233.477	76.81
233.711	86.81
233.945	61.81
234.179	72.81
234.413	79.81
234.647	81.81
234.881	77.81
235.115	77.81
235.349	69.81
235.583	91.81
235.817	75.81
236.051	88.81
236.285	59.81
236.519	61.81
236.753	69.81
236.987	80.81
237.221	75.81
237.455	86.81
237.689	79.81
237.922	79.81
238.156	63.81
238.39	71.81
238.624	69.81
238.858	72.81
239.091	66.81
239.325	75.81
239.559	79.81
239.793	79.81
240.027	88.81
240.26	73.81
240.494	64.81
240.728	74.81
240.961	68.81
241.195	80.81
241.429	65.81
241.662	65.81
241.896	90.81
242.13	70.81
242.363	65.81
242.597	68.81
242.83	88.81
243.064	76.81
243.298	75.81
243.531	63.81
243.765	73.81
243.998	66.81
244.232	72.81
244.465	69.81
244.699	78.81
244.932	76.81
245.166	77.81
245.399	78.81
245.633	64.81
245.866	78.81
246.099	85.81
246.333	67.81
246.566	59.81
246.8	66.81
247.033	70.81
247.266	71.81
247.5	83.81
247.733	74.81
247.966	62.81
248.2	82.81
248.433	61.81
248.666	79.81
248.899	71.81
249.133	78.81
249.366	91.81
249.599	79.81
249.832	73.81
250.066	88.81
250.299	69.81
250.532	77.81
250.765	85.81
250.998	74.81
251.231	76.81
251.465	77.81
251.698	82.81
251.931	80.81
252.164	64.81
252.397	70.81
252.63	72.81
252.863	83.81
253.096	68.81
253.329	67.81
253.562	74.81
253.795	58.81
254.028	62.81
254.261	78.81
254.494	76.81
254.727	79.81
254.96	65.81
255.193	65.81
255.426	65.81
255.659	79.81
255.892	66.81
256.124	76.81
256.357	74.81
256.59	79.81
256.823	82.81
257.056	66.81
257.289	74.81
257.521	69.81
257.754	71.81
257.987	62.81
258.22	77.81
258.452	63.81
258.685	72.81
258.918	84.81
259.151	79.81
259.383	75.81
259.616	90.81
259.849	77.81
260.081	92.81
260.314	78.81
260.547	75.81
260.779	64.81
261.012	86.81
261.244	77.81
261.477	100.81
261.71	90.81
261.942	107.81
262.175	114.81
262.407	93.81
262.64	68.81
262.872	79.81
263.105	77.81
263.337	85.81
263.57	68.81
263.802	68.81
264.035	80.81
264.267	80.81
264.499	88.81
264.732	86.81
264.964	80.81
265.197	77.81
265.429	93.81
265.661	83.81
265.894	79.81
266.126	80.81
266.358	72.81
266.591	69.81
266.823	63.81
267.055	84.81
267.287	76.81
267.52	64.81
267.752	66.81
267.984	71.81
268.216	70.81
268.448	92.81
268.681	88.81
268.913	86.81
269.145	78.81
269.377	72.81
269.609	77.81
269.841	76.81
270.073	92.81
270.306	89.81
270.538	79.81
270.77	72.81
271.002	74.81
271.234	69.81
271.466	69.81
271.698	99.81
271.93	87.81
272.162	73.81
272.394	75.81
272.626	77.81
272.858	74.81
273.09	73.81
273.322	74.81
273.553	72.81
273.785	88.81
274.017	70.81
274.249	77.81
274.481	95.81
274.713	64.81
274.945	87.81
275.176	69.81
275.408	74.81
275.64	71.81
275.872	81.81
276.104	91.81
276.335	91.81
276.567	92.81
276.799	101.81
277.031	90.81
277.262	92.81
277.494	83.81
277.726	77.81
277.957	84.81
278.189	83.81
278.421	77.81
278.652	89.81
278.884	85.81
279.115	75.81
279.347	86.81
279.579	72.81
279.81	74.81
280.042	85.81
280.273	82.81
280.505	80.81
280.736	87.81
280.968	86.81
281.199	72.81
281.431	80.81
281.662	75.81
281.894	83.81
282.125	116.81
282.356	123.81
282.588	133.81
282.819	96.81
283.051	79.81
283.282	92.81
283.513	92.81
283.745	101.81
283.976	85.81
284.207	86.81
284.439	84.81
284.67	75.81
284.901	80.81
285.132	86.81
285.364	54.81
285.595	87.81
285.826	93.81
286.057	88.81
286.288	77.81
286.52	85.81
286.751	78.81
286.982	80.81
287.213	82.81
287.444	76.81
287.675	84.81
287.906	86.81
288.138	80.81
288.369	99.81
288.6	70.81
288.831	65.81
289.062	79.81
289.293	97.81
289.524	98.81
289.755	95.81
289.986	80.81
290.217	91.81
290.448	90.81
290.679	107.81
290.91	74.81
291.141	94.81
291.371	71.81
291.602	87.81
291.833	96.81
292.064	78.81
292.295	92.81
292.526	79.81
292.757	80.81
292.987	75.81
293.218	86.81
293.449	91.81
293.68	90.81
293.91	86.81
294.141	82.81
294.372	95.81
294.603	92.81
294.833	74.81
295.064	84.81
295.295	88.81
295.525	98.81
295.756	99.81
295.987	108.81
296.217	136.81
296.448	130.81
296.679	96.81
296.909	76.81
297.14	82.81
297.37	91.81
297.601	102.81
297.831	78.81
298.062	97.81
298.292	79.81
298.523	98.81
298.753	97.81
298.984	80.81
299.214	94.81
299.445	90.81
299.675	91.81
299.905	95.81
300.136	77.81
300.366	87.81
300.597	76.81
300.827	89.81
301.057	88.81
301.288	96.81
301.518	92.81
301.748	79.81
301.979	95.81
302.209	95.81
302.439	90.81
302.669	78.81
302.9	89.81
303.13	82.81
303.36	89.81
303.59	94.81
303.82	100.81
304.051	91.81
304.281	94.81
304.511	95.81
304.741	85.81
304.971	80.81
305.201	100.81
305.431	96.81
305.661	82.81
305.891	96.81
306.121	87.81
306.352	98.81
306.582	104.81
306.812	83.81
307.042	93.81
307.272	106.81
307.502	91.81
307.731	101.81
307.961	86.81
308.191	93.81
308.421	81.81
308.651	79.81
308.881	94.81
309.111	85.81
309.341	90.81
309.571	99.81
309.8	98.81
310.03	91.81
310.26	101.81
310.49	87.81
310.72	92.81
310.949	102.81
311.179	100.81
311.409	100.81
311.639	87.81
311.868	99.81
312.098	93.81
312.328	93.81
312.557	98.81
312.787	114.81
313.017	93.81
313.246	94.81
313.476	92.81
313.706	100.81
313.935	89.81
314.165	94.81
314.394	94.81
314.624	98.81
314.853	94.81
315.083	96.81
315.312	90.81
315.542	85.81
315.771	95.81
316.001	80.81
316.23	92.81
316.46	93.81
316.689	87.81
316.919	91.81
317.148	93.81
317.377	87.81
317.607	85.81
317.836	90.81
318.065	81.81
318.295	90.81
318.524	75.81
318.753	86.81
318.983	101.81
319.212	99.81
319.441	97.81
319.67	101.81
319.9	92.81
320.129	85.81
320.358	92.81
320.587	100.81
320.816	99.81
321.046	90.81
321.275	100.81
321.504	91.81
321.733	90.81
321.962	95.81
322.191	107.81
322.42	101.81
322.649	105.81
322.878	112.81
323.108	119.81
323.337	112.81
323.566	136.81
323.795	149.81
324.024	216.81
324.253	398.81
324.482	856.81
324.71	1716.81
324.939	2259.81
325.168	820.81
325.397	250.81
325.626	148.81
325.855	126.81
326.084	109.81
326.313	130.81
326.542	149.81
326.77	222.81
326.999	452.81
327.228	942.81
327.457	1674.81
327.686	1328.81
327.914	391.81
328.143	231.81
328.372	207.81
328.6	144.81
328.829	129.81
329.058	138.81
329.287	137.81
329.515	107.81
329.744	118.81
329.972	137.81
330.201	192.81
330.43	259.81
330.658	181.81
330.887	160.81
331.115	142.81
331.344	101.81
331.572	97.81
331.801	111.81
332.03	101.81
332.258	92.81
332.486	88.81
332.715	102.81
332.943	80.81
333.172	90.81
333.4	88.81
333.629	107.81
333.857	111.81
334.085	125.81
334.314	182.81
334.542	298.81
334.771	279.81
334.999	137.81
335.227	111.81
335.455	88.81
335.684	86.81
335.912	83.81
336.14	93.81
336.369	99.81
336.597	88.81
336.825	96.81
337.053	84.81
337.281	90.81
337.51	85.81
337.738	106.81
337.966	99.81
338.194	94.81
338.422	87.81
338.65	88.81
338.878	87.81
339.106	86.81
339.334	82.81
339.562	85.81
339.79	88.81
340.018	73.81
340.246	70.81
340.474	82.81
340.702	87.81
340.93	79.81
341.158	97.81
341.386	86.81
341.614	91.81
341.842	86.81
342.07	89.81
342.298	99.81
342.526	92.81
342.754	87.81
342.981	94.81
343.209	74.81
343.437	95.81
343.665	87.81
343.893	98.81
344.12	86.81
344.348	88.81
344.576	78.81
344.804	91.81
345.031	81.81
345.259	101.81
345.487	85.81
345.714	107.81
345.942	99.81
346.17	84.81
346.397	93.81
346.625	95.81
346.853	90.81
347.08	86.81
347.308	99.81
347.535	86.81
347.763	86.81
347.99	89.81
348.218	106.81
348.445	98.81
348.673	95.81
348.9	101.81
349.128	87.81
349.355	97.81
349.583	93.81
349.81	76.81
350.037	93.81
350.265	86.81
350.492	88.81
350.72	90.81
350.947	93.81
351.174	107.81
351.402	109.81
351.629	111.81
351.856	112.81
352.083	98.81
352.311	115.81
352.538	126.81
352.765	88.81
352.992	102.81
353.22	99.81
353.447	109.81
353.674	92.81
353.901	98.81
354.128	100.81
354.355	96.81
354.583	104.81
354.81	86.81
355.037	88.81
355.264	93.81
355.491	90.81
355.718	98.81
355.945	95.81
356.172	80.81
356.399	92.81
356.626	91.81
356.853	83.81
357.08	79.81
357.307	88.81
357.534	91.81
357.761	91.81
357.988	87.81
358.215	95.81
358.441	80.81
358.668	97.81
358.895	83.81
359.122	89.81
359.349	95.81
359.576	98.81
359.802	103.81
360.029	106.81
360.256	113.81
360.483	94.81
360.709	79.81
360.936	84.81
361.163	99.81
361.39	84.81
361.616	83.81
361.843	83.81
362.07	83.81
362.296	110.81
362.523	87.81
362.749	93.81
362.976	94.81
363.203	85.81
363.429	96.81
363.656	87.81
363.882	88.81
364.109	79.81
364.335	97.81
364.562	75.81
364.788	89.81
365.015	90.81
365.241	76.81
365.468	124.81
365.694	102.81
365.92	94.81
366.147	91.81
366.373	78.81
366.599	89.81
366.826	91.81
367.052	85.81
367.278	99.81
367.505	87.81
367.731	92.81
367.957	104.81
368.184	92.81
368.41	100.81
368.636	96.81
368.862	126.81
369.089	114.81
369.315	80.81
369.541	81.81
369.767	90.81
369.993	94.81
370.219	115.81
370.445	84.81
370.672	92.81
370.898	84.81
371.124	84.81
371.35	82.81
371.576	84.81
371.802	110.81
372.028	92.81
372.254	87.81
372.48	83.81
372.706	87.81
372.932	93.81
373.158	80.81
373.384	86.81
373.61	90.81
373.835	67.81
374.061	82.81
374.287	74.81
374.513	95.81
374.739	80.81
374.965	94.81
375.191	88.81
375.416	85.81
375.642	67.81
375.868	89.81
376.094	85.81
376.319	84.81
376.545	83.81
376.771	78.81
376.997	81.81
377.222	80.81
377.448	88.81
377.674	75.81
377.899	89.81
378.125	85.81
378.35	80.81
378.576	75.81
378.802	79.81
379.027	65.81
379.253	84.81
379.478	84.81
379.704	79.81
379.929	74.81
380.155	77.81
380.38	84.81
380.606	90.81
380.831	75.81
381.057	105.81
381.282	99.81
381.507	97.81
381.733	87.81
381.958	89.81
382.184	95.81
382.409	80.81
382.634	84.81
382.86	86.81
383.085	85.81
383.31	94.81
383.535	91.81
383.761	90.81
383.986	89.81
384.211	78.81
384.436	91.81
384.662	92.81
384.887	101.81
385.112	89.81
385.337	90.81
385.562	100.81
385.787	86.81
386.013	104.81
386.238	97.81
386.463	102.81
386.688	106.81
386.913	99.81
387.138	91.81
387.363	85.81
387.588	102.81
387.813	99.81
388.038	99.81
388.263	97.81
388.488	105.81
388.713	101.81
388.938	100.81
389.163	88.81
389.387	90.81
389.612	81.81
389.837	84.81
390.062	82.81
390.287	98.81
390.512	81.81
390.736	101.81
390.961	92.81
391.186	79.81
391.411	95.81
391.636	79.81
391.86	88.81
392.085	74.81
392.31	71.81
392.534	87.81
392.759	83.81
392.984	89.81
393.208	68.81
393.433	90.81
393.658	85.81
393.882	76.81
394.107	51.81
394.331	81.81
394.556	86.81
394.78	85.81
395.005	83.81
395.229	68.81
395.454	82.81
395.678	88.81
395.903	95.81
396.127	78.81
396.352	87.81
396.576	86.81
396.801	104.81
397.025	72.81
397.249	72.81
397.474	73.81
397.698	78.81
397.922	88.81
398.147	93.81
398.371	84.81
398.595	82.81
398.82	90.81
399.044	92.81
399.268	61.81
399.492	82.81
399.717	92.81
399.941	86.81
400.165	93.81
400.389	72.81
400.613	78.81
400.837	79.81
401.062	92.81
401.286	83.81
401.51	91.81
401.734	100.81
401.958	97.81
402.182	138.81
402.406	174.81
402.63	126.81
402.854	89.81
403.078	81.81
403.302	75.81
403.526	99.81
403.75	79.81
403.974	93.81
404.198	81.81
404.422	83.81
404.645	84.81
404.869	75.81
405.093	86.81
405.317	96.81
405.541	104.81
405.765	106.81
405.988	110.81
406.212	171.81
406.436	234.81
406.66	152.81
406.883	98.81
407.107	85.81
407.331	90.81
407.555	106.81
407.778	101.81
408.002	94.81
408.226	78.81
408.449	88.81
408.673	82.81
408.896	91.81
409.12	99.81
409.344	86.81
409.567	91.81
409.791	73.81
410.014	86.81
410.238	93.81
410.461	83.81
410.685	82.81
410.908	80.81
411.132	102.81
411.355	87.81
411.578	88.81
411.802	75.81
412.025	79.81
412.249	87.81
412.472	82.81
412.695	84.81
412.919	74.81
413.142	82.81
413.365	94.81
413.589	72.81
413.812	96.81
414.035	85.81
414.258	82.81
414.482	78.81
414.705	88.81
414.928	71.81
415.151	90.81
415.374	102.81
415.597	83.81
415.821	76.81
416.044	90.81
416.267	77.81
416.49	86.81
416.713	97.81
416.936	85.81
417.159	92.81
417.382	87.81
417.605	94.81
417.828	91.81
418.051	83.81
418.274	91.81
418.497	77.81
418.72	84.81
418.943	66.81
419.166	76.81
419.389	91.81
419.611	84.81
419.834	63.81
420.057	94.81
420.28	81.81
420.503	72.81
420.726	77.81
420.948	84.81
421.171	87.81
421.394	89.81
421.617	84.81
421.839	87.81
422.062	87.81
422.285	96.81
422.507	82.81
422.73	102.81
422.953	101.81
423.175	85.81
423.398	85.81
423.621	75.81
423.843	90.81
424.066	74.81
424.288	76.81
424.511	72.81
424.733	85.81
424.956	102.81
425.178	91.81
425.401	85.81
425.623	91.81
425.846	91.81
426.068	78.81
426.291	72.81
426.513	82.81
426.735	76.81
426.958	92.81
427.18	86.81
427.402	140.81
427.625	178.81
427.847	151.81
428.069	118.81
428.292	91.81
428.514	89.81
428.736	83.81
428.958	75.81
429.181	90.81
429.403	77.81
429.625	82.81
429.847	84.81
430.069	97.81
430.292	83.81
430.514	89.81
430.736	84.81
430.958	72.81
431.18	83.81
431.402	91.81
431.624	87.81
431.846	75.81
432.068	77.81
432.29	78.81
432.512	93.81
432.734	78.81
432.956	88.81
433.178	91.81
433.4	95.81
433.622	84.81
433.844	81.81
434.066	78.81
434.287	94.81
434.509	80.81
434.731	87.81
434.953	99.81
435.175	75.81
435.397	82.81
435.618	85.81
435.84	95.81
436.062	119.81
436.284	113.81
436.505	99.81
436.727	110.81
436.949	103.81
437.17	68.81
437.392	75.81
437.614	94.81
437.835	104.81
438.057	125.81
438.278	103.81
438.5	86.81
438.721	128.81
438.943	104.81
439.165	88.81
439.386	72.81
439.608	83.81
439.829	85.81
440.05	136.81
440.272	138.81
440.493	91.81
440.715	82.81
440.936	85.81
441.158	76.81
441.379	90.81
441.6	76.81
441.822	82.81
442.043	90.81
442.264	97.81
442.486	100.81
442.707	79.81
442.928	84.81
443.149	133.81
443.371	130.81
443.592	108.81
443.813	109.81
444.034	95.81
444.255	97.81
444.476	80.81
444.698	76.81
444.919	83.81
445.14	115.81
445.361	126.81
445.582	133.81
445.803	139.81
446.024	127.81
446.245	126.81
446.466	100.81
446.687	79.81
446.908	98.81
447.129	77.81
447.35	75.81
447.571	83.81
447.792	80.81
448.013	110.81
448.234	96.81
448.455	78.81
448.675	91.81
448.896	112.81
449.117	95.81
449.338	100.81
449.559	110.81
449.779	130.81
450	95.81
450.221	78.81
450.442	85.81
450.662	79.81
450.883	101.81
451.104	104.81
451.324	91.81
451.545	84.81
451.766	92.81
451.986	66.81
452.207	78.81
452.428	100.81
452.648	93.81
452.869	103.81
453.089	108.81
453.31	122.81
453.53	81.81
453.751	78.81
453.971	87.81
454.192	102.81
454.412	86.81
454.633	82.81
454.853	78.81
455.073	81.81
455.294	80.81
455.514	99.81
455.734	85.81
455.955	77.81
456.175	82.81
456.395	71.81
456.616	76.81
456.836	89.81
457.056	70.81
457.276	70.81
457.497	82.81
457.717	81.81
457.937	87.81
458.157	84.81
458.377	82.81
458.598	89.81
458.818	146.81
459.038	164.81
459.258	122.81
459.478	87.81
459.698	79.81
459.918	80.81
460.138	77.81
460.358	87.81
460.578	70.81
460.798	95.81
461.018	86.81
461.238	85.81
461.458	83.81
461.678	89.81
461.898	92.81
462.118	75.81
462.338	83.81
462.558	70.81
462.777	82.81
462.997	72.81
463.217	68.81
463.437	90.81
463.657	98.81
463.876	92.81
464.096	72.81
464.316	82.81
464.536	90.81
464.755	91.81
464.975	95.81
465.195	176.81
465.414	161.81
465.634	97.81
465.854	79.81
466.073	91.81
466.293	87.81
466.512	93.81
466.732	80.81
466.951	76.81
467.171	103.81
467.391	95.81
467.61	111.81
467.829	101.81
468.049	142.81
468.268	162.81
468.488	103.81
468.707	84.81
468.927	83.81
469.146	68.81
469.365	92.81
469.585	78.81
469.804	90.81
470.023	93.81
470.243	84.81
470.462	102.81
470.681	111.81
470.901	91.81
471.12	74.81
471.339	92.81
471.558	85.81
471.777	91.81
471.997	120.81
472.216	213.81
472.435	393.81
472.654	165.81
472.873	102.81
473.092	90.81
473.311	84.81
473.53	80.81
473.749	65.81
473.968	79.81
474.187	94.81
474.406	90.81
474.625	80.81
474.844	92.81
475.063	83.81
475.282	69.81
475.501	91.81
475.72	96.81
475.939	97.81
476.158	74.81
476.377	74.81
476.596	79.81
476.814	93.81
477.033	82.81
477.252	94.81
477.471	80.81
477.69	83.81
477.908	80.81
478.127	86.81
478.346	72.81
478.564	85.81
478.783	82.81
479.002	93.81
479.22	70.81
479.439	85.81
479.658	90.81
479.876	88.81
480.095	92.81
480.313	92.81
480.532	104.81
480.751	102.81
480.969	200.81
481.188	620.81
481.406	412.81
481.624	98.81
481.843	88.81
482.061	82.81
482.28	86.81
482.498	86.81
482.717	87.81
482.935	87.81
483.153	86.81
483.372	93.81
483.59	81.81
483.808	77.81
484.027	100.81
484.245	90.81
484.463	75.81
484.681	87.81
484.9	81.81
485.118	94.81
485.336	104.81
485.554	91.81
485.772	96.81
485.99	100.81
486.209	104.81
486.427	93.81
486.645	82.81
486.863	97.81
487.081	100.81
487.299	86.81
487.517	80.81
487.735	77.81
487.953	82.81
488.171	90.81
488.389	87.81
488.607	86.81
488.825	90.81
489.043	91.81
489.261	81.81
489.479	90.81
489.696	93.81
489.914	90.81
490.132	82.81
490.35	80.81
490.568	82.81
490.786	84.81
491.003	90.81
491.221	92.81
491.439	95.81
491.657	78.81
491.874	66.81
492.092	86.81
492.31	80.81
492.527	76.81
492.745	71.81
492.963	80.81
493.18	72.81
493.398	86.81
493.615	90.81
493.833	97.81
494.05	82.81
494.268	94.81
494.485	81.81
494.703	75.81
494.92	80.81
495.138	77.81
495.355	86.81
495.573	84.81
495.79	71.81
496.008	98.81
496.225	93.81
496.442	80.81
496.66	94.81
496.877	102.81
497.094	94.81
497.312	86.81
497.529	72.81
497.746	68.81
497.963	102.81
498.181	98.81
498.398	98.81
498.615	101.81
498.832	99.81
499.049	87.81
499.267	88.81
499.484	73.81
499.701	80.81
499.918	87.81
500.135	77.81
500.352	91.81
500.569	86.81
500.786	77.81
501.003	96.81
501.22	75.81
501.437	75.81
501.654	80.81
501.871	109.81
502.088	86.81
502.305	76.81
502.522	71.81
502.739	78.81
502.956	79.81
503.172	82.81
503.389	95.81
503.606	92.81
503.823	87.81
504.04	86.81
504.256	91.81
504.473	80.81
504.69	88.81
504.907	87.81
505.123	70.81
505.34	86.81
505.557	88.81
505.773	85.81
505.99	79.81
506.207	91.81
506.423	66.81
506.64	84.81
506.856	92.81
507.073	91.81
507.289	99.81
507.506	98.81
507.722	105.81
507.939	114.81
508.155	99.81
508.372	79.81
508.588	89.81
508.805	97.81
509.021	91.81
509.238	82.81
509.454	103.81
509.67	90.81
509.887	105.81
510.103	127.81
510.319	208.81
510.536	780.81
510.752	2690.81
510.968	803.81
511.184	172.81
511.401	111.81
511.617	96.81
511.833	94.81
512.049	89.81
512.265	86.81
512.481	83.81
512.698	82.81
512.914	85.81
513.13	96.81
513.346	97.81
513.562	90.81
513.778	90.81
513.994	100.81
514.21	101.81
514.426	109.81
514.642	122.81
514.858	135.81
515.074	165.81
515.29	482.81
515.506	1776.81
515.721	668.81
515.937	170.81
516.153	111.81
516.369	90.81
516.585	102.81
516.801	99.81
