Data from Circ_2022_H10_HRD10591_00077.txt Node
Date: Wed Jan 03 09:53:53 EST 2024
User: Yrep
Spectrometer: HR+D1059
Trigger mode: 1
Integration Time (sec): 1.000000E-1
Scans to average: 1
Electric dark correction enabled: true
Nonlinearity correction enabled: false
Boxcar width: 0
XAxis mode: Wavelengths
Number of Pixels in Spectrum: 2048
>>>>>Begin Spectral Data<<<<<
223.165	-5.5
223.4	-5.5
223.635	-5.5
223.869	-18.5
224.104	-32.5
224.338	-11.5
224.573	-8.5
224.808	-12.5
225.042	-16.5
225.277	5.5
225.511	-2.5
225.746	4.5
225.98	3.5
226.215	8.5
226.449	8.5
226.683	26.5
226.918	27.5
227.152	23.5
227.387	33.5
227.621	41.5
227.856	26.5
228.09	46.5
228.324	47.5
228.559	54.5
228.793	53.5
229.027	60.5
229.262	62.5
229.496	71.5
229.73	87.5
229.964	87.5
230.199	72.5
230.433	76.5
230.667	81.5
230.901	84.5
231.136	80.5
231.37	75.5
231.604	62.5
231.838	92.5
232.072	94.5
232.306	78.5
232.541	88.5
232.775	82.5
233.009	82.5
233.243	90.5
233.477	80.5
233.711	81.5
233.945	73.5
234.179	81.5
234.413	73.5
234.647	78.5
234.881	82.5
235.115	69.5
235.349	70.5
235.583	68.5
235.817	73.5
236.051	74.5
236.285	76.5
236.519	73.5
236.753	71.5
236.987	82.5
237.221	80.5
237.455	75.5
237.689	92.5
237.922	62.5
238.156	62.5
238.39	76.5
238.624	81.5
238.858	83.5
239.091	82.5
239.325	70.5
239.559	82.5
239.793	73.5
240.027	62.5
240.26	79.5
240.494	80.5
240.728	74.5
240.961	69.5
241.195	70.5
241.429	71.5
241.662	82.5
241.896	83.5
242.13	70.5
242.363	66.5
242.597	68.5
242.83	65.5
243.064	64.5
243.298	80.5
243.531	68.5
243.765	74.5
243.998	78.5
244.232	80.5
244.465	91.5
244.699	76.5
244.932	69.5
245.166	71.5
245.399	70.5
245.633	80.5
245.866	91.5
246.099	87.5
246.333	74.5
246.566	76.5
246.8	70.5
247.033	77.5
247.266	71.5
247.5	83.5
247.733	80.5
247.966	86.5
248.2	77.5
248.433	91.5
248.666	76.5
248.899	81.5
249.133	91.5
249.366	107.5
249.599	88.5
249.832	73.5
250.066	69.5
250.299	85.5
250.532	83.5
250.765	82.5
250.998	74.5
251.231	83.5
251.465	95.5
251.698	72.5
251.931	76.5
252.164	58.5
252.397	74.5
252.63	75.5
252.863	88.5
253.096	76.5
253.329	74.5
253.562	72.5
253.795	75.5
254.028	69.5
254.261	80.5
254.494	69.5
254.727	84.5
254.96	74.5
255.193	84.5
255.426	67.5
255.659	82.5
255.892	88.5
256.124	83.5
256.357	65.5
256.59	78.5
256.823	73.5
257.056	96.5
257.289	87.5
257.521	76.5
257.754	84.5
257.987	75.5
258.22	83.5
258.452	77.5
258.685	75.5
258.918	84.5
259.151	87.5
259.383	84.5
259.616	89.5
259.849	72.5
260.081	90.5
260.314	93.5
260.547	82.5
260.779	81.5
261.012	94.5
261.244	88.5
261.477	92.5
261.71	106.5
261.942	121.5
262.175	110.5
262.407	93.5
262.64	79.5
262.872	82.5
263.105	74.5
263.337	90.5
263.57	75.5
263.802	84.5
264.035	78.5
264.267	91.5
264.499	79.5
264.732	74.5
264.964	79.5
265.197	80.5
265.429	86.5
265.661	80.5
265.894	77.5
266.126	84.5
266.358	88.5
266.591	76.5
266.823	85.5
267.055	81.5
267.287	79.5
267.52	86.5
267.752	91.5
267.984	93.5
268.216	74.5
268.448	70.5
268.681	88.5
268.913	95.5
269.145	78.5
269.377	87.5
269.609	71.5
269.841	88.5
270.073	79.5
270.306	84.5
270.538	87.5
270.77	87.5
271.002	83.5
271.234	100.5
271.466	69.5
271.698	79.5
271.93	89.5
272.162	87.5
272.394	82.5
272.626	81.5
272.858	82.5
273.09	88.5
273.322	72.5
273.553	87.5
273.785	80.5
274.017	88.5
274.249	79.5
274.481	86.5
274.713	91.5
274.945	89.5
275.176	76.5
275.408	89.5
275.64	95.5
275.872	76.5
276.104	80.5
276.335	89.5
276.567	100.5
276.799	106.5
277.031	104.5
277.262	112.5
277.494	91.5
277.726	87.5
277.957	102.5
278.189	87.5
278.421	85.5
278.652	83.5
278.884	84.5
279.115	84.5
279.347	84.5
279.579	82.5
279.81	73.5
280.042	94.5
280.273	108.5
280.505	91.5
280.736	92.5
280.968	71.5
281.199	85.5
281.431	94.5
281.662	89.5
281.894	91.5
282.125	110.5
282.356	122.5
282.588	158.5
282.819	113.5
283.051	81.5
283.282	74.5
283.513	92.5
283.745	103.5
283.976	75.5
284.207	90.5
284.439	83.5
284.67	76.5
284.901	74.5
285.132	76.5
285.364	75.5
285.595	84.5
285.826	85.5
286.057	97.5
286.288	83.5
286.52	63.5
286.751	95.5
286.982	88.5
287.213	83.5
287.444	93.5
287.675	97.5
287.906	96.5
288.138	88.5
288.369	77.5
288.6	88.5
288.831	79.5
289.062	96.5
289.293	90.5
289.524	90.5
289.755	92.5
289.986	84.5
290.217	83.5
290.448	86.5
290.679	96.5
290.91	86.5
291.141	72.5
291.371	103.5
291.602	82.5
291.833	82.5
292.064	87.5
292.295	98.5
292.526	82.5
292.757	91.5
292.987	93.5
293.218	88.5
293.449	79.5
293.68	87.5
293.91	100.5
294.141	85.5
294.372	94.5
294.603	92.5
294.833	101.5
295.064	89.5
295.295	98.5
295.525	88.5
295.756	97.5
295.987	118.5
296.217	150.5
296.448	130.5
296.679	99.5
296.909	94.5
297.14	92.5
297.37	92.5
297.601	101.5
297.831	102.5
298.062	82.5
298.292	87.5
298.523	77.5
298.753	100.5
298.984	81.5
299.214	87.5
299.445	93.5
299.675	96.5
299.905	103.5
300.136	100.5
300.366	79.5
300.597	88.5
300.827	94.5
301.057	88.5
301.288	92.5
301.518	92.5
301.748	96.5
301.979	96.5
302.209	95.5
302.439	76.5
302.669	80.5
302.9	78.5
303.13	93.5
303.36	95.5
303.59	106.5
303.82	80.5
304.051	83.5
304.281	100.5
304.511	98.5
304.741	98.5
304.971	80.5
305.201	96.5
305.431	92.5
305.661	79.5
305.891	80.5
306.121	90.5
306.352	100.5
306.582	107.5
306.812	92.5
307.042	91.5
307.272	105.5
307.502	97.5
307.731	84.5
307.961	83.5
308.191	98.5
308.421	83.5
308.651	83.5
308.881	105.5
309.111	100.5
309.341	77.5
309.571	89.5
309.8	99.5
310.03	81.5
310.26	98.5
310.49	89.5
310.72	95.5
310.949	103.5
311.179	107.5
311.409	88.5
311.639	94.5
311.868	97.5
312.098	90.5
312.328	82.5
312.557	102.5
312.787	101.5
313.017	105.5
313.246	93.5
313.476	85.5
313.706	87.5
313.935	99.5
314.165	95.5
314.394	104.5
314.624	120.5
314.853	103.5
315.083	98.5
315.312	99.5
315.542	95.5
315.771	106.5
316.001	89.5
316.23	97.5
316.46	85.5
316.689	83.5
316.919	76.5
317.148	107.5
317.377	101.5
317.607	98.5
317.836	84.5
318.065	102.5
318.295	93.5
318.524	80.5
318.753	107.5
318.983	98.5
319.212	104.5
319.441	102.5
319.67	105.5
319.9	90.5
320.129	87.5
320.358	87.5
320.587	85.5
320.816	118.5
321.046	113.5
321.275	109.5
321.504	97.5
321.733	104.5
321.962	80.5
322.191	108.5
322.42	113.5
322.649	112.5
322.878	119.5
323.108	125.5
323.337	130.5
323.566	126.5
323.795	160.5
324.024	204.5
324.253	422.5
324.482	872.5
324.71	1818.5
324.939	2448.5
325.168	920.5
325.397	262.5
325.626	160.5
325.855	142.5
326.084	132.5
326.313	130.5
326.542	164.5
326.77	224.5
326.999	485.5
327.228	971.5
327.457	1810.5
327.686	1456.5
327.914	403.5
328.143	225.5
328.372	210.5
328.6	183.5
328.829	144.5
329.058	135.5
329.287	146.5
329.515	126.5
329.744	130.5
329.972	144.5
330.201	198.5
330.43	254.5
330.658	190.5
330.887	164.5
331.115	127.5
331.344	99.5
331.572	120.5
331.801	106.5
332.03	95.5
332.258	87.5
332.486	103.5
332.715	98.5
332.943	95.5
333.172	98.5
333.4	90.5
333.629	121.5
333.857	134.5
334.085	135.5
334.314	191.5
334.542	314.5
334.771	296.5
334.999	147.5
335.227	106.5
335.455	112.5
335.684	90.5
335.912	82.5
336.14	78.5
336.369	106.5
336.597	83.5
336.825	83.5
337.053	97.5
337.281	96.5
337.51	63.5
337.738	98.5
337.966	111.5
338.194	89.5
338.422	86.5
338.65	120.5
338.878	106.5
339.106	97.5
339.334	98.5
339.562	78.5
339.79	85.5
340.018	90.5
340.246	92.5
340.474	97.5
340.702	92.5
340.93	99.5
341.158	90.5
341.386	95.5
341.614	99.5
341.842	71.5
342.07	90.5
342.298	94.5
342.526	89.5
342.754	103.5
342.981	95.5
343.209	91.5
343.437	107.5
343.665	103.5
343.893	97.5
344.12	92.5
344.348	114.5
344.576	94.5
344.804	94.5
345.031	96.5
345.259	106.5
345.487	91.5
345.714	88.5
345.942	84.5
346.17	89.5
346.397	92.5
346.625	92.5
346.853	86.5
347.08	94.5
347.308	86.5
347.535	86.5
347.763	90.5
347.99	108.5
348.218	110.5
348.445	110.5
348.673	105.5
348.9	101.5
349.128	95.5
349.355	100.5
349.583	98.5
349.81	98.5
350.037	102.5
350.265	91.5
350.492	89.5
350.72	115.5
350.947	95.5
351.174	98.5
351.402	122.5
351.629	104.5
351.856	95.5
352.083	104.5
352.311	107.5
352.538	114.5
352.765	121.5
352.992	110.5
353.22	112.5
353.447	107.5
353.674	111.5
353.901	104.5
354.128	98.5
354.355	98.5
354.583	94.5
354.81	96.5
355.037	92.5
355.264	84.5
355.491	95.5
355.718	96.5
355.945	94.5
356.172	106.5
356.399	99.5
356.626	87.5
356.853	110.5
357.08	96.5
357.307	102.5
357.534	82.5
357.761	95.5
357.988	105.5
358.215	90.5
358.441	99.5
358.668	96.5
358.895	97.5
359.122	81.5
359.349	76.5
359.576	99.5
359.802	113.5
360.029	117.5
360.256	112.5
360.483	100.5
360.709	78.5
360.936	90.5
361.163	86.5
361.39	101.5
361.616	86.5
361.843	89.5
362.07	91.5
362.296	115.5
362.523	75.5
362.749	93.5
362.976	87.5
363.203	102.5
363.429	89.5
363.656	87.5
363.882	90.5
364.109	95.5
364.335	95.5
364.562	73.5
364.788	95.5
365.015	113.5
365.241	100.5
365.468	107.5
365.694	116.5
365.92	100.5
366.147	82.5
366.373	90.5
366.599	81.5
366.826	95.5
367.052	82.5
367.278	98.5
367.505	78.5
367.731	86.5
367.957	114.5
368.184	110.5
368.41	103.5
368.636	107.5
368.862	118.5
369.089	123.5
369.315	113.5
369.541	96.5
369.767	78.5
369.993	79.5
370.219	100.5
370.445	86.5
370.672	90.5
370.898	88.5
371.124	87.5
371.35	83.5
371.576	92.5
371.802	82.5
372.028	107.5
372.254	95.5
372.48	103.5
372.706	82.5
372.932	85.5
373.158	77.5
373.384	80.5
373.61	89.5
373.835	93.5
374.061	87.5
374.287	90.5
374.513	91.5
374.739	87.5
374.965	89.5
375.191	84.5
375.416	80.5
375.642	98.5
375.868	110.5
376.094	93.5
376.319	96.5
376.545	101.5
376.771	90.5
376.997	82.5
377.222	82.5
377.448	93.5
377.674	100.5
377.899	100.5
378.125	75.5
378.35	90.5
378.576	90.5
378.802	85.5
379.027	83.5
379.253	79.5
379.478	94.5
379.704	83.5
379.929	94.5
380.155	99.5
380.38	104.5
380.606	90.5
380.831	92.5
381.057	92.5
381.282	94.5
381.507	87.5
381.733	82.5
381.958	100.5
382.184	88.5
382.409	92.5
382.634	113.5
382.86	88.5
383.085	103.5
383.31	110.5
383.535	81.5
383.761	92.5
383.986	83.5
384.211	102.5
384.436	93.5
384.662	89.5
384.887	88.5
385.112	92.5
385.337	94.5
385.562	107.5
385.787	106.5
386.013	101.5
386.238	128.5
386.463	95.5
386.688	92.5
386.913	104.5
387.138	99.5
387.363	94.5
387.588	96.5
387.813	99.5
388.038	99.5
388.263	97.5
388.488	101.5
388.713	104.5
388.938	97.5
389.163	95.5
389.387	87.5
389.612	98.5
389.837	84.5
390.062	100.5
390.287	81.5
390.512	88.5
390.736	96.5
390.961	103.5
391.186	85.5
391.411	94.5
391.636	89.5
391.86	73.5
392.085	90.5
392.31	84.5
392.534	94.5
392.759	82.5
392.984	82.5
393.208	92.5
393.433	84.5
393.658	87.5
393.882	90.5
394.107	77.5
394.331	88.5
394.556	94.5
394.78	88.5
395.005	90.5
395.229	98.5
395.454	80.5
395.678	82.5
395.903	82.5
396.127	91.5
396.352	92.5
396.576	81.5
396.801	88.5
397.025	81.5
397.249	86.5
397.474	91.5
397.698	87.5
397.922	88.5
398.147	78.5
398.371	81.5
398.595	79.5
398.82	87.5
399.044	84.5
399.268	104.5
399.492	78.5
399.717	80.5
399.941	101.5
400.165	98.5
400.389	99.5
400.613	97.5
400.837	101.5
401.062	89.5
401.286	75.5
401.51	103.5
401.734	89.5
401.958	109.5
402.182	145.5
402.406	190.5
402.63	144.5
402.854	93.5
403.078	91.5
403.302	84.5
403.526	86.5
403.75	90.5
403.974	71.5
404.198	95.5
404.422	107.5
404.645	91.5
404.869	97.5
405.093	91.5
405.317	97.5
405.541	97.5
405.765	97.5
405.988	119.5
406.212	207.5
406.436	282.5
406.66	171.5
406.883	114.5
407.107	86.5
407.331	91.5
407.555	107.5
407.778	112.5
408.002	91.5
408.226	95.5
408.449	90.5
408.673	89.5
408.896	99.5
409.12	117.5
409.344	94.5
409.567	74.5
409.791	97.5
410.014	98.5
410.238	103.5
410.461	78.5
410.685	104.5
410.908	99.5
411.132	97.5
411.355	98.5
411.578	86.5
411.802	82.5
412.025	103.5
412.249	91.5
412.472	103.5
412.695	104.5
412.919	112.5
413.142	80.5
413.365	75.5
413.589	97.5
413.812	94.5
414.035	78.5
414.258	84.5
414.482	91.5
414.705	99.5
414.928	96.5
415.151	98.5
415.374	96.5
415.597	91.5
415.821	91.5
416.044	93.5
416.267	87.5
416.49	81.5
416.713	91.5
416.936	91.5
417.159	87.5
417.382	90.5
417.605	87.5
417.828	90.5
418.051	102.5
418.274	94.5
418.497	86.5
418.72	83.5
418.943	84.5
419.166	92.5
419.389	89.5
419.611	84.5
419.834	90.5
420.057	89.5
420.28	93.5
420.503	92.5
420.726	78.5
420.948	91.5
421.171	89.5
421.394	83.5
421.617	92.5
421.839	92.5
422.062	87.5
422.285	94.5
422.507	94.5
422.73	89.5
422.953	92.5
423.175	97.5
423.398	93.5
423.621	83.5
423.843	84.5
424.066	97.5
424.288	100.5
424.511	83.5
424.733	95.5
424.956	112.5
425.178	101.5
425.401	96.5
425.623	98.5
425.846	103.5
426.068	95.5
426.291	91.5
426.513	93.5
426.735	90.5
426.958	87.5
427.18	111.5
427.402	150.5
427.625	179.5
427.847	157.5
428.069	145.5
428.292	92.5
428.514	95.5
428.736	86.5
428.958	84.5
429.181	83.5
429.403	83.5
429.625	90.5
429.847	95.5
430.069	99.5
430.292	89.5
430.514	87.5
430.736	82.5
430.958	73.5
431.18	76.5
431.402	89.5
431.624	95.5
431.846	91.5
432.068	81.5
432.29	96.5
432.512	81.5
432.734	83.5
432.956	91.5
433.178	100.5
433.4	111.5
433.622	93.5
433.844	85.5
434.066	93.5
434.287	80.5
434.509	88.5
434.731	81.5
434.953	96.5
435.175	80.5
435.397	95.5
435.618	94.5
435.84	97.5
436.062	127.5
436.284	133.5
436.505	110.5
436.727	97.5
436.949	78.5
437.17	88.5
437.392	78.5
437.614	95.5
437.835	92.5
438.057	132.5
438.278	114.5
438.5	122.5
438.721	131.5
438.943	100.5
439.165	96.5
439.386	99.5
439.608	97.5
439.829	101.5
440.05	118.5
440.272	162.5
440.493	111.5
440.715	98.5
440.936	86.5
441.158	85.5
441.379	81.5
441.6	86.5
441.822	96.5
442.043	104.5
442.264	116.5
442.486	111.5
442.707	100.5
442.928	100.5
443.149	131.5
443.371	146.5
443.592	107.5
443.813	112.5
444.034	121.5
444.255	88.5
444.476	83.5
444.698	92.5
444.919	86.5
445.14	146.5
445.361	124.5
445.582	122.5
445.803	139.5
446.024	154.5
446.245	157.5
446.466	115.5
446.687	86.5
446.908	84.5
447.129	94.5
447.35	93.5
447.571	92.5
447.792	96.5
448.013	103.5
448.234	118.5
448.455	100.5
448.675	111.5
448.896	118.5
449.117	95.5
449.338	101.5
449.559	134.5
449.779	146.5
450	99.5
450.221	79.5
450.442	110.5
450.662	110.5
450.883	90.5
451.104	117.5
451.324	98.5
451.545	103.5
451.766	90.5
451.986	80.5
452.207	98.5
452.428	87.5
452.648	99.5
452.869	113.5
453.089	120.5
453.31	136.5
453.53	96.5
453.751	75.5
453.971	102.5
454.192	99.5
454.412	106.5
454.633	87.5
454.853	76.5
455.073	83.5
455.294	94.5
455.514	111.5
455.734	99.5
455.955	92.5
456.175	82.5
456.395	88.5
456.616	68.5
456.836	85.5
457.056	94.5
457.276	84.5
457.497	86.5
457.717	83.5
457.937	91.5
458.157	89.5
458.377	90.5
458.598	117.5
458.818	184.5
459.038	195.5
459.258	130.5
459.478	100.5
459.698	98.5
459.918	95.5
460.138	96.5
460.358	90.5
460.578	76.5
460.798	91.5
461.018	89.5
461.238	85.5
461.458	95.5
461.678	80.5
461.898	75.5
462.118	82.5
462.338	86.5
462.558	76.5
462.777	95.5
462.997	89.5
463.217	100.5
463.437	86.5
463.657	94.5
463.876	74.5
464.096	73.5
464.316	98.5
464.536	78.5
464.755	104.5
464.975	115.5
465.195	186.5
465.414	194.5
465.634	91.5
465.854	84.5
466.073	87.5
466.293	97.5
466.512	94.5
466.732	89.5
466.951	95.5
467.171	88.5
467.391	95.5
467.61	110.5
467.829	127.5
468.049	132.5
468.268	158.5
468.488	90.5
468.707	82.5
468.927	96.5
469.146	77.5
469.365	80.5
469.585	85.5
469.804	107.5
470.023	99.5
470.243	91.5
470.462	113.5
470.681	111.5
470.901	96.5
471.12	91.5
471.339	93.5
471.558	90.5
471.777	87.5
471.997	109.5
472.216	219.5
472.435	374.5
472.654	161.5
472.873	86.5
473.092	91.5
473.311	92.5
473.53	88.5
473.749	82.5
473.968	93.5
474.187	104.5
474.406	101.5
474.625	92.5
474.844	92.5
475.063	85.5
475.282	76.5
475.501	96.5
475.72	79.5
475.939	93.5
476.158	83.5
476.377	93.5
476.596	89.5
476.814	80.5
477.033	90.5
477.252	91.5
477.471	88.5
477.69	95.5
477.908	90.5
478.127	82.5
478.346	87.5
478.564	92.5
478.783	97.5
479.002	92.5
479.22	95.5
479.439	108.5
479.658	95.5
479.876	102.5
480.095	89.5
480.313	88.5
480.532	93.5
480.751	116.5
480.969	214.5
481.188	603.5
481.406	422.5
481.624	132.5
481.843	98.5
482.061	89.5
482.28	100.5
482.498	85.5
482.717	86.5
482.935	88.5
483.153	93.5
483.372	67.5
483.59	81.5
483.808	83.5
484.027	82.5
484.245	98.5
484.463	89.5
484.681	95.5
484.9	84.5
485.118	81.5
485.336	105.5
485.554	104.5
485.772	94.5
485.99	97.5
486.209	110.5
486.427	110.5
486.645	114.5
486.863	111.5
487.081	103.5
487.299	99.5
487.517	90.5
487.735	81.5
487.953	88.5
488.171	91.5
488.389	87.5
488.607	103.5
488.825	91.5
489.043	86.5
489.261	96.5
489.479	87.5
489.696	88.5
489.914	98.5
490.132	99.5
490.35	100.5
490.568	80.5
490.786	76.5
491.003	85.5
491.221	85.5
491.439	87.5
491.657	97.5
491.874	75.5
492.092	95.5
492.31	95.5
492.527	102.5
492.745	84.5
492.963	83.5
493.18	88.5
493.398	92.5
493.615	96.5
493.833	95.5
494.05	106.5
494.268	75.5
494.485	90.5
494.703	80.5
494.92	85.5
495.138	99.5
495.355	85.5
495.573	76.5
495.79	84.5
496.008	89.5
496.225	105.5
496.442	89.5
496.66	81.5
496.877	89.5
497.094	80.5
497.312	94.5
497.529	89.5
497.746	93.5
497.963	103.5
498.181	94.5
498.398	94.5
498.615	86.5
498.832	115.5
499.049	84.5
499.267	95.5
499.484	87.5
499.701	97.5
499.918	95.5
500.135	94.5
500.352	99.5
500.569	70.5
500.786	84.5
501.003	92.5
501.22	87.5
501.437	79.5
501.654	89.5
501.871	102.5
502.088	95.5
502.305	103.5
502.522	82.5
502.739	77.5
502.956	102.5
503.172	104.5
503.389	97.5
503.606	117.5
503.823	87.5
504.04	72.5
504.256	90.5
504.473	89.5
504.69	86.5
504.907	102.5
505.123	74.5
505.34	86.5
505.557	90.5
505.773	89.5
505.99	79.5
506.207	81.5
506.423	88.5
506.64	89.5
506.856	80.5
507.073	88.5
507.289	98.5
507.506	99.5
507.722	113.5
507.939	131.5
508.155	96.5
508.372	93.5
508.588	112.5
508.805	93.5
509.021	95.5
509.238	98.5
509.454	105.5
509.67	105.5
509.887	108.5
510.103	155.5
510.319	235.5
510.536	897.5
510.752	3082.5
510.968	851.5
511.184	171.5
511.401	107.5
511.617	89.5
511.833	93.5
512.049	113.5
512.265	86.5
512.481	87.5
512.698	96.5
512.914	88.5
513.13	93.5
513.346	110.5
513.562	89.5
513.778	97.5
513.994	110.5
514.21	110.5
514.426	117.5
514.642	162.5
514.858	135.5
515.074	180.5
515.29	541.5
515.506	2006.5
515.721	744.5
515.937	186.5
516.153	112.5
516.369	103.5
516.585	102.5
516.801	89.5
517.016	95.5
517.232	89.5
517.448	86.5
517.664	73.5
517.879	95.5
518.095	93.5
518.311	89.5
518.527	91.5
518.742	97.5
518.958	95.5
519.173	95.5
519.389	96.5
519.605	95.5
519.82	92.5
520.036	104.5
520.251	127.5
520.467	130.5
520.682	105.5
520.898	119.5
521.113	110.5
521.329	160.5
521.544	243.5
521.76	710.5
521.975	3287.5
522.19	2017.5
522.406	422.5
522.621	142.5
522.836	110.5
523.052	87.5
523.267	103.5
523.482	90.5
523.698	92.5
523.913	126.5
524.128	106.5
524.343	84.5
524.559	98.5
524.774	99.5
524.989	101.5
525.204	116.5
525.419	102.5
525.634	82.5
525.849	118.5
526.064	105.5
526.28	97.5
526.495	89.5
526.71	89.5
526.925	85.5
527.14	86.5
527.355	100.5
527.57	77.5
527.785	97.5
527.999	84.5
528.214	99.5
528.429	80.5
528.644	101.5
528.859	93.5
529.074	100.5
529.289	123.5
529.503	213.5
529.718	114.5
529.933	88.5
530.148	86.5
530.363	83.5
530.577	87.5
530.792	80.5
531.007	83.5
531.221	94.5
531.436	81.5
531.651	77.5
531.865	95.5
532.08	107.5
532.295	96.5
532.509	85.5
532.724	95.5
532.938	103.5
533.153	95.5
533.367	93.5
533.582	100.5
533.796	96.5
534.011	89.5
534.225	82.5
534.44	86.5
534.654	105.5
534.868	95.5
