Data from Circ_2022_H10_HRD10591_00036.txt Node
Date: Wed Jan 03 09:53:44 EST 2024
User: Yrep
Spectrometer: HR+D1059
Trigger mode: 1
Integration Time (sec): 1.000000E-1
Scans to average: 1
Electric dark correction enabled: true
Nonlinearity correction enabled: false
Boxcar width: 0
XAxis mode: Wavelengths
Number of Pixels in Spectrum: 2048
>>>>>Begin Spectral Data<<<<<
223.165	-14.69
223.4	-14.69
223.635	-14.69
223.869	-19.69
224.104	-21.69
224.338	-12.69
224.573	-8.69
224.808	-21.69
225.042	-8.69
225.277	-4.69
225.511	-4.69
225.746	8.31
225.98	8.31
226.215	16.31
226.449	12.31
226.683	27.31
226.918	20.31
227.152	24.31
227.387	28.31
227.621	47.31
227.856	47.31
228.09	53.31
228.324	45.31
228.559	57.31
228.793	57.31
229.027	72.31
229.262	82.31
229.496	85.31
229.73	88.31
229.964	76.31
230.199	77.31
230.433	75.31
230.667	76.31
230.901	64.31
231.136	77.31
231.37	62.31
231.604	74.31
231.838	83.31
232.072	86.31
232.306	90.31
232.541	85.31
232.775	81.31
233.009	63.31
233.243	92.31
233.477	83.31
233.711	77.31
233.945	94.31
234.179	81.31
234.413	75.31
234.647	77.31
234.881	81.31
235.115	81.31
235.349	93.31
235.583	88.31
235.817	80.31
236.051	81.31
236.285	90.31
236.519	75.31
236.753	72.31
236.987	91.31
237.221	89.31
237.455	107.31
237.689	81.31
237.922	77.31
238.156	71.31
238.39	74.31
238.624	80.31
238.858	90.31
239.091	78.31
239.325	72.31
239.559	92.31
239.793	72.31
240.027	95.31
240.26	67.31
240.494	94.31
240.728	72.31
240.961	70.31
241.195	67.31
241.429	79.31
241.662	69.31
241.896	79.31
242.13	74.31
242.363	73.31
242.597	83.31
242.83	69.31
243.064	68.31
243.298	66.31
243.531	74.31
243.765	71.31
243.998	89.31
244.232	98.31
244.465	95.31
244.699	68.31
244.932	81.31
245.166	70.31
245.399	82.31
245.633	85.31
245.866	82.31
246.099	81.31
246.333	82.31
246.566	76.31
246.8	80.31
247.033	86.31
247.266	70.31
247.5	71.31
247.733	79.31
247.966	79.31
248.2	71.31
248.433	84.31
248.666	85.31
248.899	80.31
249.133	92.31
249.366	99.31
249.599	104.31
249.832	72.31
250.066	97.31
250.299	87.31
250.532	85.31
250.765	83.31
250.998	85.31
251.231	83.31
251.465	85.31
251.698	84.31
251.931	77.31
252.164	88.31
252.397	84.31
252.63	97.31
252.863	76.31
253.096	76.31
253.329	89.31
253.562	83.31
253.795	94.31
254.028	81.31
254.261	64.31
254.494	89.31
254.727	97.31
254.96	77.31
255.193	70.31
255.426	80.31
255.659	83.31
255.892	80.31
256.124	84.31
256.357	92.31
256.59	82.31
256.823	87.31
257.056	83.31
257.289	75.31
257.521	85.31
257.754	85.31
257.987	73.31
258.22	92.31
258.452	92.31
258.685	91.31
258.918	92.31
259.151	78.31
259.383	97.31
259.616	86.31
259.849	96.31
260.081	92.31
260.314	81.31
260.547	87.31
260.779	82.31
261.012	89.31
261.244	100.31
261.477	90.31
261.71	102.31
261.942	124.31
262.175	136.31
262.407	105.31
262.64	98.31
262.872	77.31
263.105	89.31
263.337	94.31
263.57	86.31
263.802	96.31
264.035	84.31
264.267	82.31
264.499	91.31
264.732	73.31
264.964	92.31
265.197	70.31
265.429	81.31
265.661	91.31
265.894	84.31
266.126	81.31
266.358	89.31
266.591	89.31
266.823	77.31
267.055	82.31
267.287	82.31
267.52	80.31
267.752	87.31
267.984	74.31
268.216	89.31
268.448	101.31
268.681	74.31
268.913	90.31
269.145	87.31
269.377	85.31
269.609	73.31
269.841	76.31
270.073	90.31
270.306	93.31
270.538	95.31
270.77	78.31
271.002	83.31
271.234	76.31
271.466	102.31
271.698	82.31
271.93	86.31
272.162	89.31
272.394	73.31
272.626	81.31
272.858	83.31
273.09	69.31
273.322	86.31
273.553	82.31
273.785	83.31
274.017	78.31
274.249	86.31
274.481	90.31
274.713	93.31
274.945	88.31
275.176	97.31
275.408	96.31
275.64	94.31
275.872	100.31
276.104	90.31
276.335	86.31
276.567	112.31
276.799	114.31
277.031	103.31
277.262	100.31
277.494	89.31
277.726	81.31
277.957	91.31
278.189	99.31
278.421	88.31
278.652	89.31
278.884	87.31
279.115	95.31
279.347	97.31
279.579	84.31
279.81	84.31
280.042	92.31
280.273	93.31
280.505	94.31
280.736	73.31
280.968	70.31
281.199	84.31
281.431	105.31
281.662	98.31
281.894	100.31
282.125	108.31
282.356	145.31
282.588	157.31
282.819	139.31
283.051	101.31
283.282	94.31
283.513	102.31
283.745	93.31
283.976	94.31
284.207	96.31
284.439	92.31
284.67	89.31
284.901	76.31
285.132	87.31
285.364	83.31
285.595	98.31
285.826	92.31
286.057	95.31
286.288	83.31
286.52	75.31
286.751	84.31
286.982	98.31
287.213	85.31
287.444	88.31
287.675	95.31
287.906	86.31
288.138	86.31
288.369	104.31
288.6	87.31
288.831	90.31
289.062	89.31
289.293	88.31
289.524	82.31
289.755	102.31
289.986	77.31
290.217	97.31
290.448	89.31
290.679	107.31
290.91	84.31
291.141	77.31
291.371	87.31
291.602	88.31
291.833	94.31
292.064	106.31
292.295	88.31
292.526	84.31
292.757	91.31
292.987	92.31
293.218	76.31
293.449	84.31
293.68	94.31
293.91	86.31
294.141	84.31
294.372	80.31
294.603	85.31
294.833	72.31
295.064	95.31
295.295	95.31
295.525	103.31
295.756	104.31
295.987	115.31
296.217	164.31
296.448	143.31
296.679	97.31
296.909	100.31
297.14	79.31
297.37	91.31
297.601	95.31
297.831	75.31
298.062	96.31
298.292	86.31
298.523	102.31
298.753	83.31
298.984	87.31
299.214	87.31
299.445	91.31
299.675	98.31
299.905	96.31
300.136	92.31
300.366	81.31
300.597	100.31
300.827	100.31
301.057	119.31
301.288	111.31
301.518	104.31
301.748	91.31
301.979	97.31
302.209	105.31
302.439	89.31
302.669	97.31
302.9	94.31
303.13	84.31
303.36	114.31
303.59	101.31
303.82	131.31
304.051	106.31
304.281	89.31
304.511	100.31
304.741	91.31
304.971	86.31
305.201	100.31
305.431	91.31
305.661	83.31
305.891	103.31
306.121	115.31
306.352	116.31
306.582	111.31
306.812	98.31
307.042	90.31
307.272	85.31
307.502	100.31
307.731	103.31
307.961	93.31
308.191	96.31
308.421	103.31
308.651	97.31
308.881	92.31
309.111	112.31
309.341	104.31
309.571	97.31
309.8	93.31
310.03	110.31
310.26	104.31
310.49	111.31
310.72	111.31
310.949	115.31
311.179	107.31
311.409	98.31
311.639	103.31
311.868	107.31
312.098	95.31
312.328	111.31
312.557	116.31
312.787	108.31
313.017	111.31
313.246	87.31
313.476	83.31
313.706	87.31
313.935	116.31
314.165	108.31
314.394	100.31
314.624	105.31
314.853	101.31
315.083	100.31
315.312	102.31
315.542	100.31
315.771	104.31
316.001	98.31
316.23	80.31
316.46	97.31
316.689	91.31
316.919	99.31
317.148	111.31
317.377	101.31
317.607	97.31
317.836	89.31
318.065	98.31
318.295	93.31
318.524	95.31
318.753	102.31
318.983	105.31
319.212	113.31
319.441	117.31
319.67	129.31
319.9	96.31
320.129	90.31
320.358	100.31
320.587	94.31
320.816	106.31
321.046	117.31
321.275	115.31
321.504	102.31
321.733	111.31
321.962	110.31
322.191	124.31
322.42	111.31
322.649	124.31
322.878	119.31
323.108	120.31
323.337	152.31
323.566	137.31
323.795	184.31
324.024	257.31
324.253	502.31
324.482	1114.31
324.71	2296.31
324.939	3077.31
325.168	1116.31
325.397	307.31
325.626	175.31
325.855	148.31
326.084	143.31
326.313	161.31
326.542	192.31
326.77	275.31
326.999	570.31
327.228	1227.31
327.457	2256.31
327.686	1821.31
327.914	483.31
328.143	243.31
328.372	175.31
328.6	170.31
328.829	147.31
329.058	152.31
329.287	186.31
329.515	128.31
329.744	115.31
329.972	120.31
330.201	117.31
330.43	132.31
330.658	157.31
330.887	202.31
331.115	142.31
331.344	101.31
331.572	115.31
331.801	100.31
332.03	119.31
332.258	91.31
332.486	98.31
332.715	96.31
332.943	114.31
333.172	108.31
333.4	109.31
333.629	131.31
333.857	136.31
334.085	121.31
334.314	125.31
334.542	159.31
334.771	155.31
334.999	114.31
335.227	114.31
335.455	97.31
335.684	88.31
335.912	92.31
336.14	107.31
336.369	110.31
336.597	104.31
336.825	100.31
337.053	98.31
337.281	95.31
337.51	98.31
337.738	88.31
337.966	109.31
338.194	97.31
338.422	90.31
338.65	96.31
338.878	101.31
339.106	98.31
339.334	93.31
339.562	90.31
339.79	96.31
340.018	93.31
340.246	103.31
340.474	105.31
340.702	93.31
340.93	96.31
341.158	103.31
341.386	98.31
341.614	104.31
341.842	95.31
342.07	81.31
342.298	82.31
342.526	97.31
342.754	98.31
342.981	82.31
343.209	90.31
343.437	109.31
343.665	83.31
343.893	92.31
344.12	91.31
344.348	92.31
344.576	101.31
344.804	83.31
345.031	112.31
345.259	104.31
345.487	111.31
345.714	110.31
345.942	96.31
346.17	104.31
346.397	103.31
346.625	111.31
346.853	105.31
347.08	101.31
347.308	92.31
347.535	96.31
347.763	100.31
347.99	109.31
348.218	122.31
348.445	119.31
348.673	117.31
348.9	96.31
349.128	83.31
349.355	98.31
349.583	94.31
349.81	107.31
350.037	112.31
350.265	95.31
350.492	91.31
350.72	99.31
350.947	105.31
351.174	118.31
351.402	121.31
351.629	122.31
351.856	112.31
352.083	115.31
352.311	107.31
352.538	125.31
352.765	124.31
352.992	122.31
353.22	116.31
353.447	106.31
353.674	114.31
353.901	100.31
354.128	109.31
354.355	112.31
354.583	97.31
354.81	103.31
355.037	118.31
355.264	112.31
355.491	104.31
355.718	83.31
355.945	91.31
356.172	103.31
356.399	91.31
356.626	76.31
356.853	93.31
357.08	112.31
357.307	81.31
357.534	97.31
357.761	89.31
357.988	100.31
358.215	104.31
358.441	92.31
358.668	96.31
358.895	87.31
359.122	89.31
359.349	85.31
359.576	101.31
359.802	107.31
360.029	127.31
360.256	147.31
360.483	106.31
360.709	97.31
360.936	109.31
361.163	96.31
361.39	107.31
361.616	99.31
361.843	96.31
362.07	115.31
362.296	115.31
362.523	105.31
362.749	102.31
362.976	105.31
363.203	99.31
363.429	72.31
363.656	92.31
363.882	84.31
364.109	90.31
364.335	89.31
364.562	93.31
364.788	97.31
365.015	98.31
365.241	113.31
365.468	112.31
365.694	107.31
365.92	111.31
366.147	107.31
366.373	84.31
366.599	92.31
366.826	100.31
367.052	87.31
367.278	104.31
367.505	89.31
367.731	106.31
367.957	100.31
368.184	102.31
368.41	102.31
368.636	119.31
368.862	143.31
369.089	107.31
369.315	104.31
369.541	84.31
369.767	96.31
369.993	86.31
370.219	92.31
370.445	90.31
370.672	96.31
370.898	88.31
371.124	74.31
371.35	89.31
371.576	81.31
371.802	97.31
372.028	102.31
372.254	99.31
372.48	98.31
372.706	87.31
372.932	86.31
373.158	92.31
373.384	92.31
373.61	88.31
373.835	94.31
374.061	100.31
374.287	98.31
374.513	85.31
374.739	87.31
374.965	80.31
375.191	90.31
375.416	88.31
375.642	91.31
375.868	102.31
376.094	86.31
376.319	91.31
376.545	87.31
376.771	77.31
376.997	87.31
377.222	103.31
377.448	100.31
377.674	89.31
377.899	96.31
378.125	95.31
378.35	89.31
378.576	96.31
378.802	88.31
379.027	87.31
379.253	96.31
379.478	96.31
379.704	96.31
379.929	90.31
380.155	82.31
380.38	92.31
380.606	101.31
380.831	85.31
381.057	97.31
381.282	106.31
381.507	100.31
381.733	94.31
381.958	94.31
382.184	99.31
382.409	107.31
382.634	102.31
382.86	97.31
383.085	98.31
383.31	106.31
383.535	101.31
383.761	109.31
383.986	99.31
384.211	94.31
384.436	101.31
384.662	108.31
384.887	118.31
385.112	111.31
385.337	104.31
385.562	103.31
385.787	105.31
386.013	119.31
386.238	110.31
386.463	107.31
386.688	109.31
386.913	104.31
387.138	98.31
387.363	116.31
387.588	106.31
387.813	98.31
388.038	106.31
388.263	115.31
388.488	119.31
388.713	98.31
388.938	95.31
389.163	95.31
389.387	103.31
389.612	104.31
389.837	80.31
390.062	88.31
390.287	79.31
390.512	92.31
390.736	87.31
390.961	93.31
391.186	94.31
391.411	91.31
391.636	105.31
391.86	104.31
392.085	70.31
392.31	97.31
392.534	83.31
392.759	83.31
392.984	90.31
393.208	89.31
393.433	105.31
393.658	88.31
393.882	92.31
394.107	76.31
394.331	82.31
394.556	92.31
394.78	92.31
395.005	91.31
395.229	96.31
395.454	100.31
395.678	95.31
395.903	92.31
396.127	97.31
396.352	78.31
396.576	83.31
396.801	81.31
397.025	87.31
397.249	80.31
397.474	87.31
397.698	79.31
397.922	99.31
398.147	88.31
398.371	98.31
398.595	85.31
398.82	90.31
399.044	90.31
399.268	90.31
399.492	94.31
399.717	88.31
399.941	100.31
400.165	85.31
400.389	82.31
400.613	79.31
400.837	91.31
401.062	93.31
401.286	97.31
401.51	90.31
401.734	73.31
401.958	96.31
402.182	140.31
402.406	194.31
402.63	137.31
402.854	107.31
403.078	103.31
403.302	86.31
403.526	77.31
403.75	80.31
403.974	92.31
404.198	92.31
404.422	95.31
404.645	82.31
404.869	118.31
405.093	95.31
405.317	91.31
405.541	107.31
405.765	118.31
405.988	140.31
406.212	209.31
406.436	319.31
406.66	183.31
406.883	116.31
407.107	106.31
407.331	93.31
407.555	117.31
407.778	99.31
408.002	91.31
408.226	99.31
408.449	93.31
408.673	76.31
408.896	100.31
409.12	95.31
409.344	93.31
409.567	83.31
409.791	97.31
410.014	83.31
410.238	97.31
410.461	97.31
410.685	108.31
410.908	109.31
411.132	114.31
411.355	101.31
411.578	86.31
411.802	98.31
412.025	94.31
412.249	97.31
412.472	96.31
412.695	96.31
412.919	92.31
413.142	98.31
413.365	76.31
413.589	98.31
413.812	103.31
414.035	96.31
414.258	91.31
414.482	92.31
414.705	81.31
414.928	98.31
415.151	95.31
415.374	100.31
415.597	87.31
415.821	101.31
416.044	87.31
416.267	109.31
416.49	87.31
416.713	105.31
416.936	95.31
417.159	99.31
417.382	86.31
417.605	89.31
417.828	110.31
418.051	89.31
418.274	102.31
418.497	83.31
418.72	82.31
418.943	85.31
419.166	98.31
419.389	87.31
419.611	93.31
419.834	112.31
420.057	99.31
420.28	83.31
420.503	94.31
420.726	96.31
420.948	79.31
421.171	102.31
421.394	106.31
421.617	85.31
421.839	106.31
422.062	98.31
422.285	103.31
422.507	98.31
422.73	96.31
422.953	101.31
423.175	88.31
423.398	100.31
423.621	100.31
423.843	85.31
424.066	97.31
424.288	91.31
424.511	90.31
424.733	103.31
424.956	114.31
425.178	100.31
425.401	107.31
425.623	113.31
425.846	89.31
426.068	91.31
426.291	92.31
426.513	81.31
426.735	105.31
426.958	110.31
427.18	117.31
427.402	156.31
427.625	212.31
427.847	180.31
428.069	125.31
428.292	96.31
428.514	89.31
428.736	85.31
428.958	89.31
429.181	90.31
429.403	91.31
429.625	99.31
429.847	111.31
430.069	106.31
430.292	104.31
430.514	100.31
430.736	91.31
430.958	93.31
431.18	85.31
431.402	87.31
431.624	84.31
431.846	91.31
432.068	84.31
432.29	92.31
432.512	81.31
432.734	91.31
432.956	105.31
433.178	102.31
433.4	103.31
433.622	83.31
433.844	84.31
434.066	99.31
434.287	102.31
434.509	91.31
434.731	91.31
434.953	88.31
435.175	97.31
435.397	87.31
435.618	102.31
435.84	116.31
436.062	145.31
436.284	123.31
436.505	112.31
436.727	122.31
436.949	93.31
437.17	85.31
437.392	99.31
437.614	96.31
437.835	114.31
438.057	146.31
438.278	148.31
438.5	125.31
438.721	124.31
438.943	95.31
439.165	97.31
439.386	85.31
439.608	89.31
439.829	123.31
440.05	154.31
440.272	189.31
440.493	119.31
440.715	87.31
440.936	103.31
441.158	88.31
441.379	87.31
441.6	84.31
441.822	104.31
442.043	98.31
442.264	117.31
442.486	106.31
442.707	92.31
442.928	111.31
443.149	166.31
443.371	162.31
443.592	128.31
443.813	117.31
444.034	127.31
444.255	98.31
444.476	84.31
444.698	92.31
444.919	98.31
445.14	134.31
445.361	132.31
445.582	154.31
445.803	191.31
446.024	187.31
446.245	161.31
446.466	135.31
446.687	111.31
446.908	101.31
447.129	86.31
447.35	87.31
447.571	102.31
447.792	91.31
448.013	81.31
448.234	135.31
448.455	104.31
448.675	128.31
448.896	141.31
449.117	112.31
449.338	120.31
449.559	152.31
449.779	159.31
450	103.31
450.221	99.31
450.442	101.31
450.662	104.31
450.883	118.31
451.104	133.31
451.324	107.31
451.545	90.31
451.766	92.31
451.986	81.31
452.207	84.31
452.428	98.31
452.648	97.31
452.869	121.31
453.089	132.31
453.31	125.31
453.53	107.31
453.751	93.31
453.971	115.31
454.192	135.31
454.412	105.31
454.633	98.31
454.853	92.31
455.073	96.31
455.294	99.31
455.514	117.31
455.734	117.31
455.955	95.31
456.175	83.31
456.395	87.31
456.616	72.31
456.836	83.31
457.056	84.31
457.276	78.31
457.497	77.31
457.717	81.31
457.937	84.31
458.157	93.31
458.377	124.31
458.598	132.31
458.818	189.31
459.038	219.31
459.258	147.31
459.478	118.31
459.698	99.31
459.918	87.31
460.138	88.31
460.358	89.31
460.578	91.31
460.798	108.31
461.018	92.31
461.238	105.31
461.458	96.31
461.678	97.31
461.898	97.31
462.118	83.31
462.338	79.31
462.558	86.31
462.777	91.31
462.997	89.31
463.217	89.31
463.437	75.31
463.657	92.31
463.876	87.31
464.096	88.31
464.316	100.31
464.536	104.31
464.755	95.31
464.975	128.31
465.195	230.31
465.414	234.31
465.634	102.31
465.854	92.31
466.073	82.31
466.293	70.31
466.512	85.31
466.732	73.31
466.951	85.31
467.171	117.31
467.391	106.31
467.61	108.31
467.829	103.31
468.049	100.31
468.268	100.31
468.488	96.31
468.707	77.31
468.927	76.31
469.146	96.31
469.365	92.31
469.585	80.31
469.804	108.31
470.023	106.31
470.243	90.31
470.462	110.31
470.681	127.31
470.901	98.31
471.12	96.31
471.339	90.31
471.558	76.31
471.777	82.31
471.997	89.31
472.216	116.31
472.435	160.31
472.654	95.31
472.873	100.31
473.092	92.31
473.311	94.31
473.53	95.31
473.749	90.31
473.968	92.31
474.187	106.31
474.406	111.31
474.625	95.31
474.844	87.31
475.063	81.31
475.282	101.31
475.501	81.31
475.72	84.31
475.939	80.31
476.158	100.31
476.377	88.31
476.596	90.31
476.814	118.31
477.033	103.31
477.252	97.31
477.471	86.31
477.69	91.31
477.908	87.31
478.127	96.31
478.346	77.31
478.564	94.31
478.783	104.31
479.002	83.31
479.22	103.31
479.439	114.31
479.658	129.31
479.876	104.31
480.095	100.31
480.313	98.31
480.532	94.31
480.751	112.31
480.969	109.31
481.188	197.31
481.406	179.31
481.624	100.31
481.843	104.31
482.061	91.31
482.28	87.31
482.498	91.31
482.717	107.31
482.935	82.31
483.153	95.31
483.372	98.31
483.59	82.31
483.808	82.31
484.027	76.31
484.245	85.31
484.463	81.31
484.681	88.31
484.9	96.31
485.118	92.31
485.336	89.31
485.554	103.31
485.772	100.31
485.99	101.31
486.209	102.31
486.427	96.31
486.645	128.31
486.863	133.31
487.081	114.31
487.299	102.31
487.517	88.31
487.735	99.31
487.953	87.31
488.171	86.31
488.389	99.31
488.607	108.31
488.825	87.31
489.043	94.31
489.261	87.31
489.479	80.31
489.696	90.31
489.914	87.31
490.132	90.31
490.35	79.31
490.568	105.31
490.786	90.31
491.003	79.31
491.221	88.31
491.439	76.31
491.657	92.31
491.874	88.31
492.092	101.31
492.31	90.31
492.527	89.31
492.745	97.31
492.963	86.31
493.18	86.31
493.398	97.31
493.615	93.31
493.833	89.31
494.05	84.31
494.268	88.31
494.485	78.31
494.703	86.31
494.92	88.31
495.138	86.31
495.355	89.31
495.573	91.31
495.79	82.31
496.008	92.31
496.225	84.31
496.442	91.31
496.66	84.31
496.877	100.31
497.094	97.31
497.312	95.31
497.529	90.31
497.746	83.31
497.963	94.31
498.181	104.31
498.398	98.31
498.615	123.31
498.832	104.31
499.049	104.31
499.267	87.31
499.484	77.31
499.701	75.31
499.918	94.31
500.135	93.31
500.352	97.31
500.569	76.31
500.786	95.31
501.003	100.31
501.22	96.31
501.437	84.31
501.654	103.31
501.871	121.31
502.088	102.31
502.305	90.31
502.522	86.31
502.739	76.31
502.956	91.31
503.172	83.31
503.389	99.31
503.606	100.31
503.823	97.31
504.04	92.31
504.256	102.31
504.473	92.31
504.69	91.31
504.907	104.31
505.123	68.31
505.34	94.31
505.557	89.31
505.773	92.31
505.99	84.31
506.207	97.31
506.423	100.31
506.64	103.31
506.856	93.31
507.073	91.31
507.289	87.31
507.506	112.31
507.722	138.31
507.939	125.31
508.155	100.31
508.372	105.31
508.588	99.31
508.805	104.31
509.021	93.31
509.238	111.31
509.454	100.31
509.67	111.31
509.887	105.31
510.103	127.31
510.319	259.31
510.536	969.31
510.752	3420.31
510.968	972.31
511.184	195.31
511.401	133.31
511.617	102.31
511.833	93.31
512.049	103.31
512.265	99.31
512.481	105.31
512.698	95.31
512.914	80.31
513.13	90.31
513.346	101.31
