Data from Circ_2022_H10_HRD10591_00054.txt Node
Date: Wed Jan 03 09:53:48 EST 2024
User: Yrep
Spectrometer: HR+D1059
Trigger mode: 1
Integration Time (sec): 1.000000E-1
Scans to average: 1
Electric dark correction enabled: true
Nonlinearity correction enabled: false
Boxcar width: 0
XAxis mode: Wavelengths
Number of Pixels in Spectrum: 2048
>>>>>Begin Spectral Data<<<<<
223.165	-9
223.4	-9
223.635	-9
223.869	-16
224.104	-17
224.338	-22
224.573	-9
224.808	-10
225.042	-6
225.277	-13
225.511	-2
225.746	3
225.98	4
226.215	6
226.449	19
226.683	15
226.918	23
227.152	34
227.387	30
227.621	39
227.856	50
228.09	56
228.324	51
228.559	51
228.793	53
229.027	58
229.262	59
229.496	69
229.73	83
229.964	79
230.199	78
230.433	82
230.667	77
230.901	87
231.136	80
231.37	72
231.604	79
231.838	94
232.072	81
232.306	82
232.541	84
232.775	72
233.009	87
233.243	92
233.477	76
233.711	77
233.945	81
234.179	79
234.413	69
234.647	90
234.881	76
235.115	80
235.349	89
235.583	69
235.817	64
236.051	77
236.285	77
236.519	80
236.753	81
236.987	88
237.221	85
237.455	84
237.689	85
237.922	91
238.156	74
238.39	64
238.624	69
238.858	79
239.091	64
239.325	73
239.559	90
239.793	73
240.027	63
240.26	73
240.494	79
240.728	75
240.961	79
241.195	86
241.429	68
241.662	69
241.896	82
242.13	78
242.363	75
242.597	80
242.83	74
243.064	77
243.298	80
243.531	71
243.765	87
243.998	74
244.232	93
244.465	80
244.699	76
244.932	81
245.166	81
245.399	76
245.633	77
245.866	73
246.099	89
246.333	92
246.566	82
246.8	96
247.033	85
247.266	80
247.5	79
247.733	86
247.966	82
248.2	73
248.433	81
248.666	81
248.899	87
249.133	96
249.366	98
249.599	100
249.832	75
250.066	75
250.299	71
250.532	87
250.765	83
250.998	74
251.231	74
251.465	79
251.698	76
251.931	67
252.164	76
252.397	73
252.63	79
252.863	75
253.096	80
253.329	79
253.562	94
253.795	72
254.028	82
254.261	77
254.494	67
254.727	86
254.96	86
255.193	99
255.426	73
255.659	76
255.892	79
256.124	80
256.357	92
256.59	83
256.823	83
257.056	95
257.289	82
257.521	87
257.754	87
257.987	89
258.22	98
258.452	93
258.685	83
258.918	78
259.151	84
259.383	92
259.616	79
259.849	74
260.081	85
260.314	79
260.547	94
260.779	89
261.012	81
261.244	84
261.477	89
261.71	94
261.942	118
262.175	119
262.407	84
262.64	86
262.872	87
263.105	81
263.337	78
263.57	86
263.802	89
264.035	91
264.267	84
264.499	89
264.732	71
264.964	84
265.197	80
265.429	87
265.661	77
265.894	83
266.126	80
266.358	83
266.591	80
266.823	88
267.055	69
267.287	84
267.52	76
267.752	76
267.984	68
268.216	95
268.448	82
268.681	81
268.913	80
269.145	86
269.377	90
269.609	90
269.841	80
270.073	74
270.306	86
270.538	82
270.77	93
271.002	79
271.234	80
271.466	77
271.698	78
271.93	88
272.162	83
272.394	78
272.626	91
272.858	90
273.09	87
273.322	86
273.553	81
273.785	79
274.017	86
274.249	97
274.481	81
274.713	78
274.945	76
275.176	84
275.408	106
275.64	99
275.872	93
276.104	92
276.335	91
276.567	113
276.799	114
277.031	107
277.262	98
277.494	91
277.726	87
277.957	85
278.189	84
278.421	102
278.652	70
278.884	82
279.115	76
279.347	85
279.579	84
279.81	84
280.042	94
280.273	82
280.505	92
280.736	84
280.968	82
281.199	95
281.431	86
281.662	88
281.894	96
282.125	100
282.356	119
282.588	154
282.819	116
283.051	99
283.282	88
283.513	84
283.745	93
283.976	81
284.207	82
284.439	80
284.67	92
284.901	89
285.132	90
285.364	107
285.595	95
285.826	88
286.057	97
286.288	86
286.52	87
286.751	102
286.982	82
287.213	87
287.444	90
287.675	89
287.906	103
288.138	82
288.369	89
288.6	101
288.831	101
289.062	62
289.293	92
289.524	89
289.755	87
289.986	87
290.217	83
290.448	88
290.679	94
290.91	90
291.141	87
291.371	96
291.602	71
291.833	64
292.064	90
292.295	88
292.526	87
292.757	76
292.987	93
293.218	113
293.449	68
293.68	80
293.91	95
294.141	76
294.372	86
294.603	90
294.833	83
295.064	74
295.295	91
295.525	103
295.756	91
295.987	127
296.217	155
296.448	132
296.679	103
296.909	89
297.14	87
297.37	89
297.601	95
297.831	86
298.062	99
298.292	93
298.523	94
298.753	91
298.984	84
299.214	100
299.445	93
299.675	91
299.905	88
300.136	90
300.366	85
300.597	85
300.827	82
301.057	110
301.288	99
301.518	102
301.748	108
301.979	114
302.209	95
302.439	86
302.669	92
302.9	89
303.13	87
303.36	101
303.59	106
303.82	102
304.051	97
304.281	84
304.511	91
304.741	90
304.971	96
305.201	90
305.431	106
305.661	93
305.891	90
306.121	100
306.352	108
306.582	127
306.812	97
307.042	88
307.272	103
307.502	99
307.731	101
307.961	111
308.191	101
308.421	97
308.651	85
308.881	86
309.111	101
309.341	103
309.571	98
309.8	95
310.03	92
310.26	92
310.49	106
310.72	110
310.949	115
311.179	96
311.409	113
311.639	87
311.868	106
312.098	83
312.328	100
312.557	104
312.787	116
313.017	114
313.246	82
313.476	94
313.706	106
313.935	91
314.165	93
314.394	105
314.624	90
314.853	97
315.083	91
315.312	98
315.542	90
315.771	89
316.001	82
316.23	89
316.46	93
316.689	94
316.919	86
317.148	103
317.377	84
317.607	94
317.836	89
318.065	86
318.295	81
318.524	79
318.753	81
318.983	94
319.212	88
319.441	104
319.67	118
319.9	89
320.129	106
320.358	96
320.587	104
320.816	103
321.046	108
321.275	95
321.504	81
321.733	94
321.962	98
322.191	103
322.42	103
322.649	108
322.878	108
323.108	112
323.337	118
323.566	135
323.795	162
324.024	224
324.253	405
324.482	874
324.71	1808
324.939	2453
325.168	927
325.397	266
325.626	154
325.855	136
326.084	133
326.313	126
326.542	155
326.77	253
326.999	447
327.228	951
327.457	1797
327.686	1462
327.914	419
328.143	220
328.372	187
328.6	151
328.829	119
329.058	142
329.287	150
329.515	128
329.744	112
329.972	119
330.201	155
330.43	196
330.658	163
330.887	169
331.115	116
331.344	95
331.572	94
331.801	106
332.03	114
332.258	103
332.486	76
332.715	83
332.943	98
333.172	96
333.4	110
333.629	105
333.857	117
334.085	128
334.314	149
334.542	214
334.771	235
334.999	142
335.227	103
335.455	91
335.684	91
335.912	80
336.14	104
336.369	100
336.597	102
336.825	104
337.053	91
337.281	97
337.51	93
337.738	94
337.966	102
338.194	86
338.422	115
338.65	105
338.878	95
339.106	88
339.334	99
339.562	88
339.79	94
340.018	91
340.246	96
340.474	93
340.702	91
340.93	98
341.158	97
341.386	85
341.614	97
341.842	95
342.07	97
342.298	88
342.526	97
342.754	84
342.981	90
343.209	86
343.437	99
343.665	80
343.893	90
344.12	87
344.348	81
344.576	98
344.804	95
345.031	82
345.259	90
345.487	111
345.714	87
345.942	95
346.17	105
346.397	87
346.625	99
346.853	108
347.08	95
347.308	93
347.535	93
347.763	83
347.99	103
348.218	101
348.445	89
348.673	103
348.9	82
349.128	107
349.355	84
349.583	90
349.81	88
350.037	104
350.265	97
350.492	91
350.72	96
350.947	93
351.174	116
351.402	119
351.629	88
351.856	105
352.083	108
352.311	119
352.538	115
352.765	118
352.992	123
353.22	107
353.447	113
353.674	91
353.901	94
354.128	93
354.355	99
354.583	99
354.81	98
355.037	82
355.264	86
355.491	91
355.718	91
355.945	98
356.172	91
356.399	104
356.626	92
356.853	80
357.08	96
357.307	97
357.534	100
357.761	96
357.988	79
358.215	96
358.441	91
358.668	78
358.895	74
359.122	88
359.349	83
359.576	93
359.802	93
360.029	117
360.256	113
360.483	106
360.709	99
360.936	75
361.163	95
361.39	91
361.616	104
361.843	92
362.07	99
362.296	97
362.523	101
362.749	86
362.976	86
363.203	84
363.429	86
363.656	88
363.882	83
364.109	96
364.335	92
364.562	85
364.788	86
365.015	92
365.241	93
365.468	112
365.694	110
365.92	102
366.147	86
366.373	100
366.599	85
366.826	94
367.052	85
367.278	91
367.505	79
367.731	87
367.957	97
368.184	97
368.41	98
368.636	112
368.862	126
369.089	113
369.315	96
369.541	85
369.767	87
369.993	90
370.219	91
370.445	92
370.672	82
370.898	94
371.124	90
371.35	95
371.576	93
371.802	97
372.028	82
372.254	94
372.48	75
372.706	92
372.932	101
373.158	86
373.384	97
373.61	96
373.835	83
374.061	95
374.287	93
374.513	75
374.739	88
374.965	82
375.191	97
375.416	75
375.642	75
375.868	86
376.094	105
376.319	93
376.545	88
376.771	91
376.997	93
377.222	99
377.448	105
377.674	85
377.899	105
378.125	100
378.35	85
378.576	81
378.802	87
379.027	82
379.253	82
379.478	92
379.704	87
379.929	89
380.155	78
380.38	97
380.606	97
380.831	100
381.057	90
381.282	87
381.507	88
381.733	89
381.958	105
382.184	90
382.409	95
382.634	88
382.86	101
383.085	106
383.31	115
383.535	89
383.761	108
383.986	105
384.211	80
384.436	99
384.662	114
384.887	110
385.112	115
385.337	118
385.562	102
385.787	101
386.013	100
386.238	123
386.463	112
386.688	101
386.913	95
387.138	107
387.363	96
387.588	102
387.813	89
388.038	100
388.263	106
388.488	105
388.713	94
388.938	90
389.163	89
389.387	94
389.612	78
389.837	79
390.062	87
390.287	109
390.512	95
390.736	86
390.961	98
391.186	96
391.411	99
391.636	92
391.86	80
392.085	76
392.31	79
392.534	74
392.759	81
392.984	79
393.208	84
393.433	84
393.658	78
393.882	77
394.107	79
394.331	81
394.556	81
394.78	88
395.005	91
395.229	89
395.454	76
395.678	88
395.903	93
396.127	84
396.352	94
396.576	90
396.801	77
397.025	80
397.249	79
397.474	81
397.698	90
397.922	95
398.147	90
398.371	90
398.595	71
398.82	93
399.044	84
399.268	80
399.492	83
399.717	96
399.941	90
400.165	93
400.389	89
400.613	81
400.837	97
401.062	85
401.286	86
401.51	106
401.734	84
401.958	107
402.182	142
402.406	191
402.63	135
402.854	105
403.078	83
403.302	80
403.526	96
403.75	93
403.974	99
404.198	92
404.422	97
404.645	83
404.869	103
405.093	104
405.317	87
405.541	112
405.765	112
405.988	111
406.212	188
406.436	261
406.66	176
406.883	112
407.107	97
407.331	107
407.555	103
407.778	102
408.002	90
408.226	86
408.449	100
408.673	95
408.896	87
409.12	73
409.344	87
409.567	95
409.791	103
410.014	98
410.238	80
410.461	98
410.685	94
410.908	86
411.132	102
411.355	102
411.578	80
411.802	89
412.025	78
412.249	91
412.472	88
412.695	98
412.919	93
413.142	91
413.365	99
413.589	86
413.812	89
414.035	102
414.258	97
414.482	91
414.705	91
414.928	82
415.151	87
415.374	92
415.597	75
415.821	83
416.044	88
416.267	87
416.49	83
416.713	82
416.936	82
417.159	85
417.382	94
417.605	84
417.828	99
418.051	93
418.274	87
418.497	84
418.72	88
418.943	87
419.166	102
419.389	82
419.611	95
419.834	100
420.057	78
420.28	83
420.503	84
420.726	101
420.948	73
421.171	88
421.394	76
421.617	91
421.839	99
422.062	79
422.285	104
422.507	80
422.73	102
422.953	102
423.175	86
423.398	75
423.621	101
423.843	99
424.066	78
424.288	98
424.511	82
424.733	97
424.956	115
425.178	86
425.401	96
425.623	107
425.846	92
426.068	98
426.291	97
426.513	93
426.735	92
426.958	107
427.18	104
427.402	140
427.625	178
427.847	141
428.069	132
428.292	101
428.514	86
428.736	84
428.958	83
429.181	97
429.403	89
429.625	95
429.847	89
430.069	111
430.292	95
430.514	84
430.736	85
430.958	95
431.18	83
431.402	91
431.624	78
431.846	86
432.068	88
432.29	90
432.512	84
432.734	114
432.956	105
433.178	98
433.4	110
433.622	88
433.844	88
434.066	87
434.287	84
434.509	90
434.731	92
434.953	74
435.175	80
435.397	82
435.618	89
435.84	115
436.062	123
436.284	115
436.505	114
436.727	97
436.949	86
437.17	90
437.392	78
437.614	100
437.835	114
438.057	128
438.278	108
438.5	99
438.721	100
438.943	114
439.165	97
439.386	86
439.608	99
439.829	114
440.05	133
440.272	158
440.493	104
440.715	75
440.936	94
441.158	79
441.379	90
441.6	104
441.822	88
442.043	89
442.264	101
442.486	106
442.707	101
442.928	119
443.149	134
443.371	134
443.592	120
443.813	123
444.034	126
444.255	99
444.476	84
444.698	97
444.919	96
445.14	130
445.361	131
445.582	129
445.803	157
446.024	145
446.245	142
446.466	124
446.687	99
446.908	74
447.129	87
447.35	91
447.571	96
447.792	86
448.013	117
448.234	117
448.455	102
448.675	114
448.896	129
449.117	108
449.338	102
449.559	137
449.779	145
450	97
450.221	88
450.442	96
450.662	90
450.883	100
451.104	113
451.324	96
451.545	95
451.766	98
451.986	104
452.207	92
452.428	74
452.648	93
452.869	135
453.089	116
453.31	132
453.53	102
453.751	105
453.971	104
454.192	103
454.412	104
454.633	87
454.853	85
455.073	98
455.294	91
455.514	106
455.734	92
455.955	96
456.175	85
456.395	94
456.616	96
456.836	82
457.056	91
457.276	100
457.497	74
457.717	83
457.937	96
458.157	84
458.377	101
458.598	116
458.818	170
459.038	176
459.258	112
459.478	87
459.698	72
459.918	79
460.138	90
460.358	82
460.578	86
460.798	97
461.018	91
461.238	88
461.458	94
461.678	85
461.898	62
462.118	87
462.338	98
462.558	78
462.777	84
462.997	86
463.217	83
463.437	76
463.657	78
463.876	90
464.096	85
464.316	101
464.536	97
464.755	92
464.975	95
465.195	198
465.414	210
465.634	93
465.854	81
466.073	96
466.293	82
466.512	87
466.732	84
466.951	93
467.171	98
467.391	97
467.61	99
467.829	111
468.049	126
468.268	144
468.488	91
468.707	94
468.927	97
469.146	85
469.365	84
469.585	96
469.804	96
470.023	108
470.243	92
470.462	103
470.681	116
470.901	97
471.12	88
471.339	95
471.558	86
471.777	86
471.997	100
472.216	155
472.435	278
472.654	131
472.873	104
473.092	86
473.311	88
473.53	91
473.749	89
473.968	91
474.187	112
474.406	95
474.625	83
474.844	97
475.063	80
475.282	98
475.501	85
475.72	92
475.939	84
476.158	81
476.377	83
476.596	92
476.814	89
477.033	108
477.252	75
477.471	85
477.69	89
477.908	84
478.127	103
478.346	80
478.564	98
478.783	95
479.002	85
479.22	92
479.439	107
479.658	111
479.876	93
480.095	84
480.313	98
480.532	111
480.751	95
480.969	174
481.188	408
481.406	297
481.624	115
481.843	86
482.061	92
482.28	80
482.498	82
482.717	70
482.935	87
483.153	110
483.372	80
483.59	92
483.808	79
484.027	94
484.245	101
484.463	97
484.681	94
484.9	88
485.118	105
485.336	115
485.554	95
485.772	95
485.99	104
486.209	104
486.427	99
486.645	95
486.863	113
487.081	111
487.299	99
487.517	91
487.735	80
487.953	96
488.171	97
488.389	77
488.607	97
488.825	75
489.043	91
489.261	87
489.479	83
489.696	96
489.914	88
490.132	79
490.35	91
490.568	101
490.786	80
491.003	72
491.221	74
491.439	78
491.657	82
491.874	74
492.092	65
492.31	94
492.527	95
492.745	95
492.963	97
493.18	102
493.398	92
493.615	91
493.833	104
494.05	96
494.268	98
494.485	100
494.703	84
494.92	92
495.138	81
495.355	84
495.573	85
495.79	94
496.008	94
496.225	82
496.442	90
496.66	102
496.877	97
497.094	98
497.312	94
497.529	86
497.746	93
497.963	89
498.181	100
498.398	94
498.615	107
498.832	112
499.049	96
499.267	104
499.484	103
499.701	88
499.918	94
500.135	91
500.352	110
500.569	87
500.786	84
501.003	89
501.22	83
501.437	59
501.654	90
501.871	110
502.088	85
502.305	110
502.522	92
502.739	84
502.956	94
503.172	84
503.389	82
503.606	102
503.823	86
504.04	97
504.256	89
504.473	92
504.69	105
504.907	92
505.123	99
505.34	86
505.557	89
505.773	83
505.99	91
506.207	106
506.423	104
506.64	83
506.856	58
507.073	98
507.289	91
507.506	74
507.722	114
507.939	143
508.155	107
508.372	102
508.588	95
508.805	95
509.021	112
509.238	104
509.454	113
509.67	110
509.887	120
510.103	132
510.319	213
510.536	862
510.752	3028
510.968	845
511.184	193
511.401	120
511.617	113
511.833	96
512.049	87
512.265	83
512.481	99
512.698	86
512.914	111
513.13	100
513.346	100
513.562	91
513.778	89
513.994	90
514.21	95
514.426	122
514.642	153
514.858	132
515.074	192
515.29	557
515.506	1999
515.721	744
515.937	186
516.153	124
516.369	92
516.585	115
516.801	104
517.016	99
517.232	99
517.448	86
517.664	94
517.879	82
518.095	87
518.311	86
518.527	92
518.742	95
518.958	86
519.173	94
519.389	91
519.605	86
519.82	103
520.036	124
520.251	133
520.467	128
520.682	110
520.898	122
521.113	119
521.329	160
521.544	250
521.76	716
521.975	3331
522.19	2118
522.406	416
522.621	128
522.836	105
523.052	97
523.267	101
523.482	99
523.698	99
523.913	124
524.128	113
524.343	98
524.559	100
524.774	85
524.989	113
525.204	115
525.419	106
525.634	95
525.849	91
526.064	86
526.28	102
526.495	80
526.71	85
526.925	97
527.14	90
527.355	79
527.57	89
527.785	95
527.999	88
528.214	83
528.429	95
528.644	91
528.859	94
529.074	103
529.289	147
529.503	210
529.718	113
529.933	100
530.148	96
530.363	90
530.577	77
530.792	88
531.007	83
531.221	99
531.436	99
531.651	92
531.865	85
532.08	99
532.295	105
532.509	87
532.724	96
532.938	91
533.153	75
533.367	92
533.582	86
533.796	71
534.011	91
534.225	80
534.44	70
534.654	87
534.868	89
535.083	86
535.297	90
535.511	84
535.726	106
535.94	103
536.154	97
536.369	100
536.583	87
536.797	95
537.011	85
537.225	87
537.44	103
537.654	90
537.868	89
538.082	96
538.296	83
538.51	85
538.724	85
538.938	88
539.153	87
539.367	94
539.581	91
539.795	97
540.009	84
540.222	84
540.436	96
540.65	88
540.864	104
541.078	95
541.292	96
541.506	87
541.72	79
541.934	110
542.147	90
542.361	85
542.575	92
542.789	65
543.002	84
543.216	99
543.43	103
543.644	94
543.857	92
544.071	97
544.285	87
544.498	85
544.712	90
544.925	80
545.139	72
545.352	82
545.566	80
545.779	92
545.993	85
546.206	100
546.42	103
546.633	93
546.847	99
547.06	96
547.274	86
547.487	75
547.7	101
547.914	88
548.127	96
548.34	89
548.554	85
548.767	97
548.98	87
549.193	88
549.407	91
549.62	87
549.833	93
550.046	93
550.259	89
550.473	77
550.686	66
550.899	81
551.112	86
551.325	96
551.538	73
551.751	83
551.964	82
552.177	86
552.39	86
552.603	83
552.816	98
553.029	80
553.242	94
553.455	115
553.667	89
553.88	92
554.093	98
554.306	86
554.519	97
554.732	85
554.944	87
555.157	84
555.37	86
555.583	97
555.795	99
556.008	98
556.221	84
556.433	97
556.646	86
556.859	91
557.071	89
557.284	100
557.496	104
557.709	87
557.921	90
558.134	100
558.346	67
558.559	80
558.771	84
558.984	94
559.196	88
559.409	82
559.621	83
559.833	90
560.046	85
560.258	85
560.47	82
560.683	89
560.895	94
561.107	87
561.32	91
561.532	87
561.744	97
561.956	98
562.168	80
562.381	80
562.593	95
562.805	103
563.017	85
563.229	88
563.441	89
563.653	86
563.865	88
564.077	76
564.289	101
564.501	75
564.713	98
564.925	90
565.137	111
565.349	94
565.561	90
565.773	79
565.985	84
566.197	95
566.408	95
566.62	93
566.832	98
567.044	75
567.255	89
567.467	99
567.679	89
567.891	71
568.102	89
568.314	81
568.526	101
568.737	84
568.949	68
569.161	100
569.372	84
569.584	95
569.795	94
570.007	124
570.218	273
570.43	142
570.641	107
570.853	73
571.064	88
571.276	90
571.487	87
571.698	90
571.91	99
572.121	82
572.333	87
572.544	82
572.755	69
572.966	90
573.178	99
573.389	79
573.6	89
573.811	81
574.023	87
574.234	95
574.445	84
574.656	72
574.867	81
575.078	82
575.289	93
575.501	90
575.712	94
575.923	68
576.134	81
576.345	99
576.556	79
576.767	84
576.978	106
577.188	98
577.399	92
577.61	90
577.821	96
578.032	112
578.243	307
578.454	962
578.665	243
578.875	112
579.086	92
579.297	81
579.508	95
579.718	99
579.929	91
580.14	82
580.35	89
580.561	73
580.772	100
580.982	77
581.193	78
581.403	78
581.614	96
581.825	83
582.035	94
582.246	94
582.456	96
582.667	88
582.877	96
583.087	91
583.298	90
583.508	81
