Data from Circ_2022_H10_HRD10591_00008.txt Node
Date: Wed Jan 03 09:53:39 EST 2024
User: Yrep
Spectrometer: HR+D1059
Trigger mode: 1
Integration Time (sec): 1.000000E-1
Scans to average: 1
Electric dark correction enabled: true
Nonlinearity correction enabled: false
Boxcar width: 0
XAxis mode: Wavelengths
Number of Pixels in Spectrum: 2048
>>>>>Begin Spectral Data<<<<<
223.165	-19.5
223.4	-19.5
223.635	-19.5
223.869	-20.5
224.104	-13.5
224.338	-12.5
224.573	-20.5
224.808	-11.5
225.042	-12.5
225.277	-3.5
225.511	5.5
225.746	-3.5
225.98	13.5
226.215	18.5
226.449	11.5
226.683	11.5
226.918	19.5
227.152	37.5
227.387	29.5
227.621	42.5
227.856	44.5
228.09	57.5
228.324	47.5
228.559	70.5
228.793	178.5
229.027	429.5
229.262	506.5
229.496	618.5
229.73	803.5
229.964	837.5
230.199	550.5
230.433	502.5
230.667	461.5
230.901	466.5
231.136	438.5
231.37	442.5
231.604	450.5
231.838	451.5
232.072	454.5
232.306	460.5
232.541	448.5
232.775	475.5
233.009	467.5
233.243	464.5
233.477	468.5
233.711	472.5
233.945	493.5
234.179	521.5
234.413	505.5
234.647	505.5
234.881	534.5
235.115	514.5
235.349	543.5
235.583	570.5
235.817	580.5
236.051	609.5
236.285	596.5
236.519	614.5
236.753	692.5
236.987	917.5
237.221	1355.5
237.455	1478.5
237.689	872.5
237.922	739.5
238.156	682.5
238.39	656.5
238.624	623.5
238.858	635.5
239.091	656.5
239.325	678.5
239.559	689.5
239.793	681.5
240.027	752.5
240.26	885.5
240.494	972.5
240.728	940.5
240.961	897.5
241.195	837.5
241.429	764.5
241.662	769.5
241.896	758.5
242.13	772.5
242.363	736.5
242.597	782.5
242.83	822.5
243.064	809.5
243.298	823.5
243.531	820.5
243.765	815.5
243.998	859.5
244.232	848.5
244.465	905.5
244.699	913.5
244.932	929.5
245.166	885.5
245.399	917.5
245.633	914.5
245.866	904.5
246.099	906.5
246.333	932.5
246.566	944.5
246.8	963.5
247.033	962.5
247.266	1032.5
247.5	1092.5
247.733	1155.5
247.966	1155.5
248.2	1147.5
248.433	1144.5
248.666	1208.5
248.899	1316.5
249.133	1377.5
249.366	1418.5
249.599	1313.5
249.832	1242.5
250.066	1192.5
250.299	1226.5
250.532	1345.5
250.765	1519.5
250.998	1657.5
251.231	1573.5
251.465	1470.5
251.698	1407.5
251.931	1382.5
252.164	1404.5
252.397	1427.5
252.63	1468.5
252.863	1541.5
253.096	1613.5
253.329	1703.5
253.562	1626.5
253.795	1537.5
254.028	1543.5
254.261	1602.5
254.494	1824.5
254.727	2112.5
254.96	2195.5
255.193	1908.5
255.426	1729.5
255.659	1587.5
255.892	1557.5
256.124	1583.5
256.357	1497.5
256.59	1535.5
256.823	1489.5
257.056	1469.5
257.289	1505.5
257.521	1526.5
257.754	1575.5
257.987	1520.5
258.22	1569.5
258.452	1564.5
258.685	1547.5
258.918	1583.5
259.151	1623.5
259.383	1673.5
259.616	1682.5
259.849	1749.5
260.081	1913.5
260.314	2090.5
260.547	1963.5
260.779	1842.5
261.012	1795.5
261.244	1702.5
261.477	1669.5
261.71	1754.5
261.942	1787.5
262.175	1795.5
262.407	1737.5
262.64	1645.5
262.872	1642.5
263.105	1636.5
263.337	1643.5
263.57	1676.5
263.802	1702.5
264.035	1711.5
264.267	1692.5
264.499	1706.5
264.732	1713.5
264.964	1717.5
265.197	1695.5
265.429	1707.5
265.661	1727.5
265.894	1733.5
266.126	1784.5
266.358	1751.5
266.591	1767.5
266.823	1921.5
267.055	1845.5
267.287	1828.5
267.52	1850.5
267.752	1879.5
267.984	1887.5
268.216	1916.5
268.448	1925.5
268.681	2035.5
268.913	2153.5
269.145	2263.5
269.377	2317.5
269.609	2266.5
269.841	2234.5
270.073	2354.5
270.306	2615.5
270.538	2761.5
270.77	2615.5
271.002	2479.5
271.234	2423.5
271.466	2589.5
271.698	2723.5
271.93	2727.5
272.162	2689.5
272.394	2582.5
272.626	2479.5
272.858	2312.5
273.09	2330.5
273.322	2273.5
273.553	2259.5
273.785	2290.5
274.017	2245.5
274.249	2249.5
274.481	2258.5
274.713	2255.5
274.945	2328.5
275.176	2268.5
275.408	2258.5
275.64	2300.5
275.872	2274.5
276.104	2303.5
276.335	2373.5
276.567	2415.5
276.799	2585.5
277.031	2820.5
277.262	2842.5
277.494	2765.5
277.726	2580.5
277.957	2515.5
278.189	2410.5
278.421	2388.5
278.652	2359.5
278.884	2368.5
279.115	2371.5
279.347	2421.5
279.579	2423.5
279.81	2418.5
280.042	2330.5
280.273	2459.5
280.505	2428.5
280.736	2455.5
280.968	2431.5
281.199	2450.5
281.431	2402.5
281.662	2476.5
281.894	2497.5
282.125	2538.5
282.356	2762.5
282.588	2877.5
282.819	2773.5
283.051	2573.5
283.282	2569.5
283.513	2585.5
283.745	2597.5
283.976	2668.5
284.207	2716.5
284.439	2636.5
284.67	2614.5
284.901	2634.5
285.132	2655.5
285.364	2644.5
285.595	2624.5
285.826	2674.5
286.057	2666.5
286.288	2691.5
286.52	2698.5
286.751	2737.5
286.982	2805.5
287.213	2725.5
287.444	2790.5
287.675	2812.5
287.906	2929.5
288.138	2952.5
288.369	2901.5
288.6	2910.5
288.831	2918.5
289.062	2846.5
289.293	2789.5
289.524	2780.5
289.755	2838.5
289.986	2807.5
290.217	2859.5
290.448	2824.5
290.679	2833.5
290.91	2812.5
291.141	2834.5
291.371	2874.5
291.602	2831.5
291.833	2829.5
292.064	2842.5
292.295	2833.5
292.526	2822.5
292.757	2844.5
292.987	2852.5
293.218	2911.5
293.449	2947.5
293.68	2899.5
293.91	2875.5
294.141	2856.5
294.372	2875.5
294.603	2868.5
294.833	2918.5
295.064	2925.5
295.295	2958.5
295.525	2970.5
295.756	3006.5
295.987	3097.5
296.217	3297.5
296.448	3231.5
296.679	3019.5
296.909	2981.5
297.14	3016.5
297.37	3043.5
297.601	3114.5
297.831	3045.5
298.062	3087.5
298.292	3133.5
298.523	3174.5
298.753	3116.5
298.984	3142.5
299.214	3154.5
299.445	3093.5
299.675	3178.5
299.905	3207.5
300.136	3183.5
300.366	3220.5
300.597	3243.5
300.827	3293.5
301.057	3435.5
301.288	3441.5
301.518	3390.5
301.748	3351.5
301.979	3446.5
302.209	3460.5
302.439	3418.5
302.669	3371.5
302.9	3331.5
303.13	3313.5
303.36	3417.5
303.59	3431.5
303.82	3412.5
304.051	3390.5
304.281	3391.5
304.511	3330.5
304.741	3282.5
304.971	3268.5
305.201	3276.5
305.431	3292.5
305.661	3360.5
305.891	3331.5
306.121	3324.5
306.352	3380.5
306.582	3358.5
306.812	3309.5
307.042	3296.5
307.272	3317.5
307.502	3300.5
307.731	3342.5
307.961	3327.5
308.191	3364.5
308.421	3338.5
308.651	3339.5
308.881	3383.5
309.111	3420.5
309.341	3433.5
309.571	3482.5
309.8	3531.5
310.03	3652.5
310.26	3643.5
310.49	3593.5
310.72	3766.5
310.949	3871.5
311.179	3840.5
311.409	3695.5
311.639	3663.5
311.868	3774.5
312.098	3700.5
312.328	3913.5
312.557	4025.5
312.787	4051.5
313.017	3933.5
313.246	3811.5
313.476	3813.5
313.706	3837.5
313.935	3940.5
314.165	4003.5
314.394	4073.5
314.624	3971.5
314.853	3851.5
315.083	3867.5
315.312	3826.5
315.542	3777.5
315.771	3717.5
316.001	3680.5
316.23	3761.5
316.46	3719.5
316.689	3787.5
316.919	3821.5
317.148	3827.5
317.377	3833.5
317.607	3823.5
317.836	3735.5
318.065	3695.5
318.295	3758.5
318.524	3721.5
318.753	3661.5
318.983	3693.5
319.212	3672.5
319.441	3811.5
319.67	3835.5
319.9	3749.5
320.129	3731.5
320.358	3813.5
320.587	3801.5
320.816	3835.5
321.046	3955.5
321.275	3887.5
321.504	3849.5
321.733	3839.5
321.962	3932.5
322.191	4010.5
322.42	4163.5
322.649	4259.5
322.878	4281.5
323.108	4380.5
323.337	4605.5
323.566	4824.5
323.795	5107.5
324.024	5733.5
324.253	7818.5
324.482	11900.5
324.71	15597.5
324.939	15597.5
325.168	13607.5
325.397	6741.5
325.626	5341.5
325.855	5029.5
326.084	4844.5
326.313	4836.5
326.542	4946.5
326.77	5754.5
326.999	7364.5
327.228	11001.5
327.457	14917.5
327.686	14197.5
327.914	7633.5
328.143	5910.5
328.372	5547.5
328.6	5306.5
328.829	5336.5
329.058	5509.5
329.287	5415.5
329.515	4996.5
329.744	4794.5
329.972	4806.5
330.201	4936.5
330.43	5211.5
330.658	5490.5
330.887	5844.5
331.115	5440.5
331.344	5001.5
331.572	4930.5
331.801	5025.5
332.03	5093.5
332.258	4943.5
332.486	5036.5
332.715	5084.5
332.943	5283.5
333.172	5398.5
333.4	5526.5
333.629	5645.5
333.857	5768.5
334.085	5636.5
334.314	5591.5
334.542	5443.5
334.771	5462.5
334.999	5350.5
335.227	5292.5
335.455	5185.5
335.684	5128.5
335.912	5039.5
336.14	4998.5
336.369	4978.5
336.597	5119.5
336.825	5032.5
337.053	4956.5
337.281	4840.5
337.51	4816.5
337.738	4828.5
337.966	4739.5
338.194	4787.5
338.422	4694.5
338.65	4611.5
338.878	4566.5
339.106	4531.5
339.334	4596.5
339.562	4475.5
339.79	4447.5
340.018	4492.5
340.246	4405.5
340.474	4447.5
340.702	4467.5
340.93	4439.5
341.158	4455.5
341.386	4477.5
341.614	4488.5
341.842	4456.5
342.07	4397.5
342.298	4418.5
342.526	4332.5
342.754	4332.5
342.981	4420.5
343.209	4423.5
343.437	4712.5
343.665	4986.5
343.893	5287.5
344.12	5223.5
344.348	5050.5
344.576	4884.5
344.804	4802.5
345.031	4658.5
345.259	4695.5
345.487	4489.5
345.714	4454.5
345.942	4298.5
346.17	4257.5
346.397	4244.5
346.625	4235.5
346.853	4203.5
347.08	4219.5
347.308	4265.5
347.535	4419.5
347.763	4397.5
347.99	4387.5
348.218	4355.5
348.445	4391.5
348.673	4312.5
348.9	4259.5
349.128	4141.5
349.355	4162.5
349.583	4131.5
349.81	4155.5
350.037	4131.5
350.265	4071.5
350.492	4138.5
350.72	4140.5
350.947	4179.5
351.174	4227.5
351.402	4273.5
351.629	4175.5
351.856	4232.5
352.083	4331.5
352.311	4286.5
352.538	4364.5
352.765	4311.5
352.992	4259.5
353.22	4172.5
353.447	4194.5
353.674	4095.5
353.901	4060.5
354.128	4076.5
354.355	4008.5
354.583	4063.5
354.81	4045.5
355.037	4035.5
355.264	4023.5
355.491	4009.5
355.718	3973.5
355.945	3952.5
356.172	4040.5
356.399	4025.5
356.626	3991.5
356.853	4074.5
357.08	3919.5
357.307	4008.5
357.534	3974.5
357.761	4040.5
357.988	4065.5
358.215	4008.5
358.441	4043.5
358.668	4068.5
358.895	4050.5
359.122	4097.5
359.349	4169.5
359.576	4354.5
359.802	4541.5
360.029	4715.5
360.256	4757.5
360.483	4510.5
360.709	4314.5
360.936	4266.5
361.163	4337.5
361.39	4300.5
361.616	4262.5
361.843	4223.5
362.07	4240.5
362.296	4328.5
362.523	4267.5
362.749	4269.5
362.976	4176.5
363.203	4069.5
363.429	4106.5
363.656	4192.5
363.882	4131.5
364.109	4137.5
364.335	4116.5
364.562	4095.5
364.788	4089.5
365.015	4133.5
365.241	4163.5
365.468	4112.5
365.694	4218.5
365.92	4179.5
366.147	4074.5
366.373	4156.5
366.599	4140.5
366.826	4086.5
367.052	4058.5
367.278	4126.5
367.505	4154.5
367.731	4211.5
367.957	4150.5
368.184	4192.5
368.41	4305.5
368.636	4339.5
368.862	4369.5
369.089	4251.5
369.315	4191.5
369.541	4195.5
369.767	4261.5
369.993	4228.5
370.219	4206.5
370.445	4211.5
370.672	4283.5
370.898	4357.5
371.124	4312.5
371.35	4329.5
371.576	4360.5
371.802	4306.5
372.028	4297.5
372.254	4343.5
372.48	4402.5
372.706	4536.5
372.932	4562.5
373.158	4457.5
373.384	4422.5
373.61	4353.5
373.835	4376.5
374.061	4385.5
374.287	4518.5
374.513	4565.5
374.739	4653.5
374.965	4829.5
375.191	4792.5
375.416	4706.5
375.642	4568.5
375.868	4561.5
376.094	4478.5
376.319	4471.5
376.545	4409.5
376.771	4415.5
376.997	4408.5
377.222	4411.5
377.448	4337.5
377.674	4373.5
377.899	4349.5
378.125	4340.5
378.35	4274.5
378.576	4310.5
378.802	4258.5
379.027	4349.5
379.253	4354.5
379.478	4325.5
379.704	4289.5
379.929	4370.5
380.155	4281.5
380.38	4299.5
380.606	4428.5
380.831	4449.5
381.057	4419.5
381.282	4346.5
381.507	4385.5
381.733	4467.5
381.958	4534.5
382.184	4548.5
382.409	4549.5
382.634	4607.5
382.86	4680.5
383.085	4730.5
383.31	4781.5
383.535	4824.5
383.761	4890.5
383.986	4963.5
384.211	5045.5
384.436	5147.5
384.662	5141.5
384.887	5308.5
385.112	5283.5
385.337	5260.5
385.562	5299.5
385.787	5368.5
386.013	5423.5
386.238	5471.5
386.463	5423.5
386.688	5395.5
386.913	5260.5
387.138	5295.5
387.363	5234.5
387.588	5176.5
387.813	5178.5
388.038	5221.5
388.263	5290.5
388.488	5243.5
388.713	5289.5
388.938	5281.5
389.163	5255.5
389.387	5181.5
389.612	5103.5
389.837	5084.5
390.062	5076.5
390.287	5174.5
390.512	5197.5
390.736	5239.5
390.961	5299.5
391.186	5457.5
391.411	5615.5
391.636	5756.5
391.86	5942.5
392.085	5825.5
392.31	5833.5
392.534	5724.5
392.759	5534.5
392.984	5468.5
393.208	5503.5
393.433	5571.5
393.658	5463.5
393.882	5455.5
394.107	5504.5
394.331	5515.5
394.556	5556.5
394.78	5646.5
395.005	5660.5
395.229	5660.5
395.454	5818.5
395.678	5975.5
395.903	6007.5
396.127	5943.5
396.352	5810.5
396.576	5556.5
396.801	5601.5
397.025	5624.5
397.249	5779.5
397.474	5917.5
397.698	5950.5
397.922	6018.5
398.147	6104.5
398.371	6251.5
398.595	6428.5
398.82	6660.5
399.044	7260.5
399.268	7999.5
399.492	9265.5
399.717	9920.5
399.941	9583.5
400.165	8939.5
400.389	8248.5
400.613	7461.5
400.837	6994.5
401.062	6834.5
401.286	6729.5
401.51	6635.5
401.734	6639.5
401.958	6740.5
402.182	6912.5
402.406	7061.5
402.63	7067.5
402.854	7151.5
403.078	7228.5
403.302	7396.5
403.526	7455.5
403.75	7500.5
403.974	7727.5
404.198	7558.5
404.422	7622.5
404.645	7569.5
404.869	7420.5
405.093	7634.5
405.317	7702.5
405.541	7673.5
405.765	7434.5
405.988	7400.5
406.212	7611.5
406.436	7961.5
406.66	7988.5
406.883	7951.5
407.107	8492.5
407.331	9002.5
407.555	9618.5
407.778	9231.5
408.002	8479.5
408.226	8121.5
408.449	7903.5
408.673	7788.5
408.896	7852.5
409.12	8110.5
409.344	7603.5
409.567	7250.5
409.791	7261.5
410.014	7094.5
410.238	7165.5
410.461	7106.5
410.685	7130.5
410.908	7234.5
411.132	7370.5
411.355	7496.5
411.578	7068.5
411.802	6832.5
412.025	6905.5
412.249	6964.5
412.472	6990.5
412.695	6886.5
412.919	6674.5
413.142	6550.5
413.365	6610.5
413.589	6610.5
413.812	6472.5
414.035	6431.5
414.258	6516.5
414.482	6504.5
414.705	6508.5
414.928	6575.5
415.151	6543.5
415.374	6521.5
415.597	6448.5
415.821	6362.5
416.044	6385.5
416.267	6275.5
416.49	6263.5
416.713	6282.5
416.936	6413.5
417.159	6380.5
417.382	6516.5
417.605	6512.5
417.828	6641.5
418.051	6635.5
418.274	6645.5
418.497	6528.5
418.72	6707.5
418.943	6617.5
419.166	7048.5
419.389	7377.5
419.611	7245.5
419.834	7041.5
420.057	6939.5
420.28	6618.5
420.503	6482.5
420.726	6501.5
420.948	6742.5
421.171	7158.5
421.394	7081.5
421.617	6676.5
421.839	6603.5
422.062	6725.5
422.285	6870.5
422.507	7559.5
422.73	8095.5
422.953	7452.5
423.175	7180.5
423.398	7092.5
423.621	7095.5
423.843	7340.5
424.066	7312.5
424.288	7209.5
424.511	7411.5
424.733	7894.5
424.956	8329.5
425.178	7764.5
425.401	7967.5
425.623	7888.5
425.846	6915.5
426.068	6811.5
426.291	6619.5
426.513	6593.5
426.735	6730.5
426.958	7252.5
427.18	7954.5
427.402	9106.5
427.625	9288.5
427.847	7748.5
428.069	6839.5
428.292	6451.5
428.514	6233.5
428.736	6087.5
428.958	6134.5
429.181	5867.5
429.403	5882.5
429.625	6181.5
429.847	6271.5
430.069	6802.5
430.292	6380.5
430.514	5884.5
430.736	5896.5
430.958	5824.5
431.18	5730.5
431.402	5790.5
431.624	5791.5
431.846	5804.5
432.068	5875.5
432.29	5953.5
432.512	5841.5
432.734	5951.5
432.956	5790.5
433.178	5992.5
433.4	5956.5
433.622	5825.5
433.844	5886.5
434.066	5972.5
434.287	6031.5
434.509	6226.5
434.731	6391.5
434.953	6647.5
435.175	6745.5
435.397	6815.5
435.618	6666.5
435.84	7149.5
436.062	7899.5
436.284	7868.5
436.505	6669.5
436.727	6313.5
436.949	6038.5
437.17	5950.5
437.392	5856.5
437.614	6071.5
437.835	6513.5
438.057	7526.5
438.278	8151.5
438.5	8057.5
438.721	8786.5
438.943	7739.5
439.165	6486.5
439.386	6283.5
439.608	6426.5
439.829	6482.5
440.05	6860.5
440.272	7239.5
440.493	6586.5
440.715	6224.5
440.936	6223.5
441.158	6251.5
441.379	6377.5
441.6	6740.5
441.822	6871.5
442.043	7442.5
442.264	8177.5
442.486	7848.5
442.707	7098.5
442.928	6867.5
443.149	7114.5
443.371	7354.5
443.592	7867.5
443.813	8887.5
444.034	8780.5
444.255	7713.5
444.476	7512.5
444.698	7717.5
444.919	7807.5
445.14	7646.5
445.361	7469.5
445.582	7561.5
445.803	8135.5
446.024	8778.5
446.245	8505.5
446.466	7562.5
446.687	6607.5
446.908	6186.5
447.129	5916.5
447.35	5786.5
447.571	5836.5
447.792	5692.5
448.013	5733.5
448.234	5900.5
448.455	6635.5
448.675	7791.5
448.896	8298.5
449.117	6771.5
449.338	7069.5
449.559	8346.5
449.779	8536.5
450	6548.5
450.221	5851.5
450.442	5715.5
450.662	5612.5
450.883	5689.5
451.104	5829.5
451.324	5568.5
451.545	5538.5
451.766	5361.5
451.986	5210.5
452.207	5162.5
452.428	5149.5
452.648	5236.5
452.869	5188.5
453.089	5269.5
453.31	5441.5
453.53	5194.5
453.751	5106.5
453.971	5216.5
454.192	5366.5
454.412	5119.5
454.633	5035.5
454.853	4964.5
455.073	5000.5
455.294	5417.5
455.514	5934.5
455.734	5448.5
455.955	4934.5
456.175	4833.5
456.395	4759.5
456.616	4758.5
456.836	4743.5
457.056	4752.5
457.276	4639.5
457.497	4909.5
457.717	4789.5
457.937	4862.5
458.157	4934.5
458.377	5042.5
458.598	5457.5
458.818	6256.5
459.038	7068.5
459.258	6810.5
459.478	6020.5
459.698	5901.5
459.918	6023.5
460.138	6253.5
460.358	6407.5
460.578	6467.5
460.798	6586.5
461.018	6588.5
461.238	6434.5
461.458	6340.5
461.678	6372.5
461.898	6459.5
462.118	6585.5
462.338	6915.5
462.558	7044.5
462.777	7407.5
462.997	7945.5
463.217	8379.5
463.437	8182.5
463.657	7548.5
463.876	7282.5
464.096	7388.5
464.316	7380.5
464.536	7417.5
464.755	7178.5
464.975	7169.5
465.195	7399.5
465.414	7499.5
465.634	6397.5
465.854	6039.5
466.073	5848.5
466.293	5641.5
466.512	5460.5
466.732	5401.5
466.951	5407.5
467.171	5352.5
467.391	5457.5
467.61	5505.5
467.829	5484.5
468.049	5312.5
468.268	5208.5
468.488	5123.5
468.707	5073.5
468.927	5108.5
469.146	5081.5
469.365	5223.5
469.585	5194.5
469.804	5477.5
470.023	5586.5
470.243	5548.5
470.462	5701.5
470.681	5835.5
470.901	5686.5
471.12	5459.5
471.339	5362.5
471.558	5359.5
471.777	5261.5
471.997	5160.5
472.216	5187.5
472.435	5160.5
472.654	5040.5
472.873	5041.5
473.092	5071.5
473.311	5016.5
473.53	5093.5
473.749	5168.5
473.968	5703.5
474.187	6715.5
474.406	6322.5
474.625	5356.5
474.844	5105.5
475.063	5143.5
475.282	5117.5
475.501	5109.5
475.72	5164.5
475.939	5259.5
476.158	5343.5
476.377	5306.5
476.596	5286.5
476.814	5446.5
477.033	5513.5
477.252	5597.5
477.471	5719.5
477.69	5790.5
477.908	5880.5
478.127	6073.5
478.346	6150.5
478.564	6264.5
478.783	6238.5
479.002	6472.5
479.22	6518.5
479.439	6581.5
479.658	6688.5
479.876	6739.5
480.095	6868.5
480.313	7345.5
480.532	7140.5
480.751	7063.5
480.969	6908.5
481.188	6776.5
481.406	6593.5
481.624	6317.5
481.843	6186.5
482.061	6175.5
482.28	6078.5
482.498	5928.5
482.717	6012.5
482.935	5983.5
483.153	5966.5
483.372	5968.5
483.59	5953.5
483.808	5924.5
484.027	5928.5
484.245	6004.5
484.463	6048.5
484.681	6136.5
484.9	6173.5
485.118	6226.5
485.336	6314.5
485.554	6324.5
485.772	6331.5
485.99	6333.5
486.209	6353.5
486.427	6383.5
486.645	6501.5
486.863	6577.5
487.081	6482.5
487.299	6513.5
487.517	6440.5
487.735	6388.5
487.953	6435.5
488.171	6363.5
488.389	6407.5
488.607	6395.5
488.825	6377.5
489.043	6420.5
489.261	6462.5
489.479	6506.5
489.696	6524.5
489.914	6479.5
490.132	6725.5
490.35	6593.5
490.568	6681.5
490.786	6813.5
491.003	6918.5
491.221	6965.5
491.439	7136.5
491.657	7160.5
491.874	7204.5
492.092	7271.5
492.31	7220.5
492.527	7328.5
492.745	7370.5
492.963	7300.5
493.18	7352.5
493.398	7405.5
493.615	7553.5
493.833	7556.5
494.05	7572.5
494.268	7533.5
494.485	7580.5
494.703	7557.5
494.92	7576.5
495.138	7590.5
495.355	7560.5
495.573	7556.5
495.79	7627.5
496.008	7551.5
496.225	7617.5
496.442	7669.5
496.66	7631.5
496.877	7746.5
497.094	7863.5
497.312	8004.5
497.529	8116.5
497.746	8356.5
497.963	8608.5
498.181	8981.5
498.398	9171.5
498.615	9771.5
498.832	10152.5
499.049	10667.5
499.267	11313.5
499.484	12040.5
499.701	12873.5
499.918	13685.5
500.135	14508.5
500.352	15085.5
500.569	15255.5
500.786	15115.5
501.003	14648.5
501.22	14057.5
501.437	13202.5
501.654	12450.5
501.871	11768.5
502.088	11033.5
502.305	10374.5
502.522	9931.5
502.739	9533.5
502.956	9058.5
503.172	8838.5
503.389	8483.5
503.606	8387.5
