Data from Circ_2022_H10_HRD10591_00085.txt Node
Date: Wed Jan 03 09:53:54 EST 2024
User: Yrep
Spectrometer: HR+D1059
Trigger mode: 1
Integration Time (sec): 1.000000E-1
Scans to average: 1
Electric dark correction enabled: true
Nonlinearity correction enabled: false
Boxcar width: 0
XAxis mode: Wavelengths
Number of Pixels in Spectrum: 2048
>>>>>Begin Spectral Data<<<<<
223.165	-4.69
223.4	-4.69
223.635	-4.69
223.869	-12.69
224.104	-17.69
224.338	-1.69
224.573	-15.69
224.808	-14.69
225.042	-11.69
225.277	-7.69
225.511	-5.69
225.746	8.31
225.98	13.31
226.215	7.31
226.449	5.31
226.683	15.31
226.918	16.31
227.152	26.31
227.387	28.31
227.621	52.31
227.856	46.31
228.09	43.31
228.324	35.31
228.559	73.31
228.793	55.31
229.027	72.31
229.262	82.31
229.496	67.31
229.73	84.31
229.964	89.31
230.199	63.31
230.433	74.31
230.667	80.31
230.901	75.31
231.136	66.31
231.37	75.31
231.604	76.31
231.838	76.31
232.072	86.31
232.306	90.31
232.541	84.31
232.775	80.31
233.009	89.31
233.243	77.31
233.477	74.31
233.711	81.31
233.945	82.31
234.179	90.31
234.413	87.31
234.647	102.31
234.881	81.31
235.115	84.31
235.349	83.31
235.583	70.31
235.817	69.31
236.051	65.31
236.285	82.31
236.519	70.31
236.753	82.31
236.987	74.31
237.221	82.31
237.455	80.31
237.689	86.31
237.922	81.31
238.156	82.31
238.39	66.31
238.624	75.31
238.858	75.31
239.091	80.31
239.325	74.31
239.559	91.31
239.793	79.31
240.027	90.31
240.26	78.31
240.494	76.31
240.728	69.31
240.961	74.31
241.195	89.31
241.429	77.31
241.662	74.31
241.896	89.31
242.13	77.31
242.363	85.31
242.597	74.31
242.83	75.31
243.064	88.31
243.298	82.31
243.531	85.31
243.765	81.31
243.998	83.31
244.232	88.31
244.465	92.31
244.699	78.31
244.932	80.31
245.166	73.31
245.399	83.31
245.633	80.31
245.866	75.31
246.099	76.31
246.333	63.31
246.566	72.31
246.8	95.31
247.033	79.31
247.266	89.31
247.5	76.31
247.733	59.31
247.966	82.31
248.2	75.31
248.433	63.31
248.666	82.31
248.899	85.31
249.133	86.31
249.366	123.31
249.599	97.31
249.832	92.31
250.066	90.31
250.299	86.31
250.532	81.31
250.765	82.31
250.998	86.31
251.231	63.31
251.465	86.31
251.698	62.31
251.931	80.31
252.164	85.31
252.397	89.31
252.63	76.31
252.863	63.31
253.096	87.31
253.329	84.31
253.562	73.31
253.795	82.31
254.028	84.31
254.261	91.31
254.494	86.31
254.727	80.31
254.96	88.31
255.193	82.31
255.426	58.31
255.659	82.31
255.892	89.31
256.124	74.31
256.357	91.31
256.59	79.31
256.823	85.31
257.056	73.31
257.289	76.31
257.521	81.31
257.754	71.31
257.987	95.31
258.22	83.31
258.452	81.31
258.685	83.31
258.918	88.31
259.151	81.31
259.383	83.31
259.616	83.31
259.849	80.31
260.081	81.31
260.314	82.31
260.547	89.31
260.779	81.31
261.012	84.31
261.244	82.31
261.477	96.31
261.71	93.31
261.942	136.31
262.175	142.31
262.407	91.31
262.64	80.31
262.872	76.31
263.105	99.31
263.337	74.31
263.57	87.31
263.802	81.31
264.035	78.31
264.267	77.31
264.499	75.31
264.732	99.31
264.964	83.31
265.197	75.31
265.429	90.31
265.661	88.31
265.894	76.31
266.126	86.31
266.358	84.31
266.591	83.31
266.823	67.31
267.055	78.31
267.287	97.31
267.52	88.31
267.752	87.31
267.984	98.31
268.216	93.31
268.448	83.31
268.681	88.31
268.913	89.31
269.145	74.31
269.377	83.31
269.609	75.31
269.841	87.31
270.073	80.31
270.306	83.31
270.538	75.31
270.77	97.31
271.002	86.31
271.234	85.31
271.466	91.31
271.698	99.31
271.93	88.31
272.162	84.31
272.394	89.31
272.626	85.31
272.858	81.31
273.09	77.31
273.322	88.31
273.553	90.31
273.785	84.31
274.017	81.31
274.249	73.31
274.481	81.31
274.713	87.31
274.945	104.31
275.176	87.31
275.408	99.31
275.64	91.31
275.872	98.31
276.104	103.31
276.335	80.31
276.567	113.31
276.799	127.31
277.031	113.31
277.262	106.31
277.494	93.31
277.726	89.31
277.957	88.31
278.189	86.31
278.421	88.31
278.652	93.31
278.884	90.31
279.115	95.31
279.347	83.31
279.579	87.31
279.81	93.31
280.042	92.31
280.273	116.31
280.505	91.31
280.736	78.31
280.968	76.31
281.199	78.31
281.431	75.31
281.662	85.31
281.894	80.31
282.125	96.31
282.356	126.31
282.588	163.31
282.819	142.31
283.051	99.31
283.282	99.31
283.513	103.31
283.745	98.31
283.976	84.31
284.207	85.31
284.439	88.31
284.67	82.31
284.901	88.31
285.132	82.31
285.364	84.31
285.595	97.31
285.826	88.31
286.057	84.31
286.288	82.31
286.52	83.31
286.751	94.31
286.982	88.31
287.213	75.31
287.444	81.31
287.675	86.31
287.906	87.31
288.138	90.31
288.369	104.31
288.6	82.31
288.831	92.31
289.062	87.31
289.293	90.31
289.524	92.31
289.755	75.31
289.986	79.31
290.217	74.31
290.448	75.31
290.679	82.31
290.91	81.31
291.141	83.31
291.371	89.31
291.602	83.31
291.833	77.31
292.064	97.31
292.295	100.31
292.526	86.31
292.757	76.31
292.987	78.31
293.218	83.31
293.449	71.31
293.68	87.31
293.91	100.31
294.141	82.31
294.372	105.31
294.603	83.31
294.833	80.31
295.064	82.31
295.295	94.31
295.525	98.31
295.756	104.31
295.987	118.31
296.217	176.31
296.448	133.31
296.679	98.31
296.909	81.31
297.14	88.31
297.37	97.31
297.601	83.31
297.831	83.31
298.062	87.31
298.292	100.31
298.523	84.31
298.753	72.31
298.984	98.31
299.214	96.31
299.445	100.31
299.675	85.31
299.905	85.31
300.136	88.31
300.366	76.31
300.597	88.31
300.827	82.31
301.057	95.31
301.288	102.31
301.518	100.31
301.748	99.31
301.979	110.31
302.209	94.31
302.439	92.31
302.669	103.31
302.9	95.31
303.13	80.31
303.36	99.31
303.59	93.31
303.82	114.31
304.051	104.31
304.281	97.31
304.511	79.31
304.741	89.31
304.971	90.31
305.201	99.31
305.431	81.31
305.661	102.31
305.891	94.31
306.121	105.31
306.352	106.31
306.582	130.31
306.812	97.31
307.042	104.31
307.272	101.31
307.502	100.31
307.731	102.31
307.961	87.31
308.191	83.31
308.421	87.31
308.651	95.31
308.881	106.31
309.111	110.31
309.341	90.31
309.571	102.31
309.8	106.31
310.03	104.31
310.26	103.31
310.49	91.31
310.72	95.31
310.949	116.31
311.179	111.31
311.409	104.31
311.639	98.31
311.868	99.31
312.098	84.31
312.328	91.31
312.557	113.31
312.787	132.31
313.017	101.31
313.246	88.31
313.476	94.31
313.706	95.31
313.935	107.31
314.165	100.31
314.394	108.31
314.624	101.31
314.853	115.31
315.083	112.31
315.312	96.31
315.542	97.31
315.771	97.31
316.001	92.31
316.23	87.31
316.46	78.31
316.689	95.31
316.919	99.31
317.148	97.31
317.377	104.31
317.607	92.31
317.836	89.31
318.065	82.31
318.295	97.31
318.524	75.31
318.753	107.31
318.983	94.31
319.212	101.31
319.441	113.31
319.67	107.31
319.9	96.31
320.129	74.31
320.358	97.31
320.587	104.31
320.816	105.31
321.046	94.31
321.275	107.31
321.504	104.31
321.733	98.31
321.962	107.31
322.191	107.31
322.42	112.31
322.649	118.31
322.878	129.31
323.108	127.31
323.337	129.31
323.566	162.31
323.795	184.31
324.024	245.31
324.253	459.31
324.482	1040.31
324.71	2091.31
324.939	2806.31
325.168	1026.31
325.397	279.31
325.626	160.31
325.855	119.31
326.084	144.31
326.313	150.31
326.542	172.31
326.77	275.31
326.999	548.31
327.228	1107.31
327.457	2056.31
327.686	1666.31
327.914	459.31
328.143	280.31
328.372	256.31
328.6	156.31
328.829	150.31
329.058	171.31
329.287	169.31
329.515	135.31
329.744	122.31
329.972	184.31
330.201	274.31
330.43	345.31
330.658	232.31
330.887	205.31
331.115	151.31
331.344	110.31
331.572	102.31
331.801	110.31
332.03	118.31
332.258	102.31
332.486	106.31
332.715	114.31
332.943	107.31
333.172	121.31
333.4	126.31
333.629	112.31
333.857	129.31
334.085	155.31
334.314	239.31
334.542	419.31
334.771	409.31
334.999	160.31
335.227	106.31
335.455	103.31
335.684	102.31
335.912	88.31
336.14	91.31
336.369	92.31
336.597	124.31
336.825	113.31
337.053	99.31
337.281	95.31
337.51	91.31
337.738	101.31
337.966	87.31
338.194	114.31
338.422	91.31
338.65	93.31
338.878	104.31
339.106	89.31
339.334	90.31
339.562	100.31
339.79	89.31
340.018	97.31
340.246	110.31
340.474	95.31
340.702	82.31
340.93	98.31
341.158	94.31
341.386	91.31
341.614	106.31
341.842	108.31
342.07	84.31
342.298	109.31
342.526	105.31
342.754	90.31
342.981	75.31
343.209	86.31
343.437	88.31
343.665	89.31
343.893	97.31
344.12	96.31
344.348	91.31
344.576	100.31
344.804	89.31
345.031	88.31
345.259	105.31
345.487	101.31
345.714	98.31
345.942	105.31
346.17	91.31
346.397	106.31
346.625	117.31
346.853	107.31
347.08	100.31
347.308	94.31
347.535	90.31
347.763	122.31
347.99	103.31
348.218	108.31
348.445	113.31
348.673	120.31
348.9	98.31
349.128	104.31
349.355	89.31
349.583	90.31
349.81	106.31
350.037	102.31
350.265	96.31
350.492	97.31
350.72	107.31
350.947	112.31
351.174	110.31
351.402	127.31
351.629	105.31
351.856	83.31
352.083	94.31
352.311	98.31
352.538	108.31
352.765	119.31
352.992	126.31
353.22	113.31
353.447	112.31
353.674	104.31
353.901	102.31
354.128	94.31
354.355	92.31
354.583	91.31
354.81	90.31
355.037	83.31
355.264	89.31
355.491	81.31
355.718	90.31
355.945	89.31
356.172	89.31
356.399	91.31
356.626	86.31
356.853	89.31
357.08	83.31
357.307	92.31
357.534	95.31
357.761	94.31
357.988	100.31
358.215	95.31
358.441	102.31
358.668	88.31
358.895	98.31
359.122	86.31
359.349	85.31
359.576	101.31
359.802	110.31
360.029	133.31
360.256	135.31
360.483	115.31
360.709	100.31
360.936	80.31
361.163	83.31
361.39	98.31
361.616	93.31
361.843	95.31
362.07	98.31
362.296	100.31
362.523	94.31
362.749	98.31
362.976	105.31
363.203	96.31
363.429	90.31
363.656	99.31
363.882	94.31
364.109	85.31
364.335	93.31
364.562	83.31
364.788	91.31
365.015	83.31
365.241	104.31
365.468	113.31
365.694	112.31
365.92	90.31
366.147	109.31
366.373	83.31
366.599	82.31
366.826	84.31
367.052	66.31
367.278	76.31
367.505	81.31
367.731	94.31
367.957	95.31
368.184	92.31
368.41	96.31
368.636	113.31
368.862	131.31
369.089	108.31
369.315	101.31
369.541	94.31
369.767	81.31
369.993	96.31
370.219	104.31
370.445	99.31
370.672	95.31
370.898	95.31
371.124	87.31
371.35	95.31
371.576	96.31
371.802	90.31
372.028	75.31
372.254	87.31
372.48	96.31
372.706	86.31
372.932	87.31
373.158	93.31
373.384	79.31
373.61	82.31
373.835	86.31
374.061	93.31
374.287	108.31
374.513	90.31
374.739	100.31
374.965	94.31
375.191	97.31
375.416	88.31
375.642	99.31
375.868	97.31
376.094	90.31
376.319	90.31
376.545	88.31
376.771	84.31
376.997	87.31
377.222	88.31
377.448	100.31
377.674	94.31
377.899	82.31
378.125	93.31
378.35	89.31
378.576	95.31
378.802	85.31
379.027	73.31
379.253	97.31
379.478	92.31
379.704	100.31
379.929	93.31
380.155	91.31
380.38	82.31
380.606	94.31
380.831	102.31
381.057	98.31
381.282	86.31
381.507	82.31
381.733	103.31
381.958	99.31
382.184	90.31
382.409	92.31
382.634	107.31
382.86	103.31
383.085	109.31
383.31	99.31
383.535	87.31
383.761	101.31
383.986	102.31
384.211	106.31
384.436	91.31
384.662	92.31
384.887	107.31
385.112	90.31
385.337	97.31
385.562	102.31
385.787	96.31
386.013	100.31
386.238	102.31
386.463	105.31
386.688	104.31
386.913	101.31
387.138	94.31
387.363	107.31
387.588	114.31
387.813	104.31
388.038	87.31
388.263	103.31
388.488	99.31
388.713	88.31
388.938	104.31
389.163	102.31
389.387	85.31
389.612	84.31
389.837	89.31
390.062	96.31
390.287	101.31
390.512	89.31
390.736	105.31
390.961	100.31
391.186	92.31
391.411	95.31
391.636	79.31
391.86	75.31
392.085	84.31
392.31	82.31
392.534	78.31
392.759	95.31
392.984	98.31
393.208	88.31
393.433	83.31
393.658	76.31
393.882	75.31
394.107	78.31
394.331	84.31
394.556	103.31
394.78	91.31
395.005	84.31
395.229	90.31
395.454	78.31
395.678	82.31
395.903	81.31
396.127	97.31
396.352	80.31
396.576	85.31
396.801	91.31
397.025	99.31
397.249	84.31
397.474	82.31
397.698	79.31
397.922	94.31
398.147	72.31
398.371	82.31
398.595	87.31
398.82	79.31
399.044	72.31
399.268	86.31
399.492	89.31
399.717	82.31
399.941	82.31
400.165	88.31
400.389	91.31
400.613	91.31
400.837	91.31
401.062	76.31
401.286	103.31
401.51	87.31
401.734	90.31
401.958	96.31
402.182	143.31
402.406	188.31
402.63	127.31
402.854	107.31
403.078	104.31
403.302	90.31
403.526	83.31
403.75	82.31
403.974	80.31
404.198	83.31
404.422	93.31
404.645	90.31
404.869	104.31
405.093	115.31
405.317	98.31
405.541	116.31
405.765	110.31
405.988	134.31
406.212	200.31
406.436	300.31
406.66	188.31
406.883	115.31
407.107	101.31
407.331	110.31
407.555	99.31
407.778	95.31
408.002	97.31
408.226	89.31
408.449	80.31
408.673	85.31
408.896	95.31
409.12	92.31
409.344	86.31
409.567	88.31
409.791	97.31
410.014	85.31
410.238	90.31
410.461	92.31
410.685	98.31
410.908	87.31
411.132	113.31
411.355	110.31
411.578	97.31
411.802	87.31
412.025	92.31
412.249	98.31
412.472	102.31
412.695	107.31
412.919	102.31
413.142	97.31
413.365	102.31
413.589	94.31
413.812	92.31
414.035	85.31
414.258	73.31
414.482	80.31
414.705	95.31
414.928	97.31
415.151	95.31
415.374	98.31
415.597	103.31
415.821	99.31
416.044	95.31
416.267	77.31
416.49	77.31
416.713	92.31
416.936	83.31
417.159	85.31
417.382	103.31
417.605	100.31
417.828	71.31
418.051	91.31
418.274	103.31
418.497	89.31
418.72	87.31
418.943	89.31
419.166	86.31
419.389	80.31
419.611	98.31
419.834	94.31
420.057	98.31
420.28	86.31
420.503	84.31
420.726	94.31
420.948	100.31
421.171	104.31
421.394	94.31
421.617	100.31
421.839	87.31
422.062	87.31
422.285	94.31
422.507	81.31
422.73	115.31
422.953	89.31
423.175	85.31
423.398	92.31
423.621	102.31
423.843	94.31
424.066	92.31
424.288	106.31
424.511	73.31
424.733	119.31
424.956	128.31
425.178	96.31
425.401	126.31
425.623	99.31
425.846	92.31
426.068	85.31
426.291	105.31
426.513	90.31
426.735	75.31
426.958	103.31
427.18	118.31
427.402	149.31
427.625	223.31
427.847	184.31
428.069	176.31
428.292	111.31
428.514	91.31
428.736	88.31
428.958	87.31
429.181	92.31
429.403	78.31
429.625	89.31
429.847	88.31
430.069	101.31
430.292	84.31
430.514	78.31
430.736	91.31
430.958	81.31
431.18	89.31
431.402	80.31
431.624	90.31
431.846	93.31
432.068	87.31
432.29	74.31
432.512	101.31
432.734	90.31
432.956	89.31
433.178	118.31
433.4	100.31
433.622	106.31
433.844	67.31
434.066	82.31
434.287	87.31
434.509	85.31
434.731	89.31
434.953	90.31
435.175	83.31
435.397	87.31
435.618	90.31
435.84	103.31
436.062	148.31
436.284	120.31
436.505	103.31
436.727	112.31
436.949	102.31
437.17	86.31
437.392	91.31
437.614	110.31
437.835	114.31
438.057	154.31
438.278	134.31
438.5	107.31
438.721	131.31
438.943	111.31
439.165	104.31
439.386	80.31
439.608	105.31
439.829	98.31
440.05	118.31
440.272	168.31
440.493	110.31
440.715	91.31
440.936	72.31
441.158	84.31
441.379	77.31
441.6	96.31
441.822	96.31
442.043	104.31
442.264	117.31
442.486	104.31
442.707	112.31
442.928	114.31
443.149	154.31
443.371	161.31
443.592	119.31
443.813	129.31
444.034	136.31
444.255	95.31
444.476	88.31
444.698	89.31
444.919	90.31
445.14	123.31
445.361	125.31
445.582	131.31
445.803	180.31
446.024	177.31
446.245	162.31
446.466	135.31
446.687	105.31
446.908	90.31
447.129	97.31
447.35	86.31
447.571	86.31
447.792	100.31
448.013	104.31
448.234	115.31
448.455	100.31
448.675	142.31
448.896	139.31
449.117	110.31
449.338	113.31
449.559	153.31
449.779	153.31
450	112.31
450.221	87.31
450.442	85.31
450.662	113.31
450.883	115.31
451.104	117.31
451.324	84.31
451.545	89.31
451.766	84.31
451.986	93.31
452.207	91.31
452.428	86.31
452.648	96.31
452.869	136.31
453.089	124.31
453.31	134.31
453.53	124.31
453.751	102.31
453.971	116.31
454.192	128.31
454.412	95.31
454.633	84.31
454.853	90.31
455.073	95.31
455.294	95.31
455.514	116.31
455.734	92.31
455.955	90.31
456.175	90.31
456.395	97.31
456.616	82.31
456.836	76.31
457.056	86.31
457.276	80.31
457.497	77.31
457.717	88.31
457.937	83.31
458.157	79.31
458.377	87.31
458.598	125.31
458.818	186.31
459.038	201.31
459.258	138.31
459.478	106.31
459.698	107.31
459.918	98.31
460.138	75.31
460.358	89.31
460.578	94.31
460.798	91.31
461.018	102.31
461.238	81.31
461.458	101.31
461.678	86.31
461.898	79.31
462.118	86.31
462.338	94.31
462.558	88.31
462.777	91.31
462.997	91.31
463.217	91.31
463.437	94.31
463.657	91.31
463.876	104.31
464.096	74.31
464.316	84.31
464.536	105.31
464.755	104.31
464.975	130.31
465.195	206.31
465.414	205.31
465.634	101.31
465.854	99.31
466.073	87.31
466.293	93.31
466.512	71.31
466.732	84.31
466.951	93.31
467.171	88.31
467.391	105.31
467.61	122.31
467.829	114.31
468.049	160.31
468.268	203.31
468.488	100.31
468.707	82.31
468.927	102.31
469.146	80.31
469.365	91.31
469.585	92.31
469.804	99.31
470.023	112.31
470.243	93.31
470.462	115.31
470.681	129.31
470.901	98.31
471.12	96.31
471.339	112.31
471.558	99.31
471.777	83.31
471.997	119.31
472.216	250.31
472.435	473.31
472.654	179.31
472.873	112.31
473.092	106.31
473.311	69.31
473.53	86.31
473.749	87.31
473.968	96.31
474.187	122.31
474.406	135.31
474.625	91.31
474.844	80.31
475.063	85.31
475.282	95.31
475.501	83.31
475.72	107.31
475.939	100.31
476.158	88.31
476.377	100.31
476.596	98.31
476.814	91.31
477.033	100.31
477.252	88.31
477.471	98.31
477.69	108.31
477.908	118.31
478.127	103.31
478.346	91.31
478.564	104.31
478.783	111.31
479.002	100.31
479.22	96.31
479.439	97.31
479.658	120.31
479.876	126.31
480.095	114.31
480.313	87.31
480.532	96.31
480.751	119.31
480.969	245.31
481.188	847.31
481.406	565.31
481.624	147.31
481.843	95.31
482.061	84.31
482.28	82.31
482.498	90.31
482.717	91.31
482.935	99.31
483.153	99.31
483.372	93.31
483.59	81.31
483.808	78.31
484.027	102.31
484.245	93.31
484.463	98.31
484.681	85.31
484.9	74.31
485.118	94.31
485.336	86.31
485.554	96.31
485.772	97.31
485.99	106.31
486.209	94.31
486.427	100.31
486.645	127.31
486.863	111.31
487.081	99.31
487.299	112.31
487.517	103.31
487.735	95.31
487.953	90.31
488.171	92.31
488.389	96.31
488.607	112.31
488.825	88.31
489.043	91.31
489.261	92.31
489.479	88.31
489.696	96.31
489.914	94.31
490.132	95.31
490.35	89.31
490.568	88.31
490.786	90.31
491.003	89.31
491.221	92.31
491.439	91.31
491.657	102.31
491.874	90.31
492.092	89.31
492.31	99.31
492.527	89.31
492.745	92.31
492.963	88.31
493.18	80.31
493.398	81.31
493.615	97.31
493.833	100.31
494.05	96.31
494.268	86.31
494.485	87.31
494.703	95.31
494.92	84.31
495.138	85.31
495.355	98.31
495.573	90.31
495.79	72.31
496.008	104.31
496.225	92.31
496.442	88.31
496.66	91.31
496.877	93.31
497.094	89.31
497.312	100.31
497.529	89.31
497.746	93.31
497.963	102.31
498.181	75.31
498.398	119.31
498.615	111.31
498.832	112.31
499.049	99.31
499.267	90.31
499.484	83.31
499.701	88.31
499.918	94.31
500.135	107.31
500.352	73.31
500.569	95.31
500.786	97.31
501.003	87.31
501.22	85.31
501.437	100.31
501.654	87.31
501.871	132.31
502.088	86.31
502.305	100.31
502.522	99.31
502.739	83.31
502.956	101.31
503.172	94.31
503.389	102.31
503.606	110.31
503.823	114.31
504.04	108.31
504.256	85.31
504.473	80.31
504.69	93.31
504.907	112.31
505.123	88.31
505.34	86.31
505.557	89.31
505.773	72.31
505.99	94.31
506.207	98.31
506.423	92.31
506.64	89.31
506.856	97.31
507.073	96.31
507.289	101.31
507.506	100.31
507.722	134.31
507.939	133.31
508.155	111.31
508.372	90.31
508.588	98.31
508.805	80.31
509.021	93.31
509.238	95.31
509.454	98.31
509.67	110.31
509.887	105.31
510.103	144.31
510.319	247.31
510.536	937.31
510.752	3192.31
510.968	890.31
511.184	182.31
511.401	123.31
511.617	109.31
511.833	125.31
512.049	88.31
512.265	92.31
512.481	92.31
512.698	95.31
512.914	97.31
513.13	94.31
513.346	96.31
513.562	98.31
513.778	89.31
513.994	107.31
514.21	107.31
