Data from Circ_2022_H10_HRD10591_00059.txt Node
Date: Wed Jan 03 09:53:49 EST 2024
User: Yrep
Spectrometer: HR+D1059
Trigger mode: 1
Integration Time (sec): 1.000000E-1
Scans to average: 1
Electric dark correction enabled: true
Nonlinearity correction enabled: false
Boxcar width: 0
XAxis mode: Wavelengths
Number of Pixels in Spectrum: 2048
>>>>>Begin Spectral Data<<<<<
223.165	-24.69
223.4	-24.69
223.635	-24.69
223.869	-21.69
224.104	-12.69
224.338	-15.69
224.573	-20.69
224.808	0.31
225.042	-5.69
225.277	-16.69
225.511	-7.69
225.746	13.31
225.98	8.31
226.215	8.31
226.449	21.31
226.683	19.31
226.918	28.31
227.152	26.31
227.387	30.31
227.621	42.31
227.856	36.31
228.09	39.31
228.324	59.31
228.559	57.31
228.793	54.31
229.027	54.31
229.262	63.31
229.496	70.31
229.73	77.31
229.964	80.31
230.199	65.31
230.433	71.31
230.667	66.31
230.901	60.31
231.136	76.31
231.37	90.31
231.604	82.31
231.838	73.31
232.072	75.31
232.306	85.31
232.541	75.31
232.775	72.31
233.009	74.31
233.243	74.31
233.477	73.31
233.711	68.31
233.945	77.31
234.179	81.31
234.413	70.31
234.647	77.31
234.881	74.31
235.115	72.31
235.349	71.31
235.583	74.31
235.817	78.31
236.051	76.31
236.285	61.31
236.519	71.31
236.753	71.31
236.987	73.31
237.221	90.31
237.455	83.31
237.689	92.31
237.922	82.31
238.156	74.31
238.39	82.31
238.624	76.31
238.858	62.31
239.091	77.31
239.325	78.31
239.559	71.31
239.793	85.31
240.027	70.31
240.26	82.31
240.494	80.31
240.728	74.31
240.961	82.31
241.195	63.31
241.429	75.31
241.662	93.31
241.896	68.31
242.13	66.31
242.363	72.31
242.597	77.31
242.83	77.31
243.064	74.31
243.298	74.31
243.531	69.31
243.765	75.31
243.998	78.31
244.232	72.31
244.465	84.31
244.699	83.31
244.932	83.31
245.166	94.31
245.399	76.31
245.633	68.31
245.866	82.31
246.099	75.31
246.333	73.31
246.566	72.31
246.8	76.31
247.033	80.31
247.266	77.31
247.5	81.31
247.733	74.31
247.966	79.31
248.2	78.31
248.433	80.31
248.666	76.31
248.899	76.31
249.133	74.31
249.366	85.31
249.599	83.31
249.832	82.31
250.066	77.31
250.299	84.31
250.532	87.31
250.765	79.31
250.998	71.31
251.231	75.31
251.465	81.31
251.698	76.31
251.931	87.31
252.164	94.31
252.397	88.31
252.63	78.31
252.863	77.31
253.096	77.31
253.329	71.31
253.562	75.31
253.795	91.31
254.028	80.31
254.261	90.31
254.494	64.31
254.727	80.31
254.96	84.31
255.193	86.31
255.426	82.31
255.659	78.31
255.892	90.31
256.124	79.31
256.357	88.31
256.59	74.31
256.823	72.31
257.056	84.31
257.289	92.31
257.521	83.31
257.754	90.31
257.987	89.31
258.22	81.31
258.452	66.31
258.685	75.31
258.918	78.31
259.151	87.31
259.383	86.31
259.616	68.31
259.849	69.31
260.081	79.31
260.314	80.31
260.547	88.31
260.779	77.31
261.012	78.31
261.244	106.31
261.477	81.31
261.71	82.31
261.942	115.31
262.175	111.31
262.407	82.31
262.64	90.31
262.872	87.31
263.105	76.31
263.337	82.31
263.57	79.31
263.802	87.31
264.035	79.31
264.267	69.31
264.499	83.31
264.732	74.31
264.964	86.31
265.197	78.31
265.429	86.31
265.661	84.31
265.894	79.31
266.126	63.31
266.358	75.31
266.591	83.31
266.823	87.31
267.055	105.31
267.287	80.31
267.52	99.31
267.752	73.31
267.984	89.31
268.216	83.31
268.448	86.31
268.681	73.31
268.913	84.31
269.145	78.31
269.377	81.31
269.609	91.31
269.841	86.31
270.073	78.31
270.306	67.31
270.538	85.31
270.77	75.31
271.002	90.31
271.234	76.31
271.466	90.31
271.698	92.31
271.93	82.31
272.162	89.31
272.394	88.31
272.626	86.31
272.858	65.31
273.09	81.31
273.322	95.31
273.553	90.31
273.785	98.31
274.017	91.31
274.249	88.31
274.481	83.31
274.713	87.31
274.945	98.31
275.176	81.31
275.408	76.31
275.64	76.31
275.872	86.31
276.104	82.31
276.335	97.31
276.567	96.31
276.799	105.31
277.031	101.31
277.262	95.31
277.494	78.31
277.726	74.31
277.957	84.31
278.189	92.31
278.421	76.31
278.652	80.31
278.884	73.31
279.115	89.31
279.347	88.31
279.579	83.31
279.81	85.31
280.042	78.31
280.273	92.31
280.505	89.31
280.736	75.31
280.968	84.31
281.199	98.31
281.431	67.31
281.662	83.31
281.894	91.31
282.125	94.31
282.356	128.31
282.588	148.31
282.819	128.31
283.051	96.31
283.282	76.31
283.513	94.31
283.745	91.31
283.976	85.31
284.207	102.31
284.439	92.31
284.67	100.31
284.901	98.31
285.132	87.31
285.364	87.31
285.595	80.31
285.826	78.31
286.057	82.31
286.288	80.31
286.52	82.31
286.751	75.31
286.982	77.31
287.213	101.31
287.444	79.31
287.675	93.31
287.906	95.31
288.138	92.31
288.369	89.31
288.6	100.31
288.831	89.31
289.062	88.31
289.293	88.31
289.524	89.31
289.755	95.31
289.986	81.31
290.217	87.31
290.448	90.31
290.679	75.31
290.91	89.31
291.141	76.31
291.371	92.31
291.602	86.31
291.833	86.31
292.064	73.31
292.295	93.31
292.526	81.31
292.757	88.31
292.987	76.31
293.218	89.31
293.449	91.31
293.68	95.31
293.91	84.31
294.141	92.31
294.372	89.31
294.603	83.31
294.833	91.31
295.064	73.31
295.295	95.31
295.525	88.31
295.756	89.31
295.987	104.31
296.217	157.31
296.448	135.31
296.679	92.31
296.909	84.31
297.14	91.31
297.37	101.31
297.601	78.31
297.831	83.31
298.062	79.31
298.292	89.31
298.523	86.31
298.753	88.31
298.984	95.31
299.214	97.31
299.445	95.31
299.675	95.31
299.905	90.31
300.136	96.31
300.366	91.31
300.597	86.31
300.827	86.31
301.057	99.31
301.288	101.31
301.518	92.31
301.748	84.31
301.979	103.31
302.209	91.31
302.439	66.31
302.669	89.31
302.9	100.31
303.13	93.31
303.36	100.31
303.59	100.31
303.82	89.31
304.051	99.31
304.281	75.31
304.511	83.31
304.741	66.31
304.971	95.31
305.201	84.31
305.431	82.31
305.661	80.31
305.891	95.31
306.121	88.31
306.352	103.31
306.582	109.31
306.812	104.31
307.042	95.31
307.272	104.31
307.502	82.31
307.731	105.31
307.961	81.31
308.191	96.31
308.421	87.31
308.651	79.31
308.881	84.31
309.111	98.31
309.341	98.31
309.571	100.31
309.8	99.31
310.03	99.31
310.26	86.31
310.49	105.31
310.72	106.31
310.949	106.31
311.179	100.31
311.409	97.31
311.639	106.31
311.868	84.31
312.098	96.31
312.328	102.31
312.557	111.31
312.787	101.31
313.017	100.31
313.246	96.31
313.476	97.31
313.706	92.31
313.935	92.31
314.165	95.31
314.394	112.31
314.624	90.31
314.853	84.31
315.083	92.31
315.312	98.31
315.542	80.31
315.771	99.31
316.001	95.31
316.23	104.31
316.46	95.31
316.689	92.31
316.919	88.31
317.148	94.31
317.377	101.31
317.607	99.31
317.836	94.31
318.065	91.31
318.295	86.31
318.524	100.31
318.753	89.31
318.983	86.31
319.212	102.31
319.441	114.31
319.67	103.31
319.9	98.31
320.129	91.31
320.358	88.31
320.587	100.31
320.816	101.31
321.046	105.31
321.275	90.31
321.504	103.31
321.733	111.31
321.962	111.31
322.191	107.31
322.42	110.31
322.649	111.31
322.878	99.31
323.108	124.31
323.337	130.31
323.566	137.31
323.795	158.31
324.024	213.31
324.253	447.31
324.482	947.31
324.71	1940.31
324.939	2467.31
325.168	948.31
325.397	291.31
325.626	139.31
325.855	138.31
326.084	125.31
326.313	135.31
326.542	155.31
326.77	258.31
326.999	492.31
327.228	1020.31
327.457	1873.31
327.686	1472.31
327.914	415.31
328.143	236.31
328.372	191.31
328.6	158.31
328.829	144.31
329.058	151.31
329.287	142.31
329.515	137.31
329.744	113.31
329.972	131.31
330.201	166.31
330.43	190.31
330.658	169.31
330.887	160.31
331.115	135.31
331.344	105.31
331.572	92.31
331.801	102.31
332.03	108.31
332.258	109.31
332.486	98.31
332.715	80.31
332.943	87.31
333.172	114.31
333.4	115.31
333.629	114.31
333.857	146.31
334.085	132.31
334.314	170.31
334.542	224.31
334.771	215.31
334.999	123.31
335.227	97.31
335.455	99.31
335.684	100.31
335.912	102.31
336.14	95.31
336.369	92.31
336.597	98.31
336.825	94.31
337.053	85.31
337.281	80.31
337.51	99.31
337.738	104.31
337.966	94.31
338.194	102.31
338.422	89.31
338.65	103.31
338.878	83.31
339.106	91.31
339.334	93.31
339.562	76.31
339.79	88.31
340.018	93.31
340.246	94.31
340.474	97.31
340.702	85.31
340.93	85.31
341.158	94.31
341.386	86.31
341.614	83.31
341.842	84.31
342.07	79.31
342.298	91.31
342.526	88.31
342.754	79.31
342.981	85.31
343.209	79.31
343.437	78.31
343.665	95.31
343.893	88.31
344.12	86.31
344.348	80.31
344.576	81.31
344.804	96.31
345.031	98.31
345.259	99.31
345.487	95.31
345.714	112.31
345.942	106.31
346.17	97.31
346.397	83.31
346.625	103.31
346.853	95.31
347.08	83.31
347.308	92.31
347.535	97.31
347.763	106.31
347.99	91.31
348.218	98.31
348.445	112.31
348.673	103.31
348.9	92.31
349.128	96.31
349.355	100.31
349.583	87.31
349.81	94.31
350.037	98.31
350.265	84.31
350.492	89.31
350.72	98.31
350.947	90.31
351.174	110.31
351.402	105.31
351.629	107.31
351.856	105.31
352.083	119.31
352.311	120.31
352.538	103.31
352.765	114.31
352.992	105.31
353.22	103.31
353.447	107.31
353.674	94.31
353.901	98.31
354.128	99.31
354.355	91.31
354.583	101.31
354.81	96.31
355.037	85.31
355.264	86.31
355.491	91.31
355.718	97.31
355.945	91.31
356.172	96.31
356.399	98.31
356.626	73.31
356.853	89.31
357.08	91.31
357.307	89.31
357.534	91.31
357.761	90.31
357.988	90.31
358.215	85.31
358.441	93.31
358.668	87.31
358.895	92.31
359.122	86.31
359.349	91.31
359.576	104.31
359.802	114.31
360.029	130.31
360.256	123.31
360.483	120.31
360.709	71.31
360.936	83.31
361.163	100.31
361.39	93.31
361.616	99.31
361.843	91.31
362.07	100.31
362.296	99.31
362.523	94.31
362.749	90.31
362.976	87.31
363.203	93.31
363.429	100.31
363.656	92.31
363.882	83.31
364.109	87.31
364.335	102.31
364.562	93.31
364.788	89.31
365.015	97.31
365.241	107.31
365.468	127.31
365.694	116.31
365.92	110.31
366.147	89.31
366.373	75.31
366.599	94.31
366.826	84.31
367.052	95.31
367.278	89.31
367.505	91.31
367.731	114.31
367.957	92.31
368.184	86.31
368.41	93.31
368.636	117.31
368.862	122.31
369.089	107.31
369.315	110.31
369.541	101.31
369.767	101.31
369.993	95.31
370.219	92.31
370.445	87.31
370.672	90.31
370.898	84.31
371.124	76.31
371.35	78.31
371.576	97.31
371.802	91.31
372.028	94.31
372.254	87.31
372.48	70.31
372.706	89.31
372.932	88.31
373.158	86.31
373.384	83.31
373.61	102.31
373.835	89.31
374.061	74.31
374.287	86.31
374.513	86.31
374.739	82.31
374.965	80.31
375.191	98.31
375.416	103.31
375.642	103.31
375.868	103.31
376.094	80.31
376.319	95.31
376.545	91.31
376.771	87.31
376.997	91.31
377.222	76.31
377.448	83.31
377.674	104.31
377.899	80.31
378.125	81.31
378.35	84.31
378.576	85.31
378.802	88.31
379.027	95.31
379.253	95.31
379.478	88.31
379.704	93.31
379.929	97.31
380.155	92.31
380.38	90.31
380.606	98.31
380.831	91.31
381.057	93.31
381.282	101.31
381.507	84.31
381.733	72.31
381.958	83.31
382.184	97.31
382.409	83.31
382.634	103.31
382.86	88.31
383.085	95.31
383.31	81.31
383.535	97.31
383.761	97.31
383.986	87.31
384.211	98.31
384.436	105.31
384.662	86.31
384.887	96.31
385.112	98.31
385.337	99.31
385.562	104.31
385.787	102.31
386.013	123.31
386.238	110.31
386.463	106.31
386.688	104.31
386.913	109.31
387.138	89.31
387.363	105.31
387.588	99.31
387.813	89.31
388.038	103.31
388.263	114.31
388.488	115.31
388.713	78.31
388.938	91.31
389.163	91.31
389.387	89.31
389.612	96.31
389.837	97.31
390.062	85.31
390.287	96.31
390.512	92.31
390.736	77.31
390.961	92.31
391.186	87.31
391.411	103.31
391.636	91.31
391.86	95.31
392.085	95.31
392.31	99.31
392.534	85.31
392.759	87.31
392.984	76.31
393.208	84.31
393.433	79.31
393.658	84.31
393.882	88.31
394.107	82.31
394.331	86.31
394.556	91.31
394.78	88.31
395.005	86.31
395.229	83.31
395.454	79.31
395.678	78.31
395.903	66.31
396.127	83.31
396.352	76.31
396.576	89.31
396.801	73.31
397.025	96.31
397.249	88.31
397.474	74.31
397.698	82.31
397.922	88.31
398.147	84.31
398.371	71.31
398.595	82.31
398.82	69.31
399.044	87.31
399.268	82.31
399.492	91.31
399.717	76.31
399.941	82.31
400.165	93.31
400.389	86.31
400.613	88.31
400.837	77.31
401.062	83.31
401.286	92.31
401.51	82.31
401.734	86.31
401.958	99.31
402.182	136.31
402.406	170.31
402.63	130.31
402.854	110.31
403.078	86.31
403.302	84.31
403.526	96.31
403.75	82.31
403.974	87.31
404.198	93.31
404.422	87.31
404.645	86.31
404.869	90.31
405.093	94.31
405.317	94.31
405.541	97.31
405.765	108.31
405.988	114.31
406.212	186.31
406.436	272.31
406.66	165.31
406.883	114.31
407.107	94.31
407.331	99.31
407.555	106.31
407.778	103.31
408.002	88.31
408.226	91.31
408.449	81.31
408.673	90.31
408.896	95.31
409.12	90.31
409.344	86.31
409.567	86.31
409.791	103.31
410.014	96.31
410.238	89.31
410.461	93.31
410.685	94.31
410.908	89.31
411.132	114.31
411.355	94.31
411.578	87.31
411.802	76.31
412.025	88.31
412.249	99.31
412.472	101.31
412.695	113.31
412.919	97.31
413.142	86.31
413.365	88.31
413.589	98.31
413.812	92.31
414.035	93.31
414.258	87.31
414.482	91.31
414.705	91.31
414.928	100.31
415.151	112.31
415.374	79.31
415.597	88.31
415.821	86.31
416.044	86.31
416.267	77.31
416.49	94.31
416.713	71.31
416.936	95.31
417.159	91.31
417.382	84.31
417.605	103.31
417.828	95.31
418.051	105.31
418.274	81.31
418.497	89.31
418.72	84.31
418.943	95.31
419.166	73.31
419.389	79.31
419.611	96.31
419.834	86.31
420.057	96.31
420.28	88.31
420.503	83.31
420.726	80.31
420.948	88.31
421.171	86.31
421.394	90.31
421.617	97.31
421.839	91.31
422.062	94.31
422.285	79.31
422.507	112.31
422.73	118.31
422.953	96.31
423.175	88.31
423.398	84.31
423.621	86.31
423.843	100.31
424.066	100.31
424.288	86.31
424.511	76.31
424.733	96.31
424.956	105.31
425.178	100.31
425.401	100.31
425.623	105.31
425.846	96.31
426.068	109.31
426.291	91.31
426.513	79.31
426.735	86.31
426.958	95.31
427.18	102.31
427.402	139.31
427.625	169.31
427.847	143.31
428.069	114.31
428.292	104.31
428.514	82.31
428.736	78.31
428.958	86.31
429.181	93.31
429.403	87.31
429.625	89.31
429.847	87.31
430.069	104.31
430.292	90.31
430.514	67.31
430.736	86.31
430.958	75.31
431.18	83.31
431.402	87.31
431.624	84.31
431.846	88.31
432.068	87.31
432.29	85.31
432.512	101.31
432.734	86.31
432.956	95.31
433.178	103.31
433.4	85.31
433.622	87.31
433.844	72.31
434.066	90.31
434.287	86.31
434.509	90.31
434.731	89.31
434.953	94.31
435.175	82.31
435.397	83.31
435.618	84.31
435.84	90.31
436.062	123.31
436.284	119.31
436.505	89.31
436.727	86.31
436.949	86.31
437.17	83.31
437.392	79.31
437.614	94.31
437.835	99.31
438.057	140.31
438.278	104.31
438.5	121.31
438.721	126.31
438.943	108.31
439.165	86.31
439.386	99.31
439.608	94.31
439.829	106.31
440.05	115.31
440.272	154.31
440.493	96.31
440.715	95.31
440.936	87.31
441.158	71.31
441.379	81.31
441.6	101.31
441.822	97.31
442.043	86.31
442.264	88.31
442.486	110.31
442.707	92.31
442.928	110.31
443.149	165.31
443.371	147.31
443.592	102.31
443.813	119.31
444.034	103.31
444.255	90.31
444.476	85.31
444.698	72.31
444.919	80.31
445.14	124.31
445.361	129.31
445.582	112.31
445.803	141.31
446.024	130.31
446.245	146.31
446.466	101.31
446.687	99.31
446.908	93.31
447.129	88.31
447.35	100.31
447.571	97.31
447.792	78.31
448.013	109.31
448.234	109.31
448.455	104.31
448.675	119.31
448.896	120.31
449.117	107.31
449.338	104.31
449.559	144.31
449.779	147.31
450	100.31
450.221	91.31
450.442	71.31
450.662	90.31
450.883	115.31
451.104	121.31
451.324	116.31
451.545	90.31
451.766	76.31
451.986	93.31
452.207	84.31
452.428	85.31
452.648	95.31
452.869	114.31
453.089	131.31
453.31	130.31
453.53	99.31
453.751	88.31
453.971	115.31
454.192	110.31
454.412	95.31
454.633	82.31
454.853	84.31
455.073	92.31
455.294	81.31
455.514	94.31
455.734	88.31
455.955	72.31
456.175	84.31
456.395	74.31
456.616	84.31
456.836	83.31
457.056	75.31
457.276	84.31
457.497	92.31
457.717	79.31
457.937	91.31
458.157	84.31
458.377	103.31
458.598	112.31
458.818	164.31
459.038	177.31
459.258	140.31
459.478	91.31
459.698	80.31
459.918	76.31
460.138	91.31
460.358	79.31
460.578	88.31
460.798	99.31
461.018	96.31
461.238	83.31
461.458	79.31
461.678	87.31
461.898	79.31
462.118	88.31
462.338	97.31
462.558	78.31
462.777	84.31
462.997	86.31
463.217	90.31
463.437	71.31
463.657	86.31
463.876	80.31
464.096	90.31
464.316	83.31
464.536	83.31
464.755	107.31
464.975	118.31
465.195	182.31
465.414	193.31
465.634	112.31
465.854	78.31
466.073	106.31
466.293	86.31
466.512	80.31
466.732	97.31
466.951	97.31
467.171	92.31
467.391	92.31
467.61	99.31
467.829	110.31
468.049	117.31
468.268	148.31
468.488	83.31
468.707	94.31
468.927	83.31
469.146	78.31
469.365	77.31
469.585	93.31
469.804	103.31
470.023	98.31
470.243	94.31
470.462	120.31
470.681	127.31
470.901	102.31
471.12	89.31
471.339	77.31
471.558	82.31
471.777	93.31
471.997	99.31
472.216	153.31
472.435	260.31
472.654	121.31
472.873	88.31
473.092	73.31
473.311	87.31
473.53	85.31
473.749	96.31
473.968	99.31
474.187	115.31
474.406	114.31
474.625	98.31
474.844	89.31
475.063	95.31
475.282	89.31
475.501	97.31
475.72	93.31
475.939	73.31
476.158	82.31
476.377	78.31
476.596	79.31
476.814	90.31
477.033	97.31
477.252	87.31
477.471	84.31
477.69	101.31
477.908	77.31
478.127	93.31
478.346	84.31
478.564	83.31
478.783	99.31
479.002	87.31
479.22	83.31
479.439	94.31
479.658	91.31
479.876	87.31
480.095	98.31
480.313	94.31
480.532	94.31
480.751	103.31
480.969	167.31
481.188	414.31
481.406	279.31
481.624	113.31
481.843	110.31
482.061	79.31
482.28	76.31
482.498	90.31
482.717	99.31
482.935	95.31
483.153	92.31
483.372	92.31
483.59	90.31
483.808	97.31
484.027	83.31
484.245	60.31
484.463	93.31
484.681	83.31
484.9	90.31
485.118	92.31
485.336	90.31
485.554	95.31
485.772	93.31
485.99	90.31
486.209	100.31
486.427	102.31
486.645	105.31
486.863	114.31
487.081	94.31
487.299	89.31
487.517	94.31
487.735	79.31
487.953	94.31
488.171	93.31
488.389	99.31
488.607	106.31
488.825	95.31
489.043	97.31
489.261	95.31
489.479	89.31
489.696	85.31
489.914	78.31
490.132	87.31
490.35	82.31
490.568	89.31
490.786	83.31
491.003	88.31
491.221	89.31
491.439	96.31
491.657	90.31
491.874	90.31
492.092	96.31
492.31	96.31
492.527	92.31
492.745	86.31
492.963	95.31
493.18	89.31
493.398	95.31
493.615	85.31
493.833	94.31
494.05	82.31
494.268	79.31
494.485	92.31
494.703	90.31
494.92	89.31
495.138	80.31
495.355	89.31
495.573	88.31
495.79	83.31
496.008	94.31
496.225	97.31
496.442	89.31
496.66	76.31
496.877	86.31
497.094	87.31
497.312	94.31
497.529	77.31
497.746	89.31
497.963	88.31
498.181	92.31
498.398	95.31
498.615	115.31
498.832	106.31
499.049	91.31
499.267	91.31
499.484	81.31
499.701	90.31
499.918	81.31
500.135	88.31
500.352	84.31
500.569	94.31
500.786	105.31
501.003	90.31
501.22	84.31
501.437	84.31
501.654	83.31
501.871	108.31
502.088	85.31
502.305	81.31
502.522	84.31
502.739	77.31
502.956	91.31
503.172	96.31
503.389	94.31
503.606	104.31
503.823	113.31
504.04	86.31
504.256	89.31
504.473	105.31
504.69	101.31
504.907	82.31
505.123	88.31
505.34	87.31
505.557	87.31
505.773	95.31
505.99	83.31
506.207	88.31
506.423	85.31
506.64	77.31
506.856	85.31
507.073	90.31
507.289	94.31
507.506	110.31
507.722	111.31
507.939	145.31
508.155	106.31
508.372	98.31
508.588	89.31
508.805	99.31
509.021	94.31
509.238	87.31
509.454	100.31
509.67	110.31
509.887	103.31
510.103	134.31
510.319	244.31
510.536	912.31
510.752	3068.31
510.968	873.31
511.184	184.31
511.401	126.31
511.617	99.31
511.833	79.31
512.049	91.31
512.265	95.31
512.481	88.31
512.698	94.31
512.914	89.31
513.13	100.31
513.346	83.31
513.562	77.31
513.778	89.31
513.994	98.31
514.21	99.31
514.426	123.31
514.642	141.31
514.858	150.31
515.074	195.31
515.29	579.31
515.506	2035.31
515.721	760.31
