Data from Circ_2022_H10_HRD10591_00097.txt Node
Date: Wed Jan 03 09:53:57 EST 2024
User: Yrep
Spectrometer: HR+D1059
Trigger mode: 1
Integration Time (sec): 1.000000E-1
Scans to average: 1
Electric dark correction enabled: true
Nonlinearity correction enabled: false
Boxcar width: 0
XAxis mode: Wavelengths
Number of Pixels in Spectrum: 2048
>>>>>Begin Spectral Data<<<<<
223.165	-17.12
223.4	-17.12
223.635	-17.12
223.869	-21.12
224.104	-18.12
224.338	-21.12
224.573	-16.12
224.808	-16.12
225.042	-10.12
225.277	-8.12
225.511	-1.12
225.746	0.88
225.98	2.88
226.215	13.88
226.449	24.88
226.683	22.88
226.918	29.88
227.152	33.88
227.387	20.88
227.621	23.88
227.856	54.88
228.09	45.88
228.324	48.88
228.559	52.88
228.793	59.88
229.027	70.88
229.262	43.88
229.496	63.88
229.73	74.88
229.964	82.88
230.199	68.88
230.433	69.88
230.667	73.88
230.901	68.88
231.136	76.88
231.37	82.88
231.604	70.88
231.838	76.88
232.072	76.88
232.306	76.88
232.541	68.88
232.775	74.88
233.009	82.88
233.243	73.88
233.477	81.88
233.711	78.88
233.945	77.88
234.179	72.88
234.413	75.88
234.647	75.88
234.881	73.88
235.115	70.88
235.349	67.88
235.583	75.88
235.817	75.88
236.051	72.88
236.285	64.88
236.519	70.88
236.753	69.88
236.987	79.88
237.221	71.88
237.455	75.88
237.689	70.88
237.922	76.88
238.156	71.88
238.39	78.88
238.624	64.88
238.858	76.88
239.091	59.88
239.325	62.88
239.559	67.88
239.793	70.88
240.027	78.88
240.26	81.88
240.494	74.88
240.728	60.88
240.961	60.88
241.195	69.88
241.429	61.88
241.662	85.88
241.896	71.88
242.13	77.88
242.363	67.88
242.597	56.88
242.83	60.88
243.064	73.88
243.298	77.88
243.531	74.88
243.765	71.88
243.998	68.88
244.232	77.88
244.465	67.88
244.699	77.88
244.932	77.88
245.166	74.88
245.399	68.88
245.633	70.88
245.866	69.88
246.099	76.88
246.333	78.88
246.566	81.88
246.8	88.88
247.033	71.88
247.266	77.88
247.5	80.88
247.733	79.88
247.966	66.88
248.2	77.88
248.433	71.88
248.666	78.88
248.899	71.88
249.133	79.88
249.366	100.88
249.599	97.88
249.832	85.88
250.066	69.88
250.299	83.88
250.532	82.88
250.765	80.88
250.998	68.88
251.231	72.88
251.465	70.88
251.698	66.88
251.931	74.88
252.164	64.88
252.397	72.88
252.63	66.88
252.863	79.88
253.096	70.88
253.329	68.88
253.562	77.88
253.795	82.88
254.028	62.88
254.261	82.88
254.494	63.88
254.727	71.88
254.96	76.88
255.193	83.88
255.426	85.88
255.659	79.88
255.892	73.88
256.124	76.88
256.357	89.88
256.59	84.88
256.823	78.88
257.056	77.88
257.289	81.88
257.521	64.88
257.754	87.88
257.987	64.88
258.22	64.88
258.452	76.88
258.685	80.88
258.918	80.88
259.151	64.88
259.383	63.88
259.616	69.88
259.849	57.88
260.081	84.88
260.314	85.88
260.547	84.88
260.779	83.88
261.012	77.88
261.244	86.88
261.477	89.88
261.71	76.88
261.942	116.88
262.175	135.88
262.407	90.88
262.64	81.88
262.872	66.88
263.105	85.88
263.337	76.88
263.57	55.88
263.802	83.88
264.035	74.88
264.267	68.88
264.499	76.88
264.732	81.88
264.964	73.88
265.197	67.88
265.429	90.88
265.661	80.88
265.894	70.88
266.126	78.88
266.358	61.88
266.591	86.88
266.823	74.88
267.055	82.88
267.287	67.88
267.52	72.88
267.752	78.88
267.984	68.88
268.216	68.88
268.448	87.88
268.681	79.88
268.913	81.88
269.145	83.88
269.377	59.88
269.609	74.88
269.841	74.88
270.073	75.88
270.306	65.88
270.538	72.88
270.77	68.88
271.002	66.88
271.234	76.88
271.466	76.88
271.698	80.88
271.93	75.88
272.162	86.88
272.394	78.88
272.626	66.88
272.858	82.88
273.09	64.88
273.322	74.88
273.553	77.88
273.785	64.88
274.017	88.88
274.249	86.88
274.481	74.88
274.713	65.88
274.945	85.88
275.176	78.88
275.408	76.88
275.64	71.88
275.872	105.88
276.104	74.88
276.335	70.88
276.567	92.88
276.799	109.88
277.031	106.88
277.262	101.88
277.494	92.88
277.726	87.88
277.957	82.88
278.189	83.88
278.421	91.88
278.652	83.88
278.884	66.88
279.115	75.88
279.347	79.88
279.579	82.88
279.81	79.88
280.042	96.88
280.273	90.88
280.505	85.88
280.736	87.88
280.968	70.88
281.199	84.88
281.431	70.88
281.662	67.88
281.894	74.88
282.125	106.88
282.356	133.88
282.588	161.88
282.819	111.88
283.051	76.88
283.282	85.88
283.513	91.88
283.745	75.88
283.976	85.88
284.207	83.88
284.439	74.88
284.67	81.88
284.901	85.88
285.132	73.88
285.364	78.88
285.595	64.88
285.826	85.88
286.057	79.88
286.288	81.88
286.52	79.88
286.751	81.88
286.982	81.88
287.213	79.88
287.444	83.88
287.675	85.88
287.906	90.88
288.138	90.88
288.369	89.88
288.6	95.88
288.831	89.88
289.062	74.88
289.293	82.88
289.524	75.88
289.755	70.88
289.986	78.88
290.217	80.88
290.448	77.88
290.679	80.88
290.91	87.88
291.141	85.88
291.371	84.88
291.602	74.88
291.833	74.88
292.064	83.88
292.295	80.88
292.526	81.88
292.757	84.88
292.987	81.88
293.218	84.88
293.449	80.88
293.68	71.88
293.91	71.88
294.141	87.88
294.372	80.88
294.603	77.88
294.833	69.88
295.064	74.88
295.295	80.88
295.525	84.88
295.756	92.88
295.987	119.88
296.217	156.88
296.448	129.88
296.679	94.88
296.909	70.88
297.14	96.88
297.37	87.88
297.601	89.88
297.831	83.88
298.062	80.88
298.292	83.88
298.523	67.88
298.753	69.88
298.984	76.88
299.214	87.88
299.445	82.88
299.675	82.88
299.905	90.88
300.136	77.88
300.366	63.88
300.597	64.88
300.827	79.88
301.057	110.88
301.288	98.88
301.518	97.88
301.748	88.88
301.979	90.88
302.209	84.88
302.439	79.88
302.669	85.88
302.9	85.88
303.13	76.88
303.36	94.88
303.59	103.88
303.82	121.88
304.051	103.88
304.281	80.88
304.511	82.88
304.741	88.88
304.971	85.88
305.201	91.88
305.431	94.88
305.661	91.88
305.891	79.88
306.121	70.88
306.352	99.88
306.582	103.88
306.812	89.88
307.042	87.88
307.272	89.88
307.502	101.88
307.731	106.88
307.961	89.88
308.191	90.88
308.421	92.88
308.651	82.88
308.881	76.88
309.111	85.88
309.341	106.88
309.571	97.88
309.8	92.88
310.03	91.88
310.26	103.88
310.49	91.88
310.72	105.88
310.949	107.88
311.179	105.88
311.409	96.88
311.639	100.88
311.868	99.88
312.098	91.88
312.328	90.88
312.557	104.88
312.787	104.88
313.017	121.88
313.246	96.88
313.476	94.88
313.706	83.88
313.935	109.88
314.165	84.88
314.394	91.88
314.624	83.88
314.853	97.88
315.083	92.88
315.312	103.88
315.542	81.88
315.771	90.88
316.001	88.88
316.23	88.88
316.46	84.88
316.689	87.88
316.919	91.88
317.148	97.88
317.377	95.88
317.607	87.88
317.836	93.88
318.065	88.88
318.295	97.88
318.524	70.88
318.753	79.88
318.983	90.88
319.212	98.88
319.441	115.88
319.67	118.88
319.9	97.88
320.129	79.88
320.358	80.88
320.587	97.88
320.816	90.88
321.046	90.88
321.275	94.88
321.504	86.88
321.733	94.88
321.962	96.88
322.191	98.88
322.42	122.88
322.649	125.88
322.878	124.88
323.108	121.88
323.337	130.88
323.566	140.88
323.795	166.88
324.024	233.88
324.253	475.88
324.482	1044.88
324.71	2200.88
324.939	2915.88
325.168	1057.88
325.397	303.88
325.626	163.88
325.855	130.88
326.084	126.88
326.313	122.88
326.542	159.88
326.77	268.88
326.999	531.88
327.228	1172.88
327.457	2125.88
327.686	1738.88
327.914	464.88
328.143	253.88
328.372	235.88
328.6	171.88
328.829	136.88
329.058	140.88
329.287	154.88
329.515	124.88
329.744	125.88
329.972	164.88
330.201	242.88
330.43	333.88
330.658	226.88
330.887	174.88
331.115	156.88
331.344	120.88
331.572	109.88
331.801	100.88
332.03	112.88
332.258	99.88
332.486	100.88
332.715	85.88
332.943	93.88
333.172	91.88
333.4	94.88
333.629	119.88
333.857	134.88
334.085	184.88
334.314	241.88
334.542	428.88
334.771	396.88
334.999	164.88
335.227	88.88
335.455	101.88
335.684	92.88
335.912	98.88
336.14	102.88
336.369	101.88
336.597	106.88
336.825	97.88
337.053	86.88
337.281	66.88
337.51	102.88
337.738	72.88
337.966	93.88
338.194	104.88
338.422	100.88
338.65	83.88
338.878	90.88
339.106	84.88
339.334	89.88
339.562	87.88
339.79	93.88
340.018	81.88
340.246	87.88
340.474	84.88
340.702	90.88
340.93	96.88
341.158	76.88
341.386	93.88
341.614	94.88
341.842	84.88
342.07	92.88
342.298	101.88
342.526	79.88
342.754	80.88
342.981	76.88
343.209	80.88
343.437	91.88
343.665	84.88
343.893	77.88
344.12	90.88
344.348	92.88
344.576	85.88
344.804	83.88
345.031	92.88
345.259	100.88
345.487	82.88
345.714	97.88
345.942	91.88
346.17	95.88
346.397	77.88
346.625	82.88
346.853	83.88
347.08	98.88
347.308	95.88
347.535	85.88
347.763	98.88
347.99	94.88
348.218	90.88
348.445	111.88
348.673	99.88
348.9	85.88
349.128	79.88
349.355	85.88
349.583	94.88
349.81	85.88
350.037	84.88
350.265	91.88
350.492	80.88
350.72	81.88
350.947	82.88
351.174	100.88
351.402	97.88
351.629	84.88
351.856	93.88
352.083	91.88
352.311	107.88
352.538	116.88
352.765	108.88
352.992	102.88
353.22	112.88
353.447	104.88
353.674	96.88
353.901	82.88
354.128	98.88
354.355	88.88
354.583	91.88
354.81	96.88
355.037	89.88
355.264	80.88
355.491	99.88
355.718	78.88
355.945	93.88
356.172	83.88
356.399	81.88
356.626	84.88
356.853	88.88
357.08	81.88
357.307	74.88
357.534	85.88
357.761	88.88
357.988	90.88
358.215	79.88
358.441	89.88
358.668	87.88
358.895	76.88
359.122	83.88
359.349	75.88
359.576	97.88
359.802	104.88
360.029	112.88
360.256	126.88
360.483	98.88
360.709	83.88
360.936	80.88
361.163	90.88
361.39	97.88
361.616	81.88
361.843	88.88
362.07	91.88
362.296	95.88
362.523	79.88
362.749	95.88
362.976	89.88
363.203	83.88
363.429	96.88
363.656	83.88
363.882	85.88
364.109	85.88
364.335	92.88
364.562	78.88
364.788	77.88
365.015	96.88
365.241	107.88
365.468	99.88
365.694	109.88
365.92	92.88
366.147	83.88
366.373	75.88
366.599	67.88
366.826	74.88
367.052	84.88
367.278	77.88
367.505	81.88
367.731	98.88
367.957	89.88
368.184	91.88
368.41	102.88
368.636	116.88
368.862	129.88
369.089	112.88
369.315	79.88
369.541	88.88
369.767	78.88
369.993	90.88
370.219	92.88
370.445	89.88
370.672	74.88
370.898	84.88
371.124	83.88
371.35	87.88
371.576	81.88
371.802	67.88
372.028	80.88
372.254	98.88
372.48	92.88
372.706	78.88
372.932	84.88
373.158	85.88
373.384	92.88
373.61	79.88
373.835	93.88
374.061	73.88
374.287	85.88
374.513	94.88
374.739	81.88
374.965	76.88
375.191	85.88
375.416	90.88
375.642	70.88
375.868	88.88
376.094	85.88
376.319	83.88
376.545	97.88
376.771	92.88
376.997	79.88
377.222	81.88
377.448	89.88
377.674	86.88
377.899	82.88
378.125	73.88
378.35	93.88
378.576	87.88
378.802	66.88
379.027	86.88
379.253	94.88
379.478	89.88
379.704	74.88
379.929	84.88
380.155	87.88
380.38	95.88
380.606	78.88
380.831	88.88
381.057	94.88
381.282	85.88
381.507	93.88
381.733	96.88
381.958	94.88
382.184	85.88
382.409	104.88
382.634	90.88
382.86	98.88
383.085	83.88
383.31	86.88
383.535	105.88
383.761	88.88
383.986	99.88
384.211	99.88
384.436	94.88
384.662	89.88
384.887	87.88
385.112	94.88
385.337	78.88
385.562	108.88
385.787	79.88
386.013	93.88
386.238	112.88
386.463	108.88
386.688	79.88
386.913	94.88
387.138	90.88
387.363	99.88
387.588	94.88
387.813	88.88
388.038	100.88
388.263	102.88
388.488	107.88
388.713	81.88
388.938	88.88
389.163	72.88
389.387	72.88
389.612	82.88
389.837	82.88
390.062	65.88
390.287	85.88
390.512	81.88
390.736	93.88
390.961	92.88
391.186	82.88
391.411	84.88
391.636	81.88
391.86	68.88
392.085	74.88
392.31	82.88
392.534	85.88
392.759	86.88
392.984	73.88
393.208	82.88
393.433	89.88
393.658	89.88
393.882	83.88
394.107	66.88
394.331	77.88
394.556	84.88
394.78	92.88
395.005	73.88
395.229	87.88
395.454	69.88
395.678	86.88
395.903	89.88
396.127	83.88
396.352	81.88
396.576	87.88
396.801	75.88
397.025	97.88
397.249	82.88
397.474	70.88
397.698	94.88
397.922	83.88
398.147	85.88
398.371	82.88
398.595	80.88
398.82	80.88
399.044	76.88
399.268	84.88
399.492	77.88
399.717	67.88
399.941	92.88
400.165	104.88
400.389	73.88
400.613	84.88
400.837	82.88
401.062	72.88
401.286	88.88
401.51	90.88
401.734	85.88
401.958	99.88
402.182	144.88
402.406	184.88
402.63	139.88
402.854	84.88
403.078	93.88
403.302	70.88
403.526	73.88
403.75	90.88
403.974	87.88
404.198	78.88
404.422	88.88
404.645	76.88
404.869	82.88
405.093	97.88
405.317	89.88
405.541	111.88
405.765	109.88
405.988	130.88
406.212	221.88
406.436	296.88
406.66	157.88
406.883	97.88
407.107	95.88
407.331	81.88
407.555	103.88
407.778	88.88
408.002	89.88
408.226	91.88
408.449	83.88
408.673	82.88
408.896	89.88
409.12	109.88
409.344	94.88
409.567	96.88
409.791	88.88
410.014	92.88
410.238	114.88
410.461	99.88
410.685	80.88
410.908	87.88
411.132	101.88
411.355	104.88
411.578	68.88
411.802	82.88
412.025	85.88
412.249	83.88
412.472	112.88
412.695	101.88
412.919	104.88
413.142	84.88
413.365	79.88
413.589	81.88
413.812	84.88
414.035	92.88
414.258	82.88
414.482	82.88
414.705	79.88
414.928	62.88
415.151	89.88
415.374	75.88
415.597	93.88
415.821	75.88
416.044	81.88
416.267	78.88
416.49	96.88
416.713	93.88
416.936	83.88
417.159	69.88
417.382	101.88
417.605	86.88
417.828	85.88
418.051	75.88
418.274	80.88
418.497	91.88
418.72	74.88
418.943	89.88
419.166	77.88
419.389	80.88
419.611	71.88
419.834	78.88
420.057	91.88
420.28	67.88
420.503	90.88
420.726	69.88
420.948	87.88
421.171	90.88
421.394	91.88
421.617	92.88
421.839	70.88
422.062	82.88
422.285	78.88
422.507	91.88
422.73	109.88
422.953	98.88
423.175	93.88
423.398	97.88
423.621	100.88
423.843	89.88
424.066	88.88
424.288	87.88
424.511	73.88
424.733	95.88
424.956	92.88
425.178	103.88
425.401	96.88
425.623	92.88
425.846	104.88
426.068	96.88
426.291	93.88
426.513	91.88
426.735	75.88
426.958	89.88
427.18	117.88
427.402	147.88
427.625	217.88
427.847	169.88
428.069	153.88
428.292	92.88
428.514	84.88
428.736	70.88
428.958	79.88
429.181	76.88
429.403	88.88
429.625	82.88
429.847	95.88
430.069	97.88
430.292	97.88
430.514	88.88
430.736	68.88
430.958	83.88
431.18	75.88
431.402	94.88
431.624	99.88
431.846	89.88
432.068	90.88
432.29	94.88
432.512	105.88
432.734	86.88
432.956	81.88
433.178	100.88
433.4	93.88
433.622	75.88
433.844	100.88
434.066	98.88
434.287	89.88
434.509	80.88
434.731	94.88
434.953	85.88
435.175	83.88
435.397	84.88
435.618	93.88
435.84	107.88
436.062	124.88
436.284	119.88
436.505	98.88
436.727	109.88
436.949	89.88
437.17	82.88
437.392	78.88
437.614	95.88
437.835	120.88
438.057	142.88
438.278	120.88
438.5	110.88
438.721	122.88
438.943	98.88
439.165	92.88
439.386	88.88
439.608	68.88
439.829	99.88
440.05	126.88
440.272	165.88
440.493	95.88
440.715	87.88
440.936	80.88
441.158	92.88
441.379	96.88
441.6	86.88
441.822	106.88
442.043	92.88
442.264	99.88
442.486	106.88
442.707	105.88
442.928	116.88
443.149	160.88
443.371	148.88
443.592	126.88
443.813	115.88
444.034	119.88
444.255	84.88
444.476	82.88
444.698	89.88
444.919	84.88
445.14	101.88
445.361	138.88
445.582	124.88
445.803	165.88
446.024	173.88
446.245	141.88
446.466	117.88
446.687	79.88
446.908	95.88
447.129	92.88
447.35	91.88
447.571	102.88
447.792	100.88
448.013	100.88
448.234	96.88
448.455	98.88
448.675	125.88
448.896	117.88
449.117	87.88
449.338	91.88
449.559	126.88
449.779	142.88
450	101.88
450.221	90.88
450.442	84.88
450.662	94.88
450.883	116.88
451.104	118.88
451.324	82.88
451.545	75.88
451.766	83.88
451.986	76.88
452.207	107.88
452.428	83.88
452.648	98.88
452.869	116.88
453.089	132.88
453.31	128.88
453.53	89.88
453.751	84.88
453.971	114.88
454.192	108.88
454.412	104.88
454.633	88.88
454.853	91.88
455.073	77.88
455.294	83.88
455.514	90.88
455.734	95.88
455.955	83.88
456.175	79.88
456.395	82.88
456.616	86.88
456.836	80.88
457.056	87.88
457.276	66.88
457.497	80.88
457.717	89.88
457.937	85.88
458.157	83.88
458.377	98.88
458.598	108.88
458.818	180.88
459.038	209.88
459.258	132.88
459.478	89.88
459.698	81.88
459.918	80.88
460.138	77.88
460.358	94.88
460.578	77.88
460.798	91.88
461.018	94.88
461.238	91.88
461.458	80.88
461.678	82.88
461.898	81.88
462.118	76.88
462.338	73.88
462.558	79.88
462.777	92.88
462.997	108.88
463.217	98.88
463.437	74.88
463.657	86.88
463.876	89.88
464.096	94.88
464.316	89.88
464.536	90.88
464.755	82.88
464.975	120.88
465.195	209.88
465.414	210.88
465.634	100.88
465.854	80.88
466.073	84.88
466.293	77.88
466.512	90.88
466.732	95.88
466.951	89.88
467.171	79.88
467.391	106.88
467.61	102.88
467.829	109.88
468.049	168.88
468.268	211.88
468.488	92.88
468.707	96.88
468.927	74.88
469.146	81.88
469.365	73.88
469.585	81.88
469.804	99.88
470.023	96.88
470.243	88.88
470.462	89.88
470.681	113.88
470.901	85.88
471.12	81.88
471.339	90.88
471.558	88.88
471.777	98.88
471.997	119.88
472.216	267.88
472.435	519.88
472.654	178.88
472.873	91.88
473.092	83.88
473.311	58.88
473.53	78.88
473.749	89.88
473.968	85.88
474.187	107.88
474.406	89.88
474.625	80.88
474.844	85.88
475.063	87.88
475.282	85.88
475.501	83.88
475.72	87.88
475.939	83.88
476.158	85.88
476.377	86.88
476.596	93.88
476.814	99.88
477.033	96.88
477.252	81.88
477.471	75.88
477.69	91.88
477.908	85.88
478.127	76.88
478.346	82.88
478.564	97.88
478.783	98.88
479.002	78.88
479.22	88.88
479.439	105.88
479.658	109.88
479.876	100.88
480.095	98.88
480.313	92.88
480.532	92.88
480.751	126.88
480.969	265.88
481.188	912.88
481.406	572.88
481.624	134.88
481.843	84.88
482.061	85.88
482.28	75.88
482.498	94.88
482.717	91.88
482.935	89.88
483.153	79.88
483.372	69.88
483.59	88.88
483.808	85.88
484.027	84.88
484.245	94.88
484.463	113.88
484.681	76.88
484.9	92.88
485.118	93.88
485.336	69.88
485.554	73.88
485.772	90.88
485.99	85.88
486.209	81.88
486.427	87.88
486.645	100.88
486.863	114.88
487.081	88.88
487.299	98.88
487.517	76.88
487.735	90.88
487.953	81.88
488.171	78.88
488.389	93.88
488.607	78.88
488.825	93.88
489.043	81.88
489.261	79.88
489.479	85.88
489.696	77.88
489.914	88.88
490.132	99.88
490.35	85.88
490.568	80.88
490.786	81.88
491.003	90.88
491.221	81.88
491.439	92.88
491.657	105.88
491.874	76.88
492.092	84.88
492.31	94.88
492.527	90.88
492.745	86.88
492.963	99.88
493.18	81.88
493.398	88.88
493.615	93.88
493.833	82.88
494.05	79.88
494.268	85.88
494.485	81.88
494.703	89.88
494.92	82.88
495.138	89.88
495.355	75.88
495.573	77.88
495.79	70.88
496.008	92.88
496.225	103.88
496.442	80.88
496.66	100.88
496.877	76.88
497.094	102.88
497.312	78.88
497.529	90.88
497.746	73.88
497.963	97.88
498.181	82.88
498.398	82.88
498.615	101.88
498.832	98.88
499.049	89.88
499.267	81.88
499.484	70.88
499.701	78.88
499.918	75.88
500.135	76.88
500.352	74.88
500.569	82.88
500.786	85.88
501.003	78.88
501.22	89.88
501.437	89.88
501.654	85.88
501.871	107.88
502.088	105.88
502.305	80.88
502.522	86.88
502.739	91.88
502.956	91.88
503.172	76.88
503.389	98.88
503.606	113.88
503.823	95.88
504.04	89.88
504.256	81.88
504.473	86.88
504.69	86.88
504.907	90.88
505.123	81.88
505.34	82.88
505.557	92.88
505.773	80.88
505.99	82.88
506.207	77.88
506.423	75.88
506.64	84.88
506.856	91.88
507.073	90.88
507.289	83.88
507.506	92.88
507.722	117.88
507.939	125.88
508.155	105.88
508.372	83.88
508.588	92.88
508.805	101.88
509.021	89.88
509.238	93.88
509.454	99.88
509.67	106.88
509.887	107.88
510.103	140.88
510.319	251.88
510.536	1020.88
510.752	3477.88
510.968	946.88
511.184	182.88
511.401	122.88
511.617	105.88
511.833	84.88
512.049	85.88
512.265	89.88
512.481	75.88
512.698	81.88
512.914	74.88
513.13	78.88
513.346	96.88
513.562	95.88
513.778	97.88
513.994	101.88
514.21	101.88
514.426	125.88
514.642	154.88
514.858	146.88
515.074	176.88
515.29	658.88
515.506	2340.88
515.721	865.88
515.937	208.88
516.153	133.88
516.369	93.88
