Data from Circ_2022_H10_HRD10591_00044.txt Node
Date: Wed Jan 03 09:53:46 EST 2024
User: Yrep
Spectrometer: HR+D1059
Trigger mode: 1
Integration Time (sec): 1.000000E-1
Scans to average: 1
Electric dark correction enabled: true
Nonlinearity correction enabled: false
Boxcar width: 0
XAxis mode: Wavelengths
Number of Pixels in Spectrum: 2048
>>>>>Begin Spectral Data<<<<<
223.165	-9.38
223.4	-9.38
223.635	-9.38
223.869	-35.38
224.104	-22.38
224.338	-21.38
224.573	-17.38
224.808	-7.38
225.042	-10.38
225.277	-9.38
225.511	5.62
225.746	9.62
225.98	11.62
226.215	8.62
226.449	11.62
226.683	24.62
226.918	28.62
227.152	32.62
227.387	35.62
227.621	46.62
227.856	54.62
228.09	52.62
228.324	53.62
228.559	58.62
228.793	46.62
229.027	51.62
229.262	69.62
229.496	79.62
229.73	94.62
229.964	103.62
230.199	79.62
230.433	91.62
230.667	91.62
230.901	87.62
231.136	89.62
231.37	87.62
231.604	83.62
231.838	83.62
232.072	72.62
232.306	89.62
232.541	87.62
232.775	89.62
233.009	88.62
233.243	77.62
233.477	87.62
233.711	86.62
233.945	88.62
234.179	96.62
234.413	83.62
234.647	76.62
234.881	90.62
235.115	86.62
235.349	72.62
235.583	83.62
235.817	86.62
236.051	76.62
236.285	82.62
236.519	81.62
236.753	81.62
236.987	95.62
237.221	95.62
237.455	88.62
237.689	79.62
237.922	86.62
238.156	87.62
238.39	72.62
238.624	81.62
238.858	82.62
239.091	72.62
239.325	93.62
239.559	91.62
239.793	73.62
240.027	78.62
240.26	79.62
240.494	84.62
240.728	86.62
240.961	76.62
241.195	98.62
241.429	75.62
241.662	78.62
241.896	67.62
242.13	84.62
242.363	73.62
242.597	70.62
242.83	87.62
243.064	85.62
243.298	72.62
243.531	76.62
243.765	69.62
243.998	72.62
244.232	70.62
244.465	89.62
244.699	86.62
244.932	83.62
245.166	84.62
245.399	78.62
245.633	85.62
245.866	91.62
246.099	74.62
246.333	90.62
246.566	92.62
246.8	75.62
247.033	64.62
247.266	84.62
247.5	93.62
247.733	81.62
247.966	85.62
248.2	82.62
248.433	94.62
248.666	77.62
248.899	76.62
249.133	83.62
249.366	101.62
249.599	105.62
249.832	98.62
250.066	85.62
250.299	72.62
250.532	77.62
250.765	89.62
250.998	72.62
251.231	77.62
251.465	87.62
251.698	92.62
251.931	94.62
252.164	95.62
252.397	80.62
252.63	91.62
252.863	90.62
253.096	79.62
253.329	82.62
253.562	82.62
253.795	87.62
254.028	82.62
254.261	81.62
254.494	87.62
254.727	80.62
254.96	87.62
255.193	82.62
255.426	94.62
255.659	77.62
255.892	78.62
256.124	94.62
256.357	87.62
256.59	82.62
256.823	87.62
257.056	82.62
257.289	81.62
257.521	82.62
257.754	75.62
257.987	78.62
258.22	83.62
258.452	90.62
258.685	88.62
258.918	76.62
259.151	86.62
259.383	92.62
259.616	81.62
259.849	82.62
260.081	84.62
260.314	84.62
260.547	100.62
260.779	94.62
261.012	77.62
261.244	98.62
261.477	103.62
261.71	96.62
261.942	112.62
262.175	108.62
262.407	89.62
262.64	82.62
262.872	92.62
263.105	91.62
263.337	100.62
263.57	84.62
263.802	89.62
264.035	87.62
264.267	76.62
264.499	96.62
264.732	91.62
264.964	74.62
265.197	95.62
265.429	87.62
265.661	91.62
265.894	76.62
266.126	88.62
266.358	88.62
266.591	96.62
266.823	72.62
267.055	76.62
267.287	73.62
267.52	90.62
267.752	83.62
267.984	100.62
268.216	82.62
268.448	79.62
268.681	82.62
268.913	87.62
269.145	90.62
269.377	83.62
269.609	80.62
269.841	89.62
270.073	89.62
270.306	92.62
270.538	73.62
270.77	90.62
271.002	91.62
271.234	90.62
271.466	89.62
271.698	80.62
271.93	92.62
272.162	89.62
272.394	76.62
272.626	83.62
272.858	90.62
273.09	82.62
273.322	88.62
273.553	96.62
273.785	78.62
274.017	98.62
274.249	95.62
274.481	83.62
274.713	75.62
274.945	69.62
275.176	81.62
275.408	88.62
275.64	86.62
275.872	93.62
276.104	90.62
276.335	98.62
276.567	115.62
276.799	101.62
277.031	117.62
277.262	85.62
277.494	95.62
277.726	81.62
277.957	86.62
278.189	96.62
278.421	81.62
278.652	85.62
278.884	100.62
279.115	91.62
279.347	88.62
279.579	98.62
279.81	90.62
280.042	106.62
280.273	100.62
280.505	90.62
280.736	91.62
280.968	86.62
281.199	92.62
281.431	82.62
281.662	89.62
281.894	104.62
282.125	103.62
282.356	124.62
282.588	157.62
282.819	125.62
283.051	86.62
283.282	88.62
283.513	88.62
283.745	89.62
283.976	101.62
284.207	78.62
284.439	91.62
284.67	85.62
284.901	81.62
285.132	106.62
285.364	81.62
285.595	100.62
285.826	85.62
286.057	83.62
286.288	89.62
286.52	93.62
286.751	105.62
286.982	86.62
287.213	93.62
287.444	81.62
287.675	91.62
287.906	94.62
288.138	96.62
288.369	96.62
288.6	94.62
288.831	85.62
289.062	90.62
289.293	99.62
289.524	100.62
289.755	101.62
289.986	79.62
290.217	92.62
290.448	100.62
290.679	81.62
290.91	85.62
291.141	77.62
291.371	77.62
291.602	87.62
291.833	83.62
292.064	90.62
292.295	92.62
292.526	89.62
292.757	89.62
292.987	81.62
293.218	77.62
293.449	104.62
293.68	96.62
293.91	89.62
294.141	84.62
294.372	75.62
294.603	101.62
294.833	77.62
295.064	92.62
295.295	93.62
295.525	89.62
295.756	102.62
295.987	130.62
296.217	138.62
296.448	139.62
296.679	97.62
296.909	87.62
297.14	92.62
297.37	91.62
297.601	84.62
297.831	90.62
298.062	90.62
298.292	82.62
298.523	89.62
298.753	98.62
298.984	82.62
299.214	94.62
299.445	94.62
299.675	95.62
299.905	81.62
300.136	88.62
300.366	89.62
300.597	106.62
300.827	99.62
301.057	96.62
301.288	99.62
301.518	87.62
301.748	101.62
301.979	95.62
302.209	93.62
302.439	102.62
302.669	94.62
302.9	84.62
303.13	96.62
303.36	95.62
303.59	107.62
303.82	116.62
304.051	108.62
304.281	107.62
304.511	86.62
304.741	104.62
304.971	113.62
305.201	92.62
305.431	95.62
305.661	92.62
305.891	88.62
306.121	89.62
306.352	108.62
306.582	113.62
306.812	93.62
307.042	101.62
307.272	96.62
307.502	112.62
307.731	76.62
307.961	93.62
308.191	86.62
308.421	89.62
308.651	101.62
308.881	94.62
309.111	93.62
309.341	91.62
309.571	113.62
309.8	115.62
310.03	117.62
310.26	93.62
310.49	92.62
310.72	108.62
310.949	101.62
311.179	110.62
311.409	97.62
311.639	102.62
311.868	90.62
312.098	104.62
312.328	104.62
312.557	114.62
312.787	101.62
313.017	108.62
313.246	82.62
313.476	101.62
313.706	106.62
313.935	102.62
314.165	90.62
314.394	105.62
314.624	110.62
314.853	100.62
315.083	91.62
315.312	99.62
315.542	105.62
315.771	92.62
316.001	107.62
316.23	99.62
316.46	76.62
316.689	87.62
316.919	85.62
317.148	105.62
317.377	96.62
317.607	96.62
317.836	90.62
318.065	98.62
318.295	98.62
318.524	102.62
318.753	104.62
318.983	88.62
319.212	96.62
319.441	129.62
319.67	116.62
319.9	106.62
320.129	92.62
320.358	94.62
320.587	97.62
320.816	106.62
321.046	110.62
321.275	104.62
321.504	106.62
321.733	100.62
321.962	106.62
322.191	116.62
322.42	109.62
322.649	120.62
322.878	107.62
323.108	140.62
323.337	137.62
323.566	153.62
323.795	166.62
324.024	214.62
324.253	415.62
324.482	905.62
324.71	1811.62
324.939	2439.62
325.168	874.62
325.397	264.62
325.626	162.62
325.855	130.62
326.084	111.62
326.313	142.62
326.542	146.62
326.77	243.62
326.999	488.62
327.228	984.62
327.457	1813.62
327.686	1512.62
327.914	417.62
328.143	219.62
328.372	162.62
328.6	152.62
328.829	137.62
329.058	138.62
329.287	142.62
329.515	117.62
329.744	116.62
329.972	116.62
330.201	145.62
330.43	176.62
330.658	154.62
330.887	163.62
331.115	139.62
331.344	102.62
331.572	112.62
331.801	118.62
332.03	114.62
332.258	92.62
332.486	93.62
332.715	87.62
332.943	100.62
333.172	98.62
333.4	106.62
333.629	102.62
333.857	116.62
334.085	130.62
334.314	145.62
334.542	200.62
334.771	178.62
334.999	105.62
335.227	104.62
335.455	100.62
335.684	93.62
335.912	91.62
336.14	107.62
336.369	102.62
336.597	94.62
336.825	106.62
337.053	99.62
337.281	88.62
337.51	97.62
337.738	104.62
337.966	93.62
338.194	106.62
338.422	106.62
338.65	104.62
338.878	101.62
339.106	93.62
339.334	86.62
339.562	98.62
339.79	81.62
340.018	87.62
340.246	97.62
340.474	103.62
340.702	99.62
340.93	86.62
341.158	101.62
341.386	97.62
341.614	109.62
341.842	113.62
342.07	97.62
342.298	89.62
342.526	92.62
342.754	91.62
342.981	99.62
343.209	90.62
343.437	97.62
343.665	108.62
343.893	93.62
344.12	98.62
344.348	98.62
344.576	94.62
344.804	105.62
345.031	99.62
345.259	115.62
345.487	94.62
345.714	81.62
345.942	92.62
346.17	90.62
346.397	97.62
346.625	93.62
346.853	101.62
347.08	104.62
347.308	95.62
347.535	97.62
347.763	94.62
347.99	102.62
348.218	115.62
348.445	105.62
348.673	89.62
348.9	108.62
349.128	100.62
349.355	99.62
349.583	90.62
349.81	74.62
350.037	104.62
350.265	106.62
350.492	96.62
350.72	96.62
350.947	109.62
351.174	123.62
351.402	112.62
351.629	108.62
351.856	97.62
352.083	103.62
352.311	115.62
352.538	114.62
352.765	120.62
352.992	126.62
353.22	112.62
353.447	96.62
353.674	93.62
353.901	105.62
354.128	96.62
354.355	101.62
354.583	104.62
354.81	108.62
355.037	103.62
355.264	89.62
355.491	98.62
355.718	87.62
355.945	97.62
356.172	107.62
356.399	95.62
356.626	96.62
356.853	93.62
357.08	105.62
357.307	102.62
357.534	77.62
357.761	96.62
357.988	93.62
358.215	96.62
358.441	90.62
358.668	107.62
358.895	104.62
359.122	100.62
359.349	102.62
359.576	86.62
359.802	107.62
360.029	130.62
360.256	114.62
360.483	106.62
360.709	86.62
360.936	84.62
361.163	70.62
361.39	94.62
361.616	106.62
361.843	92.62
362.07	94.62
362.296	86.62
362.523	102.62
362.749	96.62
362.976	97.62
363.203	93.62
363.429	87.62
363.656	93.62
363.882	90.62
364.109	102.62
364.335	92.62
364.562	99.62
364.788	104.62
365.015	91.62
365.241	116.62
365.468	116.62
365.694	116.62
365.92	89.62
366.147	107.62
366.373	106.62
366.599	94.62
366.826	96.62
367.052	89.62
367.278	90.62
367.505	86.62
367.731	98.62
367.957	100.62
368.184	100.62
368.41	107.62
368.636	104.62
368.862	117.62
369.089	122.62
369.315	106.62
369.541	107.62
369.767	101.62
369.993	91.62
370.219	84.62
370.445	78.62
370.672	85.62
370.898	60.62
371.124	78.62
371.35	95.62
371.576	102.62
371.802	99.62
372.028	100.62
372.254	85.62
372.48	92.62
372.706	92.62
372.932	83.62
373.158	77.62
373.384	96.62
373.61	103.62
373.835	84.62
374.061	93.62
374.287	97.62
374.513	109.62
374.739	100.62
374.965	81.62
375.191	89.62
375.416	87.62
375.642	97.62
375.868	98.62
376.094	104.62
376.319	106.62
376.545	78.62
376.771	89.62
376.997	90.62
377.222	91.62
377.448	89.62
377.674	91.62
377.899	86.62
378.125	94.62
378.35	91.62
378.576	93.62
378.802	108.62
379.027	93.62
379.253	93.62
379.478	93.62
379.704	94.62
379.929	105.62
380.155	100.62
380.38	97.62
380.606	88.62
380.831	87.62
381.057	94.62
381.282	89.62
381.507	87.62
381.733	93.62
381.958	90.62
382.184	97.62
382.409	107.62
382.634	92.62
382.86	90.62
383.085	100.62
383.31	98.62
383.535	97.62
383.761	100.62
383.986	104.62
384.211	105.62
384.436	90.62
384.662	100.62
384.887	105.62
385.112	108.62
385.337	88.62
385.562	108.62
385.787	108.62
386.013	101.62
386.238	101.62
386.463	102.62
386.688	119.62
386.913	109.62
387.138	104.62
387.363	91.62
387.588	96.62
387.813	105.62
388.038	91.62
388.263	123.62
388.488	107.62
388.713	92.62
388.938	98.62
389.163	93.62
389.387	96.62
389.612	91.62
389.837	89.62
390.062	103.62
390.287	82.62
390.512	84.62
390.736	90.62
390.961	93.62
391.186	90.62
391.411	92.62
391.636	81.62
391.86	89.62
392.085	92.62
392.31	91.62
392.534	88.62
392.759	94.62
392.984	98.62
393.208	95.62
393.433	98.62
393.658	95.62
393.882	86.62
394.107	82.62
394.331	90.62
394.556	88.62
394.78	101.62
395.005	104.62
395.229	76.62
395.454	75.62
395.678	90.62
395.903	102.62
396.127	100.62
396.352	91.62
396.576	93.62
396.801	88.62
397.025	97.62
397.249	77.62
397.474	89.62
397.698	96.62
397.922	87.62
398.147	100.62
398.371	98.62
398.595	79.62
398.82	87.62
399.044	94.62
399.268	91.62
399.492	94.62
399.717	96.62
399.941	93.62
400.165	87.62
400.389	85.62
400.613	89.62
400.837	86.62
401.062	93.62
401.286	98.62
401.51	92.62
401.734	99.62
401.958	117.62
402.182	130.62
402.406	162.62
402.63	135.62
402.854	101.62
403.078	79.62
403.302	92.62
403.526	104.62
403.75	100.62
403.974	96.62
404.198	87.62
404.422	97.62
404.645	87.62
404.869	105.62
405.093	98.62
405.317	107.62
405.541	108.62
405.765	104.62
405.988	112.62
406.212	185.62
406.436	248.62
406.66	156.62
406.883	103.62
407.107	84.62
407.331	103.62
407.555	98.62
407.778	95.62
408.002	98.62
408.226	85.62
408.449	91.62
408.673	90.62
408.896	101.62
409.12	117.62
409.344	102.62
409.567	98.62
409.791	90.62
410.014	89.62
410.238	79.62
410.461	99.62
410.685	100.62
410.908	95.62
411.132	100.62
411.355	104.62
411.578	107.62
411.802	93.62
412.025	99.62
412.249	89.62
412.472	102.62
412.695	103.62
412.919	96.62
413.142	89.62
413.365	89.62
413.589	88.62
413.812	82.62
414.035	93.62
414.258	85.62
414.482	85.62
414.705	101.62
414.928	95.62
415.151	92.62
415.374	94.62
415.597	105.62
415.821	85.62
416.044	96.62
416.267	106.62
416.49	92.62
416.713	73.62
416.936	98.62
417.159	89.62
417.382	94.62
417.605	88.62
417.828	95.62
418.051	98.62
418.274	90.62
418.497	85.62
418.72	83.62
418.943	103.62
419.166	86.62
419.389	84.62
419.611	81.62
419.834	89.62
420.057	90.62
420.28	89.62
420.503	80.62
420.726	78.62
420.948	92.62
421.171	98.62
421.394	86.62
421.617	85.62
421.839	88.62
422.062	88.62
422.285	89.62
422.507	113.62
422.73	102.62
422.953	87.62
423.175	98.62
423.398	86.62
423.621	96.62
423.843	92.62
424.066	92.62
424.288	86.62
424.511	101.62
424.733	103.62
424.956	113.62
425.178	105.62
425.401	107.62
425.623	116.62
425.846	99.62
426.068	93.62
426.291	89.62
426.513	90.62
426.735	83.62
426.958	100.62
427.18	101.62
427.402	150.62
427.625	196.62
427.847	167.62
428.069	123.62
428.292	105.62
428.514	82.62
428.736	80.62
428.958	84.62
429.181	94.62
429.403	88.62
429.625	91.62
429.847	96.62
430.069	96.62
430.292	86.62
430.514	84.62
430.736	80.62
430.958	98.62
431.18	97.62
431.402	90.62
431.624	94.62
431.846	88.62
432.068	91.62
432.29	84.62
432.512	96.62
432.734	96.62
432.956	97.62
433.178	105.62
433.4	93.62
433.622	90.62
433.844	87.62
434.066	88.62
434.287	89.62
434.509	96.62
434.731	99.62
434.953	94.62
435.175	79.62
435.397	88.62
435.618	106.62
435.84	104.62
436.062	136.62
436.284	123.62
436.505	106.62
436.727	93.62
436.949	90.62
437.17	89.62
437.392	76.62
437.614	101.62
437.835	122.62
438.057	134.62
438.278	134.62
438.5	118.62
438.721	121.62
438.943	109.62
439.165	89.62
439.386	87.62
439.608	84.62
439.829	94.62
440.05	124.62
440.272	159.62
440.493	95.62
440.715	86.62
440.936	88.62
441.158	89.62
441.379	90.62
441.6	96.62
441.822	105.62
442.043	114.62
442.264	99.62
442.486	112.62
442.707	100.62
442.928	108.62
443.149	142.62
443.371	145.62
443.592	122.62
443.813	120.62
444.034	106.62
444.255	87.62
444.476	89.62
444.698	79.62
444.919	96.62
445.14	133.62
445.361	140.62
445.582	122.62
445.803	160.62
446.024	152.62
446.245	147.62
446.466	111.62
446.687	87.62
446.908	95.62
447.129	96.62
447.35	87.62
447.571	91.62
447.792	97.62
448.013	81.62
448.234	117.62
448.455	104.62
448.675	123.62
448.896	130.62
449.117	109.62
449.338	101.62
449.559	128.62
449.779	137.62
450	107.62
450.221	83.62
450.442	101.62
450.662	86.62
450.883	116.62
451.104	112.62
451.324	94.62
451.545	88.62
451.766	82.62
451.986	83.62
452.207	87.62
452.428	97.62
452.648	97.62
452.869	119.62
453.089	122.62
453.31	130.62
453.53	91.62
453.751	100.62
453.971	128.62
454.192	121.62
454.412	116.62
454.633	85.62
454.853	89.62
455.073	94.62
455.294	93.62
455.514	114.62
455.734	103.62
455.955	82.62
456.175	72.62
456.395	92.62
456.616	84.62
456.836	93.62
457.056	94.62
457.276	80.62
457.497	88.62
457.717	79.62
457.937	92.62
458.157	89.62
458.377	88.62
458.598	110.62
458.818	165.62
459.038	177.62
459.258	131.62
459.478	97.62
459.698	102.62
459.918	84.62
460.138	90.62
460.358	92.62
460.578	92.62
460.798	97.62
461.018	90.62
461.238	78.62
461.458	74.62
461.678	82.62
461.898	75.62
462.118	91.62
462.338	92.62
462.558	77.62
462.777	76.62
462.997	84.62
463.217	102.62
463.437	89.62
463.657	94.62
463.876	98.62
464.096	90.62
464.316	102.62
464.536	112.62
464.755	96.62
464.975	134.62
465.195	189.62
465.414	199.62
465.634	92.62
465.854	84.62
466.073	100.62
466.293	98.62
466.512	90.62
466.732	92.62
466.951	96.62
467.171	99.62
467.391	104.62
467.61	109.62
467.829	117.62
468.049	103.62
468.268	126.62
468.488	107.62
468.707	101.62
468.927	87.62
469.146	91.62
469.365	82.62
469.585	91.62
469.804	89.62
470.023	96.62
470.243	89.62
470.462	99.62
470.681	130.62
470.901	99.62
471.12	82.62
471.339	87.62
471.558	87.62
471.777	85.62
471.997	113.62
472.216	151.62
472.435	193.62
472.654	116.62
472.873	89.62
473.092	87.62
473.311	88.62
473.53	76.62
473.749	78.62
473.968	98.62
474.187	117.62
474.406	106.62
474.625	96.62
474.844	82.62
475.063	90.62
475.282	87.62
475.501	84.62
475.72	95.62
475.939	89.62
476.158	90.62
476.377	76.62
476.596	105.62
476.814	92.62
477.033	96.62
477.252	95.62
477.471	87.62
477.69	97.62
477.908	77.62
478.127	103.62
478.346	87.62
478.564	91.62
478.783	97.62
479.002	100.62
479.22	83.62
479.439	111.62
479.658	113.62
479.876	102.62
480.095	105.62
480.313	92.62
480.532	86.62
480.751	88.62
480.969	137.62
481.188	301.62
481.406	209.62
481.624	106.62
481.843	94.62
482.061	92.62
482.28	85.62
482.498	99.62
482.717	100.62
482.935	87.62
483.153	83.62
483.372	75.62
483.59	100.62
483.808	81.62
484.027	88.62
484.245	93.62
484.463	92.62
484.681	92.62
484.9	88.62
485.118	85.62
485.336	96.62
485.554	103.62
485.772	101.62
485.99	96.62
486.209	98.62
486.427	103.62
486.645	98.62
486.863	116.62
487.081	100.62
487.299	101.62
487.517	95.62
487.735	90.62
487.953	104.62
488.171	101.62
488.389	82.62
488.607	87.62
488.825	96.62
489.043	96.62
489.261	93.62
489.479	86.62
489.696	101.62
489.914	96.62
490.132	105.62
490.35	94.62
490.568	87.62
490.786	85.62
491.003	110.62
491.221	83.62
491.439	83.62
491.657	101.62
491.874	96.62
492.092	89.62
492.31	89.62
492.527	76.62
492.745	77.62
492.963	93.62
493.18	92.62
493.398	79.62
493.615	97.62
493.833	98.62
494.05	94.62
494.268	78.62
494.485	87.62
494.703	87.62
494.92	91.62
495.138	90.62
495.355	79.62
495.573	102.62
495.79	82.62
496.008	93.62
496.225	90.62
496.442	87.62
496.66	107.62
496.877	100.62
497.094	93.62
497.312	89.62
497.529	80.62
497.746	94.62
497.963	82.62
498.181	94.62
498.398	84.62
498.615	107.62
498.832	100.62
499.049	106.62
499.267	87.62
499.484	82.62
499.701	94.62
499.918	104.62
500.135	85.62
500.352	84.62
500.569	89.62
500.786	67.62
501.003	96.62
501.22	94.62
501.437	94.62
501.654	94.62
501.871	109.62
502.088	93.62
502.305	99.62
502.522	97.62
502.739	85.62
502.956	92.62
503.172	89.62
503.389	81.62
503.606	124.62
503.823	86.62
504.04	93.62
504.256	96.62
504.473	97.62
504.69	99.62
504.907	100.62
505.123	104.62
505.34	89.62
505.557	93.62
505.773	94.62
505.99	97.62
506.207	93.62
506.423	101.62
506.64	95.62
506.856	87.62
507.073	93.62
507.289	90.62
507.506	100.62
507.722	131.62
507.939	126.62
508.155	103.62
508.372	98.62
508.588	106.62
508.805	93.62
509.021	99.62
509.238	101.62
509.454	89.62
509.67	109.62
509.887	126.62
510.103	130.62
510.319	223.62
510.536	824.62
510.752	2702.62
510.968	795.62
511.184	173.62
511.401	115.62
511.617	91.62
511.833	104.62
512.049	90.62
512.265	101.62
512.481	91.62
512.698	101.62
512.914	85.62
513.13	98.62
513.346	92.62
513.562	101.62
513.778	117.62
513.994	108.62
514.21	128.62
