Data from Circ_2022_H10_HRD10591_00057.txt Node
Date: Wed Jan 03 09:53:49 EST 2024
User: Yrep
Spectrometer: HR+D1059
Trigger mode: 1
Integration Time (sec): 1.000000E-1
Scans to average: 1
Electric dark correction enabled: true
Nonlinearity correction enabled: false
Boxcar width: 0
XAxis mode: Wavelengths
Number of Pixels in Spectrum: 2048
>>>>>Begin Spectral Data<<<<<
223.165	-13.81
223.4	-13.81
223.635	-13.81
223.869	-8.81
224.104	-20.81
224.338	-15.81
224.573	-23.81
224.808	1.19
225.042	1.19
225.277	-1.81
225.511	-8.81
225.746	-4.81
225.98	-2.81
226.215	21.19
226.449	-2.81
226.683	18.19
226.918	31.19
227.152	31.19
227.387	33.19
227.621	52.19
227.856	38.19
228.09	56.19
228.324	53.19
228.559	63.19
228.793	63.19
229.027	61.19
229.262	65.19
229.496	76.19
229.73	91.19
229.964	79.19
230.199	78.19
230.433	81.19
230.667	86.19
230.901	83.19
231.136	90.19
231.37	88.19
231.604	87.19
231.838	87.19
232.072	83.19
232.306	84.19
232.541	81.19
232.775	78.19
233.009	83.19
233.243	98.19
233.477	82.19
233.711	88.19
233.945	73.19
234.179	81.19
234.413	93.19
234.647	77.19
234.881	67.19
235.115	90.19
235.349	64.19
235.583	83.19
235.817	72.19
236.051	72.19
236.285	72.19
236.519	81.19
236.753	73.19
236.987	85.19
237.221	80.19
237.455	87.19
237.689	79.19
237.922	89.19
238.156	72.19
238.39	88.19
238.624	80.19
238.858	73.19
239.091	82.19
239.325	68.19
239.559	73.19
239.793	72.19
240.027	74.19
240.26	88.19
240.494	79.19
240.728	65.19
240.961	73.19
241.195	88.19
241.429	79.19
241.662	74.19
241.896	77.19
242.13	73.19
242.363	64.19
242.597	78.19
242.83	90.19
243.064	76.19
243.298	89.19
243.531	85.19
243.765	88.19
243.998	82.19
244.232	80.19
244.465	86.19
244.699	74.19
244.932	68.19
245.166	67.19
245.399	75.19
245.633	64.19
245.866	72.19
246.099	83.19
246.333	71.19
246.566	73.19
246.8	68.19
247.033	77.19
247.266	86.19
247.5	74.19
247.733	72.19
247.966	81.19
248.2	78.19
248.433	70.19
248.666	73.19
248.899	79.19
249.133	95.19
249.366	94.19
249.599	93.19
249.832	79.19
250.066	88.19
250.299	86.19
250.532	87.19
250.765	72.19
250.998	77.19
251.231	71.19
251.465	96.19
251.698	82.19
251.931	80.19
252.164	89.19
252.397	80.19
252.63	69.19
252.863	76.19
253.096	84.19
253.329	82.19
253.562	81.19
253.795	73.19
254.028	96.19
254.261	65.19
254.494	83.19
254.727	74.19
254.96	85.19
255.193	82.19
255.426	90.19
255.659	74.19
255.892	77.19
256.124	81.19
256.357	92.19
256.59	85.19
256.823	96.19
257.056	75.19
257.289	86.19
257.521	91.19
257.754	91.19
257.987	68.19
258.22	75.19
258.452	81.19
258.685	90.19
258.918	88.19
259.151	77.19
259.383	97.19
259.616	95.19
259.849	87.19
260.081	81.19
260.314	73.19
260.547	77.19
260.779	98.19
261.012	73.19
261.244	75.19
261.477	99.19
261.71	85.19
261.942	128.19
262.175	122.19
262.407	88.19
262.64	90.19
262.872	90.19
263.105	83.19
263.337	99.19
263.57	84.19
263.802	87.19
264.035	82.19
264.267	85.19
264.499	82.19
264.732	95.19
264.964	74.19
265.197	85.19
265.429	72.19
265.661	85.19
265.894	86.19
266.126	95.19
266.358	79.19
266.591	88.19
266.823	98.19
267.055	86.19
267.287	89.19
267.52	100.19
267.752	90.19
267.984	77.19
268.216	88.19
268.448	85.19
268.681	87.19
268.913	79.19
269.145	89.19
269.377	82.19
269.609	89.19
269.841	84.19
270.073	89.19
270.306	72.19
270.538	74.19
270.77	81.19
271.002	92.19
271.234	88.19
271.466	90.19
271.698	91.19
271.93	97.19
272.162	103.19
272.394	82.19
272.626	92.19
272.858	93.19
273.09	88.19
273.322	77.19
273.553	92.19
273.785	82.19
274.017	83.19
274.249	90.19
274.481	77.19
274.713	74.19
274.945	87.19
275.176	82.19
275.408	82.19
275.64	91.19
275.872	97.19
276.104	90.19
276.335	96.19
276.567	88.19
276.799	121.19
277.031	88.19
277.262	98.19
277.494	91.19
277.726	92.19
277.957	83.19
278.189	102.19
278.421	74.19
278.652	84.19
278.884	71.19
279.115	88.19
279.347	88.19
279.579	84.19
279.81	78.19
280.042	97.19
280.273	100.19
280.505	93.19
280.736	93.19
280.968	88.19
281.199	86.19
281.431	82.19
281.662	81.19
281.894	91.19
282.125	92.19
282.356	139.19
282.588	159.19
282.819	126.19
283.051	100.19
283.282	89.19
283.513	74.19
283.745	88.19
283.976	88.19
284.207	80.19
284.439	98.19
284.67	73.19
284.901	96.19
285.132	79.19
285.364	75.19
285.595	89.19
285.826	80.19
286.057	69.19
286.288	85.19
286.52	79.19
286.751	90.19
286.982	99.19
287.213	89.19
287.444	90.19
287.675	94.19
287.906	87.19
288.138	102.19
288.369	94.19
288.6	91.19
288.831	89.19
289.062	88.19
289.293	79.19
289.524	83.19
289.755	93.19
289.986	91.19
290.217	86.19
290.448	87.19
290.679	85.19
290.91	99.19
291.141	89.19
291.371	77.19
291.602	89.19
291.833	84.19
292.064	84.19
292.295	100.19
292.526	99.19
292.757	101.19
292.987	90.19
293.218	94.19
293.449	93.19
293.68	108.19
293.91	95.19
294.141	83.19
294.372	104.19
294.603	76.19
294.833	95.19
295.064	81.19
295.295	95.19
295.525	90.19
295.756	116.19
295.987	131.19
296.217	155.19
296.448	146.19
296.679	110.19
296.909	95.19
297.14	97.19
297.37	96.19
297.601	82.19
297.831	92.19
298.062	93.19
298.292	90.19
298.523	88.19
298.753	88.19
298.984	75.19
299.214	84.19
299.445	101.19
299.675	91.19
299.905	86.19
300.136	83.19
300.366	92.19
300.597	95.19
300.827	102.19
301.057	105.19
301.288	118.19
301.518	95.19
301.748	87.19
301.979	97.19
302.209	97.19
302.439	84.19
302.669	85.19
302.9	95.19
303.13	92.19
303.36	103.19
303.59	98.19
303.82	104.19
304.051	84.19
304.281	94.19
304.511	88.19
304.741	81.19
304.971	82.19
305.201	96.19
305.431	93.19
305.661	99.19
305.891	89.19
306.121	101.19
306.352	96.19
306.582	101.19
306.812	86.19
307.042	98.19
307.272	117.19
307.502	92.19
307.731	100.19
307.961	91.19
308.191	96.19
308.421	92.19
308.651	101.19
308.881	91.19
309.111	103.19
309.341	107.19
309.571	104.19
309.8	98.19
310.03	91.19
310.26	89.19
310.49	77.19
310.72	100.19
310.949	107.19
311.179	96.19
311.409	98.19
311.639	105.19
311.868	101.19
312.098	99.19
312.328	88.19
312.557	115.19
312.787	119.19
313.017	111.19
313.246	84.19
313.476	93.19
313.706	95.19
313.935	99.19
314.165	108.19
314.394	100.19
314.624	97.19
314.853	84.19
315.083	102.19
315.312	98.19
315.542	98.19
315.771	84.19
316.001	105.19
316.23	96.19
316.46	92.19
316.689	94.19
316.919	93.19
317.148	93.19
317.377	89.19
317.607	87.19
317.836	97.19
318.065	112.19
318.295	87.19
318.524	89.19
318.753	99.19
318.983	97.19
319.212	99.19
319.441	125.19
319.67	118.19
319.9	104.19
320.129	91.19
320.358	98.19
320.587	101.19
320.816	117.19
321.046	102.19
321.275	101.19
321.504	90.19
321.733	92.19
321.962	110.19
322.191	100.19
322.42	103.19
322.649	124.19
322.878	132.19
323.108	115.19
323.337	125.19
323.566	142.19
323.795	161.19
324.024	219.19
324.253	429.19
324.482	819.19
324.71	1767.19
324.939	2309.19
325.168	866.19
325.397	258.19
325.626	160.19
325.855	132.19
326.084	128.19
326.313	132.19
326.542	163.19
326.77	237.19
326.999	468.19
327.228	961.19
327.457	1722.19
327.686	1384.19
327.914	392.19
328.143	205.19
328.372	187.19
328.6	148.19
328.829	135.19
329.058	132.19
329.287	123.19
329.515	122.19
329.744	124.19
329.972	105.19
330.201	149.19
330.43	175.19
330.658	155.19
330.887	143.19
331.115	146.19
331.344	105.19
331.572	123.19
331.801	103.19
332.03	104.19
332.258	102.19
332.486	101.19
332.715	89.19
332.943	95.19
333.172	103.19
333.4	100.19
333.629	107.19
333.857	123.19
334.085	120.19
334.314	161.19
334.542	188.19
334.771	198.19
334.999	142.19
335.227	98.19
335.455	95.19
335.684	104.19
335.912	96.19
336.14	90.19
336.369	101.19
336.597	112.19
336.825	102.19
337.053	88.19
337.281	100.19
337.51	101.19
337.738	113.19
337.966	80.19
338.194	107.19
338.422	89.19
338.65	78.19
338.878	103.19
339.106	91.19
339.334	96.19
339.562	98.19
339.79	87.19
340.018	99.19
340.246	74.19
340.474	95.19
340.702	92.19
340.93	92.19
341.158	84.19
341.386	104.19
341.614	107.19
341.842	106.19
342.07	95.19
342.298	104.19
342.526	89.19
342.754	96.19
342.981	91.19
343.209	92.19
343.437	97.19
343.665	98.19
343.893	96.19
344.12	95.19
344.348	83.19
344.576	102.19
344.804	96.19
345.031	101.19
345.259	109.19
345.487	100.19
345.714	92.19
345.942	97.19
346.17	98.19
346.397	112.19
346.625	100.19
346.853	95.19
347.08	86.19
347.308	93.19
347.535	101.19
347.763	108.19
347.99	123.19
348.218	95.19
348.445	96.19
348.673	126.19
348.9	85.19
349.128	91.19
349.355	105.19
349.583	92.19
349.81	105.19
350.037	104.19
350.265	108.19
350.492	98.19
350.72	102.19
350.947	98.19
351.174	96.19
351.402	117.19
351.629	88.19
351.856	86.19
352.083	100.19
352.311	103.19
352.538	97.19
352.765	120.19
352.992	112.19
353.22	113.19
353.447	104.19
353.674	100.19
353.901	101.19
354.128	87.19
354.355	99.19
354.583	92.19
354.81	105.19
355.037	92.19
355.264	75.19
355.491	105.19
355.718	85.19
355.945	85.19
356.172	103.19
356.399	102.19
356.626	84.19
356.853	99.19
357.08	95.19
357.307	93.19
357.534	96.19
357.761	91.19
357.988	86.19
358.215	100.19
358.441	84.19
358.668	102.19
358.895	83.19
359.122	105.19
359.349	87.19
359.576	97.19
359.802	108.19
360.029	115.19
360.256	113.19
360.483	109.19
360.709	99.19
360.936	95.19
361.163	106.19
361.39	91.19
361.616	104.19
361.843	93.19
362.07	83.19
362.296	95.19
362.523	90.19
362.749	89.19
362.976	100.19
363.203	97.19
363.429	81.19
363.656	85.19
363.882	75.19
364.109	80.19
364.335	92.19
364.562	86.19
364.788	98.19
365.015	99.19
365.241	87.19
365.468	103.19
365.694	114.19
365.92	92.19
366.147	95.19
366.373	105.19
366.599	77.19
366.826	87.19
367.052	85.19
367.278	82.19
367.505	91.19
367.731	88.19
367.957	97.19
368.184	100.19
368.41	96.19
368.636	119.19
368.862	111.19
369.089	108.19
369.315	90.19
369.541	106.19
369.767	105.19
369.993	102.19
370.219	105.19
370.445	89.19
370.672	86.19
370.898	94.19
371.124	80.19
371.35	94.19
371.576	91.19
371.802	83.19
372.028	90.19
372.254	102.19
372.48	90.19
372.706	97.19
372.932	84.19
373.158	92.19
373.384	88.19
373.61	104.19
373.835	102.19
374.061	97.19
374.287	87.19
374.513	92.19
374.739	95.19
374.965	98.19
375.191	89.19
375.416	88.19
375.642	89.19
375.868	106.19
376.094	76.19
376.319	89.19
376.545	90.19
376.771	89.19
376.997	96.19
377.222	83.19
377.448	96.19
377.674	83.19
377.899	88.19
378.125	94.19
378.35	86.19
378.576	95.19
378.802	87.19
379.027	91.19
379.253	107.19
379.478	92.19
379.704	101.19
379.929	95.19
380.155	89.19
380.38	88.19
380.606	93.19
380.831	104.19
381.057	110.19
381.282	97.19
381.507	92.19
381.733	82.19
381.958	92.19
382.184	114.19
382.409	88.19
382.634	95.19
382.86	100.19
383.085	112.19
383.31	104.19
383.535	109.19
383.761	113.19
383.986	99.19
384.211	94.19
384.436	103.19
384.662	97.19
384.887	117.19
385.112	99.19
385.337	99.19
385.562	108.19
385.787	102.19
386.013	114.19
386.238	118.19
386.463	95.19
386.688	96.19
386.913	94.19
387.138	104.19
387.363	84.19
387.588	98.19
387.813	93.19
388.038	108.19
388.263	117.19
388.488	110.19
388.713	100.19
388.938	107.19
389.163	103.19
389.387	116.19
389.612	100.19
389.837	96.19
390.062	90.19
390.287	95.19
390.512	87.19
390.736	97.19
390.961	100.19
391.186	103.19
391.411	84.19
391.636	95.19
391.86	90.19
392.085	88.19
392.31	87.19
392.534	97.19
392.759	98.19
392.984	87.19
393.208	87.19
393.433	88.19
393.658	85.19
393.882	82.19
394.107	89.19
394.331	89.19
394.556	88.19
394.78	91.19
395.005	89.19
395.229	76.19
395.454	72.19
395.678	81.19
395.903	97.19
396.127	78.19
396.352	92.19
396.576	103.19
396.801	93.19
397.025	99.19
397.249	76.19
397.474	81.19
397.698	87.19
397.922	104.19
398.147	86.19
398.371	79.19
398.595	83.19
398.82	90.19
399.044	83.19
399.268	79.19
399.492	98.19
399.717	92.19
399.941	100.19
400.165	89.19
400.389	92.19
400.613	86.19
400.837	94.19
401.062	81.19
401.286	97.19
401.51	98.19
401.734	83.19
401.958	103.19
402.182	127.19
402.406	180.19
402.63	140.19
402.854	91.19
403.078	103.19
403.302	86.19
403.526	81.19
403.75	74.19
403.974	75.19
404.198	80.19
404.422	98.19
404.645	80.19
404.869	104.19
405.093	100.19
405.317	110.19
405.541	96.19
405.765	91.19
405.988	131.19
406.212	193.19
406.436	260.19
406.66	156.19
406.883	101.19
407.107	98.19
407.331	97.19
407.555	104.19
407.778	95.19
408.002	102.19
408.226	103.19
408.449	97.19
408.673	103.19
408.896	84.19
409.12	100.19
409.344	88.19
409.567	95.19
409.791	87.19
410.014	87.19
410.238	104.19
410.461	97.19
410.685	93.19
410.908	104.19
411.132	109.19
411.355	96.19
411.578	88.19
411.802	90.19
412.025	92.19
412.249	85.19
412.472	92.19
412.695	97.19
412.919	82.19
413.142	96.19
413.365	85.19
413.589	74.19
413.812	83.19
414.035	81.19
414.258	99.19
414.482	90.19
414.705	83.19
414.928	81.19
415.151	87.19
415.374	96.19
415.597	92.19
415.821	100.19
416.044	92.19
416.267	102.19
416.49	92.19
416.713	92.19
416.936	101.19
417.159	79.19
417.382	96.19
417.605	89.19
417.828	99.19
418.051	100.19
418.274	83.19
418.497	76.19
418.72	89.19
418.943	90.19
419.166	90.19
419.389	99.19
419.611	87.19
419.834	78.19
420.057	81.19
420.28	82.19
420.503	93.19
420.726	83.19
420.948	90.19
421.171	108.19
421.394	95.19
421.617	89.19
421.839	97.19
422.062	66.19
422.285	88.19
422.507	93.19
422.73	110.19
422.953	107.19
423.175	97.19
423.398	87.19
423.621	85.19
423.843	89.19
424.066	92.19
424.288	95.19
424.511	88.19
424.733	103.19
424.956	101.19
425.178	98.19
425.401	100.19
425.623	80.19
425.846	90.19
426.068	92.19
426.291	90.19
426.513	92.19
426.735	88.19
426.958	112.19
427.18	105.19
427.402	143.19
427.625	179.19
427.847	156.19
428.069	122.19
428.292	69.19
428.514	79.19
428.736	87.19
428.958	88.19
429.181	80.19
429.403	97.19
429.625	96.19
429.847	104.19
430.069	116.19
430.292	92.19
430.514	95.19
430.736	81.19
430.958	81.19
431.18	94.19
431.402	95.19
431.624	84.19
431.846	81.19
432.068	113.19
432.29	104.19
432.512	88.19
432.734	85.19
432.956	81.19
433.178	79.19
433.4	97.19
433.622	87.19
433.844	93.19
434.066	89.19
434.287	88.19
434.509	83.19
434.731	85.19
434.953	90.19
435.175	94.19
435.397	94.19
435.618	95.19
435.84	103.19
436.062	124.19
436.284	110.19
436.505	104.19
436.727	111.19
436.949	93.19
437.17	84.19
437.392	94.19
437.614	93.19
437.835	117.19
438.057	131.19
438.278	97.19
438.5	102.19
438.721	108.19
438.943	100.19
439.165	89.19
439.386	95.19
439.608	91.19
439.829	103.19
440.05	114.19
440.272	146.19
440.493	98.19
440.715	99.19
440.936	88.19
441.158	105.19
441.379	98.19
441.6	97.19
441.822	96.19
442.043	93.19
442.264	107.19
442.486	103.19
442.707	85.19
442.928	108.19
443.149	132.19
443.371	133.19
443.592	99.19
443.813	131.19
444.034	125.19
444.255	94.19
444.476	82.19
444.698	98.19
444.919	84.19
445.14	116.19
445.361	111.19
445.582	115.19
445.803	145.19
446.024	143.19
446.245	134.19
446.466	115.19
446.687	93.19
446.908	89.19
447.129	93.19
447.35	96.19
447.571	85.19
447.792	102.19
448.013	106.19
448.234	125.19
448.455	104.19
448.675	107.19
448.896	117.19
449.117	84.19
449.338	110.19
449.559	130.19
449.779	135.19
450	95.19
450.221	90.19
450.442	88.19
450.662	99.19
450.883	108.19
451.104	103.19
451.324	99.19
451.545	88.19
451.766	81.19
451.986	77.19
452.207	98.19
452.428	92.19
452.648	98.19
452.869	117.19
453.089	135.19
453.31	121.19
453.53	93.19
453.751	91.19
453.971	116.19
454.192	119.19
454.412	104.19
454.633	81.19
454.853	94.19
455.073	80.19
455.294	95.19
455.514	88.19
455.734	96.19
455.955	90.19
456.175	85.19
456.395	93.19
456.616	78.19
456.836	92.19
457.056	81.19
457.276	88.19
457.497	85.19
457.717	83.19
457.937	65.19
458.157	93.19
458.377	96.19
458.598	106.19
458.818	165.19
459.038	177.19
459.258	122.19
459.478	91.19
459.698	103.19
459.918	96.19
460.138	96.19
460.358	99.19
460.578	87.19
460.798	105.19
461.018	83.19
461.238	82.19
461.458	92.19
461.678	84.19
461.898	92.19
462.118	92.19
462.338	98.19
462.558	93.19
462.777	87.19
462.997	89.19
463.217	91.19
463.437	84.19
463.657	99.19
463.876	105.19
464.096	93.19
464.316	97.19
464.536	101.19
464.755	108.19
464.975	108.19
465.195	199.19
465.414	188.19
465.634	117.19
465.854	94.19
466.073	85.19
466.293	88.19
466.512	94.19
466.732	86.19
466.951	84.19
467.171	88.19
467.391	87.19
467.61	105.19
467.829	96.19
468.049	118.19
468.268	127.19
468.488	97.19
468.707	95.19
468.927	114.19
469.146	97.19
469.365	93.19
469.585	89.19
469.804	100.19
470.023	105.19
470.243	94.19
470.462	117.19
470.681	115.19
470.901	103.19
471.12	83.19
471.339	97.19
471.558	87.19
471.777	105.19
471.997	95.19
472.216	142.19
472.435	258.19
472.654	120.19
472.873	89.19
473.092	93.19
473.311	96.19
473.53	92.19
473.749	76.19
473.968	88.19
474.187	102.19
474.406	93.19
474.625	90.19
474.844	88.19
475.063	81.19
475.282	82.19
475.501	88.19
475.72	76.19
475.939	79.19
476.158	77.19
476.377	79.19
476.596	82.19
476.814	103.19
477.033	84.19
477.252	79.19
477.471	84.19
477.69	87.19
477.908	94.19
478.127	88.19
478.346	91.19
478.564	75.19
478.783	98.19
479.002	84.19
479.22	92.19
479.439	80.19
479.658	107.19
479.876	111.19
480.095	84.19
480.313	100.19
480.532	99.19
480.751	119.19
480.969	152.19
481.188	344.19
481.406	253.19
481.624	109.19
481.843	94.19
482.061	96.19
482.28	93.19
482.498	78.19
482.717	97.19
482.935	106.19
483.153	103.19
483.372	96.19
483.59	97.19
483.808	84.19
484.027	84.19
484.245	83.19
484.463	101.19
484.681	90.19
484.9	95.19
485.118	102.19
485.336	85.19
485.554	99.19
485.772	107.19
485.99	103.19
486.209	103.19
486.427	107.19
486.645	107.19
486.863	122.19
487.081	94.19
487.299	97.19
487.517	99.19
487.735	99.19
487.953	88.19
488.171	104.19
488.389	88.19
488.607	107.19
488.825	96.19
489.043	82.19
489.261	100.19
489.479	95.19
489.696	95.19
489.914	85.19
490.132	89.19
490.35	94.19
490.568	93.19
490.786	93.19
491.003	97.19
491.221	82.19
491.439	88.19
491.657	117.19
491.874	95.19
492.092	86.19
492.31	72.19
492.527	94.19
492.745	97.19
492.963	116.19
493.18	103.19
493.398	94.19
493.615	103.19
493.833	84.19
494.05	92.19
494.268	82.19
494.485	80.19
494.703	99.19
494.92	87.19
495.138	93.19
495.355	87.19
495.573	101.19
495.79	81.19
496.008	107.19
496.225	80.19
496.442	96.19
496.66	108.19
496.877	81.19
497.094	97.19
497.312	88.19
497.529	87.19
497.746	73.19
497.963	91.19
498.181	76.19
498.398	90.19
498.615	104.19
498.832	95.19
499.049	96.19
499.267	96.19
499.484	93.19
499.701	83.19
499.918	89.19
500.135	103.19
500.352	97.19
500.569	91.19
500.786	94.19
501.003	105.19
501.22	88.19
501.437	96.19
501.654	94.19
501.871	113.19
502.088	100.19
502.305	93.19
502.522	92.19
502.739	84.19
502.956	88.19
503.172	86.19
503.389	98.19
503.606	102.19
503.823	98.19
504.04	98.19
504.256	83.19
504.473	84.19
504.69	85.19
504.907	87.19
505.123	88.19
505.34	89.19
505.557	96.19
505.773	90.19
505.99	98.19
506.207	93.19
506.423	90.19
506.64	102.19
506.856	103.19
507.073	104.19
507.289	91.19
507.506	102.19
507.722	103.19
507.939	123.19
508.155	99.19
508.372	93.19
508.588	101.19
508.805	111.19
509.021	95.19
509.238	117.19
509.454	103.19
509.67	95.19
509.887	119.19
510.103	140.19
510.319	224.19
510.536	888.19
510.752	3011.19
510.968	860.19
511.184	180.19
511.401	115.19
511.617	107.19
511.833	98.19
512.049	106.19
512.265	117.19
512.481	100.19
512.698	97.19
512.914	99.19
513.13	96.19
513.346	101.19
513.562	102.19
513.778	92.19
513.994	101.19
514.21	105.19
514.426	128.19
514.642	148.19
