Data from Circ_2022_H10_HRD10591_00026.txt Node
Date: Wed Jan 03 09:53:42 EST 2024
User: Yrep
Spectrometer: HR+D1059
Trigger mode: 1
Integration Time (sec): 1.000000E-1
Scans to average: 1
Electric dark correction enabled: true
Nonlinearity correction enabled: false
Boxcar width: 0
XAxis mode: Wavelengths
Number of Pixels in Spectrum: 2048
>>>>>Begin Spectral Data<<<<<
223.165	-26.69
223.4	-26.69
223.635	-26.69
223.869	-25.69
224.104	-25.69
224.338	0.31
224.573	-15.69
224.808	-8.69
225.042	1.31
225.277	-9.69
225.511	-4.69
225.746	12.31
225.98	8.31
226.215	7.31
226.449	16.31
226.683	19.31
226.918	21.31
227.152	30.31
227.387	34.31
227.621	34.31
227.856	32.31
228.09	51.31
228.324	42.31
228.559	45.31
228.793	79.31
229.027	67.31
229.262	66.31
229.496	93.31
229.73	96.31
229.964	92.31
230.199	73.31
230.433	72.31
230.667	81.31
230.901	75.31
231.136	82.31
231.37	84.31
231.604	82.31
231.838	79.31
232.072	74.31
232.306	78.31
232.541	85.31
232.775	79.31
233.009	83.31
233.243	75.31
233.477	80.31
233.711	85.31
233.945	99.31
234.179	83.31
234.413	79.31
234.647	79.31
234.881	78.31
235.115	69.31
235.349	69.31
235.583	77.31
235.817	68.31
236.051	69.31
236.285	83.31
236.519	77.31
236.753	97.31
236.987	112.31
237.221	87.31
237.455	101.31
237.689	77.31
237.922	76.31
238.156	65.31
238.39	79.31
238.624	56.31
238.858	69.31
239.091	75.31
239.325	89.31
239.559	89.31
239.793	93.31
240.027	78.31
240.26	85.31
240.494	79.31
240.728	71.31
240.961	89.31
241.195	101.31
241.429	72.31
241.662	79.31
241.896	85.31
242.13	67.31
242.363	78.31
242.597	67.31
242.83	73.31
243.064	76.31
243.298	76.31
243.531	66.31
243.765	87.31
243.998	86.31
244.232	74.31
244.465	92.31
244.699	100.31
244.932	83.31
245.166	90.31
245.399	90.31
245.633	95.31
245.866	87.31
246.099	71.31
246.333	72.31
246.566	83.31
246.8	82.31
247.033	75.31
247.266	81.31
247.5	89.31
247.733	83.31
247.966	70.31
248.2	80.31
248.433	88.31
248.666	90.31
248.899	92.31
249.133	92.31
249.366	95.31
249.599	104.31
249.832	104.31
250.066	77.31
250.299	75.31
250.532	107.31
250.765	77.31
250.998	85.31
251.231	76.31
251.465	91.31
251.698	76.31
251.931	91.31
252.164	78.31
252.397	87.31
252.63	83.31
252.863	83.31
253.096	90.31
253.329	98.31
253.562	91.31
253.795	98.31
254.028	76.31
254.261	85.31
254.494	72.31
254.727	72.31
254.96	79.31
255.193	73.31
255.426	93.31
255.659	92.31
255.892	96.31
256.124	75.31
256.357	78.31
256.59	83.31
256.823	91.31
257.056	85.31
257.289	86.31
257.521	78.31
257.754	80.31
257.987	81.31
258.22	94.31
258.452	82.31
258.685	93.31
258.918	82.31
259.151	94.31
259.383	85.31
259.616	83.31
259.849	87.31
260.081	89.31
260.314	75.31
260.547	87.31
260.779	79.31
261.012	94.31
261.244	79.31
261.477	93.31
261.71	106.31
261.942	123.31
262.175	134.31
262.407	105.31
262.64	77.31
262.872	86.31
263.105	94.31
263.337	95.31
263.57	94.31
263.802	73.31
264.035	88.31
264.267	87.31
264.499	93.31
264.732	97.31
264.964	89.31
265.197	85.31
265.429	77.31
265.661	96.31
265.894	97.31
266.126	99.31
266.358	87.31
266.591	84.31
266.823	81.31
267.055	84.31
267.287	91.31
267.52	92.31
267.752	89.31
267.984	84.31
268.216	79.31
268.448	88.31
268.681	92.31
268.913	92.31
269.145	102.31
269.377	84.31
269.609	90.31
269.841	78.31
270.073	83.31
270.306	101.31
270.538	89.31
270.77	84.31
271.002	98.31
271.234	83.31
271.466	85.31
271.698	92.31
271.93	84.31
272.162	93.31
272.394	96.31
272.626	107.31
272.858	79.31
273.09	94.31
273.322	79.31
273.553	90.31
273.785	104.31
274.017	94.31
274.249	81.31
274.481	85.31
274.713	95.31
274.945	87.31
275.176	87.31
275.408	100.31
275.64	94.31
275.872	82.31
276.104	95.31
276.335	94.31
276.567	111.31
276.799	110.31
277.031	123.31
277.262	101.31
277.494	106.31
277.726	92.31
277.957	91.31
278.189	97.31
278.421	87.31
278.652	92.31
278.884	94.31
279.115	101.31
279.347	100.31
279.579	92.31
279.81	100.31
280.042	82.31
280.273	85.31
280.505	93.31
280.736	86.31
280.968	93.31
281.199	105.31
281.431	92.31
281.662	85.31
281.894	87.31
282.125	87.31
282.356	123.31
282.588	166.31
282.819	135.31
283.051	106.31
283.282	84.31
283.513	87.31
283.745	75.31
283.976	89.31
284.207	91.31
284.439	93.31
284.67	90.31
284.901	79.31
285.132	83.31
285.364	90.31
285.595	87.31
285.826	76.31
286.057	102.31
286.288	100.31
286.52	90.31
286.751	90.31
286.982	94.31
287.213	79.31
287.444	84.31
287.675	92.31
287.906	99.31
288.138	99.31
288.369	78.31
288.6	96.31
288.831	92.31
289.062	96.31
289.293	86.31
289.524	86.31
289.755	99.31
289.986	92.31
290.217	91.31
290.448	89.31
290.679	91.31
290.91	71.31
291.141	89.31
291.371	81.31
291.602	82.31
291.833	89.31
292.064	100.31
292.295	89.31
292.526	99.31
292.757	85.31
292.987	101.31
293.218	90.31
293.449	94.31
293.68	96.31
293.91	91.31
294.141	95.31
294.372	86.31
294.603	101.31
294.833	85.31
295.064	94.31
295.295	99.31
295.525	110.31
295.756	104.31
295.987	116.31
296.217	167.31
296.448	147.31
296.679	106.31
296.909	95.31
297.14	81.31
297.37	109.31
297.601	96.31
297.831	101.31
298.062	99.31
298.292	98.31
298.523	93.31
298.753	93.31
298.984	97.31
299.214	89.31
299.445	84.31
299.675	98.31
299.905	99.31
300.136	104.31
300.366	98.31
300.597	88.31
300.827	96.31
301.057	105.31
301.288	113.31
301.518	99.31
301.748	94.31
301.979	102.31
302.209	102.31
302.439	88.31
302.669	111.31
302.9	92.31
303.13	87.31
303.36	102.31
303.59	106.31
303.82	105.31
304.051	99.31
304.281	90.31
304.511	99.31
304.741	93.31
304.971	97.31
305.201	93.31
305.431	88.31
305.661	92.31
305.891	95.31
306.121	98.31
306.352	103.31
306.582	103.31
306.812	97.31
307.042	84.31
307.272	93.31
307.502	83.31
307.731	98.31
307.961	87.31
308.191	81.31
308.421	89.31
308.651	102.31
308.881	86.31
309.111	87.31
309.341	96.31
309.571	119.31
309.8	95.31
310.03	103.31
310.26	107.31
310.49	109.31
310.72	101.31
310.949	120.31
311.179	98.31
311.409	93.31
311.639	107.31
311.868	98.31
312.098	101.31
312.328	89.31
312.557	113.31
312.787	118.31
313.017	105.31
313.246	108.31
313.476	84.31
313.706	90.31
313.935	113.31
314.165	107.31
314.394	101.31
314.624	110.31
314.853	98.31
315.083	86.31
315.312	93.31
315.542	102.31
315.771	82.31
316.001	83.31
316.23	98.31
316.46	94.31
316.689	92.31
316.919	93.31
317.148	109.31
317.377	113.31
317.607	105.31
317.836	100.31
318.065	85.31
318.295	95.31
318.524	85.31
318.753	84.31
318.983	98.31
319.212	116.31
319.441	115.31
319.67	109.31
319.9	82.31
320.129	107.31
320.358	109.31
320.587	89.31
320.816	100.31
321.046	118.31
321.275	95.31
321.504	84.31
321.733	102.31
321.962	114.31
322.191	109.31
322.42	109.31
322.649	106.31
322.878	119.31
323.108	136.31
323.337	141.31
323.566	143.31
323.795	191.31
324.024	253.31
324.253	494.31
324.482	1039.31
324.71	2135.31
324.939	2858.31
325.168	1066.31
325.397	300.31
325.626	186.31
325.855	137.31
326.084	152.31
326.313	153.31
326.542	179.31
326.77	274.31
326.999	546.31
327.228	1121.31
327.457	2081.31
327.686	1700.31
327.914	467.31
328.143	241.31
328.372	188.31
328.6	141.31
328.829	139.31
329.058	152.31
329.287	161.31
329.515	131.31
329.744	96.31
329.972	117.31
330.201	122.31
330.43	135.31
330.658	153.31
330.887	180.31
331.115	158.31
331.344	111.31
331.572	105.31
331.801	117.31
332.03	118.31
332.258	112.31
332.486	92.31
332.715	99.31
332.943	86.31
333.172	99.31
333.4	97.31
333.629	115.31
333.857	136.31
334.085	105.31
334.314	120.31
334.542	129.31
334.771	130.31
334.999	125.31
335.227	105.31
335.455	103.31
335.684	97.31
335.912	95.31
336.14	94.31
336.369	101.31
336.597	105.31
336.825	105.31
337.053	85.31
337.281	97.31
337.51	99.31
337.738	89.31
337.966	97.31
338.194	119.31
338.422	110.31
338.65	105.31
338.878	96.31
339.106	99.31
339.334	104.31
339.562	103.31
339.79	107.31
340.018	106.31
340.246	86.31
340.474	97.31
340.702	91.31
340.93	117.31
341.158	86.31
341.386	91.31
341.614	100.31
341.842	92.31
342.07	98.31
342.298	113.31
342.526	96.31
342.754	101.31
342.981	100.31
343.209	73.31
343.437	107.31
343.665	93.31
343.893	85.31
344.12	93.31
344.348	103.31
344.576	92.31
344.804	94.31
345.031	90.31
345.259	100.31
345.487	89.31
345.714	115.31
345.942	104.31
346.17	103.31
346.397	101.31
346.625	109.31
346.853	85.31
347.08	76.31
347.308	119.31
347.535	122.31
347.763	117.31
347.99	102.31
348.218	106.31
348.445	122.31
348.673	103.31
348.9	96.31
349.128	102.31
349.355	115.31
349.583	103.31
349.81	106.31
350.037	103.31
350.265	84.31
350.492	107.31
350.72	97.31
350.947	108.31
351.174	129.31
351.402	133.31
351.629	119.31
351.856	119.31
352.083	102.31
352.311	128.31
352.538	119.31
352.765	108.31
352.992	129.31
353.22	119.31
353.447	115.31
353.674	121.31
353.901	94.31
354.128	95.31
354.355	94.31
354.583	94.31
354.81	105.31
355.037	111.31
355.264	89.31
355.491	97.31
355.718	74.31
355.945	121.31
356.172	95.31
356.399	96.31
356.626	118.31
356.853	111.31
357.08	107.31
357.307	92.31
357.534	106.31
357.761	89.31
357.988	103.31
358.215	105.31
358.441	102.31
358.668	104.31
358.895	108.31
359.122	87.31
359.349	106.31
359.576	114.31
359.802	111.31
360.029	132.31
360.256	134.31
360.483	101.31
360.709	98.31
360.936	90.31
361.163	115.31
361.39	114.31
361.616	92.31
361.843	99.31
362.07	95.31
362.296	101.31
362.523	96.31
362.749	117.31
362.976	85.31
363.203	92.31
363.429	98.31
363.656	101.31
363.882	94.31
364.109	100.31
364.335	98.31
364.562	94.31
364.788	102.31
365.015	104.31
365.241	115.31
365.468	120.31
365.694	108.31
365.92	111.31
366.147	88.31
366.373	109.31
366.599	100.31
366.826	80.31
367.052	104.31
367.278	100.31
367.505	108.31
367.731	95.31
367.957	98.31
368.184	96.31
368.41	98.31
368.636	137.31
368.862	147.31
369.089	127.31
369.315	90.31
369.541	89.31
369.767	89.31
369.993	95.31
370.219	84.31
370.445	101.31
370.672	93.31
370.898	103.31
371.124	102.31
371.35	96.31
371.576	83.31
371.802	97.31
372.028	108.31
372.254	89.31
372.48	92.31
372.706	89.31
372.932	85.31
373.158	95.31
373.384	82.31
373.61	95.31
373.835	83.31
374.061	101.31
374.287	114.31
374.513	94.31
374.739	105.31
374.965	94.31
375.191	79.31
375.416	93.31
375.642	94.31
375.868	77.31
376.094	100.31
376.319	99.31
376.545	93.31
376.771	94.31
376.997	90.31
377.222	97.31
377.448	96.31
377.674	92.31
377.899	94.31
378.125	99.31
378.35	96.31
378.576	90.31
378.802	109.31
379.027	95.31
379.253	103.31
379.478	98.31
379.704	93.31
379.929	94.31
380.155	107.31
380.38	100.31
380.606	93.31
380.831	96.31
381.057	108.31
381.282	91.31
381.507	115.31
381.733	103.31
381.958	121.31
382.184	103.31
382.409	102.31
382.634	109.31
382.86	93.31
383.085	95.31
383.31	100.31
383.535	101.31
383.761	108.31
383.986	110.31
384.211	114.31
384.436	114.31
384.662	122.31
384.887	108.31
385.112	114.31
385.337	121.31
385.562	109.31
385.787	118.31
386.013	119.31
386.238	119.31
386.463	108.31
386.688	123.31
386.913	108.31
387.138	130.31
387.363	102.31
387.588	102.31
387.813	111.31
388.038	107.31
388.263	116.31
388.488	123.31
388.713	90.31
388.938	98.31
389.163	96.31
389.387	105.31
389.612	87.31
389.837	94.31
390.062	102.31
390.287	113.31
390.512	76.31
390.736	97.31
390.961	98.31
391.186	90.31
391.411	92.31
391.636	88.31
391.86	86.31
392.085	97.31
392.31	99.31
392.534	88.31
392.759	96.31
392.984	97.31
393.208	99.31
393.433	113.31
393.658	104.31
393.882	99.31
394.107	89.31
394.331	86.31
394.556	88.31
394.78	72.31
395.005	86.31
395.229	79.31
395.454	102.31
395.678	90.31
395.903	84.31
396.127	94.31
396.352	89.31
396.576	85.31
396.801	85.31
397.025	107.31
397.249	86.31
397.474	86.31
397.698	89.31
397.922	98.31
398.147	83.31
398.371	82.31
398.595	88.31
398.82	76.31
399.044	95.31
399.268	93.31
399.492	95.31
399.717	95.31
399.941	87.31
400.165	102.31
400.389	92.31
400.613	93.31
400.837	87.31
401.062	94.31
401.286	104.31
401.51	102.31
401.734	92.31
401.958	114.31
402.182	151.31
402.406	191.31
402.63	163.31
402.854	99.31
403.078	98.31
403.302	83.31
403.526	82.31
403.75	87.31
403.974	103.31
404.198	76.31
404.422	82.31
404.645	89.31
404.869	98.31
405.093	118.31
405.317	111.31
405.541	117.31
405.765	115.31
405.988	139.31
406.212	211.31
406.436	316.31
406.66	203.31
406.883	133.31
407.107	110.31
407.331	108.31
407.555	106.31
407.778	103.31
408.002	99.31
408.226	91.31
408.449	89.31
408.673	90.31
408.896	90.31
409.12	108.31
409.344	94.31
409.567	91.31
409.791	102.31
410.014	96.31
410.238	92.31
410.461	86.31
410.685	86.31
410.908	87.31
411.132	93.31
411.355	124.31
411.578	103.31
411.802	93.31
412.025	91.31
412.249	105.31
412.472	103.31
412.695	92.31
412.919	88.31
413.142	99.31
413.365	83.31
413.589	83.31
413.812	84.31
414.035	89.31
414.258	97.31
414.482	63.31
414.705	85.31
414.928	106.31
415.151	96.31
415.374	84.31
415.597	83.31
415.821	95.31
416.044	78.31
416.267	77.31
416.49	91.31
416.713	98.31
416.936	96.31
417.159	93.31
417.382	94.31
417.605	102.31
417.828	88.31
418.051	95.31
418.274	103.31
418.497	114.31
418.72	86.31
418.943	93.31
419.166	88.31
419.389	75.31
419.611	84.31
419.834	85.31
420.057	97.31
420.28	99.31
420.503	86.31
420.726	90.31
420.948	91.31
421.171	107.31
421.394	96.31
421.617	94.31
421.839	97.31
422.062	92.31
422.285	86.31
422.507	108.31
422.73	112.31
422.953	98.31
423.175	99.31
423.398	101.31
423.621	92.31
423.843	102.31
424.066	97.31
424.288	87.31
424.511	96.31
424.733	102.31
424.956	117.31
425.178	115.31
425.401	109.31
425.623	108.31
425.846	100.31
426.068	104.31
426.291	107.31
426.513	91.31
426.735	85.31
426.958	97.31
427.18	100.31
427.402	157.31
427.625	212.31
427.847	177.31
428.069	116.31
428.292	97.31
428.514	94.31
428.736	100.31
428.958	99.31
429.181	88.31
429.403	87.31
429.625	90.31
429.847	98.31
430.069	115.31
430.292	100.31
430.514	83.31
430.736	97.31
430.958	76.31
431.18	82.31
431.402	92.31
431.624	101.31
431.846	95.31
432.068	101.31
432.29	90.31
432.512	97.31
432.734	98.31
432.956	98.31
433.178	111.31
433.4	94.31
433.622	109.31
433.844	94.31
434.066	78.31
434.287	95.31
434.509	96.31
434.731	84.31
434.953	92.31
435.175	91.31
435.397	79.31
435.618	88.31
435.84	105.31
436.062	125.31
436.284	126.31
436.505	107.31
436.727	116.31
436.949	99.31
437.17	91.31
437.392	91.31
437.614	94.31
437.835	127.31
438.057	152.31
438.278	123.31
438.5	113.31
438.721	136.31
438.943	107.31
439.165	96.31
439.386	105.31
439.608	84.31
439.829	109.31
440.05	139.31
440.272	181.31
440.493	114.31
440.715	94.31
440.936	95.31
441.158	96.31
441.379	99.31
441.6	97.31
441.822	110.31
442.043	114.31
442.264	94.31
442.486	106.31
442.707	88.31
442.928	121.31
443.149	173.31
443.371	165.31
443.592	127.31
443.813	120.31
444.034	129.31
444.255	77.31
444.476	84.31
444.698	92.31
444.919	95.31
445.14	115.31
445.361	131.31
445.582	135.31
445.803	177.31
446.024	174.31
446.245	163.31
446.466	129.31
446.687	93.31
446.908	98.31
447.129	97.31
447.35	95.31
447.571	100.31
447.792	102.31
448.013	111.31
448.234	118.31
448.455	97.31
448.675	110.31
448.896	136.31
449.117	99.31
449.338	114.31
449.559	137.31
449.779	141.31
450	104.31
450.221	89.31
450.442	90.31
450.662	112.31
450.883	123.31
451.104	139.31
451.324	121.31
451.545	99.31
451.766	99.31
451.986	89.31
452.207	94.31
452.428	98.31
452.648	99.31
452.869	124.31
453.089	145.31
453.31	143.31
453.53	101.31
453.751	97.31
453.971	117.31
454.192	131.31
454.412	106.31
454.633	91.31
454.853	94.31
455.073	89.31
455.294	102.31
455.514	107.31
455.734	105.31
455.955	86.31
456.175	95.31
456.395	101.31
456.616	92.31
456.836	82.31
457.056	92.31
457.276	82.31
457.497	80.31
457.717	94.31
457.937	100.31
458.157	79.31
458.377	96.31
458.598	132.31
458.818	189.31
459.038	211.31
459.258	143.31
459.478	96.31
459.698	105.31
459.918	110.31
460.138	91.31
460.358	82.31
460.578	97.31
460.798	90.31
461.018	98.31
461.238	82.31
461.458	84.31
461.678	78.31
461.898	90.31
462.118	84.31
462.338	95.31
462.558	83.31
462.777	90.31
462.997	86.31
463.217	84.31
463.437	88.31
463.657	106.31
463.876	88.31
464.096	98.31
464.316	99.31
464.536	98.31
464.755	92.31
464.975	128.31
465.195	214.31
465.414	225.31
465.634	106.31
465.854	95.31
466.073	86.31
466.293	93.31
466.512	105.31
466.732	77.31
466.951	92.31
467.171	106.31
467.391	103.31
467.61	106.31
467.829	105.31
468.049	90.31
468.268	95.31
468.488	106.31
468.707	99.31
468.927	82.31
469.146	85.31
469.365	99.31
469.585	104.31
469.804	115.31
470.023	106.31
470.243	94.31
470.462	97.31
470.681	113.31
470.901	103.31
471.12	97.31
471.339	91.31
471.558	86.31
471.777	95.31
471.997	86.31
472.216	103.31
472.435	134.31
472.654	100.31
472.873	98.31
473.092	77.31
473.311	94.31
473.53	86.31
473.749	99.31
473.968	120.31
474.187	102.31
474.406	94.31
474.625	101.31
474.844	87.31
475.063	85.31
475.282	91.31
475.501	100.31
475.72	94.31
475.939	87.31
476.158	90.31
476.377	79.31
476.596	103.31
476.814	101.31
477.033	103.31
477.252	103.31
477.471	94.31
477.69	85.31
477.908	99.31
478.127	80.31
478.346	92.31
478.564	92.31
478.783	102.31
479.002	99.31
479.22	96.31
479.439	101.31
479.658	121.31
479.876	97.31
480.095	92.31
480.313	101.31
480.532	79.31
480.751	90.31
480.969	104.31
481.188	169.31
481.406	130.31
481.624	110.31
481.843	106.31
482.061	90.31
482.28	90.31
482.498	86.31
482.717	80.31
482.935	91.31
483.153	105.31
483.372	79.31
483.59	90.31
483.808	99.31
484.027	101.31
484.245	106.31
484.463	94.31
484.681	88.31
484.9	94.31
485.118	85.31
485.336	95.31
485.554	106.31
485.772	86.31
485.99	98.31
486.209	109.31
486.427	110.31
486.645	117.31
486.863	117.31
487.081	110.31
487.299	93.31
487.517	93.31
487.735	104.31
487.953	90.31
488.171	75.31
488.389	106.31
488.607	120.31
488.825	104.31
489.043	84.31
489.261	99.31
489.479	93.31
489.696	92.31
489.914	97.31
490.132	92.31
490.35	101.31
490.568	86.31
490.786	80.31
491.003	91.31
491.221	100.31
491.439	94.31
491.657	89.31
491.874	113.31
492.092	115.31
492.31	100.31
492.527	106.31
492.745	96.31
492.963	93.31
493.18	101.31
493.398	103.31
493.615	105.31
493.833	105.31
494.05	101.31
494.268	83.31
494.485	92.31
494.703	90.31
494.92	103.31
495.138	76.31
495.355	89.31
495.573	103.31
495.79	91.31
496.008	105.31
496.225	112.31
496.442	95.31
496.66	98.31
496.877	97.31
497.094	106.31
497.312	97.31
497.529	96.31
497.746	93.31
497.963	97.31
498.181	101.31
498.398	94.31
498.615	122.31
498.832	95.31
499.049	92.31
499.267	91.31
499.484	105.31
499.701	91.31
499.918	99.31
500.135	94.31
500.352	73.31
500.569	95.31
500.786	92.31
501.003	85.31
501.22	99.31
501.437	97.31
501.654	92.31
501.871	124.31
502.088	109.31
502.305	85.31
502.522	81.31
502.739	82.31
502.956	88.31
503.172	115.31
503.389	106.31
503.606	109.31
503.823	101.31
504.04	91.31
504.256	86.31
504.473	88.31
504.69	92.31
504.907	96.31
505.123	96.31
505.34	97.31
505.557	95.31
505.773	95.31
505.99	87.31
506.207	89.31
506.423	86.31
506.64	108.31
506.856	102.31
507.073	97.31
507.289	101.31
507.506	103.31
507.722	148.31
507.939	143.31
508.155	110.31
508.372	108.31
508.588	106.31
508.805	102.31
509.021	102.31
509.238	106.31
509.454	104.31
509.67	105.31
509.887	138.31
510.103	150.31
510.319	251.31
510.536	984.31
510.752	3443.31
510.968	960.31
511.184	192.31
511.401	132.31
511.617	101.31
511.833	92.31
512.049	87.31
512.265	87.31
512.481	92.31
512.698	106.31
512.914	97.31
513.13	102.31
