Data from Circ_2022_H10_HRD10591_00060.txt Node
Date: Wed Jan 03 09:53:49 EST 2024
User: Yrep
Spectrometer: HR+D1059
Trigger mode: 1
Integration Time (sec): 1.000000E-1
Scans to average: 1
Electric dark correction enabled: true
Nonlinearity correction enabled: false
Boxcar width: 0
XAxis mode: Wavelengths
Number of Pixels in Spectrum: 2048
>>>>>Begin Spectral Data<<<<<
223.165	-11.44
223.4	-11.44
223.635	-11.44
223.869	-6.44
224.104	-13.44
224.338	-15.44
224.573	-26.44
224.808	-9.44
225.042	-11.44
225.277	-10.44
225.511	5.56
225.746	-0.44
225.98	10.56
226.215	2.56
226.449	9.56
226.683	30.56
226.918	33.56
227.152	12.56
227.387	44.56
227.621	33.56
227.856	52.56
228.09	39.56
228.324	55.56
228.559	59.56
228.793	50.56
229.027	63.56
229.262	61.56
229.496	84.56
229.73	79.56
229.964	77.56
230.199	82.56
230.433	80.56
230.667	70.56
230.901	81.56
231.136	68.56
231.37	79.56
231.604	89.56
231.838	80.56
232.072	71.56
232.306	79.56
232.541	90.56
232.775	68.56
233.009	89.56
233.243	79.56
233.477	68.56
233.711	70.56
233.945	88.56
234.179	78.56
234.413	80.56
234.647	73.56
234.881	93.56
235.115	88.56
235.349	92.56
235.583	85.56
235.817	88.56
236.051	80.56
236.285	70.56
236.519	81.56
236.753	79.56
236.987	85.56
237.221	87.56
237.455	93.56
237.689	68.56
237.922	68.56
238.156	67.56
238.39	64.56
238.624	69.56
238.858	62.56
239.091	74.56
239.325	84.56
239.559	92.56
239.793	67.56
240.027	60.56
240.26	71.56
240.494	77.56
240.728	72.56
240.961	76.56
241.195	73.56
241.429	79.56
241.662	80.56
241.896	70.56
242.13	74.56
242.363	58.56
242.597	75.56
242.83	77.56
243.064	77.56
243.298	77.56
243.531	74.56
243.765	79.56
243.998	83.56
244.232	88.56
244.465	74.56
244.699	76.56
244.932	68.56
245.166	73.56
245.399	85.56
245.633	73.56
245.866	54.56
246.099	89.56
246.333	65.56
246.566	72.56
246.8	68.56
247.033	92.56
247.266	64.56
247.5	90.56
247.733	84.56
247.966	62.56
248.2	92.56
248.433	74.56
248.666	88.56
248.899	79.56
249.133	93.56
249.366	96.56
249.599	99.56
249.832	79.56
250.066	78.56
250.299	76.56
250.532	92.56
250.765	77.56
250.998	80.56
251.231	79.56
251.465	82.56
251.698	64.56
251.931	74.56
252.164	74.56
252.397	73.56
252.63	99.56
252.863	77.56
253.096	83.56
253.329	73.56
253.562	62.56
253.795	71.56
254.028	76.56
254.261	78.56
254.494	74.56
254.727	65.56
254.96	79.56
255.193	73.56
255.426	64.56
255.659	69.56
255.892	79.56
256.124	79.56
256.357	78.56
256.59	80.56
256.823	90.56
257.056	89.56
257.289	76.56
257.521	82.56
257.754	87.56
257.987	87.56
258.22	96.56
258.452	78.56
258.685	77.56
258.918	74.56
259.151	79.56
259.383	79.56
259.616	83.56
259.849	63.56
260.081	80.56
260.314	87.56
260.547	71.56
260.779	72.56
261.012	85.56
261.244	84.56
261.477	83.56
261.71	91.56
261.942	128.56
262.175	116.56
262.407	96.56
262.64	92.56
262.872	79.56
263.105	73.56
263.337	92.56
263.57	78.56
263.802	86.56
264.035	82.56
264.267	80.56
264.499	85.56
264.732	101.56
264.964	87.56
265.197	76.56
265.429	95.56
265.661	81.56
265.894	81.56
266.126	96.56
266.358	79.56
266.591	71.56
266.823	75.56
267.055	88.56
267.287	81.56
267.52	86.56
267.752	92.56
267.984	77.56
268.216	84.56
268.448	67.56
268.681	89.56
268.913	88.56
269.145	83.56
269.377	82.56
269.609	93.56
269.841	73.56
270.073	87.56
270.306	80.56
270.538	85.56
270.77	94.56
271.002	74.56
271.234	87.56
271.466	76.56
271.698	83.56
271.93	82.56
272.162	69.56
272.394	85.56
272.626	83.56
272.858	91.56
273.09	78.56
273.322	87.56
273.553	74.56
273.785	85.56
274.017	74.56
274.249	84.56
274.481	77.56
274.713	84.56
274.945	81.56
275.176	90.56
275.408	75.56
275.64	90.56
275.872	87.56
276.104	100.56
276.335	77.56
276.567	116.56
276.799	109.56
277.031	108.56
277.262	93.56
277.494	90.56
277.726	89.56
277.957	88.56
278.189	83.56
278.421	77.56
278.652	64.56
278.884	87.56
279.115	89.56
279.347	72.56
279.579	96.56
279.81	89.56
280.042	87.56
280.273	94.56
280.505	88.56
280.736	92.56
280.968	85.56
281.199	92.56
281.431	88.56
281.662	81.56
281.894	89.56
282.125	84.56
282.356	134.56
282.588	168.56
282.819	126.56
283.051	111.56
283.282	87.56
283.513	96.56
283.745	101.56
283.976	99.56
284.207	82.56
284.439	88.56
284.67	87.56
284.901	92.56
285.132	74.56
285.364	92.56
285.595	94.56
285.826	89.56
286.057	87.56
286.288	77.56
286.52	94.56
286.751	100.56
286.982	101.56
287.213	101.56
287.444	100.56
287.675	103.56
287.906	98.56
288.138	84.56
288.369	78.56
288.6	93.56
288.831	93.56
289.062	98.56
289.293	87.56
289.524	82.56
289.755	84.56
289.986	81.56
290.217	88.56
290.448	75.56
290.679	69.56
290.91	77.56
291.141	81.56
291.371	90.56
291.602	89.56
291.833	78.56
292.064	86.56
292.295	83.56
292.526	74.56
292.757	85.56
292.987	84.56
293.218	92.56
293.449	85.56
293.68	80.56
293.91	77.56
294.141	81.56
294.372	85.56
294.603	85.56
294.833	89.56
295.064	84.56
295.295	93.56
295.525	89.56
295.756	93.56
295.987	127.56
296.217	156.56
296.448	132.56
296.679	82.56
296.909	85.56
297.14	100.56
297.37	95.56
297.601	89.56
297.831	76.56
298.062	89.56
298.292	97.56
298.523	88.56
298.753	78.56
298.984	72.56
299.214	79.56
299.445	90.56
299.675	89.56
299.905	87.56
300.136	81.56
300.366	93.56
300.597	74.56
300.827	94.56
301.057	100.56
301.288	98.56
301.518	92.56
301.748	90.56
301.979	95.56
302.209	95.56
302.439	82.56
302.669	97.56
302.9	91.56
303.13	103.56
303.36	101.56
303.59	103.56
303.82	101.56
304.051	96.56
304.281	86.56
304.511	95.56
304.741	78.56
304.971	79.56
305.201	83.56
305.431	87.56
305.661	95.56
305.891	92.56
306.121	96.56
306.352	105.56
306.582	120.56
306.812	95.56
307.042	101.56
307.272	90.56
307.502	96.56
307.731	66.56
307.961	98.56
308.191	87.56
308.421	92.56
308.651	89.56
308.881	77.56
309.111	72.56
309.341	99.56
309.571	104.56
309.8	96.56
310.03	98.56
310.26	94.56
310.49	97.56
310.72	89.56
310.949	114.56
311.179	101.56
311.409	89.56
311.639	97.56
311.868	100.56
312.098	98.56
312.328	97.56
312.557	101.56
312.787	101.56
313.017	114.56
313.246	96.56
313.476	89.56
313.706	77.56
313.935	103.56
314.165	114.56
314.394	104.56
314.624	94.56
314.853	88.56
315.083	85.56
315.312	83.56
315.542	76.56
315.771	79.56
316.001	83.56
316.23	79.56
316.46	97.56
316.689	94.56
316.919	92.56
317.148	90.56
317.377	82.56
317.607	95.56
317.836	81.56
318.065	97.56
318.295	84.56
318.524	81.56
318.753	97.56
318.983	85.56
319.212	105.56
319.441	107.56
319.67	104.56
319.9	103.56
320.129	97.56
320.358	91.56
320.587	90.56
320.816	95.56
321.046	107.56
321.275	108.56
321.504	89.56
321.733	91.56
321.962	77.56
322.191	113.56
322.42	113.56
322.649	110.56
322.878	127.56
323.108	120.56
323.337	126.56
323.566	143.56
323.795	162.56
324.024	228.56
324.253	469.56
324.482	987.56
324.71	2037.56
324.939	2734.56
325.168	1015.56
325.397	286.56
325.626	152.56
325.855	135.56
326.084	143.56
326.313	128.56
326.542	158.56
326.77	250.56
326.999	524.56
327.228	1104.56
327.457	1960.56
327.686	1587.56
327.914	433.56
328.143	246.56
328.372	199.56
328.6	163.56
328.829	131.56
329.058	145.56
329.287	154.56
329.515	113.56
329.744	125.56
329.972	134.56
330.201	164.56
330.43	215.56
330.658	175.56
330.887	176.56
331.115	140.56
331.344	95.56
331.572	97.56
331.801	115.56
332.03	126.56
332.258	109.56
332.486	86.56
332.715	90.56
332.943	101.56
333.172	93.56
333.4	101.56
333.629	105.56
333.857	121.56
334.085	144.56
334.314	170.56
334.542	245.56
334.771	240.56
334.999	130.56
335.227	101.56
335.455	107.56
335.684	112.56
335.912	105.56
336.14	83.56
336.369	110.56
336.597	105.56
336.825	100.56
337.053	98.56
337.281	98.56
337.51	97.56
337.738	92.56
337.966	81.56
338.194	96.56
338.422	75.56
338.65	90.56
338.878	93.56
339.106	108.56
339.334	90.56
339.562	83.56
339.79	87.56
340.018	100.56
340.246	96.56
340.474	96.56
340.702	92.56
340.93	85.56
341.158	93.56
341.386	91.56
341.614	97.56
341.842	98.56
342.07	102.56
342.298	96.56
342.526	88.56
342.754	85.56
342.981	90.56
343.209	80.56
343.437	100.56
343.665	82.56
343.893	89.56
344.12	88.56
344.348	92.56
344.576	83.56
344.804	88.56
345.031	97.56
345.259	99.56
345.487	106.56
345.714	101.56
345.942	108.56
346.17	110.56
346.397	88.56
346.625	90.56
346.853	101.56
347.08	85.56
347.308	88.56
347.535	105.56
347.763	97.56
347.99	114.56
348.218	111.56
348.445	98.56
348.673	103.56
348.9	97.56
349.128	90.56
349.355	92.56
349.583	87.56
349.81	90.56
350.037	83.56
350.265	108.56
350.492	82.56
350.72	88.56
350.947	98.56
351.174	105.56
351.402	114.56
351.629	105.56
351.856	95.56
352.083	100.56
352.311	113.56
352.538	100.56
352.765	108.56
352.992	99.56
353.22	112.56
353.447	114.56
353.674	107.56
353.901	93.56
354.128	86.56
354.355	101.56
354.583	117.56
354.81	102.56
355.037	90.56
355.264	76.56
355.491	90.56
355.718	93.56
355.945	85.56
356.172	91.56
356.399	87.56
356.626	93.56
356.853	84.56
357.08	92.56
357.307	99.56
357.534	94.56
357.761	89.56
357.988	71.56
358.215	94.56
358.441	82.56
358.668	87.56
358.895	99.56
359.122	99.56
359.349	85.56
359.576	100.56
359.802	88.56
360.029	124.56
360.256	131.56
360.483	91.56
360.709	88.56
360.936	87.56
361.163	85.56
361.39	84.56
361.616	93.56
361.843	102.56
362.07	101.56
362.296	90.56
362.523	104.56
362.749	96.56
362.976	87.56
363.203	97.56
363.429	93.56
363.656	96.56
363.882	92.56
364.109	87.56
364.335	89.56
364.562	83.56
364.788	93.56
365.015	111.56
365.241	111.56
365.468	131.56
365.694	110.56
365.92	79.56
366.147	88.56
366.373	80.56
366.599	95.56
366.826	86.56
367.052	86.56
367.278	83.56
367.505	91.56
367.731	81.56
367.957	97.56
368.184	90.56
368.41	97.56
368.636	124.56
368.862	128.56
369.089	128.56
369.315	108.56
369.541	96.56
369.767	100.56
369.993	93.56
370.219	90.56
370.445	98.56
370.672	83.56
370.898	74.56
371.124	73.56
371.35	84.56
371.576	70.56
371.802	77.56
372.028	81.56
372.254	87.56
372.48	92.56
372.706	97.56
372.932	90.56
373.158	85.56
373.384	96.56
373.61	94.56
373.835	90.56
374.061	89.56
374.287	101.56
374.513	89.56
374.739	80.56
374.965	87.56
375.191	88.56
375.416	83.56
375.642	94.56
375.868	92.56
376.094	81.56
376.319	89.56
376.545	95.56
376.771	99.56
376.997	97.56
377.222	92.56
377.448	86.56
377.674	97.56
377.899	83.56
378.125	84.56
378.35	85.56
378.576	92.56
378.802	93.56
379.027	92.56
379.253	89.56
379.478	86.56
379.704	76.56
379.929	94.56
380.155	88.56
380.38	89.56
380.606	84.56
380.831	94.56
381.057	88.56
381.282	88.56
381.507	91.56
381.733	110.56
381.958	80.56
382.184	92.56
382.409	102.56
382.634	102.56
382.86	95.56
383.085	108.56
383.31	92.56
383.535	84.56
383.761	91.56
383.986	107.56
384.211	87.56
384.436	104.56
384.662	93.56
384.887	96.56
385.112	110.56
385.337	102.56
385.562	83.56
385.787	101.56
386.013	106.56
386.238	123.56
386.463	96.56
386.688	102.56
386.913	101.56
387.138	105.56
387.363	92.56
387.588	81.56
387.813	103.56
388.038	110.56
388.263	105.56
388.488	109.56
388.713	96.56
388.938	96.56
389.163	99.56
389.387	97.56
389.612	99.56
389.837	95.56
390.062	85.56
390.287	83.56
390.512	77.56
390.736	87.56
390.961	89.56
391.186	95.56
391.411	89.56
391.636	79.56
391.86	90.56
392.085	97.56
392.31	97.56
392.534	94.56
392.759	103.56
392.984	78.56
393.208	70.56
393.433	93.56
393.658	92.56
393.882	82.56
394.107	82.56
394.331	92.56
394.556	74.56
394.78	89.56
395.005	86.56
395.229	71.56
395.454	88.56
395.678	83.56
395.903	88.56
396.127	76.56
396.352	88.56
396.576	89.56
396.801	91.56
397.025	96.56
397.249	89.56
397.474	92.56
397.698	95.56
397.922	82.56
398.147	94.56
398.371	84.56
398.595	81.56
398.82	72.56
399.044	81.56
399.268	82.56
399.492	94.56
399.717	85.56
399.941	78.56
400.165	91.56
400.389	84.56
400.613	81.56
400.837	78.56
401.062	93.56
401.286	107.56
401.51	87.56
401.734	91.56
401.958	96.56
402.182	146.56
402.406	192.56
402.63	142.56
402.854	85.56
403.078	87.56
403.302	82.56
403.526	83.56
403.75	74.56
403.974	96.56
404.198	89.56
404.422	83.56
404.645	86.56
404.869	96.56
405.093	99.56
405.317	101.56
405.541	114.56
405.765	100.56
405.988	130.56
406.212	203.56
406.436	300.56
406.66	190.56
406.883	104.56
407.107	109.56
407.331	101.56
407.555	109.56
407.778	99.56
408.002	92.56
408.226	92.56
408.449	67.56
408.673	89.56
408.896	89.56
409.12	88.56
409.344	82.56
409.567	94.56
409.791	85.56
410.014	104.56
410.238	100.56
410.461	106.56
410.685	78.56
410.908	100.56
411.132	112.56
411.355	108.56
411.578	105.56
411.802	90.56
412.025	90.56
412.249	83.56
412.472	98.56
412.695	101.56
412.919	93.56
413.142	95.56
413.365	94.56
413.589	85.56
413.812	73.56
414.035	85.56
414.258	77.56
414.482	79.56
414.705	89.56
414.928	93.56
415.151	86.56
415.374	83.56
415.597	90.56
415.821	95.56
416.044	73.56
416.267	81.56
416.49	89.56
416.713	73.56
416.936	95.56
417.159	73.56
417.382	87.56
417.605	85.56
417.828	97.56
418.051	98.56
418.274	77.56
418.497	76.56
418.72	85.56
418.943	91.56
419.166	78.56
419.389	68.56
419.611	85.56
419.834	96.56
420.057	95.56
420.28	81.56
420.503	99.56
420.726	105.56
420.948	92.56
421.171	95.56
421.394	104.56
421.617	94.56
421.839	92.56
422.062	83.56
422.285	72.56
422.507	97.56
422.73	103.56
422.953	79.56
423.175	89.56
423.398	89.56
423.621	89.56
423.843	93.56
424.066	85.56
424.288	86.56
424.511	89.56
424.733	89.56
424.956	101.56
425.178	109.56
425.401	109.56
425.623	103.56
425.846	100.56
426.068	93.56
426.291	103.56
426.513	97.56
426.735	87.56
426.958	97.56
427.18	104.56
427.402	152.56
427.625	201.56
427.847	157.56
428.069	119.56
428.292	88.56
428.514	83.56
428.736	95.56
428.958	88.56
429.181	93.56
429.403	95.56
429.625	74.56
429.847	93.56
430.069	98.56
430.292	95.56
430.514	82.56
430.736	95.56
430.958	86.56
431.18	89.56
431.402	80.56
431.624	84.56
431.846	95.56
432.068	92.56
432.29	86.56
432.512	93.56
432.734	81.56
432.956	89.56
433.178	97.56
433.4	102.56
433.622	86.56
433.844	90.56
434.066	96.56
434.287	96.56
434.509	82.56
434.731	85.56
434.953	84.56
435.175	88.56
435.397	94.56
435.618	97.56
435.84	102.56
436.062	120.56
436.284	128.56
436.505	104.56
436.727	103.56
436.949	92.56
437.17	71.56
437.392	89.56
437.614	93.56
437.835	111.56
438.057	137.56
438.278	119.56
438.5	104.56
438.721	141.56
438.943	100.56
439.165	92.56
439.386	81.56
439.608	104.56
439.829	89.56
440.05	128.56
440.272	165.56
440.493	108.56
440.715	99.56
440.936	84.56
441.158	84.56
441.379	92.56
441.6	103.56
441.822	95.56
442.043	91.56
442.264	103.56
442.486	91.56
442.707	94.56
442.928	102.56
443.149	160.56
443.371	140.56
443.592	118.56
443.813	104.56
444.034	113.56
444.255	86.56
444.476	100.56
444.698	86.56
444.919	92.56
445.14	122.56
445.361	133.56
445.582	126.56
445.803	154.56
446.024	153.56
446.245	153.56
446.466	128.56
446.687	85.56
446.908	78.56
447.129	71.56
447.35	81.56
447.571	85.56
447.792	104.56
448.013	113.56
448.234	128.56
448.455	94.56
448.675	106.56
448.896	121.56
449.117	103.56
449.338	99.56
449.559	124.56
449.779	146.56
450	90.56
450.221	97.56
450.442	85.56
450.662	99.56
450.883	117.56
451.104	139.56
451.324	103.56
451.545	88.56
451.766	97.56
451.986	68.56
452.207	88.56
452.428	95.56
452.648	99.56
452.869	120.56
453.089	137.56
453.31	137.56
453.53	99.56
453.751	104.56
453.971	116.56
454.192	120.56
454.412	94.56
454.633	82.56
454.853	85.56
455.073	80.56
455.294	96.56
455.514	96.56
455.734	102.56
455.955	79.56
456.175	94.56
456.395	73.56
456.616	77.56
456.836	82.56
457.056	99.56
457.276	80.56
457.497	77.56
457.717	84.56
457.937	80.56
458.157	81.56
458.377	85.56
458.598	121.56
458.818	190.56
459.038	200.56
459.258	124.56
459.478	80.56
459.698	85.56
459.918	80.56
460.138	99.56
460.358	77.56
460.578	92.56
460.798	95.56
461.018	85.56
461.238	93.56
461.458	101.56
461.678	83.56
461.898	89.56
462.118	95.56
462.338	94.56
462.558	83.56
462.777	87.56
462.997	80.56
463.217	89.56
463.437	67.56
463.657	84.56
463.876	92.56
464.096	78.56
464.316	89.56
464.536	103.56
464.755	102.56
464.975	117.56
465.195	196.56
465.414	207.56
465.634	92.56
465.854	93.56
466.073	86.56
466.293	87.56
466.512	92.56
466.732	88.56
466.951	96.56
467.171	101.56
467.391	84.56
467.61	92.56
467.829	114.56
468.049	109.56
468.268	146.56
468.488	93.56
468.707	90.56
468.927	82.56
469.146	94.56
469.365	86.56
469.585	89.56
469.804	101.56
470.023	127.56
470.243	99.56
470.462	124.56
470.681	141.56
470.901	97.56
471.12	87.56
471.339	92.56
471.558	86.56
471.777	84.56
471.997	110.56
472.216	164.56
472.435	304.56
472.654	149.56
472.873	90.56
473.092	92.56
473.311	85.56
473.53	77.56
473.749	85.56
473.968	86.56
474.187	90.56
474.406	80.56
474.625	86.56
474.844	83.56
475.063	81.56
475.282	76.56
475.501	76.56
475.72	89.56
475.939	81.56
476.158	86.56
476.377	96.56
476.596	89.56
476.814	91.56
477.033	99.56
477.252	97.56
477.471	79.56
477.69	97.56
477.908	78.56
478.127	98.56
478.346	83.56
478.564	93.56
478.783	102.56
479.002	96.56
479.22	97.56
479.439	120.56
479.658	118.56
479.876	93.56
480.095	96.56
480.313	96.56
480.532	79.56
480.751	95.56
480.969	177.56
481.188	442.56
481.406	325.56
481.624	121.56
481.843	94.56
482.061	87.56
482.28	90.56
482.498	81.56
482.717	80.56
482.935	91.56
483.153	89.56
483.372	82.56
483.59	84.56
483.808	85.56
484.027	93.56
484.245	99.56
484.463	89.56
484.681	97.56
484.9	97.56
485.118	89.56
485.336	99.56
485.554	92.56
485.772	103.56
485.99	100.56
486.209	96.56
486.427	99.56
486.645	103.56
486.863	120.56
487.081	108.56
487.299	97.56
487.517	91.56
487.735	87.56
487.953	83.56
488.171	100.56
488.389	103.56
488.607	100.56
488.825	84.56
489.043	85.56
489.261	100.56
489.479	88.56
489.696	87.56
489.914	71.56
490.132	86.56
490.35	92.56
490.568	82.56
490.786	82.56
491.003	79.56
491.221	92.56
491.439	84.56
491.657	82.56
491.874	99.56
492.092	90.56
492.31	95.56
492.527	93.56
492.745	84.56
492.963	79.56
493.18	82.56
493.398	94.56
493.615	89.56
493.833	77.56
494.05	96.56
494.268	101.56
494.485	94.56
494.703	88.56
494.92	79.56
495.138	81.56
495.355	83.56
495.573	84.56
495.79	101.56
496.008	95.56
496.225	94.56
496.442	104.56
496.66	81.56
496.877	88.56
497.094	85.56
497.312	75.56
497.529	95.56
497.746	97.56
497.963	109.56
498.181	85.56
498.398	93.56
498.615	93.56
498.832	100.56
499.049	82.56
499.267	86.56
499.484	81.56
499.701	98.56
499.918	99.56
500.135	93.56
500.352	87.56
500.569	103.56
500.786	77.56
501.003	92.56
501.22	81.56
501.437	77.56
501.654	106.56
501.871	135.56
502.088	90.56
502.305	90.56
502.522	92.56
502.739	92.56
502.956	81.56
503.172	95.56
503.389	104.56
503.606	115.56
503.823	104.56
504.04	101.56
504.256	93.56
504.473	77.56
504.69	83.56
504.907	71.56
505.123	80.56
505.34	87.56
505.557	94.56
505.773	82.56
505.99	97.56
506.207	78.56
506.423	91.56
506.64	81.56
506.856	88.56
507.073	82.56
507.289	101.56
507.506	105.56
507.722	129.56
507.939	116.56
508.155	104.56
508.372	77.56
508.588	93.56
508.805	105.56
509.021	97.56
509.238	96.56
509.454	109.56
509.67	104.56
509.887	115.56
510.103	124.56
510.319	244.56
510.536	993.56
510.752	3358.56
510.968	924.56
511.184	184.56
511.401	133.56
511.617	101.56
511.833	83.56
512.049	89.56
512.265	93.56
512.481	93.56
512.698	99.56
512.914	86.56
513.13	70.56
513.346	84.56
513.562	89.56
513.778	92.56
513.994	91.56
514.21	112.56
514.426	126.56
514.642	153.56
514.858	137.56
515.074	202.56
515.29	626.56
515.506	2312.56
