Data from Circ_2022_H10_HRD10591_00088.txt Node
Date: Wed Jan 03 09:53:55 EST 2024
User: Yrep
Spectrometer: HR+D1059
Trigger mode: 1
Integration Time (sec): 1.000000E-1
Scans to average: 1
Electric dark correction enabled: true
Nonlinearity correction enabled: false
Boxcar width: 0
XAxis mode: Wavelengths
Number of Pixels in Spectrum: 2048
>>>>>Begin Spectral Data<<<<<
223.165	-20.38
223.4	-20.38
223.635	-20.38
223.869	-24.38
224.104	-19.38
224.338	-16.38
224.573	-15.38
224.808	3.62
225.042	-8.38
225.277	-9.38
225.511	-1.38
225.746	2.62
225.98	-0.38
226.215	17.62
226.449	27.62
226.683	22.62
226.918	20.62
227.152	20.62
227.387	20.62
227.621	36.62
227.856	50.62
228.09	37.62
228.324	42.62
228.559	51.62
228.793	61.62
229.027	52.62
229.262	71.62
229.496	64.62
229.73	78.62
229.964	95.62
230.199	85.62
230.433	68.62
230.667	78.62
230.901	70.62
231.136	72.62
231.37	95.62
231.604	92.62
231.838	80.62
232.072	88.62
232.306	92.62
232.541	85.62
232.775	84.62
233.009	65.62
233.243	86.62
233.477	78.62
233.711	89.62
233.945	67.62
234.179	93.62
234.413	70.62
234.647	68.62
234.881	78.62
235.115	85.62
235.349	71.62
235.583	73.62
235.817	67.62
236.051	69.62
236.285	89.62
236.519	80.62
236.753	79.62
236.987	79.62
237.221	91.62
237.455	79.62
237.689	78.62
237.922	86.62
238.156	88.62
238.39	80.62
238.624	69.62
238.858	71.62
239.091	64.62
239.325	79.62
239.559	73.62
239.793	89.62
240.027	85.62
240.26	73.62
240.494	56.62
240.728	74.62
240.961	74.62
241.195	74.62
241.429	71.62
241.662	73.62
241.896	75.62
242.13	70.62
242.363	72.62
242.597	76.62
242.83	85.62
243.064	53.62
243.298	81.62
243.531	80.62
243.765	70.62
243.998	71.62
244.232	89.62
244.465	95.62
244.699	79.62
244.932	76.62
245.166	71.62
245.399	58.62
245.633	82.62
245.866	69.62
246.099	73.62
246.333	80.62
246.566	82.62
246.8	61.62
247.033	79.62
247.266	77.62
247.5	62.62
247.733	69.62
247.966	80.62
248.2	60.62
248.433	80.62
248.666	83.62
248.899	92.62
249.133	92.62
249.366	90.62
249.599	99.62
249.832	87.62
250.066	62.62
250.299	85.62
250.532	80.62
250.765	64.62
250.998	78.62
251.231	74.62
251.465	79.62
251.698	88.62
251.931	78.62
252.164	91.62
252.397	84.62
252.63	64.62
252.863	74.62
253.096	84.62
253.329	69.62
253.562	81.62
253.795	84.62
254.028	78.62
254.261	70.62
254.494	77.62
254.727	74.62
254.96	96.62
255.193	84.62
255.426	81.62
255.659	79.62
255.892	83.62
256.124	84.62
256.357	77.62
256.59	90.62
256.823	78.62
257.056	88.62
257.289	86.62
257.521	77.62
257.754	77.62
257.987	73.62
258.22	89.62
258.452	73.62
258.685	85.62
258.918	77.62
259.151	81.62
259.383	77.62
259.616	80.62
259.849	74.62
260.081	88.62
260.314	78.62
260.547	86.62
260.779	74.62
261.012	76.62
261.244	80.62
261.477	81.62
261.71	95.62
261.942	119.62
262.175	121.62
262.407	77.62
262.64	69.62
262.872	80.62
263.105	95.62
263.337	87.62
263.57	80.62
263.802	81.62
264.035	95.62
264.267	85.62
264.499	78.62
264.732	92.62
264.964	76.62
265.197	73.62
265.429	89.62
265.661	77.62
265.894	77.62
266.126	76.62
266.358	68.62
266.591	70.62
266.823	77.62
267.055	77.62
267.287	78.62
267.52	78.62
267.752	89.62
267.984	80.62
268.216	88.62
268.448	97.62
268.681	90.62
268.913	85.62
269.145	70.62
269.377	95.62
269.609	87.62
269.841	85.62
270.073	70.62
270.306	86.62
270.538	83.62
270.77	75.62
271.002	70.62
271.234	73.62
271.466	100.62
271.698	88.62
271.93	79.62
272.162	102.62
272.394	80.62
272.626	75.62
272.858	87.62
273.09	76.62
273.322	80.62
273.553	78.62
273.785	83.62
274.017	77.62
274.249	87.62
274.481	87.62
274.713	82.62
274.945	89.62
275.176	95.62
275.408	86.62
275.64	89.62
275.872	93.62
276.104	83.62
276.335	91.62
276.567	89.62
276.799	111.62
277.031	132.62
277.262	110.62
277.494	86.62
277.726	90.62
277.957	80.62
278.189	84.62
278.421	79.62
278.652	79.62
278.884	86.62
279.115	92.62
279.347	95.62
279.579	101.62
279.81	101.62
280.042	110.62
280.273	97.62
280.505	99.62
280.736	86.62
280.968	86.62
281.199	81.62
281.431	80.62
281.662	74.62
281.894	81.62
282.125	96.62
282.356	120.62
282.588	150.62
282.819	121.62
283.051	85.62
283.282	81.62
283.513	79.62
283.745	78.62
283.976	90.62
284.207	82.62
284.439	89.62
284.67	88.62
284.901	76.62
285.132	85.62
285.364	76.62
285.595	84.62
285.826	80.62
286.057	95.62
286.288	73.62
286.52	77.62
286.751	72.62
286.982	83.62
287.213	74.62
287.444	79.62
287.675	81.62
287.906	72.62
288.138	91.62
288.369	99.62
288.6	93.62
288.831	73.62
289.062	86.62
289.293	72.62
289.524	82.62
289.755	84.62
289.986	68.62
290.217	89.62
290.448	77.62
290.679	85.62
290.91	94.62
291.141	95.62
291.371	80.62
291.602	91.62
291.833	87.62
292.064	85.62
292.295	95.62
292.526	77.62
292.757	79.62
292.987	81.62
293.218	89.62
293.449	67.62
293.68	85.62
293.91	88.62
294.141	73.62
294.372	94.62
294.603	92.62
294.833	89.62
295.064	89.62
295.295	103.62
295.525	96.62
295.756	90.62
295.987	113.62
296.217	156.62
296.448	144.62
296.679	104.62
296.909	86.62
297.14	85.62
297.37	83.62
297.601	91.62
297.831	93.62
298.062	99.62
298.292	87.62
298.523	85.62
298.753	88.62
298.984	99.62
299.214	93.62
299.445	95.62
299.675	89.62
299.905	96.62
300.136	86.62
300.366	84.62
300.597	82.62
300.827	100.62
301.057	101.62
301.288	104.62
301.518	92.62
301.748	85.62
301.979	99.62
302.209	93.62
302.439	88.62
302.669	93.62
302.9	86.62
303.13	89.62
303.36	96.62
303.59	103.62
303.82	103.62
304.051	98.62
304.281	83.62
304.511	94.62
304.741	86.62
304.971	78.62
305.201	100.62
305.431	91.62
305.661	89.62
305.891	85.62
306.121	87.62
306.352	90.62
306.582	94.62
306.812	101.62
307.042	98.62
307.272	102.62
307.502	105.62
307.731	97.62
307.961	102.62
308.191	83.62
308.421	69.62
308.651	95.62
308.881	96.62
309.111	88.62
309.341	92.62
309.571	98.62
309.8	84.62
310.03	111.62
310.26	108.62
310.49	105.62
310.72	101.62
310.949	119.62
311.179	102.62
311.409	84.62
311.639	105.62
311.868	78.62
312.098	110.62
312.328	100.62
312.557	113.62
312.787	104.62
313.017	92.62
313.246	97.62
313.476	100.62
313.706	97.62
313.935	93.62
314.165	100.62
314.394	107.62
314.624	112.62
314.853	84.62
315.083	100.62
315.312	96.62
315.542	72.62
315.771	76.62
316.001	66.62
316.23	90.62
316.46	77.62
316.689	98.62
316.919	92.62
317.148	110.62
317.377	93.62
317.607	98.62
317.836	97.62
318.065	88.62
318.295	103.62
318.524	84.62
318.753	99.62
318.983	89.62
319.212	100.62
319.441	112.62
319.67	109.62
319.9	111.62
320.129	96.62
320.358	87.62
320.587	102.62
320.816	93.62
321.046	99.62
321.275	101.62
321.504	85.62
321.733	83.62
321.962	99.62
322.191	112.62
322.42	104.62
322.649	122.62
322.878	120.62
323.108	135.62
323.337	129.62
323.566	153.62
323.795	163.62
324.024	255.62
324.253	488.62
324.482	1043.62
324.71	2131.62
324.939	2837.62
325.168	1046.62
325.397	289.62
325.626	167.62
325.855	128.62
326.084	150.62
326.313	142.62
326.542	169.62
326.77	275.62
326.999	548.62
327.228	1113.62
327.457	2024.62
327.686	1675.62
327.914	463.62
328.143	262.62
328.372	251.62
328.6	174.62
328.829	124.62
329.058	159.62
329.287	150.62
329.515	125.62
329.744	126.62
329.972	169.62
330.201	230.62
330.43	316.62
330.658	224.62
330.887	197.62
331.115	162.62
331.344	112.62
331.572	119.62
331.801	117.62
332.03	97.62
332.258	100.62
332.486	97.62
332.715	102.62
332.943	86.62
333.172	104.62
333.4	108.62
333.629	113.62
333.857	146.62
334.085	184.62
334.314	226.62
334.542	395.62
334.771	375.62
334.999	157.62
335.227	112.62
335.455	98.62
335.684	92.62
335.912	99.62
336.14	109.62
336.369	108.62
336.597	128.62
336.825	100.62
337.053	101.62
337.281	88.62
337.51	86.62
337.738	92.62
337.966	103.62
338.194	101.62
338.422	97.62
338.65	86.62
338.878	81.62
339.106	82.62
339.334	93.62
339.562	93.62
339.79	82.62
340.018	87.62
340.246	104.62
340.474	115.62
340.702	89.62
340.93	94.62
341.158	95.62
341.386	108.62
341.614	105.62
341.842	104.62
342.07	89.62
342.298	90.62
342.526	81.62
342.754	89.62
342.981	99.62
343.209	84.62
343.437	88.62
343.665	80.62
343.893	80.62
344.12	96.62
344.348	95.62
344.576	89.62
344.804	103.62
345.031	110.62
345.259	95.62
345.487	106.62
345.714	98.62
345.942	90.62
346.17	95.62
346.397	80.62
346.625	89.62
346.853	82.62
347.08	93.62
347.308	101.62
347.535	97.62
347.763	104.62
347.99	109.62
348.218	98.62
348.445	102.62
348.673	96.62
348.9	92.62
349.128	111.62
349.355	94.62
349.583	84.62
349.81	88.62
350.037	93.62
350.265	94.62
350.492	80.62
350.72	96.62
350.947	103.62
351.174	109.62
351.402	108.62
351.629	87.62
351.856	105.62
352.083	97.62
352.311	100.62
352.538	119.62
352.765	92.62
352.992	113.62
353.22	125.62
353.447	125.62
353.674	107.62
353.901	93.62
354.128	99.62
354.355	98.62
354.583	116.62
354.81	96.62
355.037	92.62
355.264	93.62
355.491	91.62
355.718	87.62
355.945	88.62
356.172	90.62
356.399	84.62
356.626	100.62
356.853	92.62
357.08	99.62
357.307	94.62
357.534	94.62
357.761	90.62
357.988	90.62
358.215	100.62
358.441	97.62
358.668	91.62
358.895	89.62
359.122	81.62
359.349	92.62
359.576	83.62
359.802	99.62
360.029	142.62
360.256	133.62
360.483	98.62
360.709	98.62
360.936	101.62
361.163	108.62
361.39	109.62
361.616	110.62
361.843	85.62
362.07	105.62
362.296	93.62
362.523	89.62
362.749	92.62
362.976	101.62
363.203	98.62
363.429	97.62
363.656	102.62
363.882	94.62
364.109	90.62
364.335	86.62
364.562	95.62
364.788	89.62
365.015	109.62
365.241	101.62
365.468	101.62
365.694	107.62
365.92	90.62
366.147	90.62
366.373	90.62
366.599	89.62
366.826	82.62
367.052	87.62
367.278	102.62
367.505	86.62
367.731	95.62
367.957	97.62
368.184	94.62
368.41	99.62
368.636	102.62
368.862	131.62
369.089	101.62
369.315	108.62
369.541	69.62
369.767	84.62
369.993	83.62
370.219	108.62
370.445	90.62
370.672	93.62
370.898	93.62
371.124	92.62
371.35	79.62
371.576	85.62
371.802	88.62
372.028	83.62
372.254	76.62
372.48	82.62
372.706	88.62
372.932	85.62
373.158	84.62
373.384	101.62
373.61	86.62
373.835	80.62
374.061	91.62
374.287	85.62
374.513	82.62
374.739	88.62
374.965	75.62
375.191	91.62
375.416	89.62
375.642	77.62
375.868	84.62
376.094	95.62
376.319	74.62
376.545	88.62
376.771	77.62
376.997	90.62
377.222	86.62
377.448	83.62
377.674	93.62
377.899	79.62
378.125	81.62
378.35	90.62
378.576	87.62
378.802	89.62
379.027	76.62
379.253	87.62
379.478	68.62
379.704	92.62
379.929	89.62
380.155	96.62
380.38	89.62
380.606	90.62
380.831	85.62
381.057	97.62
381.282	94.62
381.507	101.62
381.733	99.62
381.958	86.62
382.184	88.62
382.409	95.62
382.634	100.62
382.86	106.62
383.085	93.62
383.31	87.62
383.535	90.62
383.761	103.62
383.986	100.62
384.211	95.62
384.436	83.62
384.662	83.62
384.887	102.62
385.112	99.62
385.337	112.62
385.562	105.62
385.787	86.62
386.013	114.62
386.238	99.62
386.463	91.62
386.688	88.62
386.913	89.62
387.138	94.62
387.363	96.62
387.588	95.62
387.813	95.62
388.038	81.62
388.263	88.62
388.488	103.62
388.713	89.62
388.938	107.62
389.163	89.62
389.387	89.62
389.612	89.62
389.837	76.62
390.062	89.62
390.287	86.62
390.512	86.62
390.736	85.62
390.961	97.62
391.186	93.62
391.411	89.62
391.636	97.62
391.86	83.62
392.085	89.62
392.31	87.62
392.534	77.62
392.759	85.62
392.984	85.62
393.208	93.62
393.433	97.62
393.658	92.62
393.882	80.62
394.107	88.62
394.331	86.62
394.556	87.62
394.78	87.62
395.005	81.62
395.229	78.62
395.454	87.62
395.678	91.62
395.903	87.62
396.127	89.62
396.352	83.62
396.576	86.62
396.801	77.62
397.025	78.62
397.249	92.62
397.474	81.62
397.698	73.62
397.922	88.62
398.147	80.62
398.371	93.62
398.595	66.62
398.82	82.62
399.044	87.62
399.268	82.62
399.492	92.62
399.717	86.62
399.941	99.62
400.165	84.62
400.389	101.62
400.613	92.62
400.837	78.62
401.062	87.62
401.286	78.62
401.51	100.62
401.734	103.62
401.958	111.62
402.182	121.62
402.406	199.62
402.63	116.62
402.854	92.62
403.078	93.62
403.302	87.62
403.526	90.62
403.75	83.62
403.974	92.62
404.198	81.62
404.422	93.62
404.645	83.62
404.869	107.62
405.093	108.62
405.317	136.62
405.541	114.62
405.765	118.62
405.988	135.62
406.212	202.62
406.436	293.62
406.66	174.62
406.883	104.62
407.107	91.62
407.331	93.62
407.555	111.62
407.778	106.62
408.002	103.62
408.226	87.62
408.449	85.62
408.673	90.62
408.896	97.62
409.12	94.62
409.344	84.62
409.567	84.62
409.791	95.62
410.014	85.62
410.238	97.62
410.461	82.62
410.685	88.62
410.908	97.62
411.132	102.62
411.355	99.62
411.578	94.62
411.802	94.62
412.025	93.62
412.249	89.62
412.472	105.62
412.695	128.62
412.919	97.62
413.142	93.62
413.365	89.62
413.589	92.62
413.812	77.62
414.035	98.62
414.258	83.62
414.482	101.62
414.705	91.62
414.928	103.62
415.151	93.62
415.374	101.62
415.597	85.62
415.821	97.62
416.044	82.62
416.267	78.62
416.49	73.62
416.713	85.62
416.936	79.62
417.159	82.62
417.382	79.62
417.605	101.62
417.828	104.62
418.051	83.62
418.274	79.62
418.497	87.62
418.72	80.62
418.943	80.62
419.166	74.62
419.389	93.62
419.611	92.62
419.834	93.62
420.057	85.62
420.28	68.62
420.503	73.62
420.726	84.62
420.948	90.62
421.171	104.62
421.394	92.62
421.617	86.62
421.839	74.62
422.062	77.62
422.285	92.62
422.507	102.62
422.73	101.62
422.953	109.62
423.175	98.62
423.398	82.62
423.621	84.62
423.843	92.62
424.066	95.62
424.288	87.62
424.511	87.62
424.733	109.62
424.956	105.62
425.178	110.62
425.401	111.62
425.623	112.62
425.846	90.62
426.068	102.62
426.291	92.62
426.513	91.62
426.735	95.62
426.958	110.62
427.18	122.62
427.402	166.62
427.625	215.62
427.847	182.62
428.069	144.62
428.292	113.62
428.514	113.62
428.736	88.62
428.958	84.62
429.181	83.62
429.403	86.62
429.625	96.62
429.847	97.62
430.069	108.62
430.292	95.62
430.514	78.62
430.736	86.62
430.958	86.62
431.18	88.62
431.402	70.62
431.624	92.62
431.846	79.62
432.068	76.62
432.29	81.62
432.512	100.62
432.734	86.62
432.956	91.62
433.178	85.62
433.4	90.62
433.622	92.62
433.844	91.62
434.066	83.62
434.287	85.62
434.509	84.62
434.731	90.62
434.953	87.62
435.175	81.62
435.397	96.62
435.618	81.62
435.84	114.62
436.062	136.62
436.284	135.62
436.505	110.62
436.727	110.62
436.949	96.62
437.17	102.62
437.392	95.62
437.614	100.62
437.835	116.62
438.057	159.62
438.278	137.62
438.5	103.62
438.721	150.62
438.943	124.62
439.165	87.62
439.386	90.62
439.608	94.62
439.829	95.62
440.05	137.62
440.272	175.62
440.493	117.62
440.715	86.62
440.936	83.62
441.158	74.62
441.379	82.62
441.6	90.62
441.822	99.62
442.043	97.62
442.264	127.62
442.486	118.62
442.707	82.62
442.928	113.62
443.149	152.62
443.371	147.62
443.592	123.62
443.813	131.62
444.034	118.62
444.255	90.62
444.476	97.62
444.698	99.62
444.919	93.62
445.14	137.62
445.361	141.62
445.582	146.62
445.803	186.62
446.024	174.62
446.245	166.62
446.466	144.62
446.687	79.62
446.908	87.62
447.129	88.62
447.35	90.62
447.571	84.62
447.792	89.62
448.013	101.62
448.234	120.62
448.455	118.62
448.675	137.62
448.896	131.62
449.117	92.62
449.338	107.62
449.559	155.62
449.779	170.62
450	106.62
450.221	93.62
450.442	89.62
450.662	91.62
450.883	108.62
451.104	129.62
451.324	104.62
451.545	82.62
451.766	93.62
451.986	81.62
452.207	105.62
452.428	90.62
452.648	92.62
452.869	119.62
453.089	128.62
453.31	117.62
453.53	89.62
453.751	104.62
453.971	120.62
454.192	133.62
454.412	105.62
454.633	73.62
454.853	96.62
455.073	99.62
455.294	88.62
455.514	99.62
455.734	93.62
455.955	81.62
456.175	84.62
456.395	88.62
456.616	77.62
456.836	88.62
457.056	80.62
457.276	79.62
457.497	85.62
457.717	92.62
457.937	70.62
458.157	85.62
458.377	105.62
458.598	127.62
458.818	180.62
459.038	206.62
459.258	145.62
459.478	85.62
459.698	94.62
459.918	77.62
460.138	81.62
460.358	79.62
460.578	92.62
460.798	92.62
461.018	79.62
461.238	85.62
461.458	94.62
461.678	78.62
461.898	95.62
462.118	66.62
462.338	88.62
462.558	83.62
462.777	76.62
462.997	72.62
463.217	92.62
463.437	92.62
463.657	90.62
463.876	91.62
464.096	88.62
464.316	82.62
464.536	103.62
464.755	96.62
464.975	121.62
465.195	214.62
465.414	209.62
465.634	100.62
465.854	87.62
466.073	75.62
466.293	101.62
466.512	93.62
466.732	85.62
466.951	88.62
467.171	90.62
467.391	105.62
467.61	100.62
467.829	104.62
468.049	152.62
468.268	185.62
468.488	102.62
468.707	101.62
468.927	94.62
469.146	87.62
469.365	80.62
469.585	98.62
469.804	98.62
470.023	100.62
470.243	95.62
470.462	103.62
470.681	128.62
470.901	94.62
471.12	90.62
471.339	101.62
471.558	91.62
471.777	89.62
471.997	128.62
472.216	227.62
472.435	457.62
472.654	174.62
472.873	95.62
473.092	98.62
473.311	88.62
473.53	86.62
473.749	94.62
473.968	109.62
474.187	122.62
474.406	108.62
474.625	91.62
474.844	75.62
475.063	78.62
475.282	87.62
475.501	79.62
475.72	80.62
475.939	86.62
476.158	70.62
476.377	77.62
476.596	105.62
476.814	91.62
477.033	100.62
477.252	85.62
477.471	77.62
477.69	77.62
477.908	94.62
478.127	93.62
478.346	93.62
478.564	82.62
478.783	109.62
479.002	101.62
479.22	93.62
479.439	101.62
479.658	114.62
479.876	108.62
480.095	91.62
480.313	92.62
480.532	101.62
480.751	114.62
480.969	253.62
481.188	791.62
481.406	535.62
481.624	134.62
481.843	96.62
482.061	89.62
482.28	86.62
482.498	79.62
482.717	84.62
482.935	92.62
483.153	99.62
483.372	91.62
483.59	102.62
483.808	92.62
484.027	84.62
484.245	90.62
484.463	78.62
484.681	104.62
484.9	90.62
485.118	92.62
485.336	95.62
485.554	92.62
485.772	85.62
485.99	103.62
486.209	103.62
486.427	82.62
486.645	111.62
486.863	110.62
487.081	95.62
487.299	96.62
487.517	86.62
487.735	81.62
487.953	79.62
488.171	83.62
488.389	98.62
488.607	98.62
488.825	88.62
489.043	93.62
489.261	96.62
489.479	84.62
489.696	80.62
489.914	86.62
490.132	82.62
490.35	77.62
490.568	83.62
490.786	89.62
491.003	69.62
491.221	81.62
491.439	93.62
491.657	87.62
491.874	96.62
492.092	77.62
492.31	89.62
492.527	88.62
492.745	89.62
492.963	79.62
493.18	93.62
493.398	95.62
493.615	100.62
493.833	99.62
494.05	87.62
494.268	84.62
494.485	93.62
494.703	73.62
494.92	88.62
495.138	85.62
495.355	93.62
495.573	92.62
495.79	80.62
496.008	92.62
496.225	83.62
496.442	93.62
496.66	100.62
496.877	85.62
497.094	81.62
497.312	93.62
497.529	74.62
497.746	103.62
497.963	108.62
498.181	92.62
498.398	109.62
498.615	110.62
498.832	103.62
499.049	99.62
499.267	86.62
499.484	95.62
499.701	92.62
499.918	103.62
500.135	95.62
500.352	84.62
500.569	87.62
500.786	106.62
501.003	84.62
501.22	74.62
501.437	86.62
501.654	95.62
501.871	98.62
502.088	91.62
502.305	90.62
502.522	85.62
502.739	92.62
502.956	89.62
503.172	103.62
503.389	101.62
503.606	104.62
503.823	101.62
504.04	80.62
504.256	91.62
504.473	81.62
504.69	90.62
504.907	86.62
505.123	84.62
505.34	93.62
505.557	84.62
505.773	77.62
505.99	89.62
506.207	84.62
506.423	81.62
506.64	109.62
506.856	98.62
507.073	104.62
507.289	96.62
507.506	105.62
507.722	123.62
507.939	128.62
508.155	94.62
508.372	81.62
508.588	81.62
508.805	94.62
509.021	99.62
509.238	102.62
509.454	112.62
509.67	109.62
509.887	102.62
510.103	136.62
510.319	240.62
510.536	914.62
510.752	3146.62
510.968	923.62
511.184	176.62
511.401	126.62
511.617	101.62
511.833	99.62
512.049	83.62
512.265	88.62
512.481	86.62
512.698	87.62
512.914	72.62
513.13	82.62
513.346	88.62
513.562	88.62
513.778	111.62
513.994	108.62
514.21	113.62
514.426	125.62
514.642	166.62
514.858	160.62
515.074	208.62
