Data from Circ_2022_H10_HRD10591_00068.txt Node
Date: Wed Jan 03 09:53:51 EST 2024
User: Yrep
Spectrometer: HR+D1059
Trigger mode: 1
Integration Time (sec): 1.000000E-1
Scans to average: 1
Electric dark correction enabled: true
Nonlinearity correction enabled: false
Boxcar width: 0
XAxis mode: Wavelengths
Number of Pixels in Spectrum: 2048
>>>>>Begin Spectral Data<<<<<
223.165	-22.56
223.4	-22.56
223.635	-22.56
223.869	-14.56
224.104	-19.56
224.338	-12.56
224.573	-3.56
224.808	-19.56
225.042	-4.56
225.277	-9.56
225.511	4.44
225.746	1.44
225.98	2.44
226.215	-2.56
226.449	24.44
226.683	28.44
226.918	27.44
227.152	20.44
227.387	26.44
227.621	48.44
227.856	47.44
228.09	47.44
228.324	55.44
228.559	53.44
228.793	52.44
229.027	59.44
229.262	67.44
229.496	80.44
229.73	88.44
229.964	84.44
230.199	80.44
230.433	68.44
230.667	76.44
230.901	87.44
231.136	76.44
231.37	85.44
231.604	96.44
231.838	89.44
232.072	84.44
232.306	92.44
232.541	96.44
232.775	82.44
233.009	77.44
233.243	93.44
233.477	88.44
233.711	95.44
233.945	77.44
234.179	77.44
234.413	77.44
234.647	84.44
234.881	87.44
235.115	82.44
235.349	81.44
235.583	81.44
235.817	92.44
236.051	72.44
236.285	66.44
236.519	73.44
236.753	73.44
236.987	80.44
237.221	81.44
237.455	96.44
237.689	82.44
237.922	87.44
238.156	95.44
238.39	67.44
238.624	85.44
238.858	77.44
239.091	78.44
239.325	81.44
239.559	83.44
239.793	86.44
240.027	74.44
240.26	84.44
240.494	85.44
240.728	70.44
240.961	71.44
241.195	84.44
241.429	72.44
241.662	66.44
241.896	87.44
242.13	69.44
242.363	75.44
242.597	78.44
242.83	66.44
243.064	95.44
243.298	88.44
243.531	89.44
243.765	77.44
243.998	75.44
244.232	76.44
244.465	73.44
244.699	73.44
244.932	79.44
245.166	75.44
245.399	81.44
245.633	80.44
245.866	78.44
246.099	88.44
246.333	88.44
246.566	89.44
246.8	76.44
247.033	80.44
247.266	73.44
247.5	76.44
247.733	70.44
247.966	76.44
248.2	77.44
248.433	75.44
248.666	84.44
248.899	81.44
249.133	88.44
249.366	97.44
249.599	90.44
249.832	87.44
250.066	88.44
250.299	77.44
250.532	82.44
250.765	76.44
250.998	73.44
251.231	84.44
251.465	80.44
251.698	76.44
251.931	80.44
252.164	85.44
252.397	79.44
252.63	72.44
252.863	85.44
253.096	79.44
253.329	88.44
253.562	75.44
253.795	86.44
254.028	86.44
254.261	86.44
254.494	87.44
254.727	91.44
254.96	77.44
255.193	86.44
255.426	85.44
255.659	88.44
255.892	83.44
256.124	83.44
256.357	79.44
256.59	76.44
256.823	75.44
257.056	76.44
257.289	82.44
257.521	85.44
257.754	76.44
257.987	87.44
258.22	80.44
258.452	79.44
258.685	92.44
258.918	84.44
259.151	92.44
259.383	71.44
259.616	88.44
259.849	90.44
260.081	84.44
260.314	68.44
260.547	76.44
260.779	81.44
261.012	89.44
261.244	100.44
261.477	91.44
261.71	85.44
261.942	110.44
262.175	124.44
262.407	93.44
262.64	97.44
262.872	80.44
263.105	75.44
263.337	82.44
263.57	78.44
263.802	88.44
264.035	86.44
264.267	80.44
264.499	90.44
264.732	75.44
264.964	82.44
265.197	86.44
265.429	83.44
265.661	97.44
265.894	75.44
266.126	77.44
266.358	85.44
266.591	97.44
266.823	87.44
267.055	87.44
267.287	85.44
267.52	74.44
267.752	79.44
267.984	83.44
268.216	99.44
268.448	83.44
268.681	84.44
268.913	82.44
269.145	84.44
269.377	82.44
269.609	81.44
269.841	84.44
270.073	93.44
270.306	76.44
270.538	77.44
270.77	90.44
271.002	77.44
271.234	83.44
271.466	84.44
271.698	85.44
271.93	84.44
272.162	80.44
272.394	90.44
272.626	81.44
272.858	90.44
273.09	75.44
273.322	77.44
273.553	89.44
273.785	85.44
274.017	83.44
274.249	86.44
274.481	95.44
274.713	88.44
274.945	76.44
275.176	89.44
275.408	92.44
275.64	96.44
275.872	91.44
276.104	85.44
276.335	93.44
276.567	93.44
276.799	106.44
277.031	102.44
277.262	96.44
277.494	94.44
277.726	92.44
277.957	90.44
278.189	101.44
278.421	99.44
278.652	91.44
278.884	88.44
279.115	77.44
279.347	77.44
279.579	89.44
279.81	82.44
280.042	97.44
280.273	94.44
280.505	88.44
280.736	90.44
280.968	99.44
281.199	90.44
281.431	76.44
281.662	82.44
281.894	97.44
282.125	97.44
282.356	119.44
282.588	168.44
282.819	132.44
283.051	87.44
283.282	87.44
283.513	90.44
283.745	82.44
283.976	89.44
284.207	102.44
284.439	93.44
284.67	79.44
284.901	84.44
285.132	82.44
285.364	99.44
285.595	91.44
285.826	90.44
286.057	88.44
286.288	90.44
286.52	82.44
286.751	88.44
286.982	92.44
287.213	93.44
287.444	93.44
287.675	87.44
287.906	88.44
288.138	83.44
288.369	91.44
288.6	95.44
288.831	89.44
289.062	86.44
289.293	97.44
289.524	89.44
289.755	84.44
289.986	77.44
290.217	89.44
290.448	86.44
290.679	100.44
290.91	78.44
291.141	88.44
291.371	96.44
291.602	91.44
291.833	88.44
292.064	92.44
292.295	91.44
292.526	83.44
292.757	90.44
292.987	89.44
293.218	91.44
293.449	72.44
293.68	75.44
293.91	100.44
294.141	90.44
294.372	87.44
294.603	83.44
294.833	94.44
295.064	99.44
295.295	91.44
295.525	87.44
295.756	109.44
295.987	120.44
296.217	137.44
296.448	136.44
296.679	101.44
296.909	98.44
297.14	96.44
297.37	71.44
297.601	91.44
297.831	96.44
298.062	89.44
298.292	77.44
298.523	97.44
298.753	83.44
298.984	75.44
299.214	88.44
299.445	91.44
299.675	95.44
299.905	117.44
300.136	87.44
300.366	98.44
300.597	81.44
300.827	101.44
301.057	93.44
301.288	101.44
301.518	106.44
301.748	89.44
301.979	92.44
302.209	96.44
302.439	111.44
302.669	83.44
302.9	95.44
303.13	100.44
303.36	101.44
303.59	111.44
303.82	117.44
304.051	100.44
304.281	95.44
304.511	100.44
304.741	92.44
304.971	91.44
305.201	100.44
305.431	87.44
305.661	87.44
305.891	83.44
306.121	91.44
306.352	111.44
306.582	105.44
306.812	102.44
307.042	88.44
307.272	97.44
307.502	108.44
307.731	123.44
307.961	92.44
308.191	77.44
308.421	81.44
308.651	79.44
308.881	82.44
309.111	90.44
309.341	113.44
309.571	103.44
309.8	105.44
310.03	103.44
310.26	93.44
310.49	91.44
310.72	99.44
310.949	103.44
311.179	105.44
311.409	82.44
311.639	102.44
311.868	91.44
312.098	87.44
312.328	83.44
312.557	98.44
312.787	112.44
313.017	108.44
313.246	79.44
313.476	95.44
313.706	83.44
313.935	108.44
314.165	102.44
314.394	98.44
314.624	97.44
314.853	97.44
315.083	97.44
315.312	85.44
315.542	76.44
315.771	97.44
316.001	76.44
316.23	96.44
316.46	89.44
316.689	96.44
316.919	96.44
317.148	97.44
317.377	103.44
317.607	102.44
317.836	88.44
318.065	83.44
318.295	97.44
318.524	95.44
318.753	95.44
318.983	100.44
319.212	101.44
319.441	127.44
319.67	121.44
319.9	111.44
320.129	95.44
320.358	91.44
320.587	91.44
320.816	100.44
321.046	100.44
321.275	88.44
321.504	90.44
321.733	111.44
321.962	87.44
322.191	95.44
322.42	98.44
322.649	108.44
322.878	116.44
323.108	120.44
323.337	136.44
323.566	134.44
323.795	154.44
324.024	218.44
324.253	421.44
324.482	895.44
324.71	1828.44
324.939	2429.44
325.168	910.44
325.397	259.44
325.626	157.44
325.855	135.44
326.084	121.44
326.313	141.44
326.542	156.44
326.77	262.44
326.999	497.44
327.228	972.44
327.457	1802.44
327.686	1440.44
327.914	413.44
328.143	227.44
328.372	187.44
328.6	148.44
328.829	131.44
329.058	147.44
329.287	142.44
329.515	127.44
329.744	120.44
329.972	129.44
330.201	192.44
330.43	231.44
330.658	163.44
330.887	161.44
331.115	154.44
331.344	115.44
331.572	94.44
331.801	117.44
332.03	103.44
332.258	113.44
332.486	82.44
332.715	98.44
332.943	91.44
333.172	102.44
333.4	88.44
333.629	107.44
333.857	123.44
334.085	144.44
334.314	172.44
334.542	267.44
334.771	241.44
334.999	146.44
335.227	105.44
335.455	95.44
335.684	107.44
335.912	92.44
336.14	105.44
336.369	91.44
336.597	95.44
336.825	98.44
337.053	79.44
337.281	87.44
337.51	87.44
337.738	97.44
337.966	100.44
338.194	86.44
338.422	105.44
338.65	87.44
338.878	84.44
339.106	105.44
339.334	95.44
339.562	100.44
339.79	97.44
340.018	84.44
340.246	72.44
340.474	92.44
340.702	115.44
340.93	83.44
341.158	91.44
341.386	104.44
341.614	102.44
341.842	95.44
342.07	83.44
342.298	100.44
342.526	80.44
342.754	98.44
342.981	93.44
343.209	90.44
343.437	104.44
343.665	95.44
343.893	84.44
344.12	86.44
344.348	90.44
344.576	97.44
344.804	111.44
345.031	101.44
345.259	77.44
345.487	92.44
345.714	101.44
345.942	93.44
346.17	119.44
346.397	94.44
346.625	106.44
346.853	96.44
347.08	87.44
347.308	99.44
347.535	106.44
347.763	96.44
347.99	103.44
348.218	109.44
348.445	100.44
348.673	98.44
348.9	92.44
349.128	96.44
349.355	96.44
349.583	101.44
349.81	97.44
350.037	104.44
350.265	98.44
350.492	83.44
350.72	94.44
350.947	106.44
351.174	111.44
351.402	102.44
351.629	89.44
351.856	103.44
352.083	113.44
352.311	106.44
352.538	113.44
352.765	106.44
352.992	125.44
353.22	113.44
353.447	107.44
353.674	101.44
353.901	103.44
354.128	98.44
354.355	95.44
354.583	103.44
354.81	97.44
355.037	100.44
355.264	102.44
355.491	104.44
355.718	95.44
355.945	96.44
356.172	94.44
356.399	95.44
356.626	97.44
356.853	87.44
357.08	98.44
357.307	96.44
357.534	90.44
357.761	78.44
357.988	95.44
358.215	106.44
358.441	93.44
358.668	88.44
358.895	78.44
359.122	90.44
359.349	86.44
359.576	79.44
359.802	123.44
360.029	116.44
360.256	114.44
360.483	96.44
360.709	96.44
360.936	87.44
361.163	89.44
361.39	83.44
361.616	96.44
361.843	96.44
362.07	72.44
362.296	103.44
362.523	106.44
362.749	103.44
362.976	100.44
363.203	91.44
363.429	92.44
363.656	89.44
363.882	103.44
364.109	90.44
364.335	82.44
364.562	99.44
364.788	85.44
365.015	103.44
365.241	121.44
365.468	123.44
365.694	120.44
365.92	108.44
366.147	80.44
366.373	72.44
366.599	92.44
366.826	102.44
367.052	82.44
367.278	94.44
367.505	97.44
367.731	89.44
367.957	102.44
368.184	90.44
368.41	86.44
368.636	109.44
368.862	118.44
369.089	115.44
369.315	83.44
369.541	87.44
369.767	88.44
369.993	77.44
370.219	100.44
370.445	92.44
370.672	105.44
370.898	92.44
371.124	94.44
371.35	97.44
371.576	92.44
371.802	89.44
372.028	90.44
372.254	91.44
372.48	101.44
372.706	90.44
372.932	85.44
373.158	86.44
373.384	90.44
373.61	95.44
373.835	87.44
374.061	90.44
374.287	99.44
374.513	94.44
374.739	91.44
374.965	107.44
375.191	89.44
375.416	84.44
375.642	89.44
375.868	80.44
376.094	79.44
376.319	83.44
376.545	85.44
376.771	76.44
376.997	87.44
377.222	97.44
377.448	96.44
377.674	93.44
377.899	90.44
378.125	84.44
378.35	93.44
378.576	88.44
378.802	78.44
379.027	108.44
379.253	96.44
379.478	96.44
379.704	100.44
379.929	83.44
380.155	94.44
380.38	88.44
380.606	90.44
380.831	82.44
381.057	100.44
381.282	102.44
381.507	97.44
381.733	115.44
381.958	95.44
382.184	91.44
382.409	98.44
382.634	105.44
382.86	91.44
383.085	86.44
383.31	91.44
383.535	105.44
383.761	97.44
383.986	102.44
384.211	95.44
384.436	97.44
384.662	98.44
384.887	100.44
385.112	99.44
385.337	93.44
385.562	103.44
385.787	90.44
386.013	113.44
386.238	112.44
386.463	111.44
386.688	99.44
386.913	106.44
387.138	88.44
387.363	92.44
387.588	80.44
387.813	93.44
388.038	107.44
388.263	115.44
388.488	121.44
388.713	92.44
388.938	98.44
389.163	91.44
389.387	93.44
389.612	103.44
389.837	97.44
390.062	86.44
390.287	113.44
390.512	88.44
390.736	104.44
390.961	112.44
391.186	102.44
391.411	92.44
391.636	89.44
391.86	72.44
392.085	92.44
392.31	82.44
392.534	87.44
392.759	78.44
392.984	88.44
393.208	96.44
393.433	91.44
393.658	100.44
393.882	95.44
394.107	95.44
394.331	86.44
394.556	88.44
394.78	81.44
395.005	96.44
395.229	88.44
395.454	88.44
395.678	107.44
395.903	97.44
396.127	101.44
396.352	84.44
396.576	87.44
396.801	98.44
397.025	91.44
397.249	88.44
397.474	92.44
397.698	99.44
397.922	96.44
398.147	86.44
398.371	85.44
398.595	88.44
398.82	97.44
399.044	92.44
399.268	77.44
399.492	83.44
399.717	99.44
399.941	109.44
400.165	97.44
400.389	103.44
400.613	93.44
400.837	96.44
401.062	81.44
401.286	78.44
401.51	75.44
401.734	98.44
401.958	96.44
402.182	123.44
402.406	170.44
402.63	137.44
402.854	115.44
403.078	87.44
403.302	101.44
403.526	103.44
403.75	87.44
403.974	94.44
404.198	90.44
404.422	96.44
404.645	96.44
404.869	87.44
405.093	100.44
405.317	110.44
405.541	107.44
405.765	104.44
405.988	112.44
406.212	187.44
406.436	284.44
406.66	171.44
406.883	106.44
407.107	121.44
407.331	112.44
407.555	104.44
407.778	95.44
408.002	97.44
408.226	95.44
408.449	93.44
408.673	86.44
408.896	110.44
409.12	101.44
409.344	84.44
409.567	87.44
409.791	95.44
410.014	98.44
410.238	94.44
410.461	95.44
410.685	86.44
410.908	98.44
411.132	104.44
411.355	113.44
411.578	95.44
411.802	100.44
412.025	90.44
412.249	99.44
412.472	103.44
412.695	111.44
412.919	92.44
413.142	81.44
413.365	87.44
413.589	89.44
413.812	89.44
414.035	98.44
414.258	79.44
414.482	95.44
414.705	91.44
414.928	84.44
415.151	92.44
415.374	92.44
415.597	92.44
415.821	76.44
416.044	100.44
416.267	76.44
416.49	84.44
416.713	86.44
416.936	89.44
417.159	76.44
417.382	88.44
417.605	86.44
417.828	99.44
418.051	81.44
418.274	91.44
418.497	94.44
418.72	99.44
418.943	84.44
419.166	86.44
419.389	82.44
419.611	109.44
419.834	82.44
420.057	80.44
420.28	96.44
420.503	88.44
420.726	77.44
420.948	90.44
421.171	93.44
421.394	100.44
421.617	80.44
421.839	86.44
422.062	104.44
422.285	85.44
422.507	100.44
422.73	100.44
422.953	97.44
423.175	83.44
423.398	96.44
423.621	101.44
423.843	94.44
424.066	82.44
424.288	73.44
424.511	87.44
424.733	102.44
424.956	102.44
425.178	100.44
425.401	108.44
425.623	87.44
425.846	98.44
426.068	95.44
426.291	88.44
426.513	96.44
426.735	91.44
426.958	88.44
427.18	113.44
427.402	143.44
427.625	196.44
427.847	178.44
428.069	140.44
428.292	100.44
428.514	103.44
428.736	97.44
428.958	107.44
429.181	92.44
429.403	84.44
429.625	86.44
429.847	101.44
430.069	107.44
430.292	88.44
430.514	84.44
430.736	87.44
430.958	84.44
431.18	76.44
431.402	87.44
431.624	91.44
431.846	93.44
432.068	99.44
432.29	88.44
432.512	90.44
432.734	74.44
432.956	86.44
433.178	95.44
433.4	99.44
433.622	83.44
433.844	83.44
434.066	100.44
434.287	87.44
434.509	105.44
434.731	83.44
434.953	83.44
435.175	101.44
435.397	90.44
435.618	91.44
435.84	106.44
436.062	117.44
436.284	116.44
436.505	92.44
436.727	96.44
436.949	89.44
437.17	90.44
437.392	84.44
437.614	96.44
437.835	115.44
438.057	119.44
438.278	122.44
438.5	111.44
438.721	119.44
438.943	101.44
439.165	91.44
439.386	87.44
439.608	90.44
439.829	109.44
440.05	131.44
440.272	167.44
440.493	96.44
440.715	94.44
440.936	93.44
441.158	92.44
441.379	95.44
441.6	107.44
441.822	102.44
442.043	92.44
442.264	114.44
442.486	110.44
442.707	104.44
442.928	110.44
443.149	142.44
443.371	138.44
443.592	111.44
443.813	126.44
444.034	115.44
444.255	90.44
444.476	89.44
444.698	86.44
444.919	71.44
445.14	136.44
445.361	120.44
445.582	131.44
445.803	136.44
446.024	136.44
446.245	136.44
446.466	129.44
446.687	90.44
446.908	85.44
447.129	89.44
447.35	87.44
447.571	91.44
447.792	98.44
448.013	107.44
448.234	102.44
448.455	106.44
448.675	116.44
448.896	114.44
449.117	112.44
449.338	115.44
449.559	122.44
449.779	140.44
450	94.44
450.221	84.44
450.442	87.44
450.662	91.44
450.883	114.44
451.104	112.44
451.324	104.44
451.545	104.44
451.766	77.44
451.986	96.44
452.207	100.44
452.428	90.44
452.648	97.44
452.869	118.44
453.089	126.44
453.31	131.44
453.53	90.44
453.751	87.44
453.971	97.44
454.192	118.44
454.412	92.44
454.633	84.44
454.853	84.44
455.073	85.44
455.294	97.44
455.514	96.44
455.734	92.44
455.955	85.44
456.175	74.44
456.395	77.44
456.616	81.44
456.836	90.44
457.056	99.44
457.276	90.44
457.497	96.44
457.717	93.44
457.937	79.44
458.157	83.44
458.377	87.44
458.598	123.44
458.818	170.44
459.038	187.44
459.258	123.44
459.478	88.44
459.698	89.44
459.918	80.44
460.138	80.44
460.358	80.44
460.578	86.44
460.798	90.44
461.018	84.44
461.238	91.44
461.458	75.44
461.678	97.44
461.898	89.44
462.118	84.44
462.338	84.44
462.558	86.44
462.777	92.44
462.997	98.44
463.217	90.44
463.437	88.44
463.657	76.44
463.876	81.44
464.096	83.44
464.316	111.44
464.536	91.44
464.755	96.44
464.975	112.44
465.195	181.44
465.414	179.44
465.634	95.44
465.854	86.44
466.073	85.44
466.293	81.44
466.512	88.44
466.732	89.44
466.951	92.44
467.171	100.44
467.391	105.44
467.61	99.44
467.829	101.44
468.049	148.44
468.268	149.44
468.488	106.44
468.707	107.44
468.927	84.44
469.146	75.44
469.365	83.44
469.585	87.44
469.804	98.44
470.023	108.44
470.243	89.44
470.462	116.44
470.681	123.44
470.901	95.44
471.12	88.44
471.339	83.44
471.558	91.44
471.777	98.44
471.997	103.44
472.216	180.44
472.435	311.44
472.654	149.44
472.873	103.44
473.092	90.44
473.311	82.44
473.53	73.44
473.749	96.44
473.968	99.44
474.187	117.44
474.406	114.44
474.625	87.44
474.844	96.44
475.063	90.44
475.282	79.44
475.501	76.44
475.72	101.44
475.939	90.44
476.158	83.44
476.377	87.44
476.596	87.44
476.814	99.44
477.033	97.44
477.252	95.44
477.471	86.44
477.69	86.44
477.908	92.44
478.127	96.44
478.346	107.44
478.564	92.44
478.783	76.44
479.002	96.44
479.22	105.44
479.439	107.44
479.658	103.44
479.876	108.44
480.095	98.44
480.313	104.44
480.532	86.44
480.751	91.44
480.969	178.44
481.188	518.44
481.406	357.44
481.624	119.44
481.843	89.44
482.061	106.44
482.28	79.44
482.498	95.44
482.717	97.44
482.935	87.44
483.153	89.44
483.372	91.44
483.59	97.44
483.808	113.44
484.027	93.44
484.245	73.44
484.463	90.44
484.681	96.44
484.9	83.44
485.118	93.44
485.336	111.44
485.554	82.44
485.772	111.44
485.99	97.44
486.209	97.44
486.427	98.44
486.645	96.44
486.863	127.44
487.081	96.44
487.299	103.44
487.517	94.44
487.735	104.44
487.953	97.44
488.171	88.44
488.389	107.44
488.607	101.44
488.825	94.44
489.043	92.44
489.261	91.44
489.479	85.44
489.696	66.44
489.914	73.44
490.132	89.44
490.35	88.44
490.568	91.44
490.786	96.44
491.003	87.44
491.221	95.44
491.439	87.44
491.657	93.44
491.874	96.44
492.092	94.44
492.31	93.44
492.527	89.44
492.745	95.44
492.963	87.44
493.18	91.44
493.398	102.44
493.615	72.44
493.833	105.44
494.05	103.44
494.268	85.44
494.485	114.44
494.703	96.44
494.92	100.44
495.138	92.44
495.355	83.44
495.573	84.44
495.79	89.44
496.008	81.44
496.225	80.44
496.442	88.44
496.66	97.44
496.877	90.44
497.094	95.44
497.312	93.44
497.529	93.44
497.746	91.44
497.963	93.44
498.181	92.44
498.398	96.44
498.615	102.44
498.832	82.44
499.049	72.44
499.267	92.44
499.484	93.44
499.701	80.44
499.918	101.44
500.135	95.44
500.352	87.44
500.569	94.44
500.786	97.44
501.003	84.44
501.22	92.44
501.437	91.44
501.654	97.44
501.871	126.44
502.088	107.44
502.305	95.44
502.522	102.44
502.739	92.44
502.956	100.44
503.172	93.44
503.389	100.44
503.606	103.44
503.823	105.44
504.04	96.44
504.256	96.44
504.473	95.44
504.69	96.44
504.907	89.44
505.123	87.44
505.34	91.44
505.557	103.44
505.773	89.44
505.99	89.44
506.207	93.44
506.423	89.44
506.64	83.44
506.856	83.44
507.073	75.44
507.289	95.44
507.506	98.44
507.722	112.44
507.939	129.44
508.155	90.44
508.372	87.44
508.588	85.44
508.805	107.44
509.021	97.44
509.238	113.44
509.454	111.44
509.67	113.44
509.887	121.44
510.103	135.44
510.319	249.44
510.536	908.44
510.752	3121.44
510.968	866.44
511.184	186.44
511.401	114.44
511.617	90.44
511.833	93.44
512.049	96.44
512.265	90.44
512.481	84.44
512.698	95.44
512.914	93.44
513.13	103.44
513.346	91.44
513.562	71.44
513.778	88.44
513.994	103.44
514.21	109.44
514.426	127.44
514.642	155.44
514.858	126.44
