Data from Circ_2022_H10_HRD10591_00062.txt Node
Date: Wed Jan 03 09:53:50 EST 2024
User: Yrep
Spectrometer: HR+D1059
Trigger mode: 1
Integration Time (sec): 1.000000E-1
Scans to average: 1
Electric dark correction enabled: true
Nonlinearity correction enabled: false
Boxcar width: 0
XAxis mode: Wavelengths
Number of Pixels in Spectrum: 2048
>>>>>Begin Spectral Data<<<<<
223.165	-10.19
223.4	-10.19
223.635	-10.19
223.869	-21.19
224.104	-11.19
224.338	-11.19
224.573	-21.19
224.808	-20.19
225.042	-12.19
225.277	-5.19
225.511	3.81
225.746	-6.19
225.98	12.81
226.215	14.81
226.449	6.81
226.683	25.81
226.918	16.81
227.152	37.81
227.387	25.81
227.621	36.81
227.856	44.81
228.09	52.81
228.324	46.81
228.559	46.81
228.793	60.81
229.027	73.81
229.262	73.81
229.496	64.81
229.73	80.81
229.964	93.81
230.199	84.81
230.433	72.81
230.667	79.81
230.901	78.81
231.136	75.81
231.37	89.81
231.604	91.81
231.838	78.81
232.072	83.81
232.306	81.81
232.541	84.81
232.775	76.81
233.009	76.81
233.243	66.81
233.477	86.81
233.711	84.81
233.945	78.81
234.179	74.81
234.413	81.81
234.647	94.81
234.881	82.81
235.115	73.81
235.349	83.81
235.583	73.81
235.817	68.81
236.051	84.81
236.285	83.81
236.519	80.81
236.753	79.81
236.987	62.81
237.221	59.81
237.455	89.81
237.689	86.81
237.922	83.81
238.156	85.81
238.39	82.81
238.624	67.81
238.858	80.81
239.091	81.81
239.325	72.81
239.559	88.81
239.793	86.81
240.027	73.81
240.26	88.81
240.494	91.81
240.728	67.81
240.961	79.81
241.195	74.81
241.429	69.81
241.662	75.81
241.896	70.81
242.13	73.81
242.363	74.81
242.597	72.81
242.83	68.81
243.064	77.81
243.298	79.81
243.531	64.81
243.765	70.81
243.998	75.81
244.232	78.81
244.465	79.81
244.699	79.81
244.932	90.81
245.166	84.81
245.399	71.81
245.633	83.81
245.866	74.81
246.099	75.81
246.333	84.81
246.566	90.81
246.8	76.81
247.033	73.81
247.266	67.81
247.5	68.81
247.733	71.81
247.966	83.81
248.2	85.81
248.433	84.81
248.666	71.81
248.899	74.81
249.133	72.81
249.366	101.81
249.599	89.81
249.832	73.81
250.066	79.81
250.299	91.81
250.532	84.81
250.765	71.81
250.998	72.81
251.231	71.81
251.465	61.81
251.698	71.81
251.931	81.81
252.164	75.81
252.397	77.81
252.63	77.81
252.863	77.81
253.096	86.81
253.329	73.81
253.562	69.81
253.795	98.81
254.028	69.81
254.261	91.81
254.494	86.81
254.727	85.81
254.96	77.81
255.193	69.81
255.426	81.81
255.659	61.81
255.892	83.81
256.124	74.81
256.357	77.81
256.59	67.81
256.823	90.81
257.056	84.81
257.289	86.81
257.521	71.81
257.754	69.81
257.987	82.81
258.22	89.81
258.452	89.81
258.685	81.81
258.918	85.81
259.151	65.81
259.383	88.81
259.616	90.81
259.849	81.81
260.081	74.81
260.314	96.81
260.547	99.81
260.779	81.81
261.012	73.81
261.244	89.81
261.477	84.81
261.71	85.81
261.942	126.81
262.175	139.81
262.407	84.81
262.64	86.81
262.872	88.81
263.105	92.81
263.337	83.81
263.57	86.81
263.802	81.81
264.035	81.81
264.267	70.81
264.499	81.81
264.732	76.81
264.964	82.81
265.197	81.81
265.429	86.81
265.661	75.81
265.894	90.81
266.126	96.81
266.358	83.81
266.591	80.81
266.823	89.81
267.055	89.81
267.287	72.81
267.52	87.81
267.752	82.81
267.984	78.81
268.216	82.81
268.448	94.81
268.681	84.81
268.913	79.81
269.145	90.81
269.377	78.81
269.609	79.81
269.841	83.81
270.073	77.81
270.306	81.81
270.538	79.81
270.77	93.81
271.002	85.81
271.234	100.81
271.466	106.81
271.698	76.81
271.93	87.81
272.162	75.81
272.394	80.81
272.626	88.81
272.858	81.81
273.09	71.81
273.322	91.81
273.553	77.81
273.785	89.81
274.017	84.81
274.249	70.81
274.481	78.81
274.713	84.81
274.945	86.81
275.176	82.81
275.408	89.81
275.64	87.81
275.872	93.81
276.104	82.81
276.335	89.81
276.567	96.81
276.799	120.81
277.031	108.81
277.262	92.81
277.494	89.81
277.726	74.81
277.957	96.81
278.189	73.81
278.421	83.81
278.652	87.81
278.884	84.81
279.115	69.81
279.347	86.81
279.579	91.81
279.81	92.81
280.042	77.81
280.273	88.81
280.505	87.81
280.736	92.81
280.968	80.81
281.199	88.81
281.431	80.81
281.662	77.81
281.894	86.81
282.125	97.81
282.356	131.81
282.588	166.81
282.819	140.81
283.051	89.81
283.282	73.81
283.513	79.81
283.745	88.81
283.976	88.81
284.207	90.81
284.439	86.81
284.67	82.81
284.901	93.81
285.132	84.81
285.364	80.81
285.595	80.81
285.826	85.81
286.057	85.81
286.288	98.81
286.52	81.81
286.751	89.81
286.982	78.81
287.213	79.81
287.444	82.81
287.675	109.81
287.906	87.81
288.138	86.81
288.369	103.81
288.6	87.81
288.831	85.81
289.062	88.81
289.293	86.81
289.524	84.81
289.755	88.81
289.986	78.81
290.217	84.81
290.448	82.81
290.679	77.81
290.91	69.81
291.141	94.81
291.371	102.81
291.602	91.81
291.833	79.81
292.064	68.81
292.295	87.81
292.526	95.81
292.757	90.81
292.987	81.81
293.218	82.81
293.449	90.81
293.68	83.81
293.91	99.81
294.141	88.81
294.372	83.81
294.603	94.81
294.833	74.81
295.064	97.81
295.295	94.81
295.525	93.81
295.756	112.81
295.987	148.81
296.217	161.81
296.448	137.81
296.679	97.81
296.909	89.81
297.14	97.81
297.37	88.81
297.601	94.81
297.831	85.81
298.062	96.81
298.292	97.81
298.523	101.81
298.753	71.81
298.984	97.81
299.214	70.81
299.445	92.81
299.675	104.81
299.905	95.81
300.136	74.81
300.366	112.81
300.597	88.81
300.827	82.81
301.057	124.81
301.288	112.81
301.518	106.81
301.748	84.81
301.979	97.81
302.209	98.81
302.439	96.81
302.669	90.81
302.9	79.81
303.13	94.81
303.36	90.81
303.59	103.81
303.82	102.81
304.051	89.81
304.281	90.81
304.511	92.81
304.741	98.81
304.971	86.81
305.201	109.81
305.431	87.81
305.661	93.81
305.891	81.81
306.121	104.81
306.352	127.81
306.582	119.81
306.812	89.81
307.042	95.81
307.272	84.81
307.502	101.81
307.731	94.81
307.961	101.81
308.191	82.81
308.421	88.81
308.651	97.81
308.881	93.81
309.111	78.81
309.341	105.81
309.571	87.81
309.8	99.81
310.03	112.81
310.26	101.81
310.49	92.81
310.72	108.81
310.949	98.81
311.179	97.81
311.409	90.81
311.639	99.81
311.868	78.81
312.098	96.81
312.328	108.81
312.557	95.81
312.787	115.81
313.017	94.81
313.246	91.81
313.476	85.81
313.706	97.81
313.935	112.81
314.165	96.81
314.394	102.81
314.624	104.81
314.853	110.81
315.083	89.81
315.312	81.81
315.542	89.81
315.771	95.81
316.001	90.81
316.23	80.81
316.46	100.81
316.689	108.81
316.919	92.81
317.148	100.81
317.377	101.81
317.607	104.81
317.836	90.81
318.065	84.81
318.295	99.81
318.524	71.81
318.753	103.81
318.983	93.81
319.212	112.81
319.441	112.81
319.67	101.81
319.9	111.81
320.129	106.81
320.358	100.81
320.587	100.81
320.816	89.81
321.046	99.81
321.275	99.81
321.504	90.81
321.733	105.81
321.962	108.81
322.191	114.81
322.42	119.81
322.649	120.81
322.878	118.81
323.108	137.81
323.337	124.81
323.566	143.81
323.795	177.81
324.024	242.81
324.253	474.81
324.482	1052.81
324.71	2148.81
324.939	2839.81
325.168	1041.81
325.397	284.81
325.626	168.81
325.855	142.81
326.084	143.81
326.313	143.81
326.542	156.81
326.77	269.81
326.999	548.81
327.228	1128.81
327.457	2072.81
327.686	1620.81
327.914	452.81
328.143	240.81
328.372	175.81
328.6	146.81
328.829	138.81
329.058	150.81
329.287	135.81
329.515	145.81
329.744	117.81
329.972	135.81
330.201	173.81
330.43	205.81
330.658	169.81
330.887	175.81
331.115	146.81
331.344	119.81
331.572	99.81
331.801	101.81
332.03	105.81
332.258	96.81
332.486	101.81
332.715	92.81
332.943	100.81
333.172	89.81
333.4	106.81
333.629	124.81
333.857	136.81
334.085	147.81
334.314	186.81
334.542	231.81
334.771	215.81
334.999	137.81
335.227	85.81
335.455	101.81
335.684	103.81
335.912	92.81
336.14	96.81
336.369	104.81
336.597	96.81
336.825	97.81
337.053	91.81
337.281	99.81
337.51	95.81
337.738	88.81
337.966	102.81
338.194	93.81
338.422	96.81
338.65	93.81
338.878	88.81
339.106	83.81
339.334	85.81
339.562	91.81
339.79	91.81
340.018	90.81
340.246	83.81
340.474	95.81
340.702	86.81
340.93	96.81
341.158	88.81
341.386	88.81
341.614	111.81
341.842	101.81
342.07	84.81
342.298	97.81
342.526	96.81
342.754	84.81
342.981	93.81
343.209	89.81
343.437	98.81
343.665	82.81
343.893	88.81
344.12	93.81
344.348	89.81
344.576	93.81
344.804	93.81
345.031	90.81
345.259	110.81
345.487	87.81
345.714	97.81
345.942	84.81
346.17	96.81
346.397	99.81
346.625	98.81
346.853	95.81
347.08	82.81
347.308	95.81
347.535	97.81
347.763	101.81
347.99	86.81
348.218	107.81
348.445	119.81
348.673	121.81
348.9	104.81
349.128	94.81
349.355	91.81
349.583	90.81
349.81	94.81
350.037	100.81
350.265	82.81
350.492	86.81
350.72	99.81
350.947	103.81
351.174	116.81
351.402	122.81
351.629	101.81
351.856	98.81
352.083	97.81
352.311	108.81
352.538	114.81
352.765	133.81
352.992	116.81
353.22	113.81
353.447	109.81
353.674	85.81
353.901	81.81
354.128	86.81
354.355	73.81
354.583	108.81
354.81	95.81
355.037	98.81
355.264	93.81
355.491	80.81
355.718	86.81
355.945	80.81
356.172	85.81
356.399	96.81
356.626	103.81
356.853	94.81
357.08	87.81
357.307	85.81
357.534	105.81
357.761	90.81
357.988	90.81
358.215	99.81
358.441	93.81
358.668	100.81
358.895	84.81
359.122	87.81
359.349	97.81
359.576	79.81
359.802	89.81
360.029	148.81
360.256	112.81
360.483	129.81
360.709	83.81
360.936	96.81
361.163	100.81
361.39	106.81
361.616	108.81
361.843	84.81
362.07	110.81
362.296	85.81
362.523	105.81
362.749	90.81
362.976	83.81
363.203	98.81
363.429	84.81
363.656	84.81
363.882	75.81
364.109	92.81
364.335	80.81
364.562	79.81
364.788	92.81
365.015	98.81
365.241	96.81
365.468	118.81
365.694	120.81
365.92	90.81
366.147	110.81
366.373	81.81
366.599	87.81
366.826	93.81
367.052	88.81
367.278	98.81
367.505	90.81
367.731	84.81
367.957	95.81
368.184	92.81
368.41	99.81
368.636	124.81
368.862	129.81
369.089	103.81
369.315	93.81
369.541	90.81
369.767	82.81
369.993	94.81
370.219	96.81
370.445	80.81
370.672	79.81
370.898	91.81
371.124	93.81
371.35	88.81
371.576	91.81
371.802	99.81
372.028	88.81
372.254	91.81
372.48	97.81
372.706	78.81
372.932	80.81
373.158	86.81
373.384	84.81
373.61	84.81
373.835	85.81
374.061	77.81
374.287	84.81
374.513	93.81
374.739	73.81
374.965	63.81
375.191	74.81
375.416	85.81
375.642	95.81
375.868	85.81
376.094	79.81
376.319	85.81
376.545	90.81
376.771	90.81
376.997	76.81
377.222	68.81
377.448	79.81
377.674	87.81
377.899	87.81
378.125	90.81
378.35	92.81
378.576	96.81
378.802	78.81
379.027	78.81
379.253	87.81
379.478	101.81
379.704	83.81
379.929	96.81
380.155	84.81
380.38	92.81
380.606	79.81
380.831	99.81
381.057	92.81
381.282	93.81
381.507	87.81
381.733	95.81
381.958	99.81
382.184	96.81
382.409	97.81
382.634	105.81
382.86	97.81
383.085	84.81
383.31	101.81
383.535	110.81
383.761	102.81
383.986	97.81
384.211	85.81
384.436	92.81
384.662	84.81
384.887	95.81
385.112	110.81
385.337	102.81
385.562	103.81
385.787	96.81
386.013	108.81
386.238	126.81
386.463	107.81
386.688	105.81
386.913	83.81
387.138	87.81
387.363	93.81
387.588	97.81
387.813	105.81
388.038	86.81
388.263	99.81
388.488	79.81
388.713	108.81
388.938	87.81
389.163	102.81
389.387	95.81
389.612	91.81
389.837	82.81
390.062	95.81
390.287	92.81
390.512	83.81
390.736	85.81
390.961	90.81
391.186	89.81
391.411	93.81
391.636	95.81
391.86	77.81
392.085	79.81
392.31	91.81
392.534	85.81
392.759	92.81
392.984	85.81
393.208	103.81
393.433	81.81
393.658	80.81
393.882	88.81
394.107	83.81
394.331	90.81
394.556	84.81
394.78	77.81
395.005	81.81
395.229	89.81
395.454	95.81
395.678	93.81
395.903	86.81
396.127	93.81
396.352	85.81
396.576	80.81
396.801	93.81
397.025	87.81
397.249	80.81
397.474	91.81
397.698	77.81
397.922	78.81
398.147	70.81
398.371	78.81
398.595	74.81
398.82	82.81
399.044	108.81
399.268	83.81
399.492	71.81
399.717	80.81
399.941	77.81
400.165	92.81
400.389	64.81
400.613	98.81
400.837	99.81
401.062	85.81
401.286	102.81
401.51	94.81
401.734	95.81
401.958	127.81
402.182	153.81
402.406	185.81
402.63	148.81
402.854	81.81
403.078	99.81
403.302	78.81
403.526	88.81
403.75	90.81
403.974	80.81
404.198	71.81
404.422	84.81
404.645	85.81
404.869	91.81
405.093	102.81
405.317	108.81
405.541	116.81
405.765	88.81
405.988	136.81
406.212	227.81
406.436	320.81
406.66	171.81
406.883	113.81
407.107	101.81
407.331	98.81
407.555	104.81
407.778	93.81
408.002	95.81
408.226	83.81
408.449	82.81
408.673	80.81
408.896	86.81
409.12	98.81
409.344	82.81
409.567	103.81
409.791	77.81
410.014	103.81
410.238	96.81
410.461	85.81
410.685	101.81
410.908	103.81
411.132	101.81
411.355	86.81
411.578	88.81
411.802	77.81
412.025	87.81
412.249	100.81
412.472	88.81
412.695	98.81
412.919	80.81
413.142	85.81
413.365	66.81
413.589	79.81
413.812	74.81
414.035	89.81
414.258	101.81
414.482	95.81
414.705	90.81
414.928	94.81
415.151	87.81
415.374	88.81
415.597	87.81
415.821	78.81
416.044	82.81
416.267	89.81
416.49	78.81
416.713	78.81
416.936	82.81
417.159	88.81
417.382	74.81
417.605	86.81
417.828	88.81
418.051	80.81
418.274	73.81
418.497	98.81
418.72	83.81
418.943	84.81
419.166	91.81
419.389	81.81
419.611	89.81
419.834	90.81
420.057	90.81
420.28	74.81
420.503	90.81
420.726	82.81
420.948	84.81
421.171	90.81
421.394	99.81
421.617	79.81
421.839	82.81
422.062	78.81
422.285	93.81
422.507	97.81
422.73	85.81
422.953	82.81
423.175	81.81
423.398	86.81
423.621	77.81
423.843	86.81
424.066	93.81
424.288	91.81
424.511	89.81
424.733	97.81
424.956	94.81
425.178	97.81
425.401	104.81
425.623	102.81
425.846	84.81
426.068	103.81
426.291	80.81
426.513	89.81
426.735	84.81
426.958	89.81
427.18	112.81
427.402	149.81
427.625	206.81
427.847	158.81
428.069	133.81
428.292	96.81
428.514	89.81
428.736	88.81
428.958	104.81
429.181	86.81
429.403	94.81
429.625	89.81
429.847	81.81
430.069	106.81
430.292	92.81
430.514	89.81
430.736	79.81
430.958	94.81
431.18	90.81
431.402	77.81
431.624	89.81
431.846	80.81
432.068	87.81
432.29	83.81
432.512	82.81
432.734	96.81
432.956	96.81
433.178	93.81
433.4	88.81
433.622	80.81
433.844	97.81
434.066	89.81
434.287	88.81
434.509	85.81
434.731	96.81
434.953	85.81
435.175	91.81
435.397	78.81
435.618	101.81
435.84	89.81
436.062	123.81
436.284	128.81
436.505	89.81
436.727	82.81
436.949	86.81
437.17	80.81
437.392	85.81
437.614	89.81
437.835	102.81
438.057	108.81
438.278	103.81
438.5	105.81
438.721	119.81
438.943	98.81
439.165	96.81
439.386	84.81
439.608	94.81
439.829	96.81
440.05	124.81
440.272	152.81
440.493	94.81
440.715	92.81
440.936	89.81
441.158	88.81
441.379	85.81
441.6	86.81
441.822	80.81
442.043	86.81
442.264	102.81
442.486	73.81
442.707	101.81
442.928	110.81
443.149	151.81
443.371	150.81
443.592	114.81
443.813	118.81
444.034	115.81
444.255	81.81
444.476	82.81
444.698	81.81
444.919	90.81
445.14	125.81
445.361	124.81
445.582	133.81
445.803	149.81
446.024	143.81
446.245	135.81
446.466	118.81
446.687	93.81
446.908	87.81
447.129	91.81
447.35	81.81
447.571	82.81
447.792	93.81
448.013	113.81
448.234	110.81
448.455	99.81
448.675	96.81
448.896	130.81
449.117	100.81
449.338	112.81
449.559	112.81
449.779	124.81
450	83.81
450.221	84.81
450.442	72.81
450.662	93.81
450.883	102.81
451.104	110.81
451.324	96.81
451.545	88.81
451.766	80.81
451.986	84.81
452.207	94.81
452.428	98.81
452.648	107.81
452.869	129.81
453.089	131.81
453.31	119.81
453.53	100.81
453.751	98.81
453.971	115.81
454.192	128.81
454.412	95.81
454.633	92.81
454.853	88.81
455.073	79.81
455.294	94.81
455.514	108.81
455.734	87.81
455.955	87.81
456.175	89.81
456.395	82.81
456.616	92.81
456.836	89.81
457.056	79.81
457.276	80.81
457.497	91.81
457.717	86.81
457.937	88.81
458.157	90.81
458.377	84.81
458.598	127.81
458.818	184.81
459.038	208.81
459.258	135.81
459.478	90.81
459.698	82.81
459.918	86.81
460.138	86.81
460.358	62.81
460.578	82.81
460.798	83.81
461.018	70.81
461.238	87.81
461.458	92.81
461.678	93.81
461.898	96.81
462.118	86.81
462.338	82.81
462.558	76.81
462.777	87.81
462.997	94.81
463.217	98.81
463.437	90.81
463.657	99.81
463.876	95.81
464.096	86.81
464.316	83.81
464.536	98.81
464.755	93.81
464.975	126.81
465.195	206.81
465.414	207.81
465.634	94.81
465.854	80.81
466.073	84.81
466.293	87.81
466.512	84.81
466.732	77.81
466.951	87.81
467.171	96.81
467.391	120.81
467.61	124.81
467.829	89.81
468.049	121.81
468.268	142.81
468.488	79.81
468.707	81.81
468.927	77.81
469.146	80.81
469.365	88.81
469.585	107.81
469.804	101.81
470.023	102.81
470.243	109.81
470.462	99.81
470.681	128.81
470.901	101.81
471.12	92.81
471.339	85.81
471.558	80.81
471.777	92.81
471.997	92.81
472.216	169.81
472.435	270.81
472.654	128.81
472.873	88.81
473.092	86.81
473.311	78.81
473.53	80.81
473.749	84.81
473.968	103.81
474.187	98.81
474.406	92.81
474.625	85.81
474.844	100.81
475.063	90.81
475.282	83.81
475.501	84.81
475.72	98.81
475.939	76.81
476.158	84.81
476.377	73.81
476.596	81.81
476.814	79.81
477.033	88.81
477.252	77.81
477.471	84.81
477.69	90.81
477.908	84.81
478.127	84.81
478.346	88.81
478.564	94.81
478.783	95.81
479.002	98.81
479.22	100.81
479.439	101.81
479.658	111.81
479.876	109.81
480.095	98.81
480.313	99.81
480.532	95.81
480.751	99.81
480.969	176.81
481.188	446.81
481.406	300.81
481.624	109.81
481.843	96.81
482.061	89.81
482.28	97.81
482.498	87.81
482.717	85.81
482.935	81.81
483.153	87.81
483.372	78.81
483.59	87.81
483.808	87.81
484.027	79.81
484.245	85.81
484.463	98.81
484.681	106.81
484.9	78.81
485.118	86.81
485.336	88.81
485.554	86.81
485.772	92.81
485.99	87.81
486.209	103.81
486.427	93.81
486.645	110.81
486.863	114.81
487.081	92.81
487.299	87.81
487.517	80.81
487.735	90.81
487.953	104.81
488.171	100.81
488.389	102.81
488.607	102.81
488.825	103.81
489.043	87.81
489.261	93.81
489.479	80.81
489.696	87.81
489.914	85.81
490.132	87.81
490.35	84.81
490.568	84.81
490.786	87.81
491.003	81.81
491.221	85.81
491.439	89.81
491.657	86.81
491.874	84.81
492.092	88.81
492.31	83.81
492.527	90.81
492.745	84.81
492.963	90.81
493.18	69.81
493.398	102.81
493.615	88.81
493.833	89.81
494.05	101.81
494.268	87.81
494.485	96.81
494.703	84.81
494.92	82.81
495.138	103.81
495.355	89.81
495.573	95.81
495.79	95.81
496.008	88.81
496.225	82.81
496.442	92.81
496.66	104.81
496.877	82.81
497.094	77.81
497.312	101.81
497.529	82.81
497.746	85.81
497.963	84.81
498.181	80.81
498.398	101.81
498.615	108.81
498.832	111.81
499.049	96.81
499.267	99.81
499.484	104.81
499.701	88.81
499.918	88.81
500.135	91.81
500.352	98.81
500.569	79.81
500.786	84.81
501.003	91.81
501.22	96.81
501.437	94.81
501.654	88.81
501.871	115.81
502.088	100.81
502.305	86.81
502.522	92.81
502.739	99.81
502.956	99.81
503.172	89.81
503.389	100.81
503.606	106.81
503.823	105.81
504.04	93.81
504.256	83.81
504.473	98.81
504.69	110.81
504.907	87.81
505.123	97.81
505.34	88.81
505.557	48.81
505.773	90.81
505.99	96.81
506.207	97.81
506.423	78.81
506.64	84.81
506.856	99.81
507.073	89.81
507.289	100.81
507.506	100.81
507.722	117.81
507.939	112.81
508.155	105.81
508.372	95.81
508.588	90.81
508.805	102.81
509.021	89.81
509.238	104.81
509.454	95.81
509.67	101.81
509.887	126.81
510.103	160.81
510.319	252.81
510.536	1046.81
510.752	3631.81
510.968	999.81
511.184	211.81
511.401	132.81
511.617	109.81
511.833	85.81
512.049	86.81
512.265	100.81
512.481	89.81
512.698	97.81
512.914	85.81
513.13	100.81
513.346	102.81
513.562	83.81
513.778	93.81
513.994	101.81
514.21	114.81
514.426	128.81
514.642	166.81
514.858	145.81
515.074	206.81
515.29	693.81
515.506	2421.81
