Data from Circ_2022_H10_HRD10591_00002.txt Node
Date: Wed Jan 03 09:53:38 EST 2024
User: Yrep
Spectrometer: HR+D1059
Trigger mode: 1
Integration Time (sec): 1.000000E-1
Scans to average: 1
Electric dark correction enabled: true
Nonlinearity correction enabled: false
Boxcar width: 0
XAxis mode: Wavelengths
Number of Pixels in Spectrum: 2048
>>>>>Begin Spectral Data<<<<<
223.165	-9
223.4	-9
223.635	-9
223.869	-27
224.104	-20
224.338	-31
224.573	-18
224.808	-7
225.042	-10
225.277	-3
225.511	-2
225.746	5
225.98	0
226.215	11
226.449	8
226.683	42
226.918	30
227.152	31
227.387	53
227.621	30
227.856	38
228.09	37
228.324	46
228.559	49
228.793	52
229.027	68
229.262	72
229.496	66
229.73	87
229.964	81
230.199	71
230.433	73
230.667	72
230.901	81
231.136	70
231.37	82
231.604	67
231.838	71
232.072	67
232.306	71
232.541	68
232.775	73
233.009	83
233.243	89
233.477	81
233.711	82
233.945	72
234.179	79
234.413	81
234.647	87
234.881	69
235.115	89
235.349	72
235.583	84
235.817	75
236.051	55
236.285	67
236.519	79
236.753	75
236.987	74
237.221	89
237.455	69
237.689	82
237.922	65
238.156	50
238.39	67
238.624	78
238.858	70
239.091	67
239.325	91
239.559	64
239.793	87
240.027	81
240.26	69
240.494	69
240.728	71
240.961	79
241.195	77
241.429	81
241.662	71
241.896	60
242.13	75
242.363	71
242.597	64
242.83	82
243.064	86
243.298	63
243.531	79
243.765	74
243.998	80
244.232	83
244.465	80
244.699	75
244.932	73
245.166	73
245.399	75
245.633	83
245.866	72
246.099	75
246.333	79
246.566	69
246.8	80
247.033	79
247.266	63
247.5	71
247.733	70
247.966	54
248.2	72
248.433	90
248.666	88
248.899	78
249.133	74
249.366	86
249.599	94
249.832	83
250.066	88
250.299	80
250.532	66
250.765	87
250.998	75
251.231	88
251.465	79
251.698	69
251.931	61
252.164	75
252.397	79
252.63	66
252.863	66
253.096	61
253.329	87
253.562	98
253.795	97
254.028	85
254.261	85
254.494	81
254.727	73
254.96	71
255.193	81
255.426	72
255.659	65
255.892	77
256.124	81
256.357	74
256.59	84
256.823	80
257.056	71
257.289	90
257.521	86
257.754	77
257.987	76
258.22	79
258.452	85
258.685	84
258.918	100
259.151	78
259.383	79
259.616	81
259.849	74
260.081	89
260.314	80
260.547	69
260.779	75
261.012	78
261.244	83
261.477	85
261.71	96
261.942	117
262.175	108
262.407	99
262.64	83
262.872	95
263.105	94
263.337	82
263.57	89
263.802	78
264.035	94
264.267	83
264.499	79
264.732	97
264.964	79
265.197	91
265.429	70
265.661	80
265.894	88
266.126	91
266.358	79
266.591	84
266.823	102
267.055	90
267.287	95
267.52	87
267.752	79
267.984	88
268.216	77
268.448	75
268.681	81
268.913	83
269.145	73
269.377	77
269.609	85
269.841	87
270.073	98
270.306	91
270.538	81
270.77	83
271.002	78
271.234	85
271.466	65
271.698	89
271.93	79
272.162	78
272.394	89
272.626	73
272.858	69
273.09	77
273.322	79
273.553	83
273.785	77
274.017	88
274.249	76
274.481	82
274.713	75
274.945	90
275.176	84
275.408	77
275.64	93
275.872	73
276.104	83
276.335	74
276.567	97
276.799	101
277.031	96
277.262	98
277.494	87
277.726	86
277.957	82
278.189	73
278.421	98
278.652	83
278.884	96
279.115	81
279.347	99
279.579	89
279.81	79
280.042	98
280.273	79
280.505	92
280.736	76
280.968	82
281.199	83
281.431	68
281.662	75
281.894	87
282.125	85
282.356	116
282.588	136
282.819	122
283.051	89
283.282	85
283.513	76
283.745	82
283.976	83
284.207	87
284.439	81
284.67	101
284.901	98
285.132	77
285.364	79
285.595	90
285.826	80
286.057	83
286.288	90
286.52	83
286.751	88
286.982	87
287.213	84
287.444	77
287.675	75
287.906	69
288.138	89
288.369	93
288.6	87
288.831	70
289.062	87
289.293	80
289.524	84
289.755	79
289.986	90
290.217	94
290.448	78
290.679	88
290.91	81
291.141	93
291.371	90
291.602	89
291.833	83
292.064	89
292.295	88
292.526	83
292.757	96
292.987	89
293.218	94
293.449	96
293.68	78
293.91	82
294.141	96
294.372	95
294.603	99
294.833	81
295.064	85
295.295	89
295.525	83
295.756	103
295.987	111
296.217	130
296.448	118
296.679	100
296.909	97
297.14	97
297.37	80
297.601	71
297.831	73
298.062	84
298.292	89
298.523	99
298.753	87
298.984	80
299.214	85
299.445	101
299.675	99
299.905	102
300.136	81
300.366	83
300.597	86
300.827	80
301.057	89
301.288	107
301.518	75
301.748	92
301.979	97
302.209	93
302.439	77
302.669	82
302.9	88
303.13	82
303.36	82
303.59	97
303.82	94
304.051	92
304.281	96
304.511	97
304.741	91
304.971	96
305.201	89
305.431	93
305.661	98
305.891	98
306.121	105
306.352	90
306.582	108
306.812	93
307.042	91
307.272	98
307.502	88
307.731	100
307.961	90
308.191	88
308.421	82
308.651	78
308.881	97
309.111	92
309.341	94
309.571	106
309.8	102
310.03	104
310.26	103
310.49	87
310.72	112
310.949	96
311.179	114
311.409	82
311.639	99
311.868	94
312.098	83
312.328	86
312.557	106
312.787	114
313.017	94
313.246	89
313.476	91
313.706	80
313.935	91
314.165	102
314.394	96
314.624	105
314.853	86
315.083	88
315.312	102
315.542	106
315.771	90
316.001	87
316.23	83
316.46	98
316.689	96
316.919	94
317.148	82
317.377	89
317.607	83
317.836	95
318.065	105
318.295	101
318.524	98
318.753	95
318.983	94
319.212	104
319.441	87
319.67	90
319.9	97
320.129	99
320.358	86
320.587	95
320.816	89
321.046	104
321.275	106
321.504	93
321.733	95
321.962	74
322.191	95
322.42	113
322.649	115
322.878	119
323.108	119
323.337	124
323.566	134
323.795	163
324.024	228
324.253	418
324.482	869
324.71	1828
324.939	2412
325.168	868
325.397	241
325.626	147
325.855	129
326.084	117
326.313	133
326.542	154
326.77	230
326.999	482
327.228	998
327.457	1870
327.686	1471
327.914	406
328.143	199
328.372	157
328.6	123
328.829	137
329.058	128
329.287	133
329.515	106
329.744	105
329.972	102
330.201	107
330.43	110
330.658	124
330.887	146
331.115	122
331.344	99
331.572	85
331.801	103
332.03	103
332.258	94
332.486	91
332.715	83
332.943	82
333.172	99
333.4	86
333.629	109
333.857	107
334.085	109
334.314	109
334.542	103
334.771	88
334.999	75
335.227	102
335.455	94
335.684	97
335.912	110
336.14	105
336.369	97
336.597	100
336.825	98
337.053	95
337.281	98
337.51	103
337.738	95
337.966	93
338.194	98
338.422	114
338.65	83
338.878	99
339.106	98
339.334	95
339.562	89
339.79	83
340.018	85
340.246	84
340.474	78
340.702	78
340.93	90
341.158	91
341.386	91
341.614	96
341.842	106
342.07	85
342.298	93
342.526	97
342.754	88
342.981	96
343.209	95
343.437	81
343.665	87
343.893	109
344.12	80
344.348	81
344.576	87
344.804	74
345.031	95
345.259	95
345.487	92
345.714	93
345.942	89
346.17	87
346.397	95
346.625	90
346.853	104
347.08	88
347.308	99
347.535	86
347.763	101
347.99	93
348.218	92
348.445	94
348.673	95
348.9	89
349.128	81
349.355	104
349.583	99
349.81	79
350.037	82
350.265	98
350.492	88
350.72	88
350.947	96
351.174	111
351.402	116
351.629	100
351.856	98
352.083	96
352.311	113
352.538	101
352.765	101
352.992	106
353.22	120
353.447	105
353.674	102
353.901	93
354.128	88
354.355	100
354.583	104
354.81	95
355.037	109
355.264	97
355.491	101
355.718	93
355.945	88
356.172	86
356.399	98
356.626	93
356.853	91
357.08	96
357.307	90
357.534	100
357.761	90
357.988	117
358.215	104
358.441	104
358.668	85
358.895	93
359.122	108
359.349	95
359.576	87
359.802	111
360.029	126
360.256	111
360.483	92
360.709	101
360.936	86
361.163	83
361.39	91
361.616	100
361.843	82
362.07	93
362.296	110
362.523	88
362.749	93
362.976	104
363.203	95
363.429	99
363.656	87
363.882	80
364.109	87
364.335	90
364.562	89
364.788	88
365.015	91
365.241	95
365.468	101
365.694	96
365.92	98
366.147	84
366.373	98
366.599	91
366.826	88
367.052	92
367.278	93
367.505	96
367.731	88
367.957	88
368.184	93
368.41	105
368.636	113
368.862	125
369.089	100
369.315	88
369.541	81
369.767	97
369.993	97
370.219	86
370.445	100
370.672	97
370.898	79
371.124	89
371.35	95
371.576	78
371.802	76
372.028	85
372.254	94
372.48	93
372.706	86
372.932	98
373.158	90
373.384	96
373.61	89
373.835	101
374.061	91
374.287	107
374.513	98
374.739	83
374.965	90
375.191	82
375.416	95
375.642	107
375.868	89
376.094	102
376.319	80
376.545	91
376.771	95
376.997	99
377.222	82
377.448	96
377.674	85
377.899	86
378.125	95
378.35	81
378.576	99
378.802	85
379.027	97
379.253	89
379.478	99
379.704	91
379.929	92
380.155	100
380.38	91
380.606	85
380.831	102
381.057	101
381.282	91
381.507	82
381.733	90
381.958	112
382.184	97
382.409	105
382.634	109
382.86	101
383.085	104
383.31	101
383.535	109
383.761	114
383.986	114
384.211	112
384.436	99
384.662	110
384.887	109
385.112	119
385.337	114
385.562	116
385.787	118
386.013	122
386.238	134
386.463	110
386.688	117
386.913	117
387.138	125
387.363	127
387.588	114
387.813	133
388.038	132
388.263	127
388.488	127
388.713	104
388.938	82
389.163	83
389.387	105
389.612	104
389.837	96
390.062	84
390.287	89
390.512	87
390.736	87
390.961	88
391.186	94
391.411	84
391.636	88
391.86	99
392.085	102
392.31	79
392.534	81
392.759	80
392.984	69
393.208	81
393.433	113
393.658	108
393.882	83
394.107	75
394.331	96
394.556	91
394.78	89
395.005	87
395.229	88
395.454	75
395.678	94
395.903	87
396.127	88
396.352	81
396.576	89
396.801	94
397.025	85
397.249	85
397.474	90
397.698	93
397.922	95
398.147	78
398.371	79
398.595	65
398.82	92
399.044	92
399.268	91
399.492	81
399.717	86
399.941	84
400.165	94
400.389	99
400.613	84
400.837	72
401.062	86
401.286	99
401.51	91
401.734	86
401.958	98
402.182	122
402.406	173
402.63	121
402.854	98
403.078	96
403.302	93
403.526	84
403.75	88
403.974	100
404.198	90
404.422	89
404.645	103
404.869	97
405.093	81
405.317	93
405.541	98
405.765	100
405.988	123
406.212	166
406.436	234
406.66	148
406.883	101
407.107	97
407.331	93
407.555	103
407.778	80
408.002	90
408.226	87
408.449	93
408.673	87
408.896	92
409.12	106
409.344	87
409.567	87
409.791	97
410.014	99
410.238	90
410.461	87
410.685	81
410.908	109
411.132	89
411.355	95
411.578	97
411.802	94
412.025	89
412.249	92
412.472	90
412.695	89
412.919	83
413.142	78
413.365	98
413.589	91
413.812	89
414.035	93
414.258	81
414.482	91
414.705	85
414.928	99
415.151	91
415.374	93
415.597	89
415.821	93
416.044	93
416.267	88
416.49	83
416.713	96
416.936	93
417.159	77
417.382	90
417.605	93
417.828	106
418.051	80
418.274	89
418.497	90
418.72	84
418.943	81
419.166	80
419.389	85
419.611	94
419.834	97
420.057	83
420.28	92
420.503	74
420.726	87
420.948	74
421.171	87
421.394	94
421.617	99
421.839	105
422.062	81
422.285	101
422.507	98
422.73	97
422.953	114
423.175	100
423.398	65
423.621	81
423.843	73
424.066	83
424.288	88
424.511	103
424.733	82
424.956	99
425.178	90
425.401	98
425.623	106
425.846	105
426.068	94
426.291	86
426.513	88
426.735	100
426.958	97
427.18	111
427.402	129
427.625	175
427.847	125
428.069	106
428.292	88
428.514	89
428.736	82
428.958	81
429.181	79
429.403	89
429.625	94
429.847	87
430.069	97
430.292	87
430.514	88
430.736	82
430.958	83
431.18	81
431.402	83
431.624	98
431.846	76
432.068	93
432.29	77
432.512	111
432.734	86
432.956	74
433.178	91
433.4	89
433.622	88
433.844	97
434.066	85
434.287	96
434.509	82
434.731	99
434.953	83
435.175	81
435.397	87
435.618	98
435.84	103
436.062	125
436.284	119
436.505	98
436.727	102
436.949	103
437.17	82
437.392	95
437.614	80
437.835	86
438.057	112
438.278	115
438.5	93
438.721	107
438.943	101
439.165	98
439.386	75
439.608	94
439.829	106
440.05	130
440.272	131
440.493	106
440.715	96
440.936	93
441.158	80
441.379	85
441.6	88
441.822	100
442.043	94
442.264	99
442.486	89
442.707	86
442.928	110
443.149	126
443.371	128
443.592	119
443.813	115
444.034	105
444.255	85
444.476	96
444.698	96
444.919	86
445.14	135
445.361	119
445.582	116
445.803	139
446.024	138
446.245	141
446.466	121
446.687	84
446.908	86
447.129	105
447.35	94
447.571	90
447.792	83
448.013	85
448.234	103
448.455	86
448.675	113
448.896	122
449.117	90
449.338	102
449.559	122
449.779	130
450	92
450.221	88
450.442	107
450.662	79
450.883	109
451.104	103
451.324	104
451.545	95
451.766	96
451.986	96
452.207	86
452.428	99
452.648	96
452.869	110
453.089	101
453.31	103
453.53	92
453.751	93
453.971	97
454.192	120
454.412	95
454.633	94
454.853	103
455.073	74
455.294	85
455.514	93
455.734	86
455.955	80
456.175	96
456.395	83
456.616	74
456.836	90
457.056	78
457.276	85
457.497	81
457.717	93
457.937	94
458.157	75
458.377	86
458.598	119
458.818	161
459.038	158
459.258	117
459.478	100
459.698	92
459.918	89
460.138	87
460.358	79
460.578	88
460.798	89
461.018	88
461.238	88
461.458	74
461.678	93
461.898	83
462.118	98
462.338	85
462.558	73
462.777	81
462.997	83
463.217	83
463.437	75
463.657	85
463.876	84
464.096	102
464.316	93
464.536	86
464.755	97
464.975	116
465.195	158
465.414	170
465.634	97
465.854	107
466.073	102
466.293	89
466.512	75
466.732	65
466.951	72
467.171	78
467.391	103
467.61	93
467.829	90
468.049	85
468.268	86
468.488	87
468.707	69
468.927	83
469.146	76
469.365	82
469.585	93
469.804	89
470.023	97
470.243	91
470.462	94
470.681	104
470.901	88
471.12	81
471.339	89
471.558	89
471.777	75
471.997	85
472.216	98
472.435	75
472.654	86
472.873	81
473.092	87
473.311	89
473.53	98
473.749	91
473.968	107
474.187	105
474.406	87
474.625	79
474.844	81
475.063	94
475.282	75
475.501	97
475.72	88
475.939	82
476.158	82
476.377	87
476.596	87
476.814	94
477.033	91
477.252	84
477.471	78
477.69	78
477.908	75
478.127	79
478.346	95
478.564	84
478.783	89
479.002	109
479.22	84
479.439	93
479.658	95
479.876	87
480.095	94
480.313	88
480.532	94
480.751	88
480.969	101
481.188	106
481.406	113
481.624	84
481.843	82
482.061	63
482.28	103
482.498	93
482.717	94
482.935	101
483.153	81
483.372	83
483.59	82
483.808	90
484.027	89
484.245	86
484.463	104
484.681	85
484.9	108
485.118	103
485.336	96
485.554	88
485.772	104
485.99	100
486.209	111
486.427	99
486.645	107
486.863	127
487.081	97
487.299	94
487.517	82
487.735	89
487.953	88
488.171	89
488.389	92
488.607	98
488.825	86
489.043	87
489.261	93
489.479	94
489.696	89
489.914	81
490.132	82
490.35	93
490.568	96
490.786	86
491.003	102
491.221	94
491.439	73
491.657	81
491.874	93
492.092	88
492.31	85
492.527	90
492.745	84
492.963	85
493.18	85
493.398	94
493.615	97
493.833	86
494.05	81
494.268	106
494.485	95
494.703	93
494.92	94
495.138	80
495.355	94
495.573	94
495.79	101
496.008	104
496.225	83
496.442	92
496.66	92
496.877	86
497.094	95
497.312	73
497.529	95
497.746	95
497.963	95
498.181	87
498.398	96
498.615	103
498.832	100
499.049	94
499.267	100
499.484	95
499.701	92
499.918	83
500.135	86
500.352	98
500.569	92
500.786	97
501.003	94
501.22	88
501.437	87
501.654	102
501.871	111
502.088	75
502.305	83
502.522	84
502.739	93
502.956	95
503.172	96
503.389	98
503.606	93
503.823	92
504.04	100
504.256	96
504.473	87
504.69	93
504.907	94
505.123	98
505.34	84
505.557	84
505.773	87
505.99	71
506.207	92
506.423	103
506.64	92
506.856	111
507.073	83
507.289	94
507.506	103
507.722	106
507.939	97
508.155	89
508.372	94
508.588	91
508.805	103
509.021	98
509.238	88
509.454	110
509.67	87
509.887	94
510.103	133
510.319	211
510.536	749
510.752	2469
510.968	712
511.184	164
511.401	117
511.617	96
511.833	99
512.049	98
512.265	86
512.481	86
512.698	81
512.914	100
513.13	96
513.346	85
513.562	93
513.778	82
513.994	104
514.21	103
514.426	117
514.642	145
514.858	114
515.074	177
515.29	458
515.506	1561
515.721	596
515.937	167
516.153	106
516.369	98
516.585	85
516.801	97
517.016	84
517.232	86
517.448	82
517.664	93
517.879	99
518.095	90
518.311	99
518.527	83
518.742	91
518.958	94
519.173	96
519.389	91
519.605	97
519.82	97
520.036	106
520.251	129
520.467	113
520.682	93
520.898	97
521.113	114
521.329	145
521.544	208
521.76	573
521.975	2567
522.19	1631
522.406	341
522.621	126
522.836	104
523.052	105
523.267	85
523.482	71
523.698	96
523.913	133
524.128	103
524.343	93
524.559	86
524.774	96
524.989	85
525.204	97
525.419	92
525.634	90
525.849	75
526.064	83
526.28	99
526.495	81
526.71	90
526.925	84
527.14	84
527.355	91
527.57	79
527.785	95
527.999	88
528.214	96
528.429	102
528.644	94
528.859	104
529.074	89
529.289	109
529.503	203
529.718	101
529.933	83
530.148	83
530.363	73
530.577	83
530.792	89
531.007	102
531.221	85
531.436	88
531.651	81
531.865	88
532.08	93
532.295	83
532.509	84
532.724	97
532.938	83
533.153	88
533.367	90
533.582	105
533.796	85
534.011	86
534.225	94
534.44	80
534.654	95
534.868	80
535.083	85
535.297	94
535.511	103
535.726	97
535.94	98
536.154	98
536.369	97
536.583	66
536.797	83
537.011	97
537.225	98
537.44	86
537.654	92
537.868	89
538.082	89
538.296	88
538.51	78
538.724	73
538.938	85
539.153	86
539.367	102
539.581	93
539.795	86
540.009	85
540.222	83
540.436	96
540.65	72
540.864	73
541.078	92
541.292	94
541.506	96
541.72	73
541.934	94
542.147	81
542.361	74
542.575	79
542.789	83
543.002	80
543.216	83
543.43	95
543.644	99
543.857	89
544.071	102
544.285	96
544.498	71
544.712	105
544.925	82
545.139	72
545.352	82
545.566	97
545.779	89
545.993	90
546.206	89
546.42	81
546.633	89
546.847	83
547.06	79
547.274	111
547.487	86
547.7	91
547.914	76
548.127	74
548.34	72
548.554	77
548.767	74
548.98	82
549.193	85
549.407	85
549.62	87
549.833	88
550.046	86
550.259	79
550.473	81
550.686	99
550.899	99
551.112	81
551.325	86
551.538	81
551.751	89
551.964	88
552.177	81
552.39	88
552.603	95
552.816	96
553.029	94
553.242	75
553.455	104
553.667	101
553.88	104
554.093	91
554.306	97
554.519	81
554.732	88
554.944	102
555.157	112
555.37	81
555.583	81
555.795	96
556.008	87
556.221	92
556.433	86
556.646	94
556.859	86
557.071	99
557.284	85
557.496	82
557.709	90
557.921	101
558.134	95
558.346	90
558.559	85
558.771	90
558.984	87
559.196	83
559.409	91
559.621	94
559.833	89
560.046	83
560.258	88
560.47	97
560.683	97
560.895	77
561.107	98
561.32	88
561.532	90
561.744	87
561.956	82
562.168	93
562.381	89
562.593	104
562.805	83
563.017	87
563.229	91
563.441	79
563.653	96
563.865	81
564.077	77
564.289	90
564.501	103
564.713	94
564.925	92
565.137	104
565.349	81
565.561	99
565.773	94
565.985	78
566.197	89
566.408	70
566.62	81
566.832	87
567.044	83
567.255	80
567.467	94
567.679	84
567.891	91
568.102	91
568.314	90
568.526	91
568.737	82
568.949	81
569.161	89
569.372	91
569.584	98
569.795	88
570.007	121
570.218	245
570.43	129
570.641	94
570.853	91
571.064	99
571.276	67
571.487	77
571.698	87
571.91	66
572.121	83
572.333	90
572.544	92
572.755	79
572.966	81
573.178	86
573.389	104
573.6	88
573.811	84
574.023	99
574.234	75
574.445	87
574.656	81
574.867	95
575.078	94
575.289	84
575.501	88
575.712	93
575.923	85
576.134	96
576.345	93
576.556	92
576.767	87
576.978	84
577.188	86
577.399	96
577.61	102
577.821	96
578.032	114
578.243	269
578.454	782
578.665	212
578.875	112
579.086	87
579.297	85
579.508	86
579.718	85
579.929	84
580.14	83
580.35	90
580.561	83
580.772	87
580.982	98
581.193	71
581.403	77
581.614	94
581.825	76
582.035	90
582.246	81
582.456	80
582.667	91
582.877	89
583.087	83
583.298	104
583.508	71
583.719	84
583.929	77
584.139	83
584.35	75
584.56	93
584.77	79
