Data from Circ_2022_H10_HRD10591_00083.txt Node
Date: Wed Jan 03 09:53:54 EST 2024
User: Yrep
Spectrometer: HR+D1059
Trigger mode: 1
Integration Time (sec): 1.000000E-1
Scans to average: 1
Electric dark correction enabled: true
Nonlinearity correction enabled: false
Boxcar width: 0
XAxis mode: Wavelengths
Number of Pixels in Spectrum: 2048
>>>>>Begin Spectral Data<<<<<
223.165	-28.75
223.4	-28.75
223.635	-28.75
223.869	-16.75
224.104	-31.75
224.338	-15.75
224.573	-6.75
224.808	-11.75
225.042	-10.75
225.277	3.25
225.511	4.25
225.746	9.25
225.98	0.25
226.215	7.25
226.449	15.25
226.683	13.25
226.918	38.25
227.152	31.25
227.387	32.25
227.621	25.25
227.856	28.25
228.09	35.25
228.324	67.25
228.559	59.25
228.793	64.25
229.027	58.25
229.262	66.25
229.496	77.25
229.73	107.25
229.964	94.25
230.199	76.25
230.433	75.25
230.667	84.25
230.901	86.25
231.136	82.25
231.37	71.25
231.604	81.25
231.838	72.25
232.072	75.25
232.306	82.25
232.541	81.25
232.775	90.25
233.009	80.25
233.243	67.25
233.477	89.25
233.711	63.25
233.945	80.25
234.179	89.25
234.413	85.25
234.647	77.25
234.881	93.25
235.115	82.25
235.349	73.25
235.583	78.25
235.817	92.25
236.051	86.25
236.285	76.25
236.519	79.25
236.753	75.25
236.987	75.25
237.221	100.25
237.455	85.25
237.689	68.25
237.922	76.25
238.156	75.25
238.39	68.25
238.624	71.25
238.858	87.25
239.091	77.25
239.325	87.25
239.559	89.25
239.793	76.25
240.027	89.25
240.26	72.25
240.494	74.25
240.728	85.25
240.961	87.25
241.195	81.25
241.429	86.25
241.662	79.25
241.896	76.25
242.13	74.25
242.363	72.25
242.597	77.25
242.83	78.25
243.064	70.25
243.298	75.25
243.531	70.25
243.765	82.25
243.998	81.25
244.232	87.25
244.465	103.25
244.699	88.25
244.932	82.25
245.166	79.25
245.399	78.25
245.633	89.25
245.866	80.25
246.099	71.25
246.333	73.25
246.566	69.25
246.8	81.25
247.033	76.25
247.266	89.25
247.5	73.25
247.733	74.25
247.966	81.25
248.2	84.25
248.433	88.25
248.666	87.25
248.899	77.25
249.133	66.25
249.366	101.25
249.599	97.25
249.832	90.25
250.066	85.25
250.299	86.25
250.532	74.25
250.765	91.25
250.998	82.25
251.231	74.25
251.465	83.25
251.698	83.25
251.931	82.25
252.164	76.25
252.397	96.25
252.63	76.25
252.863	83.25
253.096	84.25
253.329	78.25
253.562	79.25
253.795	84.25
254.028	82.25
254.261	82.25
254.494	88.25
254.727	87.25
254.96	101.25
255.193	95.25
255.426	75.25
255.659	75.25
255.892	81.25
256.124	80.25
256.357	83.25
256.59	88.25
256.823	75.25
257.056	86.25
257.289	90.25
257.521	88.25
257.754	88.25
257.987	82.25
258.22	79.25
258.452	92.25
258.685	92.25
258.918	79.25
259.151	85.25
259.383	72.25
259.616	75.25
259.849	83.25
260.081	80.25
260.314	89.25
260.547	73.25
260.779	86.25
261.012	82.25
261.244	87.25
261.477	95.25
261.71	96.25
261.942	137.25
262.175	131.25
262.407	104.25
262.64	86.25
262.872	90.25
263.105	94.25
263.337	72.25
263.57	89.25
263.802	83.25
264.035	86.25
264.267	71.25
264.499	84.25
264.732	87.25
264.964	94.25
265.197	71.25
265.429	78.25
265.661	79.25
265.894	77.25
266.126	87.25
266.358	96.25
266.591	93.25
266.823	77.25
267.055	80.25
267.287	86.25
267.52	89.25
267.752	88.25
267.984	92.25
268.216	86.25
268.448	93.25
268.681	99.25
268.913	83.25
269.145	82.25
269.377	81.25
269.609	92.25
269.841	86.25
270.073	95.25
270.306	84.25
270.538	85.25
270.77	78.25
271.002	87.25
271.234	94.25
271.466	87.25
271.698	74.25
271.93	83.25
272.162	74.25
272.394	87.25
272.626	89.25
272.858	90.25
273.09	83.25
273.322	96.25
273.553	74.25
273.785	77.25
274.017	91.25
274.249	90.25
274.481	89.25
274.713	92.25
274.945	88.25
275.176	89.25
275.408	92.25
275.64	91.25
275.872	89.25
276.104	87.25
276.335	99.25
276.567	118.25
276.799	118.25
277.031	126.25
277.262	113.25
277.494	92.25
277.726	90.25
277.957	100.25
278.189	82.25
278.421	77.25
278.652	81.25
278.884	82.25
279.115	98.25
279.347	96.25
279.579	73.25
279.81	86.25
280.042	116.25
280.273	131.25
280.505	114.25
280.736	97.25
280.968	84.25
281.199	88.25
281.431	91.25
281.662	95.25
281.894	86.25
282.125	108.25
282.356	132.25
282.588	169.25
282.819	127.25
283.051	92.25
283.282	99.25
283.513	99.25
283.745	84.25
283.976	97.25
284.207	100.25
284.439	89.25
284.67	99.25
284.901	97.25
285.132	88.25
285.364	81.25
285.595	92.25
285.826	103.25
286.057	99.25
286.288	92.25
286.52	90.25
286.751	74.25
286.982	95.25
287.213	84.25
287.444	85.25
287.675	91.25
287.906	81.25
288.138	77.25
288.369	87.25
288.6	108.25
288.831	88.25
289.062	91.25
289.293	76.25
289.524	67.25
289.755	67.25
289.986	90.25
290.217	83.25
290.448	88.25
290.679	95.25
290.91	97.25
291.141	77.25
291.371	78.25
291.602	71.25
291.833	88.25
292.064	88.25
292.295	99.25
292.526	88.25
292.757	100.25
292.987	89.25
293.218	84.25
293.449	83.25
293.68	86.25
293.91	96.25
294.141	86.25
294.372	80.25
294.603	83.25
294.833	83.25
295.064	83.25
295.295	78.25
295.525	95.25
295.756	101.25
295.987	136.25
296.217	175.25
296.448	133.25
296.679	100.25
296.909	89.25
297.14	80.25
297.37	77.25
297.601	91.25
297.831	99.25
298.062	95.25
298.292	102.25
298.523	88.25
298.753	90.25
298.984	100.25
299.214	101.25
299.445	86.25
299.675	96.25
299.905	99.25
300.136	101.25
300.366	96.25
300.597	88.25
300.827	88.25
301.057	108.25
301.288	104.25
301.518	88.25
301.748	104.25
301.979	99.25
302.209	89.25
302.439	86.25
302.669	95.25
302.9	93.25
303.13	93.25
303.36	84.25
303.59	92.25
303.82	120.25
304.051	101.25
304.281	91.25
304.511	104.25
304.741	102.25
304.971	87.25
305.201	73.25
305.431	97.25
305.661	74.25
305.891	97.25
306.121	113.25
306.352	116.25
306.582	112.25
306.812	94.25
307.042	96.25
307.272	111.25
307.502	106.25
307.731	104.25
307.961	112.25
308.191	104.25
308.421	95.25
308.651	84.25
308.881	91.25
309.111	96.25
309.341	100.25
309.571	101.25
309.8	94.25
310.03	106.25
310.26	96.25
310.49	101.25
310.72	113.25
310.949	101.25
311.179	112.25
311.409	92.25
311.639	98.25
311.868	95.25
312.098	87.25
312.328	102.25
312.557	106.25
312.787	118.25
313.017	116.25
313.246	108.25
313.476	83.25
313.706	87.25
313.935	104.25
314.165	104.25
314.394	112.25
314.624	104.25
314.853	96.25
315.083	81.25
315.312	89.25
315.542	88.25
315.771	105.25
316.001	95.25
316.23	93.25
316.46	96.25
316.689	83.25
316.919	95.25
317.148	98.25
317.377	102.25
317.607	101.25
317.836	102.25
318.065	91.25
318.295	86.25
318.524	100.25
318.753	82.25
318.983	89.25
319.212	108.25
319.441	105.25
319.67	114.25
319.9	98.25
320.129	84.25
320.358	89.25
320.587	93.25
320.816	103.25
321.046	116.25
321.275	103.25
321.504	87.25
321.733	111.25
321.962	102.25
322.191	117.25
322.42	142.25
322.649	125.25
322.878	119.25
323.108	127.25
323.337	137.25
323.566	162.25
323.795	185.25
324.024	233.25
324.253	487.25
324.482	1015.25
324.71	2014.25
324.939	2709.25
325.168	983.25
325.397	286.25
325.626	180.25
325.855	142.25
326.084	145.25
326.313	142.25
326.542	160.25
326.77	262.25
326.999	502.25
327.228	1064.25
327.457	1887.25
327.686	1530.25
327.914	449.25
328.143	279.25
328.372	239.25
328.6	171.25
328.829	143.25
329.058	178.25
329.287	171.25
329.515	138.25
329.744	130.25
329.972	186.25
330.201	250.25
330.43	344.25
330.658	220.25
330.887	226.25
331.115	160.25
331.344	116.25
331.572	123.25
331.801	124.25
332.03	136.25
332.258	104.25
332.486	102.25
332.715	105.25
332.943	110.25
333.172	107.25
333.4	106.25
333.629	115.25
333.857	154.25
334.085	177.25
334.314	233.25
334.542	410.25
334.771	396.25
334.999	161.25
335.227	127.25
335.455	95.25
335.684	107.25
335.912	99.25
336.14	111.25
336.369	103.25
336.597	117.25
336.825	106.25
337.053	101.25
337.281	102.25
337.51	94.25
337.738	103.25
337.966	104.25
338.194	111.25
338.422	104.25
338.65	109.25
338.878	86.25
339.106	89.25
339.334	94.25
339.562	95.25
339.79	106.25
340.018	101.25
340.246	90.25
340.474	87.25
340.702	93.25
340.93	89.25
341.158	95.25
341.386	99.25
341.614	103.25
341.842	111.25
342.07	104.25
342.298	96.25
342.526	97.25
342.754	102.25
342.981	82.25
343.209	80.25
343.437	100.25
343.665	95.25
343.893	88.25
344.12	80.25
344.348	86.25
344.576	93.25
344.804	113.25
345.031	104.25
345.259	117.25
345.487	97.25
345.714	108.25
345.942	97.25
346.17	95.25
346.397	94.25
346.625	99.25
346.853	101.25
347.08	95.25
347.308	84.25
347.535	100.25
347.763	115.25
347.99	119.25
348.218	112.25
348.445	102.25
348.673	100.25
348.9	96.25
349.128	106.25
349.355	101.25
349.583	101.25
349.81	92.25
350.037	88.25
350.265	76.25
350.492	86.25
350.72	108.25
350.947	118.25
351.174	120.25
351.402	128.25
351.629	107.25
351.856	117.25
352.083	107.25
352.311	119.25
352.538	136.25
352.765	126.25
352.992	146.25
353.22	119.25
353.447	109.25
353.674	107.25
353.901	106.25
354.128	84.25
354.355	102.25
354.583	85.25
354.81	93.25
355.037	98.25
355.264	100.25
355.491	113.25
355.718	85.25
355.945	100.25
356.172	101.25
356.399	100.25
356.626	83.25
356.853	101.25
357.08	85.25
357.307	90.25
357.534	85.25
357.761	97.25
357.988	92.25
358.215	87.25
358.441	88.25
358.668	91.25
358.895	97.25
359.122	97.25
359.349	84.25
359.576	90.25
359.802	113.25
360.029	130.25
360.256	148.25
360.483	131.25
360.709	101.25
360.936	101.25
361.163	108.25
361.39	107.25
361.616	113.25
361.843	85.25
362.07	104.25
362.296	120.25
362.523	90.25
362.749	98.25
362.976	87.25
363.203	98.25
363.429	89.25
363.656	95.25
363.882	98.25
364.109	94.25
364.335	102.25
364.562	98.25
364.788	91.25
365.015	103.25
365.241	100.25
365.468	118.25
365.694	112.25
365.92	115.25
366.147	93.25
366.373	88.25
366.599	84.25
366.826	91.25
367.052	72.25
367.278	107.25
367.505	114.25
367.731	98.25
367.957	91.25
368.184	103.25
368.41	100.25
368.636	126.25
368.862	151.25
369.089	127.25
369.315	96.25
369.541	90.25
369.767	90.25
369.993	102.25
370.219	107.25
370.445	85.25
370.672	83.25
370.898	95.25
371.124	81.25
371.35	86.25
371.576	94.25
371.802	95.25
372.028	76.25
372.254	89.25
372.48	102.25
372.706	89.25
372.932	93.25
373.158	95.25
373.384	101.25
373.61	102.25
373.835	97.25
374.061	75.25
374.287	102.25
374.513	92.25
374.739	94.25
374.965	92.25
375.191	75.25
375.416	76.25
375.642	82.25
375.868	82.25
376.094	89.25
376.319	84.25
376.545	89.25
376.771	95.25
376.997	91.25
377.222	97.25
377.448	89.25
377.674	102.25
377.899	88.25
378.125	81.25
378.35	92.25
378.576	82.25
378.802	98.25
379.027	91.25
379.253	97.25
379.478	106.25
379.704	89.25
379.929	89.25
380.155	92.25
380.38	98.25
380.606	104.25
380.831	98.25
381.057	91.25
381.282	106.25
381.507	90.25
381.733	97.25
381.958	92.25
382.184	86.25
382.409	97.25
382.634	115.25
382.86	99.25
383.085	106.25
383.31	114.25
383.535	107.25
383.761	109.25
383.986	102.25
384.211	113.25
384.436	94.25
384.662	90.25
384.887	100.25
385.112	107.25
385.337	81.25
385.562	110.25
385.787	106.25
386.013	111.25
386.238	124.25
386.463	95.25
386.688	108.25
386.913	114.25
387.138	103.25
387.363	105.25
387.588	103.25
387.813	93.25
388.038	108.25
388.263	117.25
388.488	103.25
388.713	91.25
388.938	104.25
389.163	101.25
389.387	96.25
389.612	90.25
389.837	92.25
390.062	109.25
390.287	94.25
390.512	97.25
390.736	92.25
390.961	83.25
391.186	95.25
391.411	100.25
391.636	104.25
391.86	92.25
392.085	90.25
392.31	84.25
392.534	96.25
392.759	94.25
392.984	105.25
393.208	79.25
393.433	108.25
393.658	93.25
393.882	92.25
394.107	90.25
394.331	86.25
394.556	90.25
394.78	76.25
395.005	105.25
395.229	94.25
395.454	90.25
395.678	91.25
395.903	86.25
396.127	103.25
396.352	100.25
396.576	92.25
396.801	88.25
397.025	90.25
397.249	86.25
397.474	102.25
397.698	90.25
397.922	86.25
398.147	97.25
398.371	92.25
398.595	81.25
398.82	79.25
399.044	80.25
399.268	78.25
399.492	87.25
399.717	92.25
399.941	100.25
400.165	102.25
400.389	86.25
400.613	86.25
400.837	94.25
401.062	91.25
401.286	85.25
401.51	109.25
401.734	104.25
401.958	106.25
402.182	144.25
402.406	226.25
402.63	140.25
402.854	105.25
403.078	99.25
403.302	89.25
403.526	89.25
403.75	97.25
403.974	103.25
404.198	80.25
404.422	82.25
404.645	93.25
404.869	95.25
405.093	99.25
405.317	113.25
405.541	116.25
405.765	111.25
405.988	141.25
406.212	215.25
406.436	314.25
406.66	200.25
406.883	116.25
407.107	104.25
407.331	111.25
407.555	121.25
407.778	113.25
408.002	87.25
408.226	95.25
408.449	102.25
408.673	80.25
408.896	115.25
409.12	116.25
409.344	102.25
409.567	86.25
409.791	78.25
410.014	98.25
410.238	92.25
410.461	81.25
410.685	94.25
410.908	92.25
411.132	104.25
411.355	96.25
411.578	96.25
411.802	83.25
412.025	95.25
412.249	94.25
412.472	108.25
412.695	113.25
412.919	89.25
413.142	91.25
413.365	86.25
413.589	91.25
413.812	91.25
414.035	90.25
414.258	101.25
414.482	77.25
414.705	81.25
414.928	91.25
415.151	96.25
415.374	104.25
415.597	85.25
415.821	88.25
416.044	92.25
416.267	96.25
416.49	79.25
416.713	88.25
416.936	76.25
417.159	84.25
417.382	90.25
417.605	95.25
417.828	103.25
418.051	93.25
418.274	90.25
418.497	96.25
418.72	97.25
418.943	91.25
419.166	83.25
419.389	84.25
419.611	81.25
419.834	81.25
420.057	82.25
420.28	92.25
420.503	81.25
420.726	87.25
420.948	83.25
421.171	114.25
421.394	100.25
421.617	77.25
421.839	78.25
422.062	78.25
422.285	97.25
422.507	111.25
422.73	112.25
422.953	87.25
423.175	92.25
423.398	95.25
423.621	89.25
423.843	85.25
424.066	79.25
424.288	99.25
424.511	88.25
424.733	92.25
424.956	111.25
425.178	119.25
425.401	113.25
425.623	122.25
425.846	100.25
426.068	96.25
426.291	108.25
426.513	83.25
426.735	80.25
426.958	91.25
427.18	119.25
427.402	159.25
427.625	223.25
427.847	172.25
428.069	155.25
428.292	100.25
428.514	95.25
428.736	75.25
428.958	84.25
429.181	79.25
429.403	100.25
429.625	89.25
429.847	95.25
430.069	99.25
430.292	102.25
430.514	97.25
430.736	84.25
430.958	83.25
431.18	91.25
431.402	78.25
431.624	88.25
431.846	85.25
432.068	92.25
432.29	94.25
432.512	106.25
432.734	83.25
432.956	104.25
433.178	108.25
433.4	99.25
433.622	94.25
433.844	92.25
434.066	83.25
434.287	102.25
434.509	101.25
434.731	81.25
434.953	86.25
435.175	92.25
435.397	101.25
435.618	87.25
435.84	113.25
436.062	119.25
436.284	108.25
436.505	108.25
436.727	101.25
436.949	100.25
437.17	96.25
437.392	88.25
437.614	90.25
437.835	126.25
438.057	154.25
438.278	128.25
438.5	111.25
438.721	136.25
438.943	121.25
439.165	96.25
439.386	79.25
439.608	101.25
439.829	125.25
440.05	145.25
440.272	184.25
440.493	106.25
440.715	87.25
440.936	76.25
441.158	81.25
441.379	101.25
441.6	94.25
441.822	100.25
442.043	108.25
442.264	124.25
442.486	131.25
442.707	104.25
442.928	135.25
443.149	176.25
443.371	153.25
443.592	136.25
443.813	145.25
444.034	135.25
444.255	91.25
444.476	83.25
444.698	75.25
444.919	87.25
445.14	147.25
445.361	125.25
445.582	132.25
445.803	191.25
446.024	169.25
446.245	144.25
446.466	131.25
446.687	111.25
446.908	97.25
447.129	104.25
447.35	85.25
447.571	108.25
447.792	97.25
448.013	100.25
448.234	125.25
448.455	112.25
448.675	138.25
448.896	138.25
449.117	122.25
449.338	112.25
449.559	138.25
449.779	154.25
450	94.25
450.221	88.25
450.442	82.25
450.662	91.25
450.883	127.25
451.104	131.25
451.324	109.25
451.545	99.25
451.766	83.25
451.986	87.25
452.207	95.25
452.428	108.25
452.648	115.25
452.869	118.25
453.089	149.25
453.31	141.25
453.53	89.25
453.751	89.25
453.971	127.25
454.192	126.25
454.412	93.25
454.633	97.25
454.853	75.25
455.073	89.25
455.294	97.25
455.514	116.25
455.734	92.25
455.955	87.25
456.175	93.25
456.395	89.25
456.616	88.25
456.836	85.25
457.056	86.25
457.276	78.25
457.497	89.25
457.717	90.25
457.937	82.25
458.157	75.25
458.377	104.25
458.598	122.25
458.818	203.25
459.038	225.25
459.258	141.25
459.478	97.25
459.698	96.25
459.918	84.25
460.138	101.25
460.358	90.25
460.578	91.25
460.798	91.25
461.018	92.25
461.238	87.25
461.458	84.25
461.678	88.25
461.898	86.25
462.118	79.25
462.338	76.25
462.558	85.25
462.777	87.25
462.997	89.25
463.217	85.25
463.437	91.25
463.657	81.25
463.876	97.25
464.096	88.25
464.316	105.25
464.536	98.25
464.755	98.25
464.975	120.25
465.195	210.25
465.414	224.25
465.634	105.25
465.854	92.25
466.073	101.25
466.293	97.25
466.512	81.25
466.732	94.25
466.951	97.25
467.171	88.25
467.391	100.25
467.61	131.25
467.829	106.25
468.049	153.25
468.268	199.25
468.488	100.25
468.707	95.25
468.927	90.25
469.146	100.25
469.365	89.25
469.585	91.25
469.804	95.25
470.023	111.25
470.243	111.25
470.462	117.25
470.681	138.25
470.901	104.25
471.12	98.25
471.339	96.25
471.558	87.25
471.777	105.25
471.997	124.25
472.216	250.25
472.435	509.25
472.654	178.25
472.873	93.25
473.092	96.25
473.311	109.25
473.53	96.25
473.749	83.25
473.968	104.25
474.187	116.25
474.406	92.25
474.625	94.25
474.844	83.25
475.063	83.25
475.282	93.25
475.501	84.25
475.72	96.25
475.939	93.25
476.158	91.25
476.377	85.25
476.596	91.25
476.814	96.25
477.033	106.25
477.252	79.25
477.471	85.25
477.69	91.25
477.908	82.25
478.127	72.25
478.346	95.25
478.564	98.25
478.783	103.25
479.002	103.25
479.22	91.25
479.439	111.25
479.658	100.25
479.876	103.25
480.095	104.25
480.313	93.25
480.532	91.25
480.751	137.25
480.969	247.25
481.188	828.25
481.406	533.25
481.624	135.25
481.843	103.25
482.061	92.25
482.28	75.25
482.498	88.25
482.717	92.25
482.935	89.25
483.153	98.25
483.372	95.25
483.59	90.25
483.808	100.25
484.027	87.25
484.245	80.25
484.463	106.25
484.681	95.25
484.9	85.25
485.118	86.25
485.336	98.25
485.554	81.25
485.772	107.25
485.99	96.25
486.209	90.25
486.427	102.25
486.645	120.25
486.863	139.25
487.081	108.25
487.299	102.25
487.517	103.25
487.735	85.25
487.953	76.25
488.171	86.25
488.389	106.25
488.607	105.25
488.825	88.25
489.043	70.25
489.261	84.25
489.479	80.25
489.696	86.25
489.914	104.25
490.132	87.25
490.35	91.25
490.568	86.25
490.786	99.25
491.003	92.25
491.221	98.25
491.439	107.25
491.657	92.25
491.874	92.25
492.092	99.25
492.31	92.25
492.527	98.25
492.745	87.25
492.963	92.25
493.18	76.25
493.398	90.25
493.615	108.25
493.833	106.25
494.05	100.25
494.268	91.25
494.485	86.25
494.703	99.25
494.92	89.25
495.138	95.25
495.355	87.25
495.573	100.25
495.79	92.25
496.008	96.25
496.225	80.25
496.442	83.25
496.66	91.25
496.877	80.25
497.094	95.25
497.312	96.25
497.529	92.25
497.746	97.25
497.963	95.25
498.181	94.25
498.398	94.25
498.615	116.25
498.832	94.25
499.049	79.25
499.267	82.25
499.484	97.25
499.701	70.25
499.918	81.25
500.135	85.25
500.352	88.25
500.569	96.25
500.786	95.25
501.003	85.25
501.22	99.25
501.437	91.25
501.654	101.25
501.871	122.25
502.088	102.25
502.305	95.25
502.522	88.25
502.739	96.25
502.956	97.25
503.172	103.25
503.389	91.25
503.606	108.25
503.823	97.25
504.04	96.25
504.256	91.25
504.473	98.25
504.69	91.25
504.907	104.25
505.123	83.25
505.34	82.25
505.557	98.25
505.773	91.25
505.99	87.25
506.207	92.25
506.423	86.25
506.64	104.25
506.856	85.25
507.073	90.25
507.289	86.25
507.506	103.25
507.722	129.25
507.939	127.25
508.155	107.25
508.372	81.25
508.588	96.25
508.805	100.25
509.021	95.25
509.238	107.25
509.454	99.25
509.67	116.25
509.887	111.25
510.103	153.25
510.319	264.25
510.536	1008.25
510.752	3597.25
510.968	1010.25
511.184	197.25
511.401	135.25
511.617	92.25
511.833	104.25
512.049	111.25
512.265	106.25
512.481	91.25
512.698	97.25
512.914	82.25
513.13	86.25
513.346	100.25
513.562	92.25
