Data from Circ_2022_H10_HRD10591_00039.txt Node
Date: Wed Jan 03 09:53:45 EST 2024
User: Yrep
Spectrometer: HR+D1059
Trigger mode: 1
Integration Time (sec): 1.000000E-1
Scans to average: 1
Electric dark correction enabled: true
Nonlinearity correction enabled: false
Boxcar width: 0
XAxis mode: Wavelengths
Number of Pixels in Spectrum: 2048
>>>>>Begin Spectral Data<<<<<
223.165	-20.06
223.4	-20.06
223.635	-20.06
223.869	-13.06
224.104	-18.06
224.338	-16.06
224.573	-26.06
224.808	-4.06
225.042	-0.06
225.277	-2.06
225.511	1.94
225.746	-3.06
225.98	5.94
226.215	11.94
226.449	5.94
226.683	20.94
226.918	22.94
227.152	32.94
227.387	31.94
227.621	48.94
227.856	45.94
228.09	33.94
228.324	55.94
228.559	44.94
228.793	56.94
229.027	62.94
229.262	70.94
229.496	63.94
229.73	84.94
229.964	83.94
230.199	59.94
230.433	77.94
230.667	76.94
230.901	83.94
231.136	77.94
231.37	68.94
231.604	78.94
231.838	79.94
232.072	73.94
232.306	87.94
232.541	79.94
232.775	89.94
233.009	81.94
233.243	77.94
233.477	80.94
233.711	81.94
233.945	75.94
234.179	86.94
234.413	73.94
234.647	71.94
234.881	84.94
235.115	91.94
235.349	81.94
235.583	80.94
235.817	63.94
236.051	85.94
236.285	79.94
236.519	71.94
236.753	85.94
236.987	66.94
237.221	73.94
237.455	80.94
237.689	69.94
237.922	67.94
238.156	80.94
238.39	72.94
238.624	80.94
238.858	77.94
239.091	81.94
239.325	74.94
239.559	82.94
239.793	85.94
240.027	73.94
240.26	69.94
240.494	71.94
240.728	89.94
240.961	79.94
241.195	74.94
241.429	58.94
241.662	72.94
241.896	68.94
242.13	64.94
242.363	68.94
242.597	78.94
242.83	65.94
243.064	74.94
243.298	79.94
243.531	71.94
243.765	78.94
243.998	61.94
244.232	80.94
244.465	86.94
244.699	74.94
244.932	81.94
245.166	78.94
245.399	71.94
245.633	81.94
245.866	69.94
246.099	68.94
246.333	78.94
246.566	66.94
246.8	78.94
247.033	66.94
247.266	78.94
247.5	59.94
247.733	76.94
247.966	60.94
248.2	70.94
248.433	77.94
248.666	85.94
248.899	63.94
249.133	80.94
249.366	92.94
249.599	102.94
249.832	89.94
250.066	86.94
250.299	74.94
250.532	83.94
250.765	81.94
250.998	85.94
251.231	67.94
251.465	78.94
251.698	85.94
251.931	78.94
252.164	87.94
252.397	71.94
252.63	85.94
252.863	77.94
253.096	82.94
253.329	58.94
253.562	82.94
253.795	68.94
254.028	85.94
254.261	76.94
254.494	79.94
254.727	78.94
254.96	66.94
255.193	73.94
255.426	80.94
255.659	83.94
255.892	72.94
256.124	64.94
256.357	81.94
256.59	89.94
256.823	68.94
257.056	85.94
257.289	73.94
257.521	62.94
257.754	91.94
257.987	72.94
258.22	81.94
258.452	70.94
258.685	96.94
258.918	75.94
259.151	79.94
259.383	87.94
259.616	79.94
259.849	81.94
260.081	62.94
260.314	82.94
260.547	91.94
260.779	67.94
261.012	69.94
261.244	75.94
261.477	85.94
261.71	85.94
261.942	118.94
262.175	115.94
262.407	81.94
262.64	72.94
262.872	80.94
263.105	63.94
263.337	86.94
263.57	86.94
263.802	73.94
264.035	94.94
264.267	88.94
264.499	78.94
264.732	65.94
264.964	84.94
265.197	82.94
265.429	74.94
265.661	95.94
265.894	72.94
266.126	81.94
266.358	92.94
266.591	89.94
266.823	77.94
267.055	74.94
267.287	91.94
267.52	60.94
267.752	92.94
267.984	80.94
268.216	75.94
268.448	87.94
268.681	85.94
268.913	80.94
269.145	81.94
269.377	79.94
269.609	89.94
269.841	85.94
270.073	70.94
270.306	62.94
270.538	88.94
270.77	78.94
271.002	86.94
271.234	78.94
271.466	86.94
271.698	82.94
271.93	82.94
272.162	70.94
272.394	91.94
272.626	79.94
272.858	72.94
273.09	78.94
273.322	72.94
273.553	85.94
273.785	77.94
274.017	89.94
274.249	87.94
274.481	84.94
274.713	71.94
274.945	92.94
275.176	85.94
275.408	96.94
275.64	88.94
275.872	76.94
276.104	77.94
276.335	80.94
276.567	91.94
276.799	111.94
277.031	88.94
277.262	86.94
277.494	89.94
277.726	89.94
277.957	72.94
278.189	75.94
278.421	85.94
278.652	91.94
278.884	78.94
279.115	87.94
279.347	77.94
279.579	76.94
279.81	79.94
280.042	93.94
280.273	83.94
280.505	84.94
280.736	76.94
280.968	82.94
281.199	80.94
281.431	94.94
281.662	95.94
281.894	100.94
282.125	104.94
282.356	119.94
282.588	140.94
282.819	102.94
283.051	93.94
283.282	82.94
283.513	80.94
283.745	72.94
283.976	92.94
284.207	83.94
284.439	76.94
284.67	86.94
284.901	95.94
285.132	78.94
285.364	91.94
285.595	87.94
285.826	92.94
286.057	86.94
286.288	77.94
286.52	91.94
286.751	76.94
286.982	82.94
287.213	83.94
287.444	100.94
287.675	87.94
287.906	83.94
288.138	89.94
288.369	79.94
288.6	93.94
288.831	93.94
289.062	65.94
289.293	77.94
289.524	84.94
289.755	83.94
289.986	85.94
290.217	86.94
290.448	86.94
290.679	99.94
290.91	86.94
291.141	85.94
291.371	99.94
291.602	88.94
291.833	94.94
292.064	84.94
292.295	84.94
292.526	79.94
292.757	90.94
292.987	87.94
293.218	91.94
293.449	82.94
293.68	80.94
293.91	87.94
294.141	79.94
294.372	72.94
294.603	81.94
294.833	96.94
295.064	87.94
295.295	88.94
295.525	95.94
295.756	94.94
295.987	117.94
296.217	143.94
296.448	135.94
296.679	95.94
296.909	88.94
297.14	83.94
297.37	79.94
297.601	83.94
297.831	82.94
298.062	98.94
298.292	83.94
298.523	96.94
298.753	63.94
298.984	63.94
299.214	91.94
299.445	74.94
299.675	84.94
299.905	91.94
300.136	81.94
300.366	93.94
300.597	87.94
300.827	98.94
301.057	92.94
301.288	99.94
301.518	94.94
301.748	102.94
301.979	86.94
302.209	80.94
302.439	95.94
302.669	95.94
302.9	88.94
303.13	91.94
303.36	101.94
303.59	103.94
303.82	111.94
304.051	101.94
304.281	99.94
304.511	85.94
304.741	80.94
304.971	93.94
305.201	83.94
305.431	81.94
305.661	81.94
305.891	102.94
306.121	85.94
306.352	93.94
306.582	109.94
306.812	91.94
307.042	95.94
307.272	94.94
307.502	90.94
307.731	97.94
307.961	93.94
308.191	73.94
308.421	77.94
308.651	81.94
308.881	85.94
309.111	83.94
309.341	91.94
309.571	81.94
309.8	88.94
310.03	99.94
310.26	94.94
310.49	93.94
310.72	102.94
310.949	99.94
311.179	95.94
311.409	89.94
311.639	91.94
311.868	98.94
312.098	87.94
312.328	99.94
312.557	99.94
312.787	99.94
313.017	103.94
313.246	95.94
313.476	99.94
313.706	98.94
313.935	93.94
314.165	110.94
314.394	83.94
314.624	98.94
314.853	103.94
315.083	97.94
315.312	86.94
315.542	94.94
315.771	84.94
316.001	84.94
316.23	91.94
316.46	96.94
316.689	81.94
316.919	96.94
317.148	101.94
317.377	98.94
317.607	103.94
317.836	88.94
318.065	94.94
318.295	89.94
318.524	83.94
318.753	85.94
318.983	84.94
319.212	100.94
319.441	105.94
319.67	108.94
319.9	85.94
320.129	80.94
320.358	100.94
320.587	98.94
320.816	90.94
321.046	102.94
321.275	97.94
321.504	83.94
321.733	90.94
321.962	105.94
322.191	101.94
322.42	105.94
322.649	111.94
322.878	100.94
323.108	128.94
323.337	124.94
323.566	140.94
323.795	143.94
324.024	217.94
324.253	388.94
324.482	833.94
324.71	1693.94
324.939	2225.94
325.168	855.94
325.397	247.94
325.626	142.94
325.855	135.94
326.084	125.94
326.313	125.94
326.542	165.94
326.77	234.94
326.999	443.94
327.228	928.94
327.457	1617.94
327.686	1298.94
327.914	375.94
328.143	203.94
328.372	159.94
328.6	119.94
328.829	122.94
329.058	128.94
329.287	149.94
329.515	111.94
329.744	95.94
329.972	100.94
330.201	120.94
330.43	148.94
330.658	146.94
330.887	152.94
331.115	127.94
331.344	97.94
331.572	106.94
331.801	109.94
332.03	109.94
332.258	103.94
332.486	73.94
332.715	88.94
332.943	86.94
333.172	96.94
333.4	96.94
333.629	119.94
333.857	116.94
334.085	111.94
334.314	120.94
334.542	135.94
334.771	135.94
334.999	94.94
335.227	89.94
335.455	92.94
335.684	99.94
335.912	97.94
336.14	100.94
336.369	104.94
336.597	101.94
336.825	100.94
337.053	85.94
337.281	90.94
337.51	84.94
337.738	90.94
337.966	88.94
338.194	97.94
338.422	88.94
338.65	104.94
338.878	84.94
339.106	95.94
339.334	89.94
339.562	85.94
339.79	80.94
340.018	79.94
340.246	92.94
340.474	87.94
340.702	84.94
340.93	96.94
341.158	94.94
341.386	99.94
341.614	85.94
341.842	87.94
342.07	79.94
342.298	84.94
342.526	99.94
342.754	103.94
342.981	97.94
343.209	99.94
343.437	110.94
343.665	102.94
343.893	86.94
344.12	84.94
344.348	86.94
344.576	91.94
344.804	95.94
345.031	108.94
345.259	104.94
345.487	83.94
345.714	84.94
345.942	86.94
346.17	102.94
346.397	85.94
346.625	86.94
346.853	79.94
347.08	92.94
347.308	88.94
347.535	84.94
347.763	98.94
347.99	104.94
348.218	101.94
348.445	100.94
348.673	101.94
348.9	94.94
349.128	97.94
349.355	96.94
349.583	92.94
349.81	104.94
350.037	108.94
350.265	108.94
350.492	91.94
350.72	101.94
350.947	100.94
351.174	118.94
351.402	107.94
351.629	81.94
351.856	95.94
352.083	93.94
352.311	107.94
352.538	116.94
352.765	119.94
352.992	125.94
353.22	123.94
353.447	109.94
353.674	93.94
353.901	101.94
354.128	94.94
354.355	108.94
354.583	107.94
354.81	93.94
355.037	90.94
355.264	94.94
355.491	80.94
355.718	95.94
355.945	90.94
356.172	96.94
356.399	85.94
356.626	89.94
356.853	101.94
357.08	79.94
357.307	92.94
357.534	91.94
357.761	83.94
357.988	93.94
358.215	104.94
358.441	102.94
358.668	79.94
358.895	96.94
359.122	92.94
359.349	93.94
359.576	106.94
359.802	91.94
360.029	108.94
360.256	107.94
360.483	95.94
360.709	90.94
360.936	97.94
361.163	94.94
361.39	93.94
361.616	89.94
361.843	94.94
362.07	96.94
362.296	96.94
362.523	99.94
362.749	77.94
362.976	97.94
363.203	102.94
363.429	93.94
363.656	94.94
363.882	94.94
364.109	82.94
364.335	89.94
364.562	90.94
364.788	89.94
365.015	80.94
365.241	95.94
365.468	109.94
365.694	100.94
365.92	97.94
366.147	91.94
366.373	92.94
366.599	99.94
366.826	88.94
367.052	88.94
367.278	93.94
367.505	87.94
367.731	95.94
367.957	81.94
368.184	87.94
368.41	101.94
368.636	124.94
368.862	115.94
369.089	115.94
369.315	93.94
369.541	104.94
369.767	83.94
369.993	95.94
370.219	102.94
370.445	81.94
370.672	91.94
370.898	93.94
371.124	85.94
371.35	78.94
371.576	88.94
371.802	85.94
372.028	75.94
372.254	92.94
372.48	88.94
372.706	86.94
372.932	80.94
373.158	96.94
373.384	93.94
373.61	100.94
373.835	77.94
374.061	81.94
374.287	91.94
374.513	88.94
374.739	100.94
374.965	88.94
375.191	84.94
375.416	85.94
375.642	105.94
375.868	89.94
376.094	85.94
376.319	90.94
376.545	93.94
376.771	85.94
376.997	96.94
377.222	84.94
377.448	77.94
377.674	88.94
377.899	77.94
378.125	81.94
378.35	94.94
378.576	88.94
378.802	96.94
379.027	102.94
379.253	84.94
379.478	94.94
379.704	108.94
379.929	79.94
380.155	88.94
380.38	86.94
380.606	93.94
380.831	83.94
381.057	96.94
381.282	83.94
381.507	91.94
381.733	104.94
381.958	87.94
382.184	95.94
382.409	100.94
382.634	107.94
382.86	102.94
383.085	94.94
383.31	94.94
383.535	83.94
383.761	107.94
383.986	103.94
384.211	89.94
384.436	88.94
384.662	94.94
384.887	85.94
385.112	93.94
385.337	100.94
385.562	106.94
385.787	100.94
386.013	101.94
386.238	120.94
386.463	103.94
386.688	100.94
386.913	107.94
387.138	81.94
387.363	114.94
387.588	109.94
387.813	97.94
388.038	113.94
388.263	111.94
388.488	101.94
388.713	109.94
388.938	91.94
389.163	88.94
389.387	99.94
389.612	91.94
389.837	90.94
390.062	102.94
390.287	102.94
390.512	97.94
390.736	97.94
390.961	92.94
391.186	101.94
391.411	79.94
391.636	84.94
391.86	87.94
392.085	87.94
392.31	86.94
392.534	92.94
392.759	96.94
392.984	93.94
393.208	89.94
393.433	81.94
393.658	78.94
393.882	80.94
394.107	73.94
394.331	85.94
394.556	81.94
394.78	73.94
395.005	83.94
395.229	94.94
395.454	95.94
395.678	77.94
395.903	96.94
396.127	81.94
396.352	80.94
396.576	73.94
396.801	95.94
397.025	98.94
397.249	69.94
397.474	112.94
397.698	92.94
397.922	77.94
398.147	79.94
398.371	73.94
398.595	85.94
398.82	87.94
399.044	91.94
399.268	85.94
399.492	86.94
399.717	81.94
399.941	86.94
400.165	114.94
400.389	93.94
400.613	79.94
400.837	91.94
401.062	84.94
401.286	83.94
401.51	92.94
401.734	95.94
401.958	101.94
402.182	145.94
402.406	169.94
402.63	122.94
402.854	99.94
403.078	102.94
403.302	86.94
403.526	90.94
403.75	91.94
403.974	92.94
404.198	71.94
404.422	83.94
404.645	84.94
404.869	84.94
405.093	89.94
405.317	98.94
405.541	112.94
405.765	111.94
405.988	101.94
406.212	179.94
406.436	259.94
406.66	152.94
406.883	103.94
407.107	91.94
407.331	100.94
407.555	103.94
407.778	91.94
408.002	83.94
408.226	86.94
408.449	86.94
408.673	94.94
408.896	76.94
409.12	94.94
409.344	89.94
409.567	93.94
409.791	95.94
410.014	91.94
410.238	92.94
410.461	85.94
410.685	95.94
410.908	85.94
411.132	88.94
411.355	89.94
411.578	87.94
411.802	89.94
412.025	89.94
412.249	88.94
412.472	75.94
412.695	96.94
412.919	91.94
413.142	85.94
413.365	70.94
413.589	89.94
413.812	82.94
414.035	78.94
414.258	101.94
414.482	85.94
414.705	80.94
414.928	70.94
415.151	87.94
415.374	94.94
415.597	86.94
415.821	87.94
416.044	79.94
416.267	89.94
416.49	89.94
416.713	92.94
416.936	95.94
417.159	83.94
417.382	77.94
417.605	93.94
417.828	97.94
418.051	87.94
418.274	92.94
418.497	75.94
418.72	77.94
418.943	76.94
419.166	94.94
419.389	100.94
419.611	80.94
419.834	93.94
420.057	93.94
420.28	77.94
420.503	78.94
420.726	94.94
420.948	77.94
421.171	87.94
421.394	91.94
421.617	81.94
421.839	85.94
422.062	77.94
422.285	98.94
422.507	97.94
422.73	123.94
422.953	108.94
423.175	97.94
423.398	91.94
423.621	82.94
423.843	102.94
424.066	75.94
424.288	86.94
424.511	92.94
424.733	98.94
424.956	96.94
425.178	95.94
425.401	99.94
425.623	99.94
425.846	87.94
426.068	77.94
426.291	91.94
426.513	96.94
426.735	94.94
426.958	94.94
427.18	109.94
427.402	128.94
427.625	182.94
427.847	141.94
428.069	111.94
428.292	96.94
428.514	102.94
428.736	84.94
428.958	96.94
429.181	87.94
429.403	88.94
429.625	89.94
429.847	92.94
430.069	107.94
430.292	95.94
430.514	85.94
430.736	92.94
430.958	92.94
431.18	72.94
431.402	72.94
431.624	105.94
431.846	78.94
432.068	91.94
432.29	89.94
432.512	97.94
432.734	84.94
432.956	92.94
433.178	95.94
433.4	98.94
433.622	101.94
433.844	110.94
434.066	89.94
434.287	82.94
434.509	86.94
434.731	86.94
434.953	80.94
435.175	85.94
435.397	91.94
435.618	76.94
435.84	109.94
436.062	133.94
436.284	102.94
436.505	99.94
436.727	91.94
436.949	88.94
437.17	82.94
437.392	87.94
437.614	103.94
437.835	122.94
438.057	127.94
438.278	111.94
438.5	102.94
438.721	114.94
438.943	103.94
439.165	92.94
439.386	75.94
439.608	83.94
439.829	98.94
440.05	114.94
440.272	131.94
440.493	108.94
440.715	80.94
440.936	84.94
441.158	94.94
441.379	82.94
441.6	76.94
441.822	89.94
442.043	81.94
442.264	83.94
442.486	104.94
442.707	96.94
442.928	107.94
443.149	125.94
443.371	140.94
443.592	116.94
443.813	96.94
444.034	111.94
444.255	69.94
444.476	87.94
444.698	84.94
444.919	92.94
445.14	113.94
445.361	132.94
445.582	114.94
445.803	145.94
446.024	152.94
446.245	133.94
446.466	96.94
446.687	91.94
446.908	95.94
447.129	84.94
447.35	73.94
447.571	82.94
447.792	86.94
448.013	117.94
448.234	100.94
448.455	112.94
448.675	112.94
448.896	116.94
449.117	86.94
449.338	111.94
449.559	127.94
449.779	127.94
450	97.94
450.221	91.94
450.442	84.94
450.662	91.94
450.883	107.94
451.104	122.94
451.324	103.94
451.545	85.94
451.766	67.94
451.986	78.94
452.207	93.94
452.428	99.94
452.648	95.94
452.869	117.94
453.089	121.94
453.31	116.94
453.53	93.94
453.751	86.94
453.971	105.94
454.192	91.94
454.412	86.94
454.633	88.94
454.853	96.94
455.073	91.94
455.294	80.94
455.514	96.94
455.734	88.94
455.955	79.94
456.175	76.94
456.395	88.94
456.616	81.94
456.836	85.94
457.056	90.94
457.276	81.94
457.497	85.94
457.717	67.94
457.937	85.94
458.157	78.94
458.377	99.94
458.598	103.94
458.818	168.94
459.038	169.94
459.258	102.94
459.478	86.94
459.698	96.94
459.918	86.94
460.138	79.94
460.358	95.94
460.578	78.94
460.798	94.94
461.018	83.94
461.238	81.94
461.458	93.94
461.678	85.94
461.898	92.94
462.118	72.94
462.338	96.94
462.558	97.94
462.777	100.94
462.997	76.94
463.217	83.94
463.437	82.94
463.657	90.94
463.876	82.94
464.096	87.94
464.316	84.94
464.536	83.94
464.755	97.94
464.975	95.94
465.195	188.94
465.414	173.94
465.634	110.94
465.854	75.94
466.073	84.94
466.293	85.94
466.512	84.94
466.732	94.94
466.951	87.94
467.171	86.94
467.391	96.94
467.61	116.94
467.829	93.94
468.049	88.94
468.268	111.94
468.488	75.94
468.707	77.94
468.927	90.94
469.146	97.94
469.365	96.94
469.585	96.94
469.804	101.94
470.023	100.94
470.243	83.94
470.462	97.94
470.681	120.94
470.901	102.94
471.12	85.94
471.339	90.94
471.558	84.94
471.777	86.94
471.997	85.94
472.216	123.94
472.435	140.94
472.654	81.94
472.873	79.94
473.092	89.94
473.311	89.94
473.53	83.94
473.749	73.94
473.968	91.94
474.187	106.94
474.406	103.94
474.625	95.94
474.844	76.94
475.063	88.94
475.282	87.94
475.501	85.94
475.72	85.94
475.939	84.94
476.158	64.94
476.377	86.94
476.596	85.94
476.814	79.94
477.033	86.94
477.252	80.94
477.471	98.94
477.69	68.94
477.908	87.94
478.127	87.94
478.346	80.94
478.564	94.94
478.783	92.94
479.002	92.94
479.22	73.94
479.439	89.94
479.658	104.94
479.876	87.94
480.095	85.94
480.313	97.94
480.532	98.94
480.751	96.94
480.969	127.94
481.188	210.94
481.406	153.94
481.624	88.94
481.843	72.94
482.061	67.94
482.28	81.94
482.498	96.94
482.717	85.94
482.935	80.94
483.153	80.94
483.372	74.94
483.59	81.94
483.808	92.94
484.027	89.94
484.245	66.94
484.463	88.94
484.681	100.94
484.9	85.94
485.118	86.94
485.336	96.94
485.554	88.94
485.772	88.94
485.99	77.94
486.209	110.94
486.427	94.94
486.645	91.94
486.863	96.94
487.081	93.94
487.299	103.94
487.517	79.94
487.735	99.94
487.953	93.94
488.171	85.94
488.389	92.94
488.607	91.94
488.825	93.94
489.043	94.94
489.261	80.94
489.479	85.94
489.696	93.94
489.914	98.94
490.132	83.94
490.35	83.94
490.568	80.94
490.786	99.94
491.003	79.94
491.221	91.94
491.439	82.94
491.657	80.94
491.874	78.94
492.092	75.94
492.31	83.94
492.527	86.94
492.745	92.94
492.963	79.94
493.18	94.94
493.398	88.94
493.615	81.94
493.833	92.94
494.05	88.94
494.268	80.94
494.485	90.94
494.703	80.94
494.92	66.94
495.138	94.94
495.355	80.94
495.573	95.94
495.79	95.94
496.008	94.94
496.225	91.94
496.442	84.94
496.66	98.94
496.877	80.94
497.094	94.94
497.312	75.94
497.529	89.94
497.746	83.94
497.963	86.94
498.181	85.94
498.398	101.94
498.615	121.94
498.832	102.94
499.049	86.94
499.267	89.94
499.484	96.94
499.701	104.94
499.918	81.94
500.135	72.94
500.352	96.94
500.569	92.94
500.786	99.94
501.003	78.94
501.22	83.94
501.437	95.94
501.654	100.94
501.871	110.94
502.088	95.94
502.305	84.94
502.522	95.94
502.739	86.94
502.956	94.94
503.172	92.94
503.389	98.94
503.606	105.94
503.823	86.94
504.04	86.94
504.256	94.94
504.473	81.94
504.69	88.94
504.907	88.94
505.123	73.94
505.34	94.94
505.557	83.94
505.773	96.94
505.99	94.94
506.207	79.94
506.423	73.94
506.64	83.94
506.856	86.94
507.073	93.94
507.289	89.94
507.506	85.94
507.722	120.94
507.939	112.94
508.155	104.94
508.372	108.94
508.588	73.94
508.805	100.94
509.021	85.94
509.238	79.94
509.454	89.94
509.67	82.94
509.887	113.94
510.103	134.94
510.319	218.94
510.536	839.94
510.752	2763.94
510.968	796.94
511.184	177.94
511.401	120.94
511.617	89.94
511.833	101.94
512.049	82.94
512.265	103.94
512.481	96.94
512.698	86.94
512.914	95.94
513.13	93.94
513.346	98.94
513.562	83.94
513.778	79.94
513.994	91.94
514.21	104.94
514.426	117.94
514.642	146.94
514.858	128.94
515.074	173.94
515.29	509.94
515.506	1855.94
515.721	685.94
515.937	161.94
516.153	114.94
