Data from Circ_2022_H10_HRD10591_00009.txt Node
Date: Wed Jan 03 09:53:39 EST 2024
User: Yrep
Spectrometer: HR+D1059
Trigger mode: 1
Integration Time (sec): 1.000000E-1
Scans to average: 1
Electric dark correction enabled: true
Nonlinearity correction enabled: false
Boxcar width: 0
XAxis mode: Wavelengths
Number of Pixels in Spectrum: 2048
>>>>>Begin Spectral Data<<<<<
223.165	-21.88
223.4	-21.88
223.635	-21.88
223.869	-9.88
224.104	-16.88
224.338	-31.88
224.573	-4.88
224.808	-11.88
225.042	-14.88
225.277	-7.88
225.511	-6.88
225.746	6.12
225.98	11.12
226.215	13.12
226.449	21.12
226.683	20.12
226.918	35.12
227.152	20.12
227.387	40.12
227.621	32.12
227.856	45.12
228.09	39.12
228.324	59.12
228.559	60.12
228.793	59.12
229.027	66.12
229.262	76.12
229.496	79.12
229.73	97.12
229.964	84.12
230.199	55.12
230.433	65.12
230.667	77.12
230.901	73.12
231.136	77.12
231.37	73.12
231.604	61.12
231.838	93.12
232.072	76.12
232.306	79.12
232.541	70.12
232.775	79.12
233.009	86.12
233.243	72.12
233.477	69.12
233.711	73.12
233.945	64.12
234.179	79.12
234.413	89.12
234.647	71.12
234.881	68.12
235.115	73.12
235.349	82.12
235.583	60.12
235.817	68.12
236.051	69.12
236.285	68.12
236.519	70.12
236.753	87.12
236.987	88.12
237.221	84.12
237.455	83.12
237.689	75.12
237.922	65.12
238.156	56.12
238.39	69.12
238.624	86.12
238.858	76.12
239.091	83.12
239.325	82.12
239.559	76.12
239.793	84.12
240.027	89.12
240.26	90.12
240.494	71.12
240.728	72.12
240.961	73.12
241.195	72.12
241.429	85.12
241.662	91.12
241.896	65.12
242.13	79.12
242.363	79.12
242.597	79.12
242.83	74.12
243.064	95.12
243.298	68.12
243.531	76.12
243.765	70.12
243.998	81.12
244.232	70.12
244.465	72.12
244.699	69.12
244.932	68.12
245.166	78.12
245.399	86.12
245.633	76.12
245.866	79.12
246.099	79.12
246.333	75.12
246.566	85.12
246.8	73.12
247.033	76.12
247.266	77.12
247.5	69.12
247.733	82.12
247.966	77.12
248.2	60.12
248.433	74.12
248.666	73.12
248.899	96.12
249.133	84.12
249.366	103.12
249.599	94.12
249.832	87.12
250.066	70.12
250.299	89.12
250.532	67.12
250.765	69.12
250.998	68.12
251.231	84.12
251.465	83.12
251.698	62.12
251.931	79.12
252.164	79.12
252.397	75.12
252.63	75.12
252.863	87.12
253.096	84.12
253.329	84.12
253.562	72.12
253.795	77.12
254.028	73.12
254.261	86.12
254.494	88.12
254.727	91.12
254.96	85.12
255.193	87.12
255.426	84.12
255.659	77.12
255.892	94.12
256.124	76.12
256.357	66.12
256.59	80.12
256.823	84.12
257.056	77.12
257.289	99.12
257.521	80.12
257.754	72.12
257.987	83.12
258.22	78.12
258.452	76.12
258.685	82.12
258.918	83.12
259.151	76.12
259.383	75.12
259.616	85.12
259.849	71.12
260.081	90.12
260.314	74.12
260.547	81.12
260.779	94.12
261.012	86.12
261.244	83.12
261.477	86.12
261.71	117.12
261.942	124.12
262.175	146.12
262.407	93.12
262.64	88.12
262.872	91.12
263.105	69.12
263.337	92.12
263.57	92.12
263.802	88.12
264.035	75.12
264.267	78.12
264.499	73.12
264.732	88.12
264.964	72.12
265.197	89.12
265.429	65.12
265.661	80.12
265.894	86.12
266.126	81.12
266.358	74.12
266.591	86.12
266.823	78.12
267.055	77.12
267.287	88.12
267.52	82.12
267.752	70.12
267.984	75.12
268.216	78.12
268.448	83.12
268.681	82.12
268.913	83.12
269.145	80.12
269.377	76.12
269.609	78.12
269.841	69.12
270.073	81.12
270.306	75.12
270.538	89.12
270.77	96.12
271.002	81.12
271.234	87.12
271.466	106.12
271.698	74.12
271.93	83.12
272.162	88.12
272.394	86.12
272.626	83.12
272.858	79.12
273.09	83.12
273.322	79.12
273.553	73.12
273.785	79.12
274.017	67.12
274.249	87.12
274.481	78.12
274.713	94.12
274.945	84.12
275.176	84.12
275.408	91.12
275.64	84.12
275.872	79.12
276.104	82.12
276.335	78.12
276.567	92.12
276.799	130.12
277.031	114.12
277.262	91.12
277.494	89.12
277.726	90.12
277.957	80.12
278.189	82.12
278.421	78.12
278.652	78.12
278.884	86.12
279.115	80.12
279.347	93.12
279.579	89.12
279.81	87.12
280.042	78.12
280.273	78.12
280.505	97.12
280.736	95.12
280.968	83.12
281.199	81.12
281.431	92.12
281.662	87.12
281.894	100.12
282.125	113.12
282.356	129.12
282.588	171.12
282.819	133.12
283.051	90.12
283.282	86.12
283.513	88.12
283.745	92.12
283.976	84.12
284.207	80.12
284.439	102.12
284.67	93.12
284.901	92.12
285.132	79.12
285.364	83.12
285.595	95.12
285.826	84.12
286.057	84.12
286.288	80.12
286.52	71.12
286.751	84.12
286.982	84.12
287.213	78.12
287.444	81.12
287.675	93.12
287.906	83.12
288.138	70.12
288.369	92.12
288.6	98.12
288.831	80.12
289.062	78.12
289.293	97.12
289.524	86.12
289.755	86.12
289.986	86.12
290.217	81.12
290.448	77.12
290.679	90.12
290.91	82.12
291.141	93.12
291.371	91.12
291.602	88.12
291.833	72.12
292.064	98.12
292.295	93.12
292.526	80.12
292.757	98.12
292.987	88.12
293.218	75.12
293.449	86.12
293.68	91.12
293.91	94.12
294.141	97.12
294.372	90.12
294.603	85.12
294.833	82.12
295.064	89.12
295.295	80.12
295.525	88.12
295.756	99.12
295.987	132.12
296.217	164.12
296.448	149.12
296.679	108.12
296.909	84.12
297.14	73.12
297.37	101.12
297.601	90.12
297.831	89.12
298.062	98.12
298.292	81.12
298.523	96.12
298.753	95.12
298.984	92.12
299.214	83.12
299.445	99.12
299.675	89.12
299.905	95.12
300.136	84.12
300.366	96.12
300.597	93.12
300.827	92.12
301.057	91.12
301.288	104.12
301.518	101.12
301.748	81.12
301.979	93.12
302.209	103.12
302.439	89.12
302.669	76.12
302.9	90.12
303.13	92.12
303.36	86.12
303.59	99.12
303.82	113.12
304.051	91.12
304.281	96.12
304.511	84.12
304.741	88.12
304.971	92.12
305.201	94.12
305.431	75.12
305.661	95.12
305.891	83.12
306.121	87.12
306.352	106.12
306.582	99.12
306.812	88.12
307.042	97.12
307.272	99.12
307.502	96.12
307.731	85.12
307.961	100.12
308.191	87.12
308.421	81.12
308.651	100.12
308.881	104.12
309.111	100.12
309.341	94.12
309.571	89.12
309.8	91.12
310.03	84.12
310.26	110.12
310.49	94.12
310.72	119.12
310.949	123.12
311.179	94.12
311.409	93.12
311.639	99.12
311.868	106.12
312.098	119.12
312.328	93.12
312.557	106.12
312.787	142.12
313.017	103.12
313.246	103.12
313.476	89.12
313.706	76.12
313.935	101.12
314.165	102.12
314.394	110.12
314.624	109.12
314.853	94.12
315.083	95.12
315.312	94.12
315.542	100.12
315.771	84.12
316.001	95.12
316.23	91.12
316.46	101.12
316.689	85.12
316.919	101.12
317.148	97.12
317.377	92.12
317.607	104.12
317.836	88.12
318.065	94.12
318.295	84.12
318.524	97.12
318.753	93.12
318.983	103.12
319.212	104.12
319.441	116.12
319.67	111.12
319.9	89.12
320.129	95.12
320.358	89.12
320.587	93.12
320.816	115.12
321.046	93.12
321.275	109.12
321.504	107.12
321.733	111.12
321.962	111.12
322.191	113.12
322.42	111.12
322.649	107.12
322.878	130.12
323.108	131.12
323.337	142.12
323.566	155.12
323.795	186.12
324.024	252.12
324.253	559.12
324.482	1197.12
324.71	2517.12
324.939	3375.12
325.168	1174.12
325.397	321.12
325.626	171.12
325.855	155.12
326.084	153.12
326.313	144.12
326.542	179.12
326.77	311.12
326.999	620.12
327.228	1350.12
327.457	2486.12
327.686	1941.12
327.914	498.12
328.143	234.12
328.372	188.12
328.6	148.12
328.829	150.12
329.058	172.12
329.287	180.12
329.515	137.12
329.744	89.12
329.972	88.12
330.201	114.12
330.43	131.12
330.658	165.12
330.887	197.12
331.115	161.12
331.344	126.12
331.572	120.12
331.801	116.12
332.03	112.12
332.258	106.12
332.486	89.12
332.715	97.12
332.943	95.12
333.172	94.12
333.4	98.12
333.629	109.12
333.857	111.12
334.085	118.12
334.314	92.12
334.542	102.12
334.771	101.12
334.999	95.12
335.227	92.12
335.455	109.12
335.684	99.12
335.912	98.12
336.14	91.12
336.369	88.12
336.597	116.12
336.825	94.12
337.053	102.12
337.281	94.12
337.51	93.12
337.738	104.12
337.966	99.12
338.194	97.12
338.422	94.12
338.65	91.12
338.878	96.12
339.106	83.12
339.334	85.12
339.562	88.12
339.79	94.12
340.018	95.12
340.246	99.12
340.474	107.12
340.702	104.12
340.93	90.12
341.158	96.12
341.386	110.12
341.614	113.12
341.842	98.12
342.07	91.12
342.298	99.12
342.526	91.12
342.754	84.12
342.981	74.12
343.209	89.12
343.437	104.12
343.665	86.12
343.893	76.12
344.12	91.12
344.348	116.12
344.576	107.12
344.804	93.12
345.031	99.12
345.259	104.12
345.487	100.12
345.714	81.12
345.942	90.12
346.17	85.12
346.397	76.12
346.625	97.12
346.853	94.12
347.08	92.12
347.308	112.12
347.535	94.12
347.763	98.12
347.99	109.12
348.218	108.12
348.445	124.12
348.673	111.12
348.9	109.12
349.128	94.12
349.355	101.12
349.583	100.12
349.81	84.12
350.037	99.12
350.265	96.12
350.492	68.12
350.72	101.12
350.947	91.12
351.174	111.12
351.402	110.12
351.629	107.12
351.856	101.12
352.083	108.12
352.311	131.12
352.538	127.12
352.765	117.12
352.992	127.12
353.22	118.12
353.447	108.12
353.674	115.12
353.901	97.12
354.128	86.12
354.355	96.12
354.583	102.12
354.81	89.12
355.037	109.12
355.264	87.12
355.491	85.12
355.718	89.12
355.945	85.12
356.172	92.12
356.399	86.12
356.626	90.12
356.853	93.12
357.08	100.12
357.307	87.12
357.534	88.12
357.761	95.12
357.988	97.12
358.215	102.12
358.441	95.12
358.668	89.12
358.895	105.12
359.122	84.12
359.349	84.12
359.576	108.12
359.802	98.12
360.029	136.12
360.256	133.12
360.483	105.12
360.709	101.12
360.936	102.12
361.163	107.12
361.39	119.12
361.616	77.12
361.843	78.12
362.07	92.12
362.296	100.12
362.523	99.12
362.749	92.12
362.976	90.12
363.203	86.12
363.429	83.12
363.656	89.12
363.882	85.12
364.109	102.12
364.335	104.12
364.562	97.12
364.788	82.12
365.015	108.12
365.241	122.12
365.468	116.12
365.694	119.12
365.92	132.12
366.147	100.12
366.373	94.12
366.599	99.12
366.826	95.12
367.052	90.12
367.278	90.12
367.505	88.12
367.731	91.12
367.957	87.12
368.184	91.12
368.41	117.12
368.636	133.12
368.862	136.12
369.089	113.12
369.315	111.12
369.541	107.12
369.767	112.12
369.993	86.12
370.219	88.12
370.445	71.12
370.672	89.12
370.898	88.12
371.124	93.12
371.35	95.12
371.576	80.12
371.802	77.12
372.028	96.12
372.254	87.12
372.48	95.12
372.706	83.12
372.932	86.12
373.158	90.12
373.384	91.12
373.61	89.12
373.835	84.12
374.061	88.12
374.287	93.12
374.513	96.12
374.739	88.12
374.965	92.12
375.191	83.12
375.416	98.12
375.642	91.12
375.868	92.12
376.094	83.12
376.319	88.12
376.545	88.12
376.771	88.12
376.997	92.12
377.222	95.12
377.448	86.12
377.674	81.12
377.899	91.12
378.125	92.12
378.35	85.12
378.576	82.12
378.802	96.12
379.027	89.12
379.253	92.12
379.478	83.12
379.704	98.12
379.929	88.12
380.155	92.12
380.38	97.12
380.606	96.12
380.831	97.12
381.057	101.12
381.282	87.12
381.507	92.12
381.733	92.12
381.958	83.12
382.184	93.12
382.409	97.12
382.634	110.12
382.86	104.12
383.085	102.12
383.31	111.12
383.535	103.12
383.761	95.12
383.986	87.12
384.211	102.12
384.436	101.12
384.662	98.12
384.887	110.12
385.112	113.12
385.337	132.12
385.562	114.12
385.787	107.12
386.013	124.12
386.238	133.12
386.463	113.12
386.688	123.12
386.913	92.12
387.138	112.12
387.363	92.12
387.588	99.12
387.813	98.12
388.038	112.12
388.263	125.12
388.488	132.12
388.713	95.12
388.938	83.12
389.163	92.12
389.387	103.12
389.612	95.12
389.837	81.12
390.062	88.12
390.287	86.12
390.512	88.12
390.736	83.12
390.961	77.12
391.186	84.12
391.411	91.12
391.636	93.12
391.86	89.12
392.085	79.12
392.31	79.12
392.534	83.12
392.759	91.12
392.984	81.12
393.208	84.12
393.433	97.12
393.658	97.12
393.882	78.12
394.107	79.12
394.331	84.12
394.556	88.12
394.78	85.12
395.005	67.12
395.229	83.12
395.454	73.12
395.678	88.12
395.903	81.12
396.127	85.12
396.352	77.12
396.576	76.12
396.801	90.12
397.025	88.12
397.249	83.12
397.474	102.12
397.698	80.12
397.922	83.12
398.147	84.12
398.371	88.12
398.595	83.12
398.82	86.12
399.044	88.12
399.268	77.12
399.492	76.12
399.717	79.12
399.941	90.12
400.165	103.12
400.389	104.12
400.613	93.12
400.837	89.12
401.062	95.12
401.286	87.12
401.51	101.12
401.734	91.12
401.958	103.12
402.182	147.12
402.406	204.12
402.63	141.12
402.854	92.12
403.078	96.12
403.302	76.12
403.526	76.12
403.75	83.12
403.974	82.12
404.198	85.12
404.422	81.12
404.645	81.12
404.869	88.12
405.093	108.12
405.317	119.12
405.541	96.12
405.765	109.12
405.988	123.12
406.212	215.12
406.436	307.12
406.66	200.12
406.883	115.12
407.107	112.12
407.331	104.12
407.555	94.12
407.778	102.12
408.002	96.12
408.226	83.12
408.449	88.12
408.673	100.12
408.896	93.12
409.12	105.12
409.344	83.12
409.567	84.12
409.791	79.12
410.014	91.12
410.238	69.12
410.461	97.12
410.685	89.12
410.908	100.12
411.132	109.12
411.355	104.12
411.578	90.12
411.802	76.12
412.025	91.12
412.249	85.12
412.472	85.12
412.695	93.12
412.919	80.12
413.142	85.12
413.365	83.12
413.589	87.12
413.812	86.12
414.035	83.12
414.258	90.12
414.482	92.12
414.705	77.12
414.928	83.12
415.151	88.12
415.374	94.12
415.597	76.12
415.821	88.12
416.044	79.12
416.267	92.12
416.49	92.12
416.713	79.12
416.936	82.12
417.159	89.12
417.382	83.12
417.605	90.12
417.828	99.12
418.051	88.12
418.274	98.12
418.497	76.12
418.72	84.12
418.943	85.12
419.166	104.12
419.389	78.12
419.611	82.12
419.834	89.12
420.057	88.12
420.28	83.12
420.503	86.12
420.726	87.12
420.948	95.12
421.171	98.12
421.394	90.12
421.617	95.12
421.839	86.12
422.062	79.12
422.285	93.12
422.507	106.12
422.73	121.12
422.953	103.12
423.175	75.12
423.398	85.12
423.621	102.12
423.843	85.12
424.066	89.12
424.288	101.12
424.511	92.12
424.733	98.12
424.956	131.12
425.178	114.12
425.401	111.12
425.623	110.12
425.846	96.12
426.068	100.12
426.291	95.12
426.513	92.12
426.735	95.12
426.958	97.12
427.18	128.12
427.402	169.12
427.625	238.12
427.847	171.12
428.069	118.12
428.292	96.12
428.514	95.12
428.736	76.12
428.958	78.12
429.181	88.12
429.403	72.12
429.625	87.12
429.847	88.12
430.069	114.12
430.292	102.12
430.514	83.12
430.736	85.12
430.958	82.12
431.18	87.12
431.402	76.12
431.624	82.12
431.846	107.12
432.068	83.12
432.29	87.12
432.512	89.12
432.734	94.12
432.956	90.12
433.178	104.12
433.4	121.12
433.622	95.12
433.844	82.12
434.066	101.12
434.287	91.12
434.509	85.12
434.731	94.12
434.953	84.12
435.175	96.12
435.397	87.12
435.618	99.12
435.84	114.12
436.062	157.12
436.284	135.12
436.505	101.12
436.727	109.12
436.949	90.12
437.17	79.12
437.392	83.12
437.614	85.12
437.835	111.12
438.057	151.12
438.278	153.12
438.5	131.12
438.721	151.12
438.943	115.12
439.165	99.12
439.386	83.12
439.608	101.12
439.829	122.12
440.05	165.12
440.272	199.12
440.493	127.12
440.715	90.12
440.936	92.12
441.158	95.12
441.379	75.12
441.6	102.12
441.822	97.12
442.043	105.12
442.264	111.12
442.486	125.12
442.707	81.12
442.928	118.12
443.149	155.12
443.371	155.12
443.592	127.12
443.813	127.12
444.034	120.12
444.255	88.12
444.476	73.12
444.698	88.12
444.919	92.12
445.14	132.12
445.361	133.12
445.582	158.12
445.803	213.12
446.024	185.12
446.245	165.12
446.466	133.12
446.687	114.12
446.908	76.12
447.129	88.12
447.35	105.12
447.571	96.12
447.792	87.12
448.013	115.12
448.234	128.12
448.455	119.12
448.675	133.12
448.896	161.12
449.117	112.12
449.338	128.12
449.559	161.12
449.779	175.12
450	97.12
450.221	85.12
450.442	89.12
450.662	110.12
450.883	131.12
451.104	131.12
451.324	95.12
451.545	98.12
451.766	86.12
451.986	84.12
452.207	98.12
452.428	92.12
452.648	106.12
452.869	128.12
453.089	141.12
453.31	139.12
453.53	80.12
453.751	89.12
453.971	118.12
454.192	145.12
454.412	105.12
454.633	80.12
454.853	91.12
455.073	79.12
455.294	94.12
455.514	104.12
455.734	105.12
455.955	96.12
456.175	92.12
456.395	89.12
456.616	77.12
456.836	76.12
457.056	90.12
457.276	81.12
457.497	81.12
457.717	99.12
457.937	84.12
458.157	95.12
458.377	111.12
458.598	124.12
458.818	189.12
459.038	245.12
459.258	151.12
459.478	90.12
459.698	97.12
459.918	84.12
460.138	77.12
460.358	70.12
460.578	95.12
460.798	87.12
461.018	91.12
461.238	80.12
461.458	74.12
461.678	85.12
461.898	81.12
462.118	87.12
462.338	73.12
462.558	91.12
462.777	79.12
462.997	89.12
463.217	82.12
463.437	78.12
463.657	64.12
463.876	99.12
464.096	85.12
464.316	87.12
464.536	116.12
464.755	101.12
464.975	129.12
465.195	223.12
465.414	254.12
465.634	89.12
465.854	99.12
466.073	85.12
466.293	94.12
466.512	73.12
466.732	87.12
466.951	82.12
467.171	89.12
467.391	93.12
467.61	130.12
467.829	105.12
468.049	78.12
468.268	94.12
468.488	81.12
468.707	85.12
468.927	87.12
469.146	84.12
469.365	82.12
469.585	72.12
469.804	109.12
470.023	95.12
470.243	102.12
470.462	111.12
470.681	135.12
470.901	88.12
471.12	84.12
471.339	81.12
471.558	90.12
471.777	84.12
471.997	84.12
472.216	103.12
472.435	87.12
472.654	88.12
472.873	81.12
473.092	73.12
473.311	85.12
473.53	72.12
473.749	80.12
473.968	104.12
474.187	136.12
474.406	115.12
474.625	100.12
474.844	91.12
475.063	88.12
475.282	89.12
475.501	77.12
475.72	82.12
475.939	103.12
476.158	69.12
476.377	91.12
476.596	77.12
476.814	115.12
477.033	100.12
477.252	100.12
477.471	89.12
477.69	99.12
477.908	93.12
478.127	84.12
478.346	87.12
478.564	89.12
478.783	95.12
479.002	94.12
479.22	94.12
479.439	111.12
479.658	117.12
479.876	100.12
480.095	104.12
480.313	93.12
480.532	88.12
480.751	91.12
480.969	91.12
481.188	102.12
481.406	106.12
481.624	96.12
481.843	79.12
482.061	71.12
482.28	92.12
482.498	90.12
482.717	88.12
482.935	75.12
483.153	81.12
483.372	81.12
483.59	80.12
483.808	77.12
484.027	83.12
484.245	84.12
484.463	97.12
484.681	88.12
484.9	80.12
485.118	81.12
485.336	77.12
485.554	97.12
485.772	112.12
485.99	111.12
486.209	117.12
486.427	98.12
486.645	129.12
486.863	134.12
487.081	100.12
487.299	99.12
487.517	97.12
487.735	81.12
487.953	101.12
488.171	95.12
488.389	97.12
488.607	98.12
488.825	97.12
489.043	85.12
489.261	86.12
489.479	86.12
489.696	77.12
489.914	78.12
490.132	81.12
490.35	77.12
490.568	79.12
490.786	91.12
491.003	94.12
491.221	101.12
491.439	89.12
491.657	90.12
491.874	87.12
492.092	89.12
492.31	91.12
492.527	90.12
492.745	91.12
492.963	81.12
493.18	83.12
493.398	89.12
493.615	104.12
493.833	110.12
494.05	91.12
494.268	95.12
494.485	80.12
494.703	78.12
494.92	95.12
495.138	92.12
495.355	89.12
495.573	84.12
495.79	80.12
496.008	104.12
496.225	87.12
496.442	81.12
496.66	91.12
496.877	84.12
497.094	92.12
497.312	91.12
497.529	101.12
497.746	94.12
497.963	91.12
498.181	93.12
498.398	94.12
498.615	108.12
498.832	116.12
499.049	93.12
499.267	92.12
499.484	91.12
499.701	93.12
499.918	86.12
500.135	83.12
500.352	86.12
500.569	103.12
500.786	99.12
501.003	84.12
501.22	89.12
501.437	95.12
501.654	103.12
501.871	141.12
502.088	102.12
502.305	79.12
502.522	79.12
502.739	95.12
502.956	83.12
503.172	84.12
503.389	104.12
503.606	112.12
503.823	104.12
504.04	77.12
504.256	83.12
504.473	79.12
504.69	76.12
504.907	97.12
505.123	101.12
505.34	80.12
505.557	86.12
505.773	90.12
505.99	82.12
506.207	86.12
506.423	90.12
506.64	81.12
506.856	73.12
507.073	98.12
507.289	74.12
507.506	111.12
507.722	132.12
507.939	125.12
508.155	104.12
508.372	88.12
508.588	95.12
508.805	111.12
509.021	92.12
509.238	98.12
509.454	92.12
509.67	93.12
509.887	123.12
510.103	143.12
510.319	254.12
510.536	972.12
510.752	3447.12
510.968	974.12
511.184	185.12
511.401	127.12
511.617	98.12
511.833	92.12
512.049	94.12
512.265	98.12
512.481	92.12
512.698	81.12
512.914	100.12
513.13	79.12
513.346	97.12
513.562	114.12
513.778	91.12
513.994	108.12
514.21	115.12
514.426	133.12
514.642	177.12
514.858	172.12
