Data from Circ_2022_H10_HRD10591_00028.txt Node
Date: Wed Jan 03 09:53:43 EST 2024
User: Yrep
Spectrometer: HR+D1059
Trigger mode: 1
Integration Time (sec): 1.000000E-1
Scans to average: 1
Electric dark correction enabled: true
Nonlinearity correction enabled: false
Boxcar width: 0
XAxis mode: Wavelengths
Number of Pixels in Spectrum: 2048
>>>>>Begin Spectral Data<<<<<
223.165	-28.94
223.4	-28.94
223.635	-28.94
223.869	-18.94
224.104	-15.94
224.338	-8.94
224.573	-10.94
224.808	-15.94
225.042	-9.94
225.277	-8.94
225.511	0.06
225.746	2.06
225.98	0.06
226.215	15.06
226.449	30.06
226.683	30.06
226.918	21.06
227.152	20.06
227.387	25.06
227.621	31.06
227.856	41.06
228.09	52.06
228.324	41.06
228.559	57.06
228.793	57.06
229.027	56.06
229.262	56.06
229.496	81.06
229.73	63.06
229.964	78.06
230.199	77.06
230.433	59.06
230.667	60.06
230.901	74.06
231.136	60.06
231.37	68.06
231.604	84.06
231.838	83.06
232.072	88.06
232.306	86.06
232.541	72.06
232.775	72.06
233.009	70.06
233.243	73.06
233.477	76.06
233.711	83.06
233.945	69.06
234.179	74.06
234.413	75.06
234.647	74.06
234.881	68.06
235.115	73.06
235.349	91.06
235.583	84.06
235.817	75.06
236.051	64.06
236.285	84.06
236.519	69.06
236.753	60.06
236.987	65.06
237.221	87.06
237.455	72.06
237.689	66.06
237.922	75.06
238.156	78.06
238.39	71.06
238.624	59.06
238.858	70.06
239.091	81.06
239.325	76.06
239.559	73.06
239.793	60.06
240.027	80.06
240.26	63.06
240.494	67.06
240.728	67.06
240.961	73.06
241.195	80.06
241.429	71.06
241.662	70.06
241.896	73.06
242.13	80.06
242.363	85.06
242.597	72.06
242.83	66.06
243.064	63.06
243.298	69.06
243.531	72.06
243.765	66.06
243.998	76.06
244.232	82.06
244.465	85.06
244.699	86.06
244.932	83.06
245.166	66.06
245.399	65.06
245.633	87.06
245.866	75.06
246.099	80.06
246.333	66.06
246.566	79.06
246.8	73.06
247.033	77.06
247.266	72.06
247.5	64.06
247.733	71.06
247.966	80.06
248.2	79.06
248.433	64.06
248.666	69.06
248.899	79.06
249.133	78.06
249.366	93.06
249.599	84.06
249.832	80.06
250.066	79.06
250.299	74.06
250.532	78.06
250.765	62.06
250.998	79.06
251.231	85.06
251.465	82.06
251.698	63.06
251.931	75.06
252.164	80.06
252.397	81.06
252.63	74.06
252.863	75.06
253.096	90.06
253.329	71.06
253.562	78.06
253.795	71.06
254.028	62.06
254.261	89.06
254.494	74.06
254.727	75.06
254.96	71.06
255.193	74.06
255.426	75.06
255.659	96.06
255.892	81.06
256.124	72.06
256.357	59.06
256.59	85.06
256.823	63.06
257.056	73.06
257.289	71.06
257.521	83.06
257.754	56.06
257.987	92.06
258.22	73.06
258.452	83.06
258.685	67.06
258.918	78.06
259.151	85.06
259.383	95.06
259.616	91.06
259.849	76.06
260.081	77.06
260.314	71.06
260.547	73.06
260.779	86.06
261.012	84.06
261.244	75.06
261.477	80.06
261.71	72.06
261.942	105.06
262.175	123.06
262.407	92.06
262.64	75.06
262.872	82.06
263.105	85.06
263.337	88.06
263.57	78.06
263.802	86.06
264.035	73.06
264.267	78.06
264.499	77.06
264.732	89.06
264.964	82.06
265.197	62.06
265.429	87.06
265.661	72.06
265.894	79.06
266.126	92.06
266.358	88.06
266.591	95.06
266.823	84.06
267.055	87.06
267.287	84.06
267.52	78.06
267.752	75.06
267.984	77.06
268.216	95.06
268.448	78.06
268.681	87.06
268.913	70.06
269.145	70.06
269.377	64.06
269.609	86.06
269.841	86.06
270.073	84.06
270.306	87.06
270.538	88.06
270.77	94.06
271.002	91.06
271.234	88.06
271.466	79.06
271.698	94.06
271.93	70.06
272.162	71.06
272.394	84.06
272.626	101.06
272.858	84.06
273.09	82.06
273.322	80.06
273.553	96.06
273.785	93.06
274.017	82.06
274.249	81.06
274.481	82.06
274.713	87.06
274.945	73.06
275.176	69.06
275.408	76.06
275.64	91.06
275.872	86.06
276.104	96.06
276.335	87.06
276.567	95.06
276.799	110.06
277.031	98.06
277.262	87.06
277.494	75.06
277.726	80.06
277.957	84.06
278.189	84.06
278.421	75.06
278.652	68.06
278.884	83.06
279.115	89.06
279.347	67.06
279.579	85.06
279.81	72.06
280.042	85.06
280.273	84.06
280.505	70.06
280.736	95.06
280.968	81.06
281.199	93.06
281.431	95.06
281.662	84.06
281.894	77.06
282.125	97.06
282.356	129.06
282.588	158.06
282.819	115.06
283.051	85.06
283.282	86.06
283.513	89.06
283.745	76.06
283.976	93.06
284.207	92.06
284.439	88.06
284.67	96.06
284.901	88.06
285.132	95.06
285.364	87.06
285.595	65.06
285.826	80.06
286.057	82.06
286.288	81.06
286.52	88.06
286.751	89.06
286.982	82.06
287.213	81.06
287.444	79.06
287.675	89.06
287.906	103.06
288.138	96.06
288.369	81.06
288.6	82.06
288.831	86.06
289.062	76.06
289.293	93.06
289.524	88.06
289.755	87.06
289.986	92.06
290.217	82.06
290.448	68.06
290.679	82.06
290.91	95.06
291.141	87.06
291.371	84.06
291.602	89.06
291.833	78.06
292.064	87.06
292.295	88.06
292.526	88.06
292.757	82.06
292.987	101.06
293.218	80.06
293.449	86.06
293.68	101.06
293.91	93.06
294.141	80.06
294.372	64.06
294.603	86.06
294.833	76.06
295.064	84.06
295.295	69.06
295.525	80.06
295.756	107.06
295.987	127.06
296.217	153.06
296.448	130.06
296.679	112.06
296.909	94.06
297.14	87.06
297.37	72.06
297.601	95.06
297.831	81.06
298.062	95.06
298.292	82.06
298.523	78.06
298.753	82.06
298.984	91.06
299.214	86.06
299.445	84.06
299.675	97.06
299.905	101.06
300.136	88.06
300.366	82.06
300.597	88.06
300.827	80.06
301.057	85.06
301.288	124.06
301.518	98.06
301.748	81.06
301.979	92.06
302.209	90.06
302.439	96.06
302.669	98.06
302.9	88.06
303.13	85.06
303.36	71.06
303.59	104.06
303.82	110.06
304.051	103.06
304.281	74.06
304.511	87.06
304.741	81.06
304.971	80.06
305.201	101.06
305.431	83.06
305.661	83.06
305.891	88.06
306.121	114.06
306.352	91.06
306.582	115.06
306.812	87.06
307.042	94.06
307.272	95.06
307.502	97.06
307.731	92.06
307.961	93.06
308.191	101.06
308.421	79.06
308.651	93.06
308.881	95.06
309.111	94.06
309.341	94.06
309.571	101.06
309.8	100.06
310.03	116.06
310.26	88.06
310.49	81.06
310.72	91.06
310.949	103.06
311.179	105.06
311.409	102.06
311.639	107.06
311.868	99.06
312.098	95.06
312.328	89.06
312.557	92.06
312.787	110.06
313.017	102.06
313.246	103.06
313.476	96.06
313.706	89.06
313.935	101.06
314.165	103.06
314.394	105.06
314.624	97.06
314.853	96.06
315.083	85.06
315.312	92.06
315.542	86.06
315.771	88.06
316.001	87.06
316.23	93.06
316.46	74.06
316.689	80.06
316.919	79.06
317.148	111.06
317.377	88.06
317.607	71.06
317.836	91.06
318.065	96.06
318.295	88.06
318.524	96.06
318.753	97.06
318.983	79.06
319.212	109.06
319.441	104.06
319.67	122.06
319.9	97.06
320.129	104.06
320.358	87.06
320.587	111.06
320.816	114.06
321.046	109.06
321.275	111.06
321.504	90.06
321.733	91.06
321.962	95.06
322.191	108.06
322.42	103.06
322.649	119.06
322.878	130.06
323.108	112.06
323.337	125.06
323.566	131.06
323.795	178.06
324.024	219.06
324.253	432.06
324.482	947.06
324.71	1998.06
324.939	2708.06
325.168	992.06
325.397	267.06
325.626	168.06
325.855	133.06
326.084	131.06
326.313	143.06
326.542	155.06
326.77	244.06
326.999	503.06
327.228	1023.06
327.457	1933.06
327.686	1567.06
327.914	433.06
328.143	200.06
328.372	165.06
328.6	135.06
328.829	114.06
329.058	136.06
329.287	129.06
329.515	131.06
329.744	121.06
329.972	108.06
330.201	95.06
330.43	116.06
330.658	144.06
330.887	168.06
331.115	132.06
331.344	109.06
331.572	90.06
331.801	108.06
332.03	104.06
332.258	91.06
332.486	84.06
332.715	100.06
332.943	103.06
333.172	92.06
333.4	103.06
333.629	111.06
333.857	132.06
334.085	127.06
334.314	109.06
334.542	123.06
334.771	123.06
334.999	98.06
335.227	96.06
335.455	100.06
335.684	93.06
335.912	83.06
336.14	86.06
336.369	99.06
336.597	91.06
336.825	91.06
337.053	96.06
337.281	88.06
337.51	92.06
337.738	97.06
337.966	100.06
338.194	97.06
338.422	87.06
338.65	93.06
338.878	86.06
339.106	77.06
339.334	95.06
339.562	87.06
339.79	86.06
340.018	94.06
340.246	100.06
340.474	114.06
340.702	112.06
340.93	99.06
341.158	97.06
341.386	105.06
341.614	107.06
341.842	92.06
342.07	104.06
342.298	93.06
342.526	85.06
342.754	85.06
342.981	88.06
343.209	89.06
343.437	100.06
343.665	79.06
343.893	81.06
344.12	91.06
344.348	84.06
344.576	87.06
344.804	84.06
345.031	89.06
345.259	94.06
345.487	84.06
345.714	93.06
345.942	95.06
346.17	87.06
346.397	74.06
346.625	78.06
346.853	88.06
347.08	80.06
347.308	90.06
347.535	89.06
347.763	121.06
347.99	98.06
348.218	118.06
348.445	111.06
348.673	100.06
348.9	104.06
349.128	109.06
349.355	93.06
349.583	109.06
349.81	92.06
350.037	98.06
350.265	90.06
350.492	87.06
350.72	86.06
350.947	90.06
351.174	101.06
351.402	116.06
351.629	109.06
351.856	101.06
352.083	105.06
352.311	112.06
352.538	114.06
352.765	96.06
352.992	121.06
353.22	129.06
353.447	109.06
353.674	95.06
353.901	108.06
354.128	92.06
354.355	101.06
354.583	92.06
354.81	89.06
355.037	95.06
355.264	97.06
355.491	77.06
355.718	102.06
355.945	91.06
356.172	87.06
356.399	106.06
356.626	95.06
356.853	90.06
357.08	99.06
357.307	78.06
357.534	83.06
357.761	93.06
357.988	92.06
358.215	84.06
358.441	93.06
358.668	85.06
358.895	93.06
359.122	99.06
359.349	87.06
359.576	94.06
359.802	98.06
360.029	133.06
360.256	116.06
360.483	108.06
360.709	101.06
360.936	93.06
361.163	97.06
361.39	96.06
361.616	79.06
361.843	82.06
362.07	90.06
362.296	84.06
362.523	78.06
362.749	101.06
362.976	92.06
363.203	99.06
363.429	88.06
363.656	91.06
363.882	79.06
364.109	88.06
364.335	101.06
364.562	88.06
364.788	85.06
365.015	86.06
365.241	94.06
365.468	114.06
365.694	120.06
365.92	109.06
366.147	105.06
366.373	102.06
366.599	86.06
366.826	96.06
367.052	90.06
367.278	87.06
367.505	82.06
367.731	88.06
367.957	84.06
368.184	77.06
368.41	115.06
368.636	114.06
368.862	129.06
369.089	113.06
369.315	99.06
369.541	86.06
369.767	96.06
369.993	99.06
370.219	93.06
370.445	91.06
370.672	84.06
370.898	101.06
371.124	85.06
371.35	83.06
371.576	84.06
371.802	92.06
372.028	79.06
372.254	92.06
372.48	76.06
372.706	76.06
372.932	83.06
373.158	91.06
373.384	83.06
373.61	83.06
373.835	87.06
374.061	101.06
374.287	81.06
374.513	76.06
374.739	83.06
374.965	66.06
375.191	92.06
375.416	78.06
375.642	101.06
375.868	91.06
376.094	88.06
376.319	77.06
376.545	84.06
376.771	91.06
376.997	88.06
377.222	96.06
377.448	73.06
377.674	94.06
377.899	84.06
378.125	84.06
378.35	91.06
378.576	88.06
378.802	85.06
379.027	88.06
379.253	102.06
379.478	98.06
379.704	92.06
379.929	98.06
380.155	96.06
380.38	92.06
380.606	96.06
380.831	96.06
381.057	109.06
381.282	94.06
381.507	95.06
381.733	92.06
381.958	92.06
382.184	99.06
382.409	88.06
382.634	92.06
382.86	96.06
383.085	95.06
383.31	98.06
383.535	111.06
383.761	102.06
383.986	109.06
384.211	99.06
384.436	88.06
384.662	96.06
384.887	102.06
385.112	93.06
385.337	117.06
385.562	116.06
385.787	102.06
386.013	119.06
386.238	121.06
386.463	92.06
386.688	113.06
386.913	105.06
387.138	92.06
387.363	88.06
387.588	108.06
387.813	96.06
388.038	112.06
388.263	102.06
388.488	114.06
388.713	90.06
388.938	86.06
389.163	99.06
389.387	97.06
389.612	96.06
389.837	100.06
390.062	92.06
390.287	85.06
390.512	79.06
390.736	86.06
390.961	81.06
391.186	88.06
391.411	91.06
391.636	91.06
391.86	89.06
392.085	74.06
392.31	76.06
392.534	86.06
392.759	92.06
392.984	85.06
393.208	82.06
393.433	94.06
393.658	88.06
393.882	90.06
394.107	80.06
394.331	80.06
394.556	78.06
394.78	101.06
395.005	90.06
395.229	79.06
395.454	86.06
395.678	83.06
395.903	85.06
396.127	69.06
396.352	76.06
396.576	80.06
396.801	94.06
397.025	86.06
397.249	88.06
397.474	80.06
397.698	78.06
397.922	85.06
398.147	85.06
398.371	72.06
398.595	84.06
398.82	75.06
399.044	92.06
399.268	92.06
399.492	90.06
399.717	86.06
399.941	75.06
400.165	92.06
400.389	92.06
400.613	76.06
400.837	82.06
401.062	81.06
401.286	96.06
401.51	82.06
401.734	80.06
401.958	118.06
402.182	142.06
402.406	180.06
402.63	135.06
402.854	96.06
403.078	90.06
403.302	76.06
403.526	86.06
403.75	79.06
403.974	72.06
404.198	85.06
404.422	65.06
404.645	87.06
404.869	92.06
405.093	88.06
405.317	111.06
405.541	88.06
405.765	99.06
405.988	123.06
406.212	204.06
406.436	291.06
406.66	183.06
406.883	101.06
407.107	93.06
407.331	98.06
407.555	93.06
407.778	95.06
408.002	89.06
408.226	96.06
408.449	89.06
408.673	86.06
408.896	104.06
409.12	107.06
409.344	79.06
409.567	89.06
409.791	95.06
410.014	103.06
410.238	86.06
410.461	79.06
410.685	73.06
410.908	75.06
411.132	113.06
411.355	86.06
411.578	92.06
411.802	77.06
412.025	93.06
412.249	98.06
412.472	91.06
412.695	95.06
412.919	89.06
413.142	90.06
413.365	94.06
413.589	91.06
413.812	86.06
414.035	86.06
414.258	93.06
414.482	75.06
414.705	92.06
414.928	85.06
415.151	86.06
415.374	90.06
415.597	83.06
415.821	87.06
416.044	92.06
416.267	82.06
416.49	89.06
416.713	98.06
416.936	85.06
417.159	79.06
417.382	87.06
417.605	81.06
417.828	97.06
418.051	78.06
418.274	99.06
418.497	81.06
418.72	82.06
418.943	76.06
419.166	76.06
419.389	84.06
419.611	90.06
419.834	84.06
420.057	89.06
420.28	82.06
420.503	80.06
420.726	78.06
420.948	85.06
421.171	96.06
421.394	81.06
421.617	89.06
421.839	94.06
422.062	75.06
422.285	79.06
422.507	84.06
422.73	95.06
422.953	85.06
423.175	91.06
423.398	83.06
423.621	90.06
423.843	86.06
424.066	76.06
424.288	91.06
424.511	94.06
424.733	90.06
424.956	94.06
425.178	82.06
425.401	100.06
425.623	98.06
425.846	101.06
426.068	93.06
426.291	88.06
426.513	96.06
426.735	81.06
426.958	90.06
427.18	127.06
427.402	151.06
427.625	199.06
427.847	152.06
428.069	113.06
428.292	84.06
428.514	84.06
428.736	77.06
428.958	82.06
429.181	82.06
429.403	80.06
429.625	84.06
429.847	100.06
430.069	85.06
430.292	90.06
430.514	73.06
430.736	71.06
430.958	86.06
431.18	85.06
431.402	89.06
431.624	76.06
431.846	93.06
432.068	108.06
432.29	87.06
432.512	79.06
432.734	84.06
432.956	94.06
433.178	88.06
433.4	100.06
433.622	83.06
433.844	76.06
434.066	75.06
434.287	84.06
434.509	87.06
434.731	77.06
434.953	77.06
435.175	94.06
435.397	82.06
435.618	93.06
435.84	90.06
436.062	135.06
436.284	114.06
436.505	113.06
436.727	94.06
436.949	95.06
437.17	92.06
437.392	91.06
437.614	98.06
437.835	108.06
438.057	141.06
438.278	124.06
438.5	107.06
438.721	123.06
438.943	96.06
439.165	100.06
439.386	71.06
439.608	87.06
439.829	90.06
440.05	131.06
440.272	164.06
440.493	98.06
440.715	91.06
440.936	107.06
441.158	82.06
441.379	80.06
441.6	80.06
441.822	102.06
442.043	98.06
442.264	101.06
442.486	94.06
442.707	89.06
442.928	111.06
443.149	151.06
443.371	153.06
443.592	105.06
443.813	97.06
444.034	111.06
444.255	84.06
444.476	87.06
444.698	77.06
444.919	96.06
445.14	127.06
445.361	119.06
445.582	134.06
445.803	145.06
446.024	170.06
446.245	150.06
446.466	109.06
446.687	94.06
446.908	81.06
447.129	88.06
447.35	77.06
447.571	85.06
447.792	89.06
448.013	101.06
448.234	115.06
448.455	110.06
448.675	123.06
448.896	128.06
449.117	109.06
449.338	97.06
449.559	111.06
449.779	130.06
450	103.06
450.221	99.06
450.442	92.06
450.662	101.06
450.883	112.06
451.104	115.06
451.324	98.06
451.545	81.06
451.766	95.06
451.986	91.06
452.207	93.06
452.428	98.06
452.648	107.06
452.869	119.06
453.089	111.06
453.31	127.06
453.53	92.06
453.751	102.06
453.971	111.06
454.192	120.06
454.412	109.06
454.633	87.06
454.853	78.06
455.073	79.06
455.294	85.06
455.514	97.06
455.734	92.06
455.955	87.06
456.175	83.06
456.395	80.06
456.616	71.06
456.836	70.06
457.056	85.06
457.276	91.06
457.497	87.06
457.717	99.06
457.937	82.06
458.157	83.06
458.377	95.06
458.598	111.06
458.818	172.06
459.038	184.06
459.258	150.06
459.478	87.06
459.698	91.06
459.918	84.06
460.138	73.06
460.358	91.06
460.578	80.06
460.798	77.06
461.018	78.06
461.238	74.06
461.458	92.06
461.678	80.06
461.898	80.06
462.118	71.06
462.338	82.06
462.558	87.06
462.777	76.06
462.997	86.06
463.217	85.06
463.437	88.06
463.657	87.06
463.876	84.06
464.096	79.06
464.316	84.06
464.536	83.06
464.755	93.06
464.975	130.06
465.195	210.06
465.414	203.06
465.634	94.06
465.854	71.06
466.073	84.06
466.293	82.06
466.512	79.06
466.732	83.06
466.951	85.06
467.171	88.06
467.391	93.06
467.61	112.06
467.829	105.06
468.049	77.06
468.268	73.06
468.488	83.06
468.707	94.06
468.927	73.06
469.146	87.06
469.365	80.06
469.585	77.06
469.804	78.06
470.023	96.06
470.243	82.06
470.462	93.06
470.681	123.06
470.901	88.06
471.12	72.06
471.339	76.06
471.558	87.06
471.777	96.06
471.997	82.06
472.216	86.06
472.435	124.06
472.654	83.06
472.873	86.06
473.092	69.06
473.311	84.06
473.53	87.06
473.749	86.06
473.968	93.06
474.187	102.06
474.406	100.06
474.625	88.06
474.844	86.06
475.063	78.06
475.282	93.06
475.501	92.06
475.72	100.06
475.939	83.06
476.158	96.06
476.377	86.06
476.596	88.06
476.814	82.06
477.033	90.06
477.252	91.06
477.471	80.06
477.69	83.06
477.908	95.06
478.127	83.06
478.346	89.06
478.564	103.06
478.783	101.06
479.002	88.06
479.22	85.06
479.439	96.06
479.658	106.06
479.876	100.06
480.095	99.06
480.313	107.06
480.532	99.06
480.751	96.06
480.969	107.06
481.188	167.06
481.406	145.06
481.624	102.06
481.843	91.06
482.061	88.06
482.28	94.06
482.498	80.06
482.717	78.06
482.935	92.06
483.153	88.06
483.372	85.06
483.59	87.06
483.808	80.06
484.027	84.06
484.245	84.06
484.463	87.06
484.681	86.06
484.9	78.06
485.118	85.06
485.336	104.06
485.554	93.06
485.772	101.06
485.99	111.06
486.209	119.06
486.427	86.06
486.645	108.06
486.863	101.06
487.081	102.06
487.299	89.06
487.517	80.06
487.735	85.06
487.953	92.06
488.171	88.06
488.389	101.06
488.607	100.06
488.825	94.06
489.043	92.06
489.261	84.06
489.479	80.06
489.696	90.06
489.914	95.06
490.132	93.06
490.35	90.06
490.568	84.06
490.786	92.06
491.003	86.06
491.221	79.06
491.439	86.06
491.657	102.06
491.874	84.06
492.092	93.06
492.31	78.06
492.527	84.06
492.745	91.06
492.963	101.06
493.18	84.06
493.398	90.06
493.615	93.06
493.833	84.06
494.05	81.06
494.268	89.06
494.485	92.06
494.703	90.06
494.92	84.06
495.138	86.06
495.355	96.06
495.573	88.06
495.79	87.06
496.008	108.06
496.225	83.06
496.442	70.06
496.66	86.06
496.877	93.06
497.094	91.06
497.312	82.06
497.529	87.06
497.746	79.06
497.963	87.06
498.181	96.06
498.398	88.06
498.615	122.06
498.832	119.06
499.049	83.06
499.267	97.06
499.484	86.06
499.701	83.06
499.918	99.06
500.135	93.06
500.352	82.06
500.569	76.06
500.786	87.06
501.003	97.06
501.22	98.06
501.437	86.06
501.654	102.06
501.871	110.06
502.088	77.06
502.305	93.06
502.522	88.06
502.739	84.06
502.956	101.06
503.172	85.06
503.389	107.06
503.606	112.06
503.823	99.06
504.04	95.06
504.256	85.06
504.473	94.06
504.69	83.06
504.907	85.06
505.123	95.06
505.34	94.06
505.557	95.06
505.773	102.06
505.99	105.06
506.207	89.06
506.423	78.06
506.64	83.06
506.856	91.06
507.073	99.06
507.289	96.06
507.506	97.06
507.722	138.06
507.939	104.06
508.155	82.06
508.372	93.06
508.588	78.06
508.805	109.06
509.021	89.06
509.238	96.06
509.454	100.06
509.67	104.06
509.887	103.06
510.103	131.06
510.319	241.06
510.536	916.06
510.752	3205.06
510.968	868.06
511.184	174.06
511.401	109.06
511.617	92.06
511.833	98.06
512.049	89.06
512.265	89.06
512.481	77.06
512.698	89.06
512.914	88.06
513.13	93.06
513.346	94.06
513.562	88.06
513.778	112.06
513.994	100.06
514.21	128.06
514.426	112.06
514.642	155.06
514.858	141.06
515.074	194.06
515.29	580.06
515.506	2165.06
515.721	793.06
