Data from Circ_2022_H10_HRD10591_00067.txt Node
Date: Wed Jan 03 09:53:51 EST 2024
User: Yrep
Spectrometer: HR+D1059
Trigger mode: 1
Integration Time (sec): 1.000000E-1
Scans to average: 1
Electric dark correction enabled: true
Nonlinearity correction enabled: false
Boxcar width: 0
XAxis mode: Wavelengths
Number of Pixels in Spectrum: 2048
>>>>>Begin Spectral Data<<<<<
223.165	-18.69
223.4	-18.69
223.635	-18.69
223.869	-11.69
224.104	-6.69
224.338	-27.69
224.573	-16.69
224.808	-8.69
225.042	-3.69
225.277	4.31
225.511	-12.69
225.746	12.31
225.98	-0.69
226.215	-0.69
226.449	11.31
226.683	19.31
226.918	31.31
227.152	29.31
227.387	33.31
227.621	47.31
227.856	54.31
228.09	36.31
228.324	63.31
228.559	57.31
228.793	47.31
229.027	68.31
229.262	72.31
229.496	81.31
229.73	82.31
229.964	85.31
230.199	82.31
230.433	76.31
230.667	70.31
230.901	95.31
231.136	79.31
231.37	89.31
231.604	78.31
231.838	82.31
232.072	81.31
232.306	81.31
232.541	78.31
232.775	76.31
233.009	85.31
233.243	79.31
233.477	91.31
233.711	71.31
233.945	80.31
234.179	91.31
234.413	80.31
234.647	89.31
234.881	76.31
235.115	72.31
235.349	75.31
235.583	81.31
235.817	73.31
236.051	71.31
236.285	86.31
236.519	76.31
236.753	83.31
236.987	82.31
237.221	75.31
237.455	85.31
237.689	78.31
237.922	94.31
238.156	80.31
238.39	77.31
238.624	75.31
238.858	80.31
239.091	60.31
239.325	86.31
239.559	55.31
239.793	79.31
240.027	68.31
240.26	76.31
240.494	75.31
240.728	84.31
240.961	89.31
241.195	72.31
241.429	78.31
241.662	84.31
241.896	60.31
242.13	76.31
242.363	79.31
242.597	73.31
242.83	77.31
243.064	100.31
243.298	84.31
243.531	95.31
243.765	73.31
243.998	88.31
244.232	89.31
244.465	81.31
244.699	83.31
244.932	71.31
245.166	73.31
245.399	90.31
245.633	95.31
245.866	90.31
246.099	79.31
246.333	75.31
246.566	80.31
246.8	84.31
247.033	90.31
247.266	82.31
247.5	69.31
247.733	78.31
247.966	94.31
248.2	87.31
248.433	89.31
248.666	74.31
248.899	74.31
249.133	91.31
249.366	102.31
249.599	104.31
249.832	85.31
250.066	89.31
250.299	89.31
250.532	82.31
250.765	74.31
250.998	79.31
251.231	77.31
251.465	89.31
251.698	75.31
251.931	83.31
252.164	86.31
252.397	89.31
252.63	82.31
252.863	84.31
253.096	64.31
253.329	76.31
253.562	86.31
253.795	80.31
254.028	81.31
254.261	77.31
254.494	84.31
254.727	77.31
254.96	88.31
255.193	77.31
255.426	71.31
255.659	88.31
255.892	73.31
256.124	89.31
256.357	87.31
256.59	95.31
256.823	83.31
257.056	79.31
257.289	82.31
257.521	79.31
257.754	88.31
257.987	79.31
258.22	87.31
258.452	100.31
258.685	94.31
258.918	102.31
259.151	83.31
259.383	85.31
259.616	75.31
259.849	75.31
260.081	94.31
260.314	88.31
260.547	68.31
260.779	77.31
261.012	88.31
261.244	94.31
261.477	94.31
261.71	98.31
261.942	101.31
262.175	124.31
262.407	100.31
262.64	87.31
262.872	103.31
263.105	84.31
263.337	80.31
263.57	69.31
263.802	98.31
264.035	80.31
264.267	88.31
264.499	82.31
264.732	85.31
264.964	68.31
265.197	87.31
265.429	83.31
265.661	83.31
265.894	84.31
266.126	91.31
266.358	68.31
266.591	92.31
266.823	77.31
267.055	85.31
267.287	92.31
267.52	85.31
267.752	90.31
267.984	76.31
268.216	78.31
268.448	90.31
268.681	78.31
268.913	90.31
269.145	90.31
269.377	92.31
269.609	80.31
269.841	79.31
270.073	98.31
270.306	94.31
270.538	82.31
270.77	82.31
271.002	75.31
271.234	85.31
271.466	94.31
271.698	76.31
271.93	73.31
272.162	76.31
272.394	87.31
272.626	91.31
272.858	83.31
273.09	95.31
273.322	92.31
273.553	66.31
273.785	94.31
274.017	89.31
274.249	83.31
274.481	84.31
274.713	87.31
274.945	87.31
275.176	101.31
275.408	93.31
275.64	79.31
275.872	99.31
276.104	100.31
276.335	88.31
276.567	106.31
276.799	107.31
277.031	104.31
277.262	100.31
277.494	89.31
277.726	82.31
277.957	87.31
278.189	73.31
278.421	85.31
278.652	88.31
278.884	97.31
279.115	85.31
279.347	101.31
279.579	86.31
279.81	85.31
280.042	113.31
280.273	93.31
280.505	100.31
280.736	83.31
280.968	79.31
281.199	84.31
281.431	90.31
281.662	89.31
281.894	95.31
282.125	85.31
282.356	119.31
282.588	147.31
282.819	106.31
283.051	85.31
283.282	82.31
283.513	91.31
283.745	85.31
283.976	81.31
284.207	82.31
284.439	89.31
284.67	85.31
284.901	75.31
285.132	80.31
285.364	81.31
285.595	87.31
285.826	97.31
286.057	92.31
286.288	63.31
286.52	78.31
286.751	76.31
286.982	91.31
287.213	81.31
287.444	84.31
287.675	81.31
287.906	87.31
288.138	94.31
288.369	79.31
288.6	77.31
288.831	92.31
289.062	80.31
289.293	95.31
289.524	95.31
289.755	94.31
289.986	80.31
290.217	81.31
290.448	85.31
290.679	90.31
290.91	83.31
291.141	97.31
291.371	96.31
291.602	73.31
291.833	96.31
292.064	81.31
292.295	85.31
292.526	90.31
292.757	94.31
292.987	93.31
293.218	101.31
293.449	99.31
293.68	94.31
293.91	84.31
294.141	83.31
294.372	90.31
294.603	68.31
294.833	84.31
295.064	85.31
295.295	92.31
295.525	85.31
295.756	109.31
295.987	126.31
296.217	154.31
296.448	127.31
296.679	108.31
296.909	79.31
297.14	85.31
297.37	91.31
297.601	86.31
297.831	83.31
298.062	94.31
298.292	84.31
298.523	85.31
298.753	90.31
298.984	90.31
299.214	89.31
299.445	98.31
299.675	89.31
299.905	90.31
300.136	97.31
300.366	83.31
300.597	89.31
300.827	93.31
301.057	89.31
301.288	103.31
301.518	95.31
301.748	86.31
301.979	93.31
302.209	75.31
302.439	85.31
302.669	100.31
302.9	79.31
303.13	99.31
303.36	97.31
303.59	97.31
303.82	126.31
304.051	89.31
304.281	79.31
304.511	106.31
304.741	91.31
304.971	85.31
305.201	84.31
305.431	90.31
305.661	91.31
305.891	88.31
306.121	88.31
306.352	111.31
306.582	102.31
306.812	88.31
307.042	100.31
307.272	92.31
307.502	111.31
307.731	106.31
307.961	104.31
308.191	92.31
308.421	86.31
308.651	98.31
308.881	100.31
309.111	96.31
309.341	110.31
309.571	93.31
309.8	98.31
310.03	110.31
310.26	113.31
310.49	89.31
310.72	100.31
310.949	95.31
311.179	90.31
311.409	97.31
311.639	100.31
311.868	99.31
312.098	111.31
312.328	106.31
312.557	103.31
312.787	103.31
313.017	103.31
313.246	91.31
313.476	100.31
313.706	94.31
313.935	99.31
314.165	103.31
314.394	96.31
314.624	102.31
314.853	104.31
315.083	108.31
315.312	96.31
315.542	87.31
315.771	86.31
316.001	95.31
316.23	90.31
316.46	86.31
316.689	102.31
316.919	83.31
317.148	84.31
317.377	102.31
317.607	99.31
317.836	102.31
318.065	80.31
318.295	98.31
318.524	99.31
318.753	98.31
318.983	96.31
319.212	100.31
319.441	117.31
319.67	107.31
319.9	87.31
320.129	98.31
320.358	86.31
320.587	92.31
320.816	92.31
321.046	98.31
321.275	94.31
321.504	93.31
321.733	108.31
321.962	99.31
322.191	88.31
322.42	104.31
322.649	120.31
322.878	114.31
323.108	114.31
323.337	114.31
323.566	125.31
323.795	138.31
324.024	192.31
324.253	402.31
324.482	799.31
324.71	1604.31
324.939	2191.31
325.168	831.31
325.397	258.31
325.626	153.31
325.855	140.31
326.084	117.31
326.313	131.31
326.542	155.31
326.77	225.31
326.999	455.31
327.228	937.31
327.457	1640.31
327.686	1332.31
327.914	377.31
328.143	219.31
328.372	177.31
328.6	147.31
328.829	122.31
329.058	130.31
329.287	147.31
329.515	125.31
329.744	108.31
329.972	140.31
330.201	168.31
330.43	221.31
330.658	167.31
330.887	164.31
331.115	140.31
331.344	116.31
331.572	108.31
331.801	101.31
332.03	91.31
332.258	91.31
332.486	105.31
332.715	86.31
332.943	99.31
333.172	98.31
333.4	104.31
333.629	99.31
333.857	124.31
334.085	122.31
334.314	176.31
334.542	241.31
334.771	221.31
334.999	122.31
335.227	115.31
335.455	87.31
335.684	100.31
335.912	87.31
336.14	100.31
336.369	102.31
336.597	94.31
336.825	95.31
337.053	75.31
337.281	81.31
337.51	78.31
337.738	90.31
337.966	99.31
338.194	103.31
338.422	97.31
338.65	83.31
338.878	99.31
339.106	81.31
339.334	87.31
339.562	100.31
339.79	94.31
340.018	87.31
340.246	86.31
340.474	107.31
340.702	114.31
340.93	94.31
341.158	95.31
341.386	109.31
341.614	100.31
341.842	89.31
342.07	84.31
342.298	101.31
342.526	102.31
342.754	107.31
342.981	93.31
343.209	108.31
343.437	93.31
343.665	98.31
343.893	88.31
344.12	93.31
344.348	85.31
344.576	90.31
344.804	90.31
345.031	103.31
345.259	99.31
345.487	86.31
345.714	85.31
345.942	91.31
346.17	97.31
346.397	78.31
346.625	103.31
346.853	102.31
347.08	96.31
347.308	107.31
347.535	88.31
347.763	103.31
347.99	96.31
348.218	100.31
348.445	129.31
348.673	109.31
348.9	101.31
349.128	86.31
349.355	94.31
349.583	90.31
349.81	102.31
350.037	92.31
350.265	95.31
350.492	88.31
350.72	112.31
350.947	99.31
351.174	92.31
351.402	118.31
351.629	111.31
351.856	98.31
352.083	99.31
352.311	107.31
352.538	98.31
352.765	107.31
352.992	113.31
353.22	114.31
353.447	96.31
353.674	105.31
353.901	101.31
354.128	108.31
354.355	85.31
354.583	110.31
354.81	106.31
355.037	93.31
355.264	103.31
355.491	92.31
355.718	88.31
355.945	105.31
356.172	91.31
356.399	98.31
356.626	80.31
356.853	85.31
357.08	103.31
357.307	86.31
357.534	87.31
357.761	89.31
357.988	99.31
358.215	106.31
358.441	98.31
358.668	95.31
358.895	91.31
359.122	96.31
359.349	105.31
359.576	105.31
359.802	86.31
360.029	108.31
360.256	109.31
360.483	100.31
360.709	85.31
360.936	96.31
361.163	83.31
361.39	92.31
361.616	103.31
361.843	101.31
362.07	91.31
362.296	95.31
362.523	69.31
362.749	93.31
362.976	83.31
363.203	77.31
363.429	88.31
363.656	85.31
363.882	91.31
364.109	81.31
364.335	87.31
364.562	94.31
364.788	98.31
365.015	89.31
365.241	108.31
365.468	114.31
365.694	115.31
365.92	88.31
366.147	90.31
366.373	93.31
366.599	88.31
366.826	88.31
367.052	89.31
367.278	74.31
367.505	89.31
367.731	84.31
367.957	102.31
368.184	98.31
368.41	101.31
368.636	135.31
368.862	127.31
369.089	122.31
369.315	113.31
369.541	83.31
369.767	91.31
369.993	89.31
370.219	97.31
370.445	98.31
370.672	90.31
370.898	80.31
371.124	98.31
371.35	80.31
371.576	84.31
371.802	88.31
372.028	91.31
372.254	83.31
372.48	87.31
372.706	87.31
372.932	77.31
373.158	99.31
373.384	93.31
373.61	95.31
373.835	90.31
374.061	90.31
374.287	89.31
374.513	92.31
374.739	94.31
374.965	90.31
375.191	95.31
375.416	78.31
375.642	101.31
375.868	92.31
376.094	91.31
376.319	88.31
376.545	91.31
376.771	91.31
376.997	80.31
377.222	90.31
377.448	104.31
377.674	88.31
377.899	85.31
378.125	88.31
378.35	91.31
378.576	92.31
378.802	89.31
379.027	90.31
379.253	93.31
379.478	92.31
379.704	86.31
379.929	101.31
380.155	95.31
380.38	101.31
380.606	96.31
380.831	90.31
381.057	105.31
381.282	95.31
381.507	89.31
381.733	93.31
381.958	86.31
382.184	100.31
382.409	99.31
382.634	89.31
382.86	107.31
383.085	101.31
383.31	97.31
383.535	100.31
383.761	103.31
383.986	90.31
384.211	100.31
384.436	94.31
384.662	101.31
384.887	93.31
385.112	115.31
385.337	94.31
385.562	91.31
385.787	90.31
386.013	108.31
386.238	104.31
386.463	100.31
386.688	105.31
386.913	105.31
387.138	99.31
387.363	94.31
387.588	98.31
387.813	97.31
388.038	103.31
388.263	102.31
388.488	101.31
388.713	107.31
388.938	84.31
389.163	96.31
389.387	88.31
389.612	84.31
389.837	81.31
390.062	98.31
390.287	83.31
390.512	92.31
390.736	75.31
390.961	90.31
391.186	104.31
391.411	91.31
391.636	93.31
391.86	87.31
392.085	98.31
392.31	82.31
392.534	88.31
392.759	80.31
392.984	93.31
393.208	94.31
393.433	98.31
393.658	93.31
393.882	96.31
394.107	97.31
394.331	89.31
394.556	83.31
394.78	100.31
395.005	88.31
395.229	87.31
395.454	78.31
395.678	85.31
395.903	77.31
396.127	95.31
396.352	99.31
396.576	93.31
396.801	82.31
397.025	87.31
397.249	87.31
397.474	81.31
397.698	100.31
397.922	103.31
398.147	86.31
398.371	82.31
398.595	83.31
398.82	90.31
399.044	89.31
399.268	91.31
399.492	89.31
399.717	89.31
399.941	88.31
400.165	97.31
400.389	99.31
400.613	87.31
400.837	90.31
401.062	90.31
401.286	77.31
401.51	93.31
401.734	91.31
401.958	98.31
402.182	137.31
402.406	160.31
402.63	130.31
402.854	97.31
403.078	89.31
403.302	86.31
403.526	88.31
403.75	91.31
403.974	83.31
404.198	84.31
404.422	93.31
404.645	91.31
404.869	89.31
405.093	91.31
405.317	105.31
405.541	99.31
405.765	103.31
405.988	128.31
406.212	175.31
406.436	246.31
406.66	147.31
406.883	97.31
407.107	110.31
407.331	88.31
407.555	87.31
407.778	87.31
408.002	92.31
408.226	87.31
408.449	91.31
408.673	94.31
408.896	91.31
409.12	104.31
409.344	103.31
409.567	86.31
409.791	103.31
410.014	115.31
410.238	104.31
410.461	91.31
410.685	96.31
410.908	103.31
411.132	103.31
411.355	98.31
411.578	81.31
411.802	94.31
412.025	81.31
412.249	77.31
412.472	81.31
412.695	95.31
412.919	85.31
413.142	82.31
413.365	92.31
413.589	105.31
413.812	83.31
414.035	89.31
414.258	81.31
414.482	93.31
414.705	85.31
414.928	85.31
415.151	89.31
415.374	115.31
415.597	99.31
415.821	95.31
416.044	90.31
416.267	91.31
416.49	85.31
416.713	97.31
416.936	92.31
417.159	82.31
417.382	92.31
417.605	98.31
417.828	92.31
418.051	85.31
418.274	85.31
418.497	86.31
418.72	97.31
418.943	105.31
419.166	90.31
419.389	89.31
419.611	97.31
419.834	90.31
420.057	92.31
420.28	96.31
420.503	73.31
420.726	89.31
420.948	98.31
421.171	92.31
421.394	101.31
421.617	95.31
421.839	96.31
422.062	97.31
422.285	94.31
422.507	114.31
422.73	101.31
422.953	100.31
423.175	96.31
423.398	91.31
423.621	83.31
423.843	101.31
424.066	88.31
424.288	81.31
424.511	85.31
424.733	95.31
424.956	92.31
425.178	97.31
425.401	99.31
425.623	100.31
425.846	101.31
426.068	85.31
426.291	89.31
426.513	96.31
426.735	87.31
426.958	101.31
427.18	105.31
427.402	135.31
427.625	151.31
427.847	137.31
428.069	132.31
428.292	83.31
428.514	79.31
428.736	80.31
428.958	96.31
429.181	84.31
429.403	88.31
429.625	87.31
429.847	94.31
430.069	81.31
430.292	70.31
430.514	95.31
430.736	95.31
430.958	100.31
431.18	103.31
431.402	80.31
431.624	88.31
431.846	87.31
432.068	100.31
432.29	93.31
432.512	91.31
432.734	92.31
432.956	76.31
433.178	101.31
433.4	91.31
433.622	80.31
433.844	87.31
434.066	86.31
434.287	95.31
434.509	94.31
434.731	99.31
434.953	88.31
435.175	94.31
435.397	96.31
435.618	97.31
435.84	98.31
436.062	110.31
436.284	101.31
436.505	107.31
436.727	100.31
436.949	92.31
437.17	90.31
437.392	77.31
437.614	93.31
437.835	108.31
438.057	123.31
438.278	96.31
438.5	101.31
438.721	119.31
438.943	106.31
439.165	90.31
439.386	86.31
439.608	90.31
439.829	93.31
440.05	114.31
440.272	137.31
440.493	107.31
440.715	97.31
440.936	79.31
441.158	83.31
441.379	91.31
441.6	85.31
441.822	80.31
442.043	99.31
442.264	87.31
442.486	102.31
442.707	76.31
442.928	125.31
443.149	131.31
443.371	141.31
443.592	112.31
443.813	103.31
444.034	102.31
444.255	92.31
444.476	99.31
444.698	84.31
444.919	99.31
445.14	134.31
445.361	120.31
445.582	115.31
445.803	135.31
446.024	141.31
446.245	129.31
446.466	113.31
446.687	80.31
446.908	94.31
447.129	83.31
447.35	82.31
447.571	94.31
447.792	99.31
448.013	105.31
448.234	106.31
448.455	93.31
448.675	101.31
448.896	98.31
449.117	113.31
449.338	108.31
449.559	104.31
449.779	129.31
450	104.31
450.221	79.31
450.442	87.31
450.662	82.31
450.883	106.31
451.104	105.31
451.324	100.31
451.545	90.31
451.766	86.31
451.986	86.31
452.207	87.31
452.428	86.31
452.648	85.31
452.869	113.31
453.089	108.31
453.31	131.31
453.53	87.31
453.751	98.31
453.971	117.31
454.192	106.31
454.412	101.31
454.633	85.31
454.853	79.31
455.073	73.31
455.294	99.31
455.514	111.31
455.734	99.31
455.955	80.31
456.175	76.31
456.395	103.31
456.616	101.31
456.836	88.31
457.056	103.31
457.276	89.31
457.497	87.31
457.717	77.31
457.937	72.31
458.157	79.31
458.377	95.31
458.598	98.31
458.818	133.31
459.038	153.31
459.258	108.31
459.478	98.31
459.698	76.31
459.918	86.31
460.138	85.31
460.358	89.31
460.578	87.31
460.798	91.31
461.018	97.31
461.238	91.31
461.458	96.31
461.678	83.31
461.898	93.31
462.118	89.31
462.338	95.31
462.558	87.31
462.777	89.31
462.997	84.31
463.217	88.31
463.437	80.31
463.657	95.31
463.876	72.31
464.096	79.31
464.316	94.31
464.536	89.31
464.755	95.31
464.975	100.31
465.195	176.31
465.414	166.31
465.634	99.31
465.854	75.31
466.073	90.31
466.293	92.31
466.512	85.31
466.732	85.31
466.951	87.31
467.171	86.31
467.391	101.31
467.61	97.31
467.829	99.31
468.049	128.31
468.268	143.31
468.488	97.31
468.707	84.31
468.927	98.31
469.146	91.31
469.365	96.31
469.585	92.31
469.804	82.31
470.023	96.31
470.243	88.31
470.462	111.31
470.681	107.31
470.901	88.31
471.12	97.31
471.339	95.31
471.558	91.31
471.777	77.31
471.997	115.31
472.216	173.31
472.435	285.31
472.654	134.31
472.873	95.31
473.092	83.31
473.311	85.31
473.53	92.31
473.749	92.31
473.968	93.31
474.187	92.31
474.406	104.31
474.625	91.31
474.844	89.31
475.063	83.31
475.282	93.31
475.501	89.31
475.72	91.31
475.939	82.31
476.158	105.31
476.377	105.31
476.596	81.31
476.814	88.31
477.033	89.31
477.252	80.31
477.471	86.31
477.69	81.31
477.908	97.31
478.127	83.31
478.346	85.31
478.564	89.31
478.783	97.31
479.002	92.31
479.22	91.31
479.439	103.31
479.658	101.31
479.876	90.31
480.095	95.31
480.313	85.31
480.532	106.31
480.751	101.31
480.969	179.31
481.188	456.31
481.406	321.31
481.624	102.31
481.843	76.31
482.061	90.31
482.28	84.31
482.498	98.31
482.717	97.31
482.935	90.31
483.153	89.31
483.372	83.31
483.59	89.31
483.808	91.31
484.027	90.31
484.245	90.31
484.463	101.31
484.681	91.31
484.9	89.31
485.118	85.31
485.336	107.31
485.554	101.31
485.772	92.31
485.99	98.31
486.209	99.31
486.427	91.31
486.645	96.31
486.863	104.31
487.081	104.31
487.299	77.31
487.517	94.31
487.735	95.31
487.953	91.31
488.171	82.31
488.389	91.31
488.607	96.31
488.825	95.31
489.043	87.31
489.261	96.31
489.479	82.31
489.696	98.31
489.914	93.31
490.132	88.31
490.35	84.31
490.568	85.31
490.786	97.31
491.003	109.31
491.221	87.31
491.439	87.31
491.657	80.31
491.874	81.31
492.092	83.31
492.31	104.31
492.527	103.31
492.745	98.31
492.963	96.31
493.18	99.31
493.398	97.31
493.615	92.31
493.833	92.31
494.05	93.31
494.268	99.31
494.485	86.31
494.703	88.31
494.92	113.31
495.138	90.31
495.355	84.31
495.573	92.31
495.79	92.31
496.008	92.31
496.225	94.31
496.442	85.31
496.66	86.31
496.877	91.31
497.094	91.31
497.312	90.31
497.529	92.31
497.746	94.31
497.963	86.31
498.181	82.31
498.398	104.31
498.615	117.31
498.832	119.31
499.049	103.31
499.267	108.31
499.484	92.31
499.701	83.31
499.918	92.31
500.135	106.31
500.352	96.31
500.569	97.31
500.786	86.31
501.003	84.31
501.22	84.31
501.437	85.31
501.654	89.31
501.871	114.31
502.088	98.31
502.305	86.31
502.522	84.31
502.739	88.31
502.956	84.31
503.172	92.31
503.389	100.31
503.606	98.31
503.823	102.31
504.04	95.31
504.256	89.31
504.473	84.31
504.69	91.31
504.907	82.31
505.123	92.31
505.34	77.31
505.557	89.31
505.773	90.31
505.99	108.31
506.207	99.31
506.423	79.31
506.64	81.31
506.856	87.31
507.073	86.31
507.289	84.31
507.506	109.31
507.722	122.31
507.939	115.31
508.155	89.31
508.372	95.31
508.588	99.31
508.805	107.31
509.021	97.31
509.238	103.31
509.454	82.31
509.67	95.31
509.887	104.31
510.103	135.31
510.319	215.31
510.536	808.31
510.752	2741.31
510.968	769.31
511.184	200.31
511.401	103.31
511.617	90.31
511.833	90.31
512.049	92.31
512.265	96.31
512.481	90.31
512.698	68.31
512.914	85.31
513.13	80.31
513.346	90.31
513.562	91.31
513.778	104.31
513.994	86.31
514.21	100.31
514.426	132.31
514.642	142.31
514.858	116.31
515.074	176.31
515.29	490.31
