Data from Circ_2022_H10_HRD10591_00078.txt Node
Date: Wed Jan 03 09:53:53 EST 2024
User: Yrep
Spectrometer: HR+D1059
Trigger mode: 1
Integration Time (sec): 1.000000E-1
Scans to average: 1
Electric dark correction enabled: true
Nonlinearity correction enabled: false
Boxcar width: 0
XAxis mode: Wavelengths
Number of Pixels in Spectrum: 2048
>>>>>Begin Spectral Data<<<<<
223.165	-20.75
223.4	-20.75
223.635	-20.75
223.869	-21.75
224.104	-12.75
224.338	-21.75
224.573	-10.75
224.808	-15.75
225.042	-8.75
225.277	-4.75
225.511	-3.75
225.746	10.25
225.98	17.25
226.215	24.25
226.449	13.25
226.683	16.25
226.918	14.25
227.152	25.25
227.387	38.25
227.621	39.25
227.856	55.25
228.09	53.25
228.324	43.25
228.559	67.25
228.793	63.25
229.027	66.25
229.262	78.25
229.496	84.25
229.73	88.25
229.964	117.25
230.199	89.25
230.433	74.25
230.667	89.25
230.901	91.25
231.136	84.25
231.37	80.25
231.604	99.25
231.838	85.25
232.072	79.25
232.306	86.25
232.541	88.25
232.775	94.25
233.009	96.25
233.243	85.25
233.477	81.25
233.711	89.25
233.945	86.25
234.179	83.25
234.413	98.25
234.647	87.25
234.881	78.25
235.115	80.25
235.349	71.25
235.583	84.25
235.817	90.25
236.051	91.25
236.285	79.25
236.519	89.25
236.753	79.25
236.987	94.25
237.221	98.25
237.455	86.25
237.689	83.25
237.922	88.25
238.156	81.25
238.39	86.25
238.624	76.25
238.858	88.25
239.091	81.25
239.325	93.25
239.559	81.25
239.793	82.25
240.027	80.25
240.26	68.25
240.494	73.25
240.728	63.25
240.961	84.25
241.195	83.25
241.429	84.25
241.662	68.25
241.896	81.25
242.13	67.25
242.363	79.25
242.597	64.25
242.83	81.25
243.064	78.25
243.298	84.25
243.531	61.25
243.765	69.25
243.998	88.25
244.232	88.25
244.465	101.25
244.699	90.25
244.932	83.25
245.166	93.25
245.399	74.25
245.633	78.25
245.866	101.25
246.099	69.25
246.333	89.25
246.566	96.25
246.8	83.25
247.033	85.25
247.266	77.25
247.5	74.25
247.733	81.25
247.966	79.25
248.2	80.25
248.433	83.25
248.666	80.25
248.899	88.25
249.133	96.25
249.366	101.25
249.599	117.25
249.832	77.25
250.066	94.25
250.299	83.25
250.532	95.25
250.765	84.25
250.998	75.25
251.231	91.25
251.465	85.25
251.698	88.25
251.931	84.25
252.164	88.25
252.397	99.25
252.63	79.25
252.863	86.25
253.096	86.25
253.329	75.25
253.562	74.25
253.795	84.25
254.028	93.25
254.261	99.25
254.494	78.25
254.727	88.25
254.96	81.25
255.193	76.25
255.426	94.25
255.659	85.25
255.892	90.25
256.124	88.25
256.357	88.25
256.59	70.25
256.823	91.25
257.056	74.25
257.289	95.25
257.521	88.25
257.754	89.25
257.987	91.25
258.22	94.25
258.452	86.25
258.685	78.25
258.918	80.25
259.151	81.25
259.383	88.25
259.616	85.25
259.849	85.25
260.081	101.25
260.314	78.25
260.547	84.25
260.779	92.25
261.012	92.25
261.244	95.25
261.477	105.25
261.71	111.25
261.942	134.25
262.175	137.25
262.407	116.25
262.64	96.25
262.872	81.25
263.105	79.25
263.337	80.25
263.57	79.25
263.802	93.25
264.035	103.25
264.267	89.25
264.499	95.25
264.732	75.25
264.964	109.25
265.197	79.25
265.429	110.25
265.661	88.25
265.894	89.25
266.126	91.25
266.358	92.25
266.591	76.25
266.823	95.25
267.055	89.25
267.287	86.25
267.52	85.25
267.752	88.25
267.984	88.25
268.216	91.25
268.448	91.25
268.681	81.25
268.913	95.25
269.145	86.25
269.377	105.25
269.609	84.25
269.841	89.25
270.073	76.25
270.306	87.25
270.538	96.25
270.77	93.25
271.002	87.25
271.234	97.25
271.466	93.25
271.698	99.25
271.93	87.25
272.162	94.25
272.394	93.25
272.626	86.25
272.858	115.25
273.09	104.25
273.322	98.25
273.553	82.25
273.785	94.25
274.017	89.25
274.249	100.25
274.481	84.25
274.713	81.25
274.945	82.25
275.176	94.25
275.408	96.25
275.64	112.25
275.872	92.25
276.104	88.25
276.335	94.25
276.567	93.25
276.799	124.25
277.031	132.25
277.262	127.25
277.494	120.25
277.726	96.25
277.957	82.25
278.189	88.25
278.421	91.25
278.652	78.25
278.884	102.25
279.115	97.25
279.347	96.25
279.579	96.25
279.81	98.25
280.042	108.25
280.273	123.25
280.505	104.25
280.736	96.25
280.968	81.25
281.199	92.25
281.431	85.25
281.662	93.25
281.894	110.25
282.125	120.25
282.356	154.25
282.588	170.25
282.819	122.25
283.051	102.25
283.282	105.25
283.513	89.25
283.745	94.25
283.976	98.25
284.207	94.25
284.439	96.25
284.67	80.25
284.901	97.25
285.132	94.25
285.364	89.25
285.595	85.25
285.826	97.25
286.057	102.25
286.288	97.25
286.52	92.25
286.751	80.25
286.982	78.25
287.213	92.25
287.444	104.25
287.675	113.25
287.906	84.25
288.138	105.25
288.369	102.25
288.6	96.25
288.831	95.25
289.062	92.25
289.293	89.25
289.524	96.25
289.755	96.25
289.986	92.25
290.217	105.25
290.448	96.25
290.679	92.25
290.91	86.25
291.141	99.25
291.371	92.25
291.602	99.25
291.833	97.25
292.064	80.25
292.295	92.25
292.526	100.25
292.757	93.25
292.987	92.25
293.218	91.25
293.449	84.25
293.68	94.25
293.91	84.25
294.141	101.25
294.372	93.25
294.603	101.25
294.833	84.25
295.064	98.25
295.295	96.25
295.525	92.25
295.756	103.25
295.987	143.25
296.217	154.25
296.448	154.25
296.679	110.25
296.909	96.25
297.14	92.25
297.37	92.25
297.601	93.25
297.831	79.25
298.062	105.25
298.292	102.25
298.523	96.25
298.753	99.25
298.984	92.25
299.214	90.25
299.445	113.25
299.675	98.25
299.905	94.25
300.136	100.25
300.366	111.25
300.597	103.25
300.827	86.25
301.057	132.25
301.288	124.25
301.518	100.25
301.748	100.25
301.979	103.25
302.209	94.25
302.439	103.25
302.669	99.25
302.9	93.25
303.13	101.25
303.36	107.25
303.59	117.25
303.82	119.25
304.051	95.25
304.281	96.25
304.511	102.25
304.741	77.25
304.971	100.25
305.201	96.25
305.431	88.25
305.661	89.25
305.891	89.25
306.121	96.25
306.352	130.25
306.582	118.25
306.812	97.25
307.042	100.25
307.272	100.25
307.502	108.25
307.731	126.25
307.961	112.25
308.191	88.25
308.421	91.25
308.651	95.25
308.881	94.25
309.111	102.25
309.341	93.25
309.571	111.25
309.8	102.25
310.03	111.25
310.26	125.25
310.49	100.25
310.72	116.25
310.949	127.25
311.179	120.25
311.409	111.25
311.639	107.25
311.868	116.25
312.098	104.25
312.328	108.25
312.557	121.25
312.787	131.25
313.017	121.25
313.246	119.25
313.476	103.25
313.706	106.25
313.935	97.25
314.165	107.25
314.394	118.25
314.624	105.25
314.853	106.25
315.083	112.25
315.312	94.25
315.542	111.25
315.771	117.25
316.001	106.25
316.23	88.25
316.46	92.25
316.689	96.25
316.919	115.25
317.148	112.25
317.377	111.25
317.607	108.25
317.836	108.25
318.065	98.25
318.295	97.25
318.524	89.25
318.753	104.25
318.983	88.25
319.212	112.25
319.441	124.25
319.67	117.25
319.9	100.25
320.129	113.25
320.358	113.25
320.587	120.25
320.816	124.25
321.046	112.25
321.275	105.25
321.504	103.25
321.733	119.25
321.962	94.25
322.191	111.25
322.42	119.25
322.649	123.25
322.878	125.25
323.108	125.25
323.337	143.25
323.566	143.25
323.795	191.25
324.024	272.25
324.253	503.25
324.482	1106.25
324.71	2264.25
324.939	3061.25
325.168	1119.25
325.397	318.25
325.626	178.25
325.855	149.25
326.084	143.25
326.313	143.25
326.542	166.25
326.77	282.25
326.999	574.25
327.228	1191.25
327.457	2196.25
327.686	1760.25
327.914	488.25
328.143	295.25
328.372	270.25
328.6	200.25
328.829	145.25
329.058	176.25
329.287	195.25
329.515	143.25
329.744	135.25
329.972	187.25
330.201	285.25
330.43	385.25
330.658	249.25
330.887	224.25
331.115	171.25
331.344	138.25
331.572	137.25
331.801	118.25
332.03	134.25
332.258	115.25
332.486	114.25
332.715	115.25
332.943	112.25
333.172	108.25
333.4	111.25
333.629	131.25
333.857	155.25
334.085	188.25
334.314	269.25
334.542	451.25
334.771	414.25
334.999	165.25
335.227	133.25
335.455	104.25
335.684	111.25
335.912	115.25
336.14	108.25
336.369	111.25
336.597	107.25
336.825	114.25
337.053	99.25
337.281	91.25
337.51	104.25
337.738	98.25
337.966	109.25
338.194	134.25
338.422	100.25
338.65	105.25
338.878	96.25
339.106	101.25
339.334	93.25
339.562	97.25
339.79	110.25
340.018	100.25
340.246	97.25
340.474	112.25
340.702	101.25
340.93	93.25
341.158	105.25
341.386	100.25
341.614	115.25
341.842	106.25
342.07	93.25
342.298	101.25
342.526	100.25
342.754	91.25
342.981	87.25
343.209	85.25
343.437	131.25
343.665	100.25
343.893	80.25
344.12	108.25
344.348	95.25
344.576	90.25
344.804	93.25
345.031	102.25
345.259	107.25
345.487	110.25
345.714	110.25
345.942	93.25
346.17	112.25
346.397	86.25
346.625	104.25
346.853	116.25
347.08	95.25
347.308	94.25
347.535	121.25
347.763	112.25
347.99	108.25
348.218	120.25
348.445	118.25
348.673	115.25
348.9	112.25
349.128	101.25
349.355	100.25
349.583	96.25
349.81	97.25
350.037	107.25
350.265	101.25
350.492	93.25
350.72	101.25
350.947	119.25
351.174	110.25
351.402	145.25
351.629	124.25
351.856	98.25
352.083	104.25
352.311	139.25
352.538	125.25
352.765	114.25
352.992	117.25
353.22	136.25
353.447	113.25
353.674	131.25
353.901	94.25
354.128	91.25
354.355	108.25
354.583	101.25
354.81	100.25
355.037	91.25
355.264	94.25
355.491	108.25
355.718	86.25
355.945	102.25
356.172	92.25
356.399	96.25
356.626	111.25
356.853	93.25
357.08	81.25
357.307	95.25
357.534	95.25
357.761	104.25
357.988	103.25
358.215	96.25
358.441	102.25
358.668	103.25
358.895	102.25
359.122	96.25
359.349	95.25
359.576	112.25
359.802	107.25
360.029	141.25
360.256	155.25
360.483	129.25
360.709	106.25
360.936	109.25
361.163	110.25
361.39	115.25
361.616	116.25
361.843	96.25
362.07	126.25
362.296	117.25
362.523	110.25
362.749	115.25
362.976	98.25
363.203	90.25
363.429	98.25
363.656	107.25
363.882	81.25
364.109	97.25
364.335	99.25
364.562	84.25
364.788	102.25
365.015	100.25
365.241	115.25
365.468	125.25
365.694	101.25
365.92	117.25
366.147	109.25
366.373	104.25
366.599	91.25
366.826	80.25
367.052	82.25
367.278	109.25
367.505	113.25
367.731	100.25
367.957	116.25
368.184	100.25
368.41	127.25
368.636	128.25
368.862	143.25
369.089	129.25
369.315	106.25
369.541	106.25
369.767	97.25
369.993	98.25
370.219	97.25
370.445	93.25
370.672	93.25
370.898	107.25
371.124	88.25
371.35	103.25
371.576	100.25
371.802	94.25
372.028	87.25
372.254	84.25
372.48	96.25
372.706	96.25
372.932	100.25
373.158	107.25
373.384	110.25
373.61	106.25
373.835	94.25
374.061	99.25
374.287	87.25
374.513	86.25
374.739	97.25
374.965	87.25
375.191	107.25
375.416	102.25
375.642	101.25
375.868	96.25
376.094	107.25
376.319	102.25
376.545	85.25
376.771	104.25
376.997	93.25
377.222	90.25
377.448	103.25
377.674	107.25
377.899	94.25
378.125	99.25
378.35	88.25
378.576	100.25
378.802	95.25
379.027	97.25
379.253	94.25
379.478	92.25
379.704	97.25
379.929	90.25
380.155	90.25
380.38	116.25
380.606	94.25
380.831	97.25
381.057	103.25
381.282	103.25
381.507	102.25
381.733	111.25
381.958	102.25
382.184	93.25
382.409	92.25
382.634	99.25
382.86	101.25
383.085	111.25
383.31	104.25
383.535	107.25
383.761	101.25
383.986	105.25
384.211	95.25
384.436	106.25
384.662	100.25
384.887	99.25
385.112	110.25
385.337	114.25
385.562	115.25
385.787	87.25
386.013	123.25
386.238	119.25
386.463	100.25
386.688	110.25
386.913	106.25
387.138	99.25
387.363	111.25
387.588	109.25
387.813	108.25
388.038	117.25
388.263	111.25
388.488	113.25
388.713	101.25
388.938	116.25
389.163	107.25
389.387	97.25
389.612	93.25
389.837	106.25
390.062	100.25
390.287	105.25
390.512	84.25
390.736	87.25
390.961	99.25
391.186	101.25
391.411	92.25
391.636	100.25
391.86	82.25
392.085	110.25
392.31	89.25
392.534	104.25
392.759	97.25
392.984	104.25
393.208	88.25
393.433	94.25
393.658	100.25
393.882	97.25
394.107	99.25
394.331	92.25
394.556	99.25
394.78	86.25
395.005	93.25
395.229	96.25
395.454	87.25
395.678	80.25
395.903	85.25
396.127	93.25
396.352	94.25
396.576	86.25
396.801	86.25
397.025	92.25
397.249	86.25
397.474	87.25
397.698	90.25
397.922	90.25
398.147	111.25
398.371	92.25
398.595	96.25
398.82	80.25
399.044	77.25
399.268	96.25
399.492	81.25
399.717	92.25
399.941	94.25
400.165	114.25
400.389	91.25
400.613	110.25
400.837	108.25
401.062	90.25
401.286	108.25
401.51	97.25
401.734	100.25
401.958	121.25
402.182	157.25
402.406	230.25
402.63	160.25
402.854	111.25
403.078	100.25
403.302	129.25
403.526	97.25
403.75	100.25
403.974	83.25
404.198	89.25
404.422	88.25
404.645	93.25
404.869	107.25
405.093	100.25
405.317	112.25
405.541	131.25
405.765	117.25
405.988	157.25
406.212	222.25
406.436	324.25
406.66	211.25
406.883	133.25
407.107	91.25
407.331	106.25
407.555	117.25
407.778	105.25
408.002	111.25
408.226	102.25
408.449	95.25
408.673	102.25
408.896	100.25
409.12	108.25
409.344	101.25
409.567	87.25
409.791	96.25
410.014	88.25
410.238	100.25
410.461	107.25
410.685	97.25
410.908	100.25
411.132	119.25
411.355	106.25
411.578	100.25
411.802	88.25
412.025	101.25
412.249	101.25
412.472	102.25
412.695	118.25
412.919	103.25
413.142	95.25
413.365	87.25
413.589	103.25
413.812	98.25
414.035	89.25
414.258	108.25
414.482	94.25
414.705	104.25
414.928	105.25
415.151	87.25
415.374	98.25
415.597	89.25
415.821	98.25
416.044	96.25
416.267	83.25
416.49	105.25
416.713	96.25
416.936	104.25
417.159	83.25
417.382	90.25
417.605	101.25
417.828	108.25
418.051	105.25
418.274	93.25
418.497	81.25
418.72	81.25
418.943	97.25
419.166	86.25
419.389	92.25
419.611	101.25
419.834	92.25
420.057	95.25
420.28	87.25
420.503	96.25
420.726	73.25
420.948	93.25
421.171	92.25
421.394	103.25
421.617	94.25
421.839	93.25
422.062	87.25
422.285	101.25
422.507	120.25
422.73	105.25
422.953	105.25
423.175	109.25
423.398	92.25
423.621	91.25
423.843	105.25
424.066	101.25
424.288	84.25
424.511	100.25
424.733	118.25
424.956	140.25
425.178	126.25
425.401	113.25
425.623	113.25
425.846	102.25
426.068	109.25
426.291	99.25
426.513	87.25
426.735	103.25
426.958	108.25
427.18	134.25
427.402	182.25
427.625	223.25
427.847	196.25
428.069	161.25
428.292	97.25
428.514	107.25
428.736	90.25
428.958	92.25
429.181	91.25
429.403	89.25
429.625	99.25
429.847	101.25
430.069	134.25
430.292	103.25
430.514	89.25
430.736	86.25
430.958	92.25
431.18	85.25
431.402	102.25
431.624	90.25
431.846	84.25
432.068	92.25
432.29	92.25
432.512	86.25
432.734	80.25
432.956	102.25
433.178	112.25
433.4	124.25
433.622	99.25
433.844	93.25
434.066	82.25
434.287	100.25
434.509	102.25
434.731	97.25
434.953	94.25
435.175	100.25
435.397	91.25
435.618	108.25
435.84	133.25
436.062	171.25
436.284	141.25
436.505	115.25
436.727	101.25
436.949	96.25
437.17	93.25
437.392	91.25
437.614	103.25
437.835	144.25
438.057	161.25
438.278	141.25
438.5	118.25
438.721	158.25
438.943	126.25
439.165	97.25
439.386	99.25
439.608	101.25
439.829	111.25
440.05	152.25
440.272	219.25
440.493	119.25
440.715	100.25
440.936	103.25
441.158	87.25
441.379	83.25
441.6	95.25
441.822	115.25
442.043	100.25
442.264	135.25
442.486	131.25
442.707	107.25
442.928	136.25
443.149	187.25
443.371	189.25
443.592	134.25
443.813	142.25
444.034	127.25
444.255	119.25
444.476	93.25
444.698	88.25
444.919	87.25
445.14	129.25
445.361	132.25
445.582	136.25
445.803	194.25
446.024	200.25
446.245	174.25
446.466	140.25
446.687	95.25
446.908	83.25
447.129	95.25
447.35	108.25
447.571	107.25
447.792	107.25
448.013	125.25
448.234	133.25
448.455	122.25
448.675	143.25
448.896	158.25
449.117	124.25
449.338	140.25
449.559	152.25
449.779	161.25
450	115.25
450.221	100.25
450.442	101.25
450.662	99.25
450.883	129.25
451.104	155.25
451.324	109.25
451.545	103.25
451.766	95.25
451.986	105.25
452.207	100.25
452.428	107.25
452.648	115.25
452.869	127.25
453.089	133.25
453.31	156.25
453.53	102.25
453.751	109.25
453.971	129.25
454.192	135.25
454.412	92.25
454.633	96.25
454.853	103.25
455.073	95.25
455.294	97.25
455.514	130.25
455.734	106.25
455.955	95.25
456.175	85.25
456.395	80.25
456.616	88.25
456.836	86.25
457.056	97.25
457.276	91.25
457.497	89.25
457.717	92.25
457.937	99.25
458.157	93.25
458.377	101.25
458.598	127.25
458.818	226.25
459.038	247.25
459.258	165.25
459.478	103.25
459.698	110.25
459.918	83.25
460.138	90.25
460.358	89.25
460.578	99.25
460.798	87.25
461.018	110.25
461.238	79.25
461.458	92.25
461.678	95.25
461.898	88.25
462.118	96.25
462.338	89.25
462.558	84.25
462.777	91.25
462.997	97.25
463.217	88.25
463.437	104.25
463.657	95.25
463.876	88.25
464.096	92.25
464.316	107.25
464.536	99.25
464.755	107.25
464.975	125.25
465.195	259.25
465.414	245.25
465.634	127.25
465.854	101.25
466.073	96.25
466.293	78.25
466.512	88.25
466.732	104.25
466.951	98.25
467.171	91.25
467.391	94.25
467.61	124.25
467.829	141.25
468.049	188.25
468.268	204.25
468.488	123.25
468.707	89.25
468.927	93.25
469.146	93.25
469.365	90.25
469.585	91.25
469.804	82.25
470.023	116.25
470.243	120.25
470.462	118.25
470.681	136.25
470.901	115.25
471.12	87.25
471.339	87.25
471.558	103.25
471.777	105.25
471.997	135.25
472.216	276.25
472.435	525.25
472.654	191.25
472.873	104.25
473.092	96.25
473.311	91.25
473.53	95.25
473.749	105.25
473.968	113.25
474.187	124.25
474.406	109.25
474.625	96.25
474.844	98.25
475.063	96.25
475.282	83.25
475.501	96.25
475.72	95.25
475.939	99.25
476.158	97.25
476.377	96.25
476.596	102.25
476.814	98.25
477.033	103.25
477.252	98.25
477.471	90.25
477.69	92.25
477.908	96.25
478.127	103.25
478.346	96.25
478.564	96.25
478.783	108.25
479.002	109.25
479.22	107.25
479.439	123.25
479.658	125.25
479.876	134.25
480.095	103.25
480.313	113.25
480.532	103.25
480.751	109.25
480.969	259.25
481.188	845.25
481.406	590.25
481.624	164.25
481.843	108.25
482.061	94.25
482.28	84.25
482.498	89.25
482.717	86.25
482.935	93.25
483.153	91.25
483.372	93.25
483.59	98.25
483.808	87.25
484.027	91.25
484.245	101.25
484.463	92.25
484.681	96.25
484.9	94.25
485.118	103.25
485.336	98.25
485.554	97.25
485.772	106.25
485.99	95.25
486.209	108.25
486.427	105.25
486.645	118.25
486.863	115.25
487.081	122.25
487.299	109.25
487.517	100.25
487.735	104.25
487.953	111.25
488.171	102.25
488.389	99.25
488.607	96.25
488.825	91.25
489.043	93.25
489.261	118.25
489.479	95.25
489.696	88.25
489.914	85.25
490.132	84.25
490.35	91.25
490.568	95.25
490.786	92.25
491.003	91.25
491.221	113.25
491.439	100.25
491.657	95.25
491.874	100.25
492.092	91.25
492.31	100.25
492.527	96.25
492.745	76.25
492.963	107.25
493.18	101.25
493.398	106.25
493.615	89.25
493.833	97.25
494.05	98.25
494.268	92.25
494.485	93.25
494.703	89.25
494.92	89.25
495.138	105.25
495.355	96.25
495.573	102.25
495.79	97.25
496.008	86.25
496.225	105.25
496.442	102.25
496.66	102.25
496.877	86.25
497.094	94.25
497.312	91.25
497.529	97.25
497.746	118.25
497.963	92.25
498.181	95.25
498.398	107.25
498.615	124.25
498.832	117.25
499.049	119.25
499.267	95.25
499.484	91.25
499.701	96.25
499.918	91.25
500.135	94.25
500.352	93.25
500.569	104.25
500.786	90.25
501.003	121.25
501.22	94.25
501.437	88.25
501.654	106.25
501.871	148.25
502.088	95.25
502.305	93.25
502.522	77.25
502.739	111.25
502.956	97.25
503.172	99.25
503.389	99.25
503.606	104.25
503.823	117.25
504.04	118.25
504.256	135.25
504.473	106.25
504.69	99.25
504.907	111.25
505.123	104.25
505.34	98.25
505.557	90.25
505.773	102.25
505.99	89.25
506.207	95.25
506.423	97.25
506.64	83.25
506.856	86.25
507.073	103.25
507.289	101.25
507.506	113.25
507.722	138.25
507.939	137.25
508.155	108.25
508.372	89.25
508.588	99.25
508.805	109.25
509.021	93.25
509.238	89.25
509.454	102.25
509.67	113.25
509.887	113.25
510.103	160.25
510.319	266.25
510.536	966.25
510.752	3410.25
510.968	966.25
511.184	211.25
