Data from Circ_2022_H10_HRD10591_00023.txt Node
Date: Wed Jan 03 09:53:42 EST 2024
User: Yrep
Spectrometer: HR+D1059
Trigger mode: 1
Integration Time (sec): 1.000000E-1
Scans to average: 1
Electric dark correction enabled: true
Nonlinearity correction enabled: false
Boxcar width: 0
XAxis mode: Wavelengths
Number of Pixels in Spectrum: 2048
>>>>>Begin Spectral Data<<<<<
223.165	-14
223.4	-14
223.635	-14
223.869	-23
224.104	-14
224.338	-13
224.573	-9
224.808	-12
225.042	1
225.277	-16
225.511	8
225.746	3
225.98	-2
226.215	8
226.449	14
226.683	20
226.918	25
227.152	24
227.387	31
227.621	43
227.856	44
228.09	50
228.324	52
228.559	51
228.793	67
229.027	69
229.262	68
229.496	73
229.73	114
229.964	100
230.199	73
230.433	77
230.667	70
230.901	84
231.136	73
231.37	76
231.604	92
231.838	90
232.072	85
232.306	78
232.541	82
232.775	85
233.009	88
233.243	75
233.477	69
233.711	80
233.945	79
234.179	88
234.413	88
234.647	76
234.881	80
235.115	67
235.349	74
235.583	89
235.817	72
236.051	74
236.285	87
236.519	84
236.753	77
236.987	90
237.221	104
237.455	90
237.689	84
237.922	89
238.156	58
238.39	80
238.624	76
238.858	72
239.091	90
239.325	97
239.559	83
239.793	89
240.027	74
240.26	80
240.494	75
240.728	87
240.961	69
241.195	77
241.429	80
241.662	84
241.896	76
242.13	83
242.363	68
242.597	78
242.83	77
243.064	73
243.298	74
243.531	83
243.765	75
243.998	61
244.232	69
244.465	83
244.699	87
244.932	88
245.166	83
245.399	86
245.633	66
245.866	71
246.099	84
246.333	81
246.566	87
246.8	73
247.033	72
247.266	70
247.5	98
247.733	74
247.966	89
248.2	72
248.433	75
248.666	84
248.899	78
249.133	94
249.366	112
249.599	111
249.832	88
250.066	90
250.299	88
250.532	84
250.765	84
250.998	81
251.231	91
251.465	90
251.698	58
251.931	76
252.164	75
252.397	83
252.63	77
252.863	77
253.096	84
253.329	79
253.562	70
253.795	79
254.028	76
254.261	79
254.494	89
254.727	84
254.96	86
255.193	70
255.426	84
255.659	78
255.892	94
256.124	75
256.357	93
256.59	70
256.823	84
257.056	91
257.289	83
257.521	84
257.754	85
257.987	85
258.22	91
258.452	81
258.685	84
258.918	92
259.151	78
259.383	92
259.616	82
259.849	84
260.081	89
260.314	79
260.547	84
260.779	74
261.012	95
261.244	77
261.477	89
261.71	105
261.942	124
262.175	140
262.407	100
262.64	85
262.872	98
263.105	97
263.337	83
263.57	91
263.802	83
264.035	83
264.267	85
264.499	95
264.732	99
264.964	74
265.197	77
265.429	80
265.661	76
265.894	84
266.126	74
266.358	78
266.591	78
266.823	88
267.055	81
267.287	84
267.52	82
267.752	77
267.984	75
268.216	73
268.448	67
268.681	88
268.913	89
269.145	96
269.377	92
269.609	89
269.841	85
270.073	73
270.306	82
270.538	88
270.77	87
271.002	82
271.234	95
271.466	84
271.698	76
271.93	78
272.162	85
272.394	78
272.626	91
272.858	86
273.09	80
273.322	95
273.553	86
273.785	78
274.017	86
274.249	80
274.481	86
274.713	88
274.945	101
275.176	88
275.408	85
275.64	87
275.872	90
276.104	99
276.335	94
276.567	111
276.799	128
277.031	120
277.262	93
277.494	92
277.726	76
277.957	83
278.189	91
278.421	88
278.652	98
278.884	77
279.115	85
279.347	76
279.579	82
279.81	99
280.042	83
280.273	83
280.505	92
280.736	89
280.968	83
281.199	76
281.431	101
281.662	81
281.894	99
282.125	100
282.356	152
282.588	180
282.819	153
283.051	93
283.282	83
283.513	99
283.745	98
283.976	97
284.207	75
284.439	89
284.67	88
284.901	83
285.132	80
285.364	80
285.595	92
285.826	88
286.057	80
286.288	88
286.52	93
286.751	73
286.982	80
287.213	86
287.444	92
287.675	84
287.906	91
288.138	93
288.369	113
288.6	108
288.831	108
289.062	106
289.293	101
289.524	84
289.755	95
289.986	89
290.217	83
290.448	82
290.679	97
290.91	96
291.141	93
291.371	98
291.602	88
291.833	88
292.064	95
292.295	101
292.526	92
292.757	90
292.987	92
293.218	94
293.449	76
293.68	79
293.91	100
294.141	88
294.372	89
294.603	93
294.833	85
295.064	74
295.295	91
295.525	105
295.756	107
295.987	134
296.217	168
296.448	137
296.679	100
296.909	93
297.14	79
297.37	95
297.601	86
297.831	90
298.062	95
298.292	100
298.523	93
298.753	83
298.984	88
299.214	100
299.445	93
299.675	108
299.905	109
300.136	105
300.366	96
300.597	98
300.827	98
301.057	101
301.288	118
301.518	102
301.748	101
301.979	86
302.209	102
302.439	99
302.669	96
302.9	89
303.13	86
303.36	104
303.59	97
303.82	113
304.051	100
304.281	100
304.511	97
304.741	89
304.971	94
305.201	86
305.431	81
305.661	74
305.891	106
306.121	108
306.352	108
306.582	114
306.812	96
307.042	96
307.272	92
307.502	104
307.731	97
307.961	95
308.191	96
308.421	93
308.651	92
308.881	99
309.111	87
309.341	102
309.571	125
309.8	97
310.03	113
310.26	103
310.49	105
310.72	114
310.949	109
311.179	97
311.409	113
311.639	98
311.868	103
312.098	101
312.328	108
312.557	115
312.787	135
313.017	132
313.246	99
313.476	102
313.706	99
313.935	111
314.165	137
314.394	106
314.624	113
314.853	119
315.083	117
315.312	90
315.542	90
315.771	95
316.001	101
316.23	102
316.46	100
316.689	104
316.919	110
317.148	103
317.377	92
317.607	89
317.836	89
318.065	100
318.295	73
318.524	90
318.753	89
318.983	86
319.212	120
319.441	121
319.67	119
319.9	103
320.129	101
320.358	111
320.587	109
320.816	113
321.046	107
321.275	91
321.504	88
321.733	107
321.962	101
322.191	108
322.42	114
322.649	124
322.878	135
323.108	134
323.337	150
323.566	167
323.795	204
324.024	264
324.253	561
324.482	1192
324.71	2565
324.939	3404
325.168	1190
325.397	320
325.626	185
325.855	168
326.084	147
326.313	156
326.542	187
326.77	298
326.999	610
327.228	1332
327.457	2442
327.686	1955
327.914	504
328.143	258
328.372	211
328.6	150
328.829	158
329.058	177
329.287	176
329.515	133
329.744	112
329.972	107
330.201	110
330.43	165
330.658	173
330.887	198
331.115	166
331.344	106
331.572	116
331.801	139
332.03	133
332.258	118
332.486	96
332.715	101
332.943	98
333.172	104
333.4	93
333.629	142
333.857	134
334.085	112
334.314	132
334.542	147
334.771	129
334.999	108
335.227	104
335.455	91
335.684	101
335.912	109
336.14	108
336.369	115
336.597	122
336.825	110
337.053	100
337.281	98
337.51	80
337.738	98
337.966	100
338.194	126
338.422	94
338.65	83
338.878	90
339.106	96
339.334	86
339.562	85
339.79	91
340.018	104
340.246	100
340.474	93
340.702	93
340.93	92
341.158	94
341.386	101
341.614	102
341.842	116
342.07	96
342.298	112
342.526	97
342.754	92
342.981	96
343.209	97
343.437	112
343.665	87
343.893	113
344.12	93
344.348	97
344.576	99
344.804	90
345.031	100
345.259	115
345.487	99
345.714	92
345.942	90
346.17	89
346.397	99
346.625	87
346.853	97
347.08	92
347.308	106
347.535	112
347.763	121
347.99	105
348.218	110
348.445	130
348.673	114
348.9	96
349.128	92
349.355	103
349.583	90
349.81	105
350.037	110
350.265	93
350.492	106
350.72	100
350.947	115
351.174	116
351.402	125
351.629	108
351.856	108
352.083	119
352.311	133
352.538	120
352.765	115
352.992	123
353.22	106
353.447	109
353.674	104
353.901	98
354.128	93
354.355	90
354.583	108
354.81	91
355.037	98
355.264	93
355.491	96
355.718	98
355.945	94
356.172	92
356.399	93
356.626	87
356.853	94
357.08	94
357.307	102
357.534	89
357.761	92
357.988	95
358.215	100
358.441	81
358.668	99
358.895	101
359.122	91
359.349	98
359.576	89
359.802	120
360.029	156
360.256	130
360.483	116
360.709	96
360.936	100
361.163	105
361.39	112
361.616	95
361.843	116
362.07	101
362.296	108
362.523	99
362.749	113
362.976	102
363.203	101
363.429	83
363.656	88
363.882	105
364.109	91
364.335	99
364.562	98
364.788	106
365.015	101
365.241	99
365.468	125
365.694	108
365.92	99
366.147	92
366.373	82
366.599	92
366.826	84
367.052	100
367.278	93
367.505	116
367.731	103
367.957	97
368.184	98
368.41	124
368.636	122
368.862	145
369.089	131
369.315	99
369.541	98
369.767	98
369.993	96
370.219	86
370.445	102
370.672	93
370.898	103
371.124	78
371.35	94
371.576	102
371.802	94
372.028	84
372.254	80
372.48	86
372.706	77
372.932	79
373.158	97
373.384	96
373.61	108
373.835	110
374.061	96
374.287	79
374.513	90
374.739	87
374.965	93
375.191	91
375.416	90
375.642	93
375.868	93
376.094	97
376.319	92
376.545	95
376.771	98
376.997	100
377.222	97
377.448	81
377.674	97
377.899	97
378.125	113
378.35	87
378.576	104
378.802	88
379.027	92
379.253	84
379.478	92
379.704	97
379.929	96
380.155	98
380.38	106
380.606	104
380.831	101
381.057	97
381.282	88
381.507	105
381.733	102
381.958	91
382.184	106
382.409	109
382.634	101
382.86	85
383.085	113
383.31	99
383.535	113
383.761	109
383.986	90
384.211	100
384.436	109
384.662	109
384.887	108
385.112	124
385.337	91
385.562	104
385.787	109
386.013	111
386.238	138
386.463	130
386.688	111
386.913	105
387.138	109
387.363	86
387.588	91
387.813	105
388.038	101
388.263	116
388.488	108
388.713	93
388.938	82
389.163	99
389.387	88
389.612	89
389.837	89
390.062	86
390.287	97
390.512	92
390.736	91
390.961	87
391.186	88
391.411	78
391.636	95
391.86	85
392.085	70
392.31	100
392.534	86
392.759	86
392.984	97
393.208	96
393.433	114
393.658	97
393.882	88
394.107	90
394.331	94
394.556	99
394.78	80
395.005	77
395.229	93
395.454	78
395.678	85
395.903	97
396.127	88
396.352	80
396.576	75
396.801	84
397.025	85
397.249	80
397.474	81
397.698	83
397.922	101
398.147	88
398.371	99
398.595	87
398.82	88
399.044	79
399.268	93
399.492	85
399.717	86
399.941	109
400.165	91
400.389	115
400.613	81
400.837	86
401.062	90
401.286	94
401.51	87
401.734	96
401.958	111
402.182	157
402.406	222
402.63	150
402.854	99
403.078	90
403.302	94
403.526	87
403.75	90
403.974	98
404.198	82
404.422	104
404.645	93
404.869	94
405.093	108
405.317	133
405.541	129
405.765	120
405.988	153
406.212	232
406.436	343
406.66	215
406.883	134
407.107	100
407.331	128
407.555	117
407.778	121
408.002	84
408.226	90
408.449	94
408.673	100
408.896	94
409.12	104
409.344	84
409.567	85
409.791	88
410.014	93
410.238	78
410.461	91
410.685	104
410.908	94
411.132	127
411.355	97
411.578	95
411.802	90
412.025	86
412.249	85
412.472	104
412.695	105
412.919	92
413.142	89
413.365	86
413.589	74
413.812	94
414.035	89
414.258	81
414.482	101
414.705	110
414.928	88
415.151	99
415.374	100
415.597	81
415.821	84
416.044	96
416.267	86
416.49	101
416.713	96
416.936	97
417.159	91
417.382	102
417.605	96
417.828	106
418.051	107
418.274	112
418.497	95
418.72	92
418.943	85
419.166	76
419.389	82
419.611	83
419.834	103
420.057	101
420.28	91
420.503	86
420.726	87
420.948	110
421.171	109
421.394	107
421.617	97
421.839	102
422.062	93
422.285	113
422.507	126
422.73	121
422.953	92
423.175	106
423.398	94
423.621	92
423.843	78
424.066	80
424.288	89
424.511	96
424.733	111
424.956	130
425.178	109
425.401	114
425.623	117
425.846	86
426.068	101
426.291	95
426.513	86
426.735	89
426.958	101
427.18	148
427.402	194
427.625	250
427.847	182
428.069	128
428.292	97
428.514	89
428.736	93
428.958	87
429.181	74
429.403	78
429.625	103
429.847	103
430.069	121
430.292	100
430.514	88
430.736	90
430.958	101
431.18	90
431.402	86
431.624	90
431.846	81
432.068	89
432.29	83
432.512	90
432.734	92
432.956	95
433.178	101
433.4	112
433.622	91
433.844	102
434.066	83
434.287	99
434.509	89
434.731	82
434.953	95
435.175	105
435.397	100
435.618	100
435.84	113
436.062	157
436.284	135
436.505	118
436.727	106
436.949	87
437.17	103
437.392	95
437.614	92
437.835	129
438.057	156
438.278	147
438.5	134
438.721	146
438.943	126
439.165	96
439.386	89
439.608	88
439.829	132
440.05	166
440.272	214
440.493	124
440.715	101
440.936	79
441.158	91
441.379	91
441.6	98
441.822	97
442.043	115
442.264	130
442.486	97
442.707	111
442.928	142
443.149	196
443.371	176
443.592	147
443.813	150
444.034	130
444.255	113
444.476	87
444.698	88
444.919	85
445.14	128
445.361	141
445.582	164
445.803	224
446.024	203
446.245	182
446.466	136
446.687	112
446.908	82
447.129	83
447.35	86
447.571	99
447.792	102
448.013	117
448.234	140
448.455	115
448.675	143
448.896	148
449.117	134
449.338	119
449.559	177
449.779	178
450	113
450.221	86
450.442	96
450.662	113
450.883	141
451.104	143
451.324	99
451.545	100
451.766	94
451.986	84
452.207	89
452.428	97
452.648	112
452.869	121
453.089	143
453.31	146
453.53	105
453.751	105
453.971	124
454.192	139
454.412	99
454.633	87
454.853	87
455.073	98
455.294	84
455.514	122
455.734	94
455.955	88
456.175	97
456.395	88
456.616	88
456.836	88
457.056	83
457.276	97
457.497	75
457.717	87
457.937	101
458.157	96
458.377	102
458.598	134
458.818	206
459.038	247
459.258	168
459.478	106
459.698	91
459.918	97
460.138	91
460.358	85
460.578	121
460.798	87
461.018	79
461.238	93
461.458	88
461.678	83
461.898	87
462.118	84
462.338	80
462.558	78
462.777	88
462.997	82
463.217	94
463.437	72
463.657	85
463.876	106
464.096	101
464.316	113
464.536	112
464.755	109
464.975	133
465.195	252
465.414	251
465.634	126
465.854	93
466.073	90
466.293	97
466.512	86
466.732	74
466.951	95
467.171	84
467.391	96
467.61	130
467.829	115
468.049	106
468.268	90
468.488	88
468.707	71
468.927	80
469.146	77
469.365	96
469.585	90
469.804	116
470.023	111
470.243	101
470.462	105
470.681	152
470.901	89
471.12	88
471.339	82
471.558	94
471.777	89
471.997	92
472.216	119
472.435	139
472.654	85
472.873	89
473.092	97
473.311	77
473.53	96
473.749	96
473.968	113
474.187	133
474.406	106
474.625	80
474.844	81
475.063	93
475.282	64
475.501	88
475.72	100
475.939	93
476.158	105
476.377	102
476.596	101
476.814	99
477.033	95
477.252	90
477.471	77
477.69	72
477.908	84
478.127	94
478.346	88
478.564	93
478.783	105
479.002	113
479.22	107
479.439	128
479.658	115
479.876	99
480.095	90
480.313	100
480.532	93
480.751	102
480.969	98
481.188	176
481.406	152
481.624	99
481.843	95
482.061	81
482.28	89
482.498	92
482.717	101
482.935	92
483.153	82
483.372	104
483.59	97
483.808	93
484.027	88
484.245	87
484.463	91
484.681	108
484.9	81
485.118	98
485.336	100
485.554	108
485.772	123
485.99	103
486.209	106
486.427	115
486.645	115
486.863	126
487.081	122
487.299	86
487.517	101
487.735	89
487.953	97
488.171	83
488.389	104
488.607	85
488.825	96
489.043	85
489.261	83
489.479	85
489.696	84
489.914	96
490.132	91
490.35	90
490.568	85
490.786	92
491.003	96
491.221	82
491.439	87
491.657	99
491.874	89
492.092	81
492.31	87
492.527	91
492.745	94
492.963	109
493.18	76
493.398	96
493.615	104
493.833	111
494.05	101
494.268	93
494.485	76
494.703	100
494.92	85
495.138	90
495.355	89
495.573	87
495.79	77
496.008	85
496.225	96
496.442	83
496.66	84
496.877	101
497.094	91
497.312	92
497.529	89
497.746	85
497.963	93
498.181	89
498.398	90
498.615	126
498.832	110
499.049	82
499.267	88
499.484	96
499.701	97
499.918	88
500.135	88
500.352	86
500.569	83
500.786	100
501.003	96
501.22	87
501.437	102
501.654	112
501.871	120
502.088	96
502.305	77
502.522	79
502.739	101
502.956	83
503.172	100
503.389	91
503.606	129
503.823	103
504.04	90
504.256	98
504.473	96
504.69	89
504.907	89
505.123	102
505.34	94
505.557	100
505.773	97
505.99	87
506.207	82
506.423	95
506.64	81
506.856	93
507.073	99
507.289	99
507.506	109
507.722	146
507.939	131
508.155	91
508.372	83
508.588	82
508.805	89
509.021	103
509.238	105
509.454	88
509.67	105
509.887	115
510.103	143
510.319	269
510.536	1014
510.752	3660
510.968	1015
511.184	203
511.401	139
511.617	116
511.833	87
512.049	104
512.265	90
512.481	105
512.698	97
512.914	97
513.13	109
513.346	100
513.562	103
513.778	106
513.994	100
514.21	125
514.426	139
514.642	178
514.858	158
515.074	231
515.29	755
515.506	2770
515.721	989
515.937	227
516.153	144
516.369	117
516.585	101
516.801	95
517.016	101
517.232	87
517.448	114
517.664	99
517.879	104
518.095	97
518.311	93
518.527	94
518.742	79
518.958	98
519.173	102
519.389	86
519.605	87
519.82	100
520.036	108
520.251	157
520.467	129
520.682	118
520.898	128
521.113	131
521.329	185
521.544	321
521.76	965
521.975	4520
522.19	2770
522.406	525
522.621	171
522.836	116
523.052	96
523.267	107
523.482	98
523.698	110
523.913	129
524.128	126
524.343	103
524.559	97
524.774	86
524.989	115
525.204	128
525.419	116
525.634	95
525.849	108
526.064	89
526.28	86
526.495	90
526.71	93
526.925	97
527.14	98
527.355	96
527.57	84
527.785	87
527.999	91
528.214	100
528.429	104
528.644	104
528.859	103
529.074	105
529.289	157
529.503	286
529.718	125
529.933	92
530.148	103
530.363	95
530.577	88
530.792	76
531.007	91
531.221	112
531.436	93
531.651	108
531.865	85
532.08	93
532.295	118
532.509	82
532.724	103
532.938	92
533.153	96
533.367	97
533.582	91
533.796	88
534.011	93
534.225	91
534.44	106
534.654	93
534.868	82
535.083	96
535.297	98
535.511	123
535.726	119
535.94	114
536.154	96
536.369	94
536.583	85
536.797	94
537.011	86
537.225	97
537.44	76
537.654	91
537.868	96
538.082	89
538.296	94
538.51	93
538.724	94
538.938	99
539.153	92
539.367	126
539.581	104
539.795	92
540.009	84
540.222	97
540.436	89
540.65	91
540.864	98
541.078	85
541.292	101
541.506	85
541.72	84
541.934	89
542.147	108
542.361	89
542.575	89
542.789	91
543.002	88
543.216	93
543.43	88
543.644	98
543.857	88
544.071	93
544.285	102
544.498	97
544.712	97
544.925	83
545.139	96
545.352	88
545.566	89
545.779	98
545.993	93
546.206	88
546.42	88
546.633	93
546.847	86
547.06	83
547.274	80
547.487	81
547.7	88
547.914	97
548.127	79
548.34	101
548.554	92
548.767	94
548.98	77
549.193	81
549.407	91
549.62	84
549.833	92
550.046	95
550.259	87
550.473	91
550.686	90
550.899	88
551.112	101
551.325	105
551.538	94
551.751	100
551.964	100
552.177	81
552.39	89
552.603	110
552.816	92
553.029	91
553.242	99
553.455	115
553.667	123
553.88	120
554.093	85
554.306	92
554.519	83
554.732	88
554.944	88
555.157	94
555.37	98
555.583	89
555.795	95
556.008	91
556.221	104
556.433	83
556.646	87
556.859	99
557.071	73
557.284	68
557.496	93
557.709	93
557.921	87
558.134	90
558.346	96
558.559	84
558.771	91
558.984	103
559.196	95
559.409	77
559.621	76
559.833	89
560.046	85
560.258	82
560.47	84
560.683	84
560.895	91
561.107	96
561.32	102
561.532	93
561.744	89
561.956	82
562.168	99
562.381	93
562.593	94
562.805	76
563.017	76
563.229	88
563.441	99
563.653	79
563.865	89
564.077	76
564.289	83
564.501	90
564.713	84
564.925	94
565.137	126
565.349	93
565.561	90
565.773	90
565.985	99
566.197	106
566.408	93
566.62	84
566.832	99
567.044	83
567.255	73
567.467	92
567.679	82
567.891	91
568.102	90
568.314	90
568.526	101
568.737	98
568.949	86
569.161	91
569.372	91
569.584	83
569.795	101
570.007	130
570.218	302
570.43	171
570.641	92
570.853	85
571.064	95
571.276	89
571.487	97
571.698	99
571.91	80
572.121	92
572.333	89
572.544	89
572.755	90
572.966	81
573.178	87
573.389	94
573.6	82
573.811	63
574.023	92
574.234	93
574.445	83
574.656	94
574.867	83
575.078	85
575.289	88
575.501	85
575.712	91
575.923	85
576.134	95
576.345	89
576.556	93
576.767	95
576.978	89
577.188	104
577.399	95
577.61	92
577.821	110
578.032	115
578.243	324
578.454	1118
578.665	286
578.875	116
579.086	87
579.297	95
579.508	93
579.718	97
579.929	90
580.14	80
580.35	82
580.561	93
580.772	88
