Data from Circ_2022_H10_HRD10591_00070.txt Node
Date: Wed Jan 03 09:53:51 EST 2024
User: Yrep
Spectrometer: HR+D1059
Trigger mode: 1
Integration Time (sec): 1.000000E-1
Scans to average: 1
Electric dark correction enabled: true
Nonlinearity correction enabled: false
Boxcar width: 0
XAxis mode: Wavelengths
Number of Pixels in Spectrum: 2048
>>>>>Begin Spectral Data<<<<<
223.165	-27.62
223.4	-27.62
223.635	-27.62
223.869	-28.62
224.104	-30.62
224.338	-9.62
224.573	-11.62
224.808	-12.62
225.042	-22.62
225.277	1.38
225.511	3.38
225.746	-2.62
225.98	18.38
226.215	27.38
226.449	15.38
226.683	23.38
226.918	27.38
227.152	29.38
227.387	31.38
227.621	39.38
227.856	47.38
228.09	56.38
228.324	51.38
228.559	57.38
228.793	56.38
229.027	72.38
229.262	58.38
229.496	78.38
229.73	105.38
229.964	95.38
230.199	75.38
230.433	63.38
230.667	73.38
230.901	67.38
231.136	75.38
231.37	75.38
231.604	65.38
231.838	78.38
232.072	80.38
232.306	84.38
232.541	96.38
232.775	73.38
233.009	66.38
233.243	55.38
233.477	71.38
233.711	83.38
233.945	81.38
234.179	81.38
234.413	81.38
234.647	72.38
234.881	70.38
235.115	73.38
235.349	79.38
235.583	70.38
235.817	82.38
236.051	70.38
236.285	87.38
236.519	72.38
236.753	71.38
236.987	82.38
237.221	90.38
237.455	95.38
237.689	86.38
237.922	71.38
238.156	79.38
238.39	86.38
238.624	78.38
238.858	67.38
239.091	85.38
239.325	70.38
239.559	75.38
239.793	89.38
240.027	74.38
240.26	75.38
240.494	83.38
240.728	72.38
240.961	73.38
241.195	75.38
241.429	74.38
241.662	79.38
241.896	73.38
242.13	66.38
242.363	75.38
242.597	65.38
242.83	73.38
243.064	77.38
243.298	82.38
243.531	93.38
243.765	79.38
243.998	79.38
244.232	84.38
244.465	76.38
244.699	79.38
244.932	74.38
245.166	64.38
245.399	91.38
245.633	93.38
245.866	77.38
246.099	60.38
246.333	78.38
246.566	68.38
246.8	66.38
247.033	83.38
247.266	73.38
247.5	72.38
247.733	95.38
247.966	88.38
248.2	81.38
248.433	96.38
248.666	72.38
248.899	70.38
249.133	89.38
249.366	87.38
249.599	103.38
249.832	78.38
250.066	75.38
250.299	87.38
250.532	84.38
250.765	72.38
250.998	78.38
251.231	70.38
251.465	93.38
251.698	91.38
251.931	85.38
252.164	77.38
252.397	79.38
252.63	73.38
252.863	79.38
253.096	80.38
253.329	83.38
253.562	76.38
253.795	72.38
254.028	68.38
254.261	92.38
254.494	79.38
254.727	85.38
254.96	91.38
255.193	78.38
255.426	73.38
255.659	84.38
255.892	87.38
256.124	75.38
256.357	76.38
256.59	67.38
256.823	82.38
257.056	82.38
257.289	90.38
257.521	81.38
257.754	81.38
257.987	81.38
258.22	91.38
258.452	71.38
258.685	78.38
258.918	75.38
259.151	91.38
259.383	85.38
259.616	89.38
259.849	81.38
260.081	88.38
260.314	78.38
260.547	86.38
260.779	94.38
261.012	74.38
261.244	76.38
261.477	89.38
261.71	94.38
261.942	134.38
262.175	131.38
262.407	94.38
262.64	86.38
262.872	103.38
263.105	78.38
263.337	82.38
263.57	81.38
263.802	104.38
264.035	79.38
264.267	79.38
264.499	90.38
264.732	75.38
264.964	76.38
265.197	81.38
265.429	73.38
265.661	83.38
265.894	79.38
266.126	83.38
266.358	80.38
266.591	81.38
266.823	73.38
267.055	88.38
267.287	70.38
267.52	94.38
267.752	86.38
267.984	82.38
268.216	74.38
268.448	85.38
268.681	72.38
268.913	87.38
269.145	88.38
269.377	72.38
269.609	84.38
269.841	87.38
270.073	91.38
270.306	91.38
270.538	96.38
270.77	81.38
271.002	84.38
271.234	90.38
271.466	84.38
271.698	89.38
271.93	83.38
272.162	88.38
272.394	82.38
272.626	85.38
272.858	94.38
273.09	86.38
273.322	64.38
273.553	79.38
273.785	75.38
274.017	72.38
274.249	83.38
274.481	93.38
274.713	92.38
274.945	86.38
275.176	96.38
275.408	86.38
275.64	90.38
275.872	86.38
276.104	101.38
276.335	95.38
276.567	107.38
276.799	127.38
277.031	111.38
277.262	121.38
277.494	100.38
277.726	80.38
277.957	82.38
278.189	92.38
278.421	75.38
278.652	86.38
278.884	75.38
279.115	86.38
279.347	90.38
279.579	90.38
279.81	84.38
280.042	100.38
280.273	112.38
280.505	109.38
280.736	86.38
280.968	87.38
281.199	88.38
281.431	84.38
281.662	76.38
281.894	101.38
282.125	104.38
282.356	126.38
282.588	163.38
282.819	134.38
283.051	75.38
283.282	64.38
283.513	95.38
283.745	88.38
283.976	87.38
284.207	93.38
284.439	81.38
284.67	79.38
284.901	89.38
285.132	82.38
285.364	83.38
285.595	85.38
285.826	91.38
286.057	86.38
286.288	79.38
286.52	98.38
286.751	81.38
286.982	80.38
287.213	78.38
287.444	79.38
287.675	86.38
287.906	93.38
288.138	89.38
288.369	89.38
288.6	85.38
288.831	80.38
289.062	84.38
289.293	86.38
289.524	83.38
289.755	101.38
289.986	98.38
290.217	83.38
290.448	91.38
290.679	87.38
290.91	88.38
291.141	75.38
291.371	86.38
291.602	72.38
291.833	78.38
292.064	74.38
292.295	94.38
292.526	89.38
292.757	102.38
292.987	94.38
293.218	81.38
293.449	91.38
293.68	81.38
293.91	102.38
294.141	105.38
294.372	100.38
294.603	77.38
294.833	85.38
295.064	85.38
295.295	89.38
295.525	99.38
295.756	106.38
295.987	134.38
296.217	154.38
296.448	140.38
296.679	84.38
296.909	75.38
297.14	68.38
297.37	96.38
297.601	83.38
297.831	88.38
298.062	88.38
298.292	89.38
298.523	93.38
298.753	76.38
298.984	93.38
299.214	81.38
299.445	88.38
299.675	114.38
299.905	97.38
300.136	97.38
300.366	83.38
300.597	87.38
300.827	105.38
301.057	96.38
301.288	116.38
301.518	105.38
301.748	92.38
301.979	108.38
302.209	85.38
302.439	76.38
302.669	87.38
302.9	88.38
303.13	78.38
303.36	94.38
303.59	109.38
303.82	116.38
304.051	105.38
304.281	77.38
304.511	79.38
304.741	79.38
304.971	91.38
305.201	93.38
305.431	96.38
305.661	96.38
305.891	83.38
306.121	93.38
306.352	100.38
306.582	90.38
306.812	93.38
307.042	85.38
307.272	101.38
307.502	96.38
307.731	90.38
307.961	90.38
308.191	91.38
308.421	95.38
308.651	88.38
308.881	96.38
309.111	95.38
309.341	110.38
309.571	111.38
309.8	100.38
310.03	92.38
310.26	108.38
310.49	111.38
310.72	100.38
310.949	123.38
311.179	105.38
311.409	95.38
311.639	97.38
311.868	110.38
312.098	75.38
312.328	98.38
312.557	104.38
312.787	124.38
313.017	105.38
313.246	114.38
313.476	97.38
313.706	85.38
313.935	87.38
314.165	105.38
314.394	91.38
314.624	96.38
314.853	112.38
315.083	90.38
315.312	88.38
315.542	89.38
315.771	84.38
316.001	93.38
316.23	83.38
316.46	96.38
316.689	93.38
316.919	106.38
317.148	97.38
317.377	101.38
317.607	113.38
317.836	93.38
318.065	93.38
318.295	87.38
318.524	79.38
318.753	88.38
318.983	93.38
319.212	122.38
319.441	117.38
319.67	103.38
319.9	88.38
320.129	88.38
320.358	95.38
320.587	103.38
320.816	103.38
321.046	115.38
321.275	109.38
321.504	96.38
321.733	83.38
321.962	91.38
322.191	107.38
322.42	112.38
322.649	117.38
322.878	132.38
323.108	129.38
323.337	139.38
323.566	163.38
323.795	176.38
324.024	251.38
324.253	500.38
324.482	1088.38
324.71	2206.38
324.939	3021.38
325.168	1094.38
325.397	308.38
325.626	168.38
325.855	131.38
326.084	144.38
326.313	146.38
326.542	177.38
326.77	259.38
326.999	563.38
327.228	1169.38
327.457	2187.38
327.686	1806.38
327.914	470.38
328.143	263.38
328.372	247.38
328.6	185.38
328.829	167.38
329.058	173.38
329.287	174.38
329.515	123.38
329.744	127.38
329.972	159.38
330.201	248.38
330.43	337.38
330.658	241.38
330.887	206.38
331.115	151.38
331.344	106.38
331.572	115.38
331.801	119.38
332.03	98.38
332.258	113.38
332.486	82.38
332.715	85.38
332.943	107.38
333.172	85.38
333.4	105.38
333.629	124.38
333.857	126.38
334.085	171.38
334.314	230.38
334.542	394.38
334.771	383.38
334.999	146.38
335.227	104.38
335.455	96.38
335.684	93.38
335.912	103.38
336.14	98.38
336.369	101.38
336.597	111.38
336.825	103.38
337.053	83.38
337.281	93.38
337.51	104.38
337.738	104.38
337.966	98.38
338.194	94.38
338.422	100.38
338.65	107.38
338.878	100.38
339.106	82.38
339.334	81.38
339.562	87.38
339.79	87.38
340.018	85.38
340.246	94.38
340.474	100.38
340.702	87.38
340.93	87.38
341.158	110.38
341.386	102.38
341.614	91.38
341.842	98.38
342.07	100.38
342.298	93.38
342.526	109.38
342.754	96.38
342.981	78.38
343.209	90.38
343.437	89.38
343.665	79.38
343.893	80.38
344.12	98.38
344.348	93.38
344.576	79.38
344.804	94.38
345.031	101.38
345.259	91.38
345.487	99.38
345.714	99.38
345.942	87.38
346.17	91.38
346.397	101.38
346.625	99.38
346.853	82.38
347.08	102.38
347.308	98.38
347.535	87.38
347.763	100.38
347.99	85.38
348.218	85.38
348.445	109.38
348.673	110.38
348.9	93.38
349.128	98.38
349.355	90.38
349.583	93.38
349.81	97.38
350.037	97.38
350.265	93.38
350.492	82.38
350.72	89.38
350.947	92.38
351.174	122.38
351.402	113.38
351.629	99.38
351.856	102.38
352.083	127.38
352.311	94.38
352.538	98.38
352.765	126.38
352.992	128.38
353.22	117.38
353.447	119.38
353.674	97.38
353.901	86.38
354.128	93.38
354.355	88.38
354.583	88.38
354.81	103.38
355.037	96.38
355.264	77.38
355.491	82.38
355.718	89.38
355.945	89.38
356.172	96.38
356.399	105.38
356.626	95.38
356.853	92.38
357.08	111.38
357.307	86.38
357.534	73.38
357.761	97.38
357.988	92.38
358.215	87.38
358.441	102.38
358.668	102.38
358.895	86.38
359.122	110.38
359.349	90.38
359.576	96.38
359.802	105.38
360.029	139.38
360.256	141.38
360.483	111.38
360.709	87.38
360.936	97.38
361.163	99.38
361.39	119.38
361.616	116.38
361.843	81.38
362.07	104.38
362.296	106.38
362.523	96.38
362.749	91.38
362.976	94.38
363.203	83.38
363.429	90.38
363.656	76.38
363.882	95.38
364.109	99.38
364.335	86.38
364.562	102.38
364.788	92.38
365.015	93.38
365.241	107.38
365.468	126.38
365.694	115.38
365.92	90.38
366.147	106.38
366.373	75.38
366.599	100.38
366.826	86.38
367.052	81.38
367.278	100.38
367.505	98.38
367.731	94.38
367.957	90.38
368.184	88.38
368.41	110.38
368.636	132.38
368.862	127.38
369.089	100.38
369.315	101.38
369.541	98.38
369.767	93.38
369.993	94.38
370.219	96.38
370.445	93.38
370.672	95.38
370.898	102.38
371.124	80.38
371.35	81.38
371.576	92.38
371.802	91.38
372.028	92.38
372.254	83.38
372.48	72.38
372.706	82.38
372.932	94.38
373.158	73.38
373.384	84.38
373.61	81.38
373.835	86.38
374.061	99.38
374.287	82.38
374.513	99.38
374.739	96.38
374.965	72.38
375.191	91.38
375.416	92.38
375.642	93.38
375.868	86.38
376.094	94.38
376.319	79.38
376.545	90.38
376.771	95.38
376.997	78.38
377.222	90.38
377.448	81.38
377.674	71.38
377.899	90.38
378.125	96.38
378.35	86.38
378.576	103.38
378.802	89.38
379.027	87.38
379.253	94.38
379.478	75.38
379.704	81.38
379.929	95.38
380.155	88.38
380.38	97.38
380.606	90.38
380.831	97.38
381.057	102.38
381.282	87.38
381.507	96.38
381.733	90.38
381.958	95.38
382.184	104.38
382.409	99.38
382.634	98.38
382.86	93.38
383.085	84.38
383.31	85.38
383.535	101.38
383.761	106.38
383.986	99.38
384.211	98.38
384.436	87.38
384.662	93.38
384.887	85.38
385.112	100.38
385.337	104.38
385.562	116.38
385.787	100.38
386.013	94.38
386.238	121.38
386.463	104.38
386.688	86.38
386.913	93.38
387.138	115.38
387.363	105.38
387.588	94.38
387.813	93.38
388.038	89.38
388.263	104.38
388.488	93.38
388.713	95.38
388.938	93.38
389.163	85.38
389.387	96.38
389.612	87.38
389.837	69.38
390.062	78.38
390.287	80.38
390.512	88.38
390.736	81.38
390.961	78.38
391.186	90.38
391.411	80.38
391.636	81.38
391.86	76.38
392.085	87.38
392.31	82.38
392.534	82.38
392.759	88.38
392.984	77.38
393.208	78.38
393.433	95.38
393.658	87.38
393.882	85.38
394.107	72.38
394.331	77.38
394.556	81.38
394.78	78.38
395.005	98.38
395.229	99.38
395.454	78.38
395.678	92.38
395.903	69.38
396.127	80.38
396.352	86.38
396.576	82.38
396.801	93.38
397.025	94.38
397.249	80.38
397.474	73.38
397.698	78.38
397.922	86.38
398.147	81.38
398.371	87.38
398.595	84.38
398.82	87.38
399.044	82.38
399.268	87.38
399.492	83.38
399.717	86.38
399.941	85.38
400.165	96.38
400.389	89.38
400.613	86.38
400.837	89.38
401.062	88.38
401.286	93.38
401.51	97.38
401.734	93.38
401.958	104.38
402.182	151.38
402.406	206.38
402.63	146.38
402.854	109.38
403.078	81.38
403.302	87.38
403.526	80.38
403.75	89.38
403.974	95.38
404.198	87.38
404.422	86.38
404.645	92.38
404.869	95.38
405.093	105.38
405.317	122.38
405.541	118.38
405.765	97.38
405.988	141.38
406.212	209.38
406.436	306.38
406.66	206.38
406.883	119.38
407.107	118.38
407.331	103.38
407.555	110.38
407.778	106.38
408.002	95.38
408.226	88.38
408.449	93.38
408.673	80.38
408.896	94.38
409.12	103.38
409.344	88.38
409.567	83.38
409.791	82.38
410.014	97.38
410.238	93.38
410.461	76.38
410.685	93.38
410.908	93.38
411.132	118.38
411.355	99.38
411.578	111.38
411.802	91.38
412.025	69.38
412.249	78.38
412.472	93.38
412.695	118.38
412.919	89.38
413.142	96.38
413.365	83.38
413.589	94.38
413.812	95.38
414.035	84.38
414.258	85.38
414.482	80.38
414.705	100.38
414.928	80.38
415.151	95.38
415.374	92.38
415.597	82.38
415.821	85.38
416.044	78.38
416.267	84.38
416.49	84.38
416.713	86.38
416.936	83.38
417.159	82.38
417.382	77.38
417.605	88.38
417.828	87.38
418.051	112.38
418.274	75.38
418.497	88.38
418.72	97.38
418.943	94.38
419.166	88.38
419.389	80.38
419.611	85.38
419.834	90.38
420.057	82.38
420.28	83.38
420.503	65.38
420.726	88.38
420.948	95.38
421.171	97.38
421.394	90.38
421.617	80.38
421.839	78.38
422.062	83.38
422.285	87.38
422.507	110.38
422.73	106.38
422.953	98.38
423.175	96.38
423.398	93.38
423.621	98.38
423.843	85.38
424.066	81.38
424.288	89.38
424.511	80.38
424.733	91.38
424.956	109.38
425.178	121.38
425.401	106.38
425.623	115.38
425.846	91.38
426.068	95.38
426.291	93.38
426.513	93.38
426.735	106.38
426.958	89.38
427.18	109.38
427.402	163.38
427.625	239.38
427.847	165.38
428.069	144.38
428.292	93.38
428.514	94.38
428.736	89.38
428.958	83.38
429.181	85.38
429.403	93.38
429.625	87.38
429.847	96.38
430.069	114.38
430.292	99.38
430.514	90.38
430.736	85.38
430.958	83.38
431.18	88.38
431.402	78.38
431.624	103.38
431.846	83.38
432.068	80.38
432.29	82.38
432.512	67.38
432.734	92.38
432.956	102.38
433.178	105.38
433.4	105.38
433.622	81.38
433.844	82.38
434.066	93.38
434.287	98.38
434.509	85.38
434.731	86.38
434.953	87.38
435.175	90.38
435.397	79.38
435.618	87.38
435.84	92.38
436.062	115.38
436.284	142.38
436.505	104.38
436.727	114.38
436.949	86.38
437.17	99.38
437.392	79.38
437.614	90.38
437.835	126.38
438.057	139.38
438.278	139.38
438.5	110.38
438.721	140.38
438.943	106.38
439.165	88.38
439.386	86.38
439.608	88.38
439.829	103.38
440.05	161.38
440.272	187.38
440.493	106.38
440.715	112.38
440.936	84.38
441.158	91.38
441.379	87.38
441.6	95.38
441.822	98.38
442.043	106.38
442.264	119.38
442.486	113.38
442.707	122.38
442.928	121.38
443.149	166.38
443.371	161.38
443.592	137.38
443.813	120.38
444.034	127.38
444.255	90.38
444.476	89.38
444.698	92.38
444.919	78.38
445.14	130.38
445.361	144.38
445.582	138.38
445.803	192.38
446.024	183.38
446.245	191.38
446.466	147.38
446.687	93.38
446.908	78.38
447.129	89.38
447.35	89.38
447.571	95.38
447.792	82.38
448.013	100.38
448.234	121.38
448.455	112.38
448.675	135.38
448.896	143.38
449.117	107.38
449.338	126.38
449.559	145.38
449.779	160.38
450	98.38
450.221	87.38
450.442	83.38
450.662	89.38
450.883	120.38
451.104	140.38
451.324	85.38
451.545	86.38
451.766	88.38
451.986	84.38
452.207	82.38
452.428	112.38
452.648	99.38
452.869	130.38
453.089	142.38
453.31	151.38
453.53	115.38
453.751	87.38
453.971	115.38
454.192	133.38
454.412	94.38
454.633	87.38
454.853	80.38
455.073	81.38
455.294	88.38
455.514	100.38
455.734	105.38
455.955	92.38
456.175	74.38
456.395	89.38
456.616	74.38
456.836	75.38
457.056	75.38
457.276	70.38
457.497	77.38
457.717	74.38
457.937	87.38
458.157	75.38
458.377	82.38
458.598	101.38
458.818	201.38
459.038	222.38
459.258	147.38
459.478	104.38
459.698	101.38
459.918	81.38
460.138	85.38
460.358	82.38
460.578	86.38
460.798	111.38
461.018	101.38
461.238	81.38
461.458	79.38
461.678	91.38
461.898	87.38
462.118	93.38
462.338	86.38
462.558	80.38
462.777	78.38
462.997	79.38
463.217	89.38
463.437	86.38
463.657	105.38
463.876	83.38
464.096	83.38
464.316	100.38
464.536	98.38
464.755	99.38
464.975	116.38
465.195	237.38
465.414	223.38
465.634	111.38
465.854	79.38
466.073	81.38
466.293	84.38
466.512	87.38
466.732	90.38
466.951	80.38
467.171	80.38
467.391	105.38
467.61	114.38
467.829	111.38
468.049	149.38
468.268	188.38
468.488	103.38
468.707	81.38
468.927	80.38
469.146	94.38
469.365	84.38
469.585	89.38
469.804	90.38
470.023	110.38
470.243	94.38
470.462	120.38
470.681	125.38
470.901	95.38
471.12	83.38
471.339	88.38
471.558	83.38
471.777	94.38
471.997	123.38
472.216	224.38
472.435	446.38
472.654	163.38
472.873	92.38
473.092	97.38
473.311	87.38
473.53	85.38
473.749	86.38
473.968	109.38
474.187	123.38
474.406	124.38
474.625	96.38
474.844	80.38
475.063	72.38
475.282	81.38
475.501	87.38
475.72	81.38
475.939	74.38
476.158	92.38
476.377	71.38
476.596	103.38
476.814	110.38
477.033	104.38
477.252	82.38
477.471	79.38
477.69	85.38
477.908	91.38
478.127	91.38
478.346	87.38
478.564	82.38
478.783	104.38
479.002	87.38
479.22	89.38
479.439	100.38
479.658	109.38
479.876	113.38
480.095	90.38
480.313	101.38
480.532	105.38
480.751	122.38
480.969	229.38
481.188	723.38
481.406	529.38
481.624	135.38
481.843	98.38
482.061	87.38
482.28	90.38
482.498	104.38
482.717	78.38
482.935	82.38
483.153	84.38
483.372	80.38
483.59	86.38
483.808	84.38
484.027	88.38
484.245	87.38
484.463	94.38
484.681	90.38
484.9	89.38
485.118	95.38
485.336	84.38
485.554	85.38
485.772	93.38
485.99	100.38
486.209	98.38
486.427	111.38
486.645	112.38
486.863	127.38
487.081	100.38
487.299	102.38
487.517	98.38
487.735	88.38
487.953	95.38
488.171	96.38
488.389	82.38
488.607	106.38
488.825	75.38
489.043	91.38
489.261	103.38
489.479	92.38
489.696	99.38
489.914	82.38
490.132	81.38
490.35	101.38
490.568	83.38
490.786	89.38
491.003	91.38
491.221	87.38
491.439	86.38
491.657	93.38
491.874	93.38
492.092	98.38
492.31	90.38
492.527	75.38
492.745	98.38
492.963	97.38
493.18	87.38
493.398	101.38
493.615	80.38
493.833	90.38
494.05	99.38
494.268	83.38
494.485	98.38
494.703	95.38
494.92	95.38
495.138	70.38
495.355	96.38
495.573	91.38
495.79	81.38
496.008	97.38
496.225	102.38
496.442	87.38
496.66	92.38
496.877	91.38
497.094	101.38
497.312	86.38
497.529	93.38
497.746	80.38
497.963	92.38
498.181	78.38
498.398	91.38
498.615	114.38
498.832	107.38
499.049	72.38
499.267	81.38
499.484	93.38
499.701	96.38
499.918	82.38
500.135	91.38
500.352	94.38
500.569	96.38
500.786	92.38
501.003	72.38
501.22	88.38
501.437	90.38
501.654	83.38
501.871	114.38
502.088	104.38
502.305	101.38
502.522	111.38
502.739	98.38
502.956	81.38
503.172	96.38
503.389	97.38
503.606	114.38
503.823	106.38
504.04	88.38
504.256	92.38
504.473	77.38
504.69	86.38
504.907	93.38
505.123	92.38
505.34	83.38
505.557	97.38
505.773	91.38
505.99	79.38
506.207	93.38
506.423	90.38
506.64	91.38
506.856	99.38
507.073	66.38
507.289	90.38
507.506	91.38
507.722	105.38
507.939	128.38
508.155	109.38
508.372	91.38
508.588	100.38
508.805	100.38
509.021	105.38
509.238	84.38
509.454	111.38
509.67	114.38
509.887	102.38
510.103	132.38
510.319	243.38
510.536	964.38
510.752	3512.38
510.968	971.38
511.184	181.38
511.401	122.38
511.617	126.38
511.833	99.38
512.049	101.38
512.265	98.38
512.481	87.38
512.698	81.38
512.914	96.38
513.13	102.38
513.346	97.38
513.562	90.38
513.778	104.38
513.994	100.38
514.21	103.38
514.426	139.38
514.642	161.38
514.858	150.38
