Data from Circ_2022_H10_HRD10591_00032.txt Node
Date: Wed Jan 03 09:53:44 EST 2024
User: Yrep
Spectrometer: HR+D1059
Trigger mode: 1
Integration Time (sec): 1.000000E-1
Scans to average: 1
Electric dark correction enabled: true
Nonlinearity correction enabled: false
Boxcar width: 0
XAxis mode: Wavelengths
Number of Pixels in Spectrum: 2048
>>>>>Begin Spectral Data<<<<<
223.165	-22.38
223.4	-22.38
223.635	-22.38
223.869	-19.38
224.104	-11.38
224.338	-13.38
224.573	1.62
224.808	-8.38
225.042	-6.38
225.277	5.62
225.511	-6.38
225.746	-17.38
225.98	-2.38
226.215	11.62
226.449	11.62
226.683	21.62
226.918	28.62
227.152	26.62
227.387	25.62
227.621	36.62
227.856	34.62
228.09	40.62
228.324	62.62
228.559	69.62
228.793	47.62
229.027	66.62
229.262	66.62
229.496	62.62
229.73	72.62
229.964	74.62
230.199	56.62
230.433	65.62
230.667	93.62
230.901	93.62
231.136	79.62
231.37	73.62
231.604	78.62
231.838	78.62
232.072	80.62
232.306	95.62
232.541	85.62
232.775	71.62
233.009	83.62
233.243	71.62
233.477	73.62
233.711	73.62
233.945	81.62
234.179	67.62
234.413	88.62
234.647	81.62
234.881	79.62
235.115	93.62
235.349	72.62
235.583	74.62
235.817	80.62
236.051	81.62
236.285	82.62
236.519	75.62
236.753	77.62
236.987	86.62
237.221	102.62
237.455	69.62
237.689	91.62
237.922	81.62
238.156	82.62
238.39	90.62
238.624	71.62
238.858	66.62
239.091	81.62
239.325	75.62
239.559	82.62
239.793	80.62
240.027	74.62
240.26	79.62
240.494	85.62
240.728	87.62
240.961	71.62
241.195	82.62
241.429	77.62
241.662	75.62
241.896	80.62
242.13	70.62
242.363	79.62
242.597	80.62
242.83	87.62
243.064	68.62
243.298	75.62
243.531	86.62
243.765	83.62
243.998	83.62
244.232	74.62
244.465	87.62
244.699	79.62
244.932	81.62
245.166	73.62
245.399	73.62
245.633	74.62
245.866	74.62
246.099	88.62
246.333	79.62
246.566	87.62
246.8	80.62
247.033	71.62
247.266	68.62
247.5	72.62
247.733	87.62
247.966	69.62
248.2	73.62
248.433	81.62
248.666	91.62
248.899	75.62
249.133	74.62
249.366	91.62
249.599	95.62
249.832	68.62
250.066	86.62
250.299	85.62
250.532	58.62
250.765	79.62
250.998	76.62
251.231	69.62
251.465	95.62
251.698	83.62
251.931	82.62
252.164	72.62
252.397	74.62
252.63	74.62
252.863	75.62
253.096	89.62
253.329	73.62
253.562	72.62
253.795	80.62
254.028	69.62
254.261	83.62
254.494	73.62
254.727	81.62
254.96	86.62
255.193	80.62
255.426	74.62
255.659	75.62
255.892	86.62
256.124	71.62
256.357	84.62
256.59	79.62
256.823	75.62
257.056	88.62
257.289	92.62
257.521	80.62
257.754	82.62
257.987	75.62
258.22	98.62
258.452	80.62
258.685	90.62
258.918	93.62
259.151	69.62
259.383	82.62
259.616	71.62
259.849	79.62
260.081	82.62
260.314	83.62
260.547	80.62
260.779	81.62
261.012	78.62
261.244	71.62
261.477	83.62
261.71	92.62
261.942	109.62
262.175	117.62
262.407	98.62
262.64	81.62
262.872	94.62
263.105	74.62
263.337	80.62
263.57	83.62
263.802	78.62
264.035	86.62
264.267	76.62
264.499	86.62
264.732	82.62
264.964	85.62
265.197	74.62
265.429	75.62
265.661	68.62
265.894	79.62
266.126	96.62
266.358	82.62
266.591	93.62
266.823	86.62
267.055	73.62
267.287	85.62
267.52	88.62
267.752	80.62
267.984	87.62
268.216	89.62
268.448	89.62
268.681	78.62
268.913	86.62
269.145	93.62
269.377	79.62
269.609	68.62
269.841	95.62
270.073	85.62
270.306	87.62
270.538	80.62
270.77	86.62
271.002	86.62
271.234	79.62
271.466	91.62
271.698	80.62
271.93	84.62
272.162	75.62
272.394	86.62
272.626	94.62
272.858	96.62
273.09	84.62
273.322	85.62
273.553	85.62
273.785	80.62
274.017	79.62
274.249	85.62
274.481	82.62
274.713	75.62
274.945	94.62
275.176	72.62
275.408	82.62
275.64	81.62
275.872	95.62
276.104	94.62
276.335	84.62
276.567	98.62
276.799	112.62
277.031	88.62
277.262	81.62
277.494	77.62
277.726	86.62
277.957	75.62
278.189	82.62
278.421	91.62
278.652	99.62
278.884	85.62
279.115	79.62
279.347	96.62
279.579	77.62
279.81	85.62
280.042	87.62
280.273	88.62
280.505	80.62
280.736	94.62
280.968	96.62
281.199	76.62
281.431	92.62
281.662	87.62
281.894	95.62
282.125	108.62
282.356	121.62
282.588	153.62
282.819	125.62
283.051	97.62
283.282	86.62
283.513	77.62
283.745	72.62
283.976	87.62
284.207	84.62
284.439	86.62
284.67	105.62
284.901	77.62
285.132	81.62
285.364	87.62
285.595	86.62
285.826	86.62
286.057	87.62
286.288	94.62
286.52	92.62
286.751	79.62
286.982	83.62
287.213	83.62
287.444	79.62
287.675	89.62
287.906	88.62
288.138	87.62
288.369	97.62
288.6	91.62
288.831	94.62
289.062	76.62
289.293	88.62
289.524	78.62
289.755	93.62
289.986	94.62
290.217	88.62
290.448	97.62
290.679	90.62
290.91	77.62
291.141	81.62
291.371	75.62
291.602	75.62
291.833	90.62
292.064	95.62
292.295	81.62
292.526	98.62
292.757	79.62
292.987	96.62
293.218	69.62
293.449	82.62
293.68	82.62
293.91	82.62
294.141	104.62
294.372	88.62
294.603	91.62
294.833	83.62
295.064	90.62
295.295	84.62
295.525	96.62
295.756	100.62
295.987	128.62
296.217	146.62
296.448	134.62
296.679	79.62
296.909	90.62
297.14	94.62
297.37	92.62
297.601	88.62
297.831	89.62
298.062	89.62
298.292	90.62
298.523	91.62
298.753	75.62
298.984	81.62
299.214	82.62
299.445	97.62
299.675	93.62
299.905	95.62
300.136	99.62
300.366	69.62
300.597	78.62
300.827	97.62
301.057	90.62
301.288	112.62
301.518	101.62
301.748	85.62
301.979	96.62
302.209	109.62
302.439	72.62
302.669	82.62
302.9	99.62
303.13	91.62
303.36	83.62
303.59	121.62
303.82	101.62
304.051	106.62
304.281	101.62
304.511	95.62
304.741	95.62
304.971	89.62
305.201	82.62
305.431	79.62
305.661	81.62
305.891	88.62
306.121	97.62
306.352	100.62
306.582	102.62
306.812	99.62
307.042	88.62
307.272	90.62
307.502	83.62
307.731	78.62
307.961	93.62
308.191	90.62
308.421	91.62
308.651	98.62
308.881	75.62
309.111	95.62
309.341	97.62
309.571	91.62
309.8	81.62
310.03	89.62
310.26	98.62
310.49	92.62
310.72	95.62
310.949	98.62
311.179	102.62
311.409	94.62
311.639	98.62
311.868	88.62
312.098	72.62
312.328	87.62
312.557	108.62
312.787	99.62
313.017	107.62
313.246	82.62
313.476	102.62
313.706	101.62
313.935	98.62
314.165	113.62
314.394	100.62
314.624	90.62
314.853	97.62
315.083	89.62
315.312	106.62
315.542	89.62
315.771	98.62
316.001	91.62
316.23	75.62
316.46	96.62
316.689	90.62
316.919	93.62
317.148	81.62
317.377	84.62
317.607	94.62
317.836	94.62
318.065	88.62
318.295	78.62
318.524	84.62
318.753	81.62
318.983	89.62
319.212	90.62
319.441	104.62
319.67	110.62
319.9	103.62
320.129	104.62
320.358	89.62
320.587	97.62
320.816	99.62
321.046	93.62
321.275	104.62
321.504	96.62
321.733	97.62
321.962	87.62
322.191	99.62
322.42	104.62
322.649	117.62
322.878	112.62
323.108	127.62
323.337	120.62
323.566	120.62
323.795	158.62
324.024	215.62
324.253	403.62
324.482	858.62
324.71	1739.62
324.939	2314.62
325.168	866.62
325.397	265.62
325.626	147.62
325.855	133.62
326.084	122.62
326.313	137.62
326.542	161.62
326.77	246.62
326.999	465.62
327.228	965.62
327.457	1759.62
327.686	1383.62
327.914	403.62
328.143	217.62
328.372	155.62
328.6	133.62
328.829	121.62
329.058	129.62
329.287	147.62
329.515	114.62
329.744	94.62
329.972	104.62
330.201	98.62
330.43	109.62
330.658	124.62
330.887	131.62
331.115	122.62
331.344	98.62
331.572	95.62
331.801	101.62
332.03	93.62
332.258	83.62
332.486	91.62
332.715	91.62
332.943	88.62
333.172	89.62
333.4	101.62
333.629	100.62
333.857	109.62
334.085	115.62
334.314	104.62
334.542	116.62
334.771	119.62
334.999	100.62
335.227	107.62
335.455	105.62
335.684	93.62
335.912	93.62
336.14	92.62
336.369	93.62
336.597	99.62
336.825	95.62
337.053	96.62
337.281	98.62
337.51	93.62
337.738	82.62
337.966	98.62
338.194	104.62
338.422	82.62
338.65	95.62
338.878	104.62
339.106	89.62
339.334	97.62
339.562	79.62
339.79	80.62
340.018	75.62
340.246	92.62
340.474	100.62
340.702	95.62
340.93	82.62
341.158	97.62
341.386	84.62
341.614	91.62
341.842	82.62
342.07	98.62
342.298	93.62
342.526	92.62
342.754	77.62
342.981	93.62
343.209	91.62
343.437	98.62
343.665	77.62
343.893	93.62
344.12	98.62
344.348	88.62
344.576	100.62
344.804	85.62
345.031	88.62
345.259	89.62
345.487	93.62
345.714	98.62
345.942	97.62
346.17	90.62
346.397	66.62
346.625	81.62
346.853	86.62
347.08	95.62
347.308	90.62
347.535	96.62
347.763	98.62
347.99	82.62
348.218	118.62
348.445	111.62
348.673	98.62
348.9	80.62
349.128	94.62
349.355	97.62
349.583	104.62
349.81	92.62
350.037	94.62
350.265	100.62
350.492	87.62
350.72	103.62
350.947	93.62
351.174	94.62
351.402	109.62
351.629	91.62
351.856	97.62
352.083	86.62
352.311	99.62
352.538	99.62
352.765	114.62
352.992	125.62
353.22	95.62
353.447	106.62
353.674	96.62
353.901	100.62
354.128	94.62
354.355	95.62
354.583	101.62
354.81	94.62
355.037	94.62
355.264	89.62
355.491	94.62
355.718	84.62
355.945	85.62
356.172	95.62
356.399	98.62
356.626	97.62
356.853	98.62
357.08	80.62
357.307	83.62
357.534	85.62
357.761	99.62
357.988	110.62
358.215	95.62
358.441	95.62
358.668	101.62
358.895	93.62
359.122	81.62
359.349	90.62
359.576	80.62
359.802	97.62
360.029	111.62
360.256	104.62
360.483	116.62
360.709	91.62
360.936	87.62
361.163	104.62
361.39	109.62
361.616	94.62
361.843	87.62
362.07	96.62
362.296	87.62
362.523	81.62
362.749	90.62
362.976	103.62
363.203	91.62
363.429	87.62
363.656	98.62
363.882	90.62
364.109	90.62
364.335	97.62
364.562	86.62
364.788	87.62
365.015	99.62
365.241	101.62
365.468	110.62
365.694	109.62
365.92	96.62
366.147	105.62
366.373	102.62
366.599	95.62
366.826	75.62
367.052	87.62
367.278	93.62
367.505	106.62
367.731	78.62
367.957	87.62
368.184	98.62
368.41	113.62
368.636	105.62
368.862	110.62
369.089	105.62
369.315	82.62
369.541	86.62
369.767	83.62
369.993	94.62
370.219	99.62
370.445	90.62
370.672	85.62
370.898	88.62
371.124	99.62
371.35	93.62
371.576	88.62
371.802	93.62
372.028	86.62
372.254	74.62
372.48	91.62
372.706	82.62
372.932	95.62
373.158	83.62
373.384	88.62
373.61	99.62
373.835	103.62
374.061	96.62
374.287	103.62
374.513	97.62
374.739	89.62
374.965	80.62
375.191	94.62
375.416	75.62
375.642	83.62
375.868	88.62
376.094	84.62
376.319	89.62
376.545	96.62
376.771	88.62
376.997	91.62
377.222	82.62
377.448	92.62
377.674	98.62
377.899	96.62
378.125	103.62
378.35	113.62
378.576	82.62
378.802	95.62
379.027	89.62
379.253	90.62
379.478	82.62
379.704	93.62
379.929	84.62
380.155	89.62
380.38	89.62
380.606	91.62
380.831	99.62
381.057	102.62
381.282	96.62
381.507	93.62
381.733	87.62
381.958	89.62
382.184	110.62
382.409	109.62
382.634	102.62
382.86	95.62
383.085	100.62
383.31	98.62
383.535	89.62
383.761	97.62
383.986	108.62
384.211	88.62
384.436	94.62
384.662	84.62
384.887	102.62
385.112	103.62
385.337	110.62
385.562	92.62
385.787	107.62
386.013	94.62
386.238	111.62
386.463	106.62
386.688	93.62
386.913	104.62
387.138	112.62
387.363	99.62
387.588	99.62
387.813	106.62
388.038	97.62
388.263	113.62
388.488	96.62
388.713	98.62
388.938	86.62
389.163	78.62
389.387	85.62
389.612	93.62
389.837	86.62
390.062	94.62
390.287	87.62
390.512	95.62
390.736	96.62
390.961	77.62
391.186	103.62
391.411	93.62
391.636	91.62
391.86	96.62
392.085	82.62
392.31	93.62
392.534	97.62
392.759	85.62
392.984	71.62
393.208	97.62
393.433	100.62
393.658	101.62
393.882	75.62
394.107	96.62
394.331	77.62
394.556	97.62
394.78	82.62
395.005	93.62
395.229	79.62
395.454	78.62
395.678	93.62
395.903	92.62
396.127	78.62
396.352	92.62
396.576	89.62
396.801	98.62
397.025	83.62
397.249	86.62
397.474	84.62
397.698	93.62
397.922	92.62
398.147	83.62
398.371	89.62
398.595	87.62
398.82	93.62
399.044	92.62
399.268	91.62
399.492	93.62
399.717	83.62
399.941	90.62
400.165	85.62
400.389	85.62
400.613	95.62
400.837	87.62
401.062	90.62
401.286	100.62
401.51	76.62
401.734	84.62
401.958	109.62
402.182	133.62
402.406	166.62
402.63	119.62
402.854	102.62
403.078	96.62
403.302	103.62
403.526	92.62
403.75	93.62
403.974	86.62
404.198	103.62
404.422	89.62
404.645	100.62
404.869	95.62
405.093	91.62
405.317	99.62
405.541	96.62
405.765	98.62
405.988	122.62
406.212	182.62
406.436	247.62
406.66	168.62
406.883	133.62
407.107	83.62
407.331	93.62
407.555	82.62
407.778	101.62
408.002	83.62
408.226	94.62
408.449	94.62
408.673	96.62
408.896	92.62
409.12	83.62
409.344	90.62
409.567	87.62
409.791	102.62
410.014	93.62
410.238	102.62
410.461	89.62
410.685	86.62
410.908	96.62
411.132	101.62
411.355	97.62
411.578	87.62
411.802	89.62
412.025	83.62
412.249	80.62
412.472	88.62
412.695	93.62
412.919	84.62
413.142	92.62
413.365	88.62
413.589	81.62
413.812	81.62
414.035	87.62
414.258	80.62
414.482	84.62
414.705	93.62
414.928	95.62
415.151	90.62
415.374	93.62
415.597	89.62
415.821	89.62
416.044	88.62
416.267	88.62
416.49	79.62
416.713	92.62
416.936	91.62
417.159	91.62
417.382	88.62
417.605	87.62
417.828	90.62
418.051	107.62
418.274	86.62
418.497	108.62
418.72	86.62
418.943	91.62
419.166	78.62
419.389	100.62
419.611	101.62
419.834	91.62
420.057	82.62
420.28	95.62
420.503	78.62
420.726	94.62
420.948	89.62
421.171	85.62
421.394	99.62
421.617	79.62
421.839	88.62
422.062	77.62
422.285	100.62
422.507	100.62
422.73	105.62
422.953	93.62
423.175	91.62
423.398	77.62
423.621	87.62
423.843	93.62
424.066	90.62
424.288	104.62
424.511	92.62
424.733	96.62
424.956	105.62
425.178	91.62
425.401	101.62
425.623	99.62
425.846	89.62
426.068	109.62
426.291	102.62
426.513	89.62
426.735	100.62
426.958	94.62
427.18	97.62
427.402	148.62
427.625	180.62
427.847	148.62
428.069	115.62
428.292	83.62
428.514	86.62
428.736	72.62
428.958	82.62
429.181	86.62
429.403	85.62
429.625	80.62
429.847	80.62
430.069	90.62
430.292	86.62
430.514	81.62
430.736	86.62
430.958	81.62
431.18	85.62
431.402	81.62
431.624	89.62
431.846	80.62
432.068	78.62
432.29	82.62
432.512	86.62
432.734	101.62
432.956	95.62
433.178	112.62
433.4	99.62
433.622	93.62
433.844	94.62
434.066	89.62
434.287	94.62
434.509	80.62
434.731	78.62
434.953	75.62
435.175	85.62
435.397	109.62
435.618	84.62
435.84	105.62
436.062	116.62
436.284	113.62
436.505	105.62
436.727	110.62
436.949	97.62
437.17	94.62
437.392	92.62
437.614	93.62
437.835	122.62
438.057	104.62
438.278	96.62
438.5	100.62
438.721	115.62
438.943	103.62
439.165	95.62
439.386	86.62
439.608	100.62
439.829	106.62
440.05	104.62
440.272	135.62
440.493	97.62
440.715	85.62
440.936	82.62
441.158	89.62
441.379	78.62
441.6	84.62
441.822	98.62
442.043	94.62
442.264	112.62
442.486	100.62
442.707	96.62
442.928	104.62
443.149	128.62
443.371	136.62
443.592	112.62
443.813	106.62
444.034	101.62
444.255	86.62
444.476	96.62
444.698	85.62
444.919	96.62
445.14	122.62
445.361	134.62
445.582	122.62
445.803	134.62
446.024	142.62
446.245	142.62
446.466	100.62
446.687	93.62
446.908	86.62
447.129	93.62
447.35	90.62
447.571	92.62
447.792	85.62
448.013	99.62
448.234	104.62
448.455	102.62
448.675	116.62
448.896	115.62
449.117	95.62
449.338	94.62
449.559	116.62
449.779	122.62
450	99.62
450.221	89.62
450.442	81.62
450.662	98.62
450.883	107.62
451.104	110.62
451.324	102.62
451.545	82.62
451.766	88.62
451.986	102.62
452.207	101.62
452.428	99.62
452.648	107.62
452.869	114.62
453.089	114.62
453.31	95.62
453.53	96.62
453.751	89.62
453.971	113.62
454.192	112.62
454.412	100.62
454.633	77.62
454.853	81.62
455.073	92.62
455.294	96.62
455.514	103.62
455.734	93.62
455.955	78.62
456.175	93.62
456.395	87.62
456.616	75.62
456.836	65.62
457.056	82.62
457.276	86.62
457.497	87.62
457.717	86.62
457.937	81.62
458.157	90.62
458.377	97.62
458.598	121.62
458.818	160.62
459.038	186.62
459.258	117.62
459.478	103.62
459.698	96.62
459.918	72.62
460.138	71.62
460.358	77.62
460.578	87.62
460.798	93.62
461.018	92.62
461.238	90.62
461.458	100.62
461.678	88.62
461.898	85.62
462.118	86.62
462.338	75.62
462.558	89.62
462.777	75.62
462.997	78.62
463.217	86.62
463.437	85.62
463.657	91.62
463.876	93.62
464.096	88.62
464.316	72.62
464.536	105.62
464.755	98.62
464.975	101.62
465.195	177.62
465.414	164.62
465.634	92.62
465.854	70.62
466.073	88.62
466.293	92.62
466.512	78.62
466.732	79.62
466.951	93.62
467.171	93.62
467.391	88.62
467.61	98.62
467.829	99.62
468.049	95.62
468.268	99.62
468.488	87.62
468.707	75.62
468.927	88.62
469.146	94.62
469.365	79.62
469.585	85.62
469.804	91.62
470.023	93.62
470.243	97.62
470.462	106.62
470.681	108.62
470.901	89.62
471.12	92.62
471.339	81.62
471.558	93.62
471.777	79.62
471.997	83.62
472.216	96.62
472.435	121.62
472.654	98.62
472.873	98.62
473.092	89.62
473.311	85.62
473.53	73.62
473.749	79.62
473.968	95.62
474.187	99.62
474.406	96.62
474.625	81.62
474.844	100.62
475.063	91.62
475.282	84.62
475.501	81.62
475.72	85.62
475.939	93.62
476.158	78.62
476.377	89.62
476.596	89.62
476.814	94.62
477.033	95.62
477.252	85.62
477.471	96.62
477.69	79.62
477.908	91.62
478.127	84.62
478.346	90.62
478.564	107.62
478.783	88.62
479.002	82.62
479.22	94.62
479.439	102.62
479.658	106.62
479.876	98.62
480.095	102.62
480.313	89.62
480.532	94.62
480.751	87.62
480.969	96.62
481.188	150.62
481.406	138.62
481.624	95.62
481.843	92.62
482.061	92.62
482.28	82.62
482.498	85.62
482.717	80.62
482.935	79.62
483.153	87.62
483.372	78.62
483.59	82.62
483.808	76.62
484.027	72.62
484.245	91.62
484.463	88.62
484.681	97.62
484.9	104.62
485.118	98.62
485.336	87.62
485.554	90.62
485.772	84.62
485.99	102.62
486.209	97.62
486.427	109.62
486.645	104.62
486.863	111.62
487.081	78.62
487.299	102.62
487.517	86.62
487.735	90.62
487.953	90.62
488.171	90.62
488.389	78.62
488.607	83.62
488.825	79.62
489.043	80.62
489.261	76.62
489.479	81.62
489.696	96.62
489.914	86.62
490.132	93.62
490.35	102.62
490.568	89.62
490.786	88.62
491.003	78.62
491.221	100.62
491.439	96.62
491.657	84.62
491.874	90.62
492.092	100.62
492.31	95.62
492.527	81.62
492.745	94.62
492.963	87.62
493.18	72.62
493.398	91.62
493.615	90.62
493.833	80.62
494.05	86.62
494.268	93.62
494.485	80.62
494.703	84.62
494.92	89.62
495.138	93.62
495.355	99.62
495.573	93.62
495.79	83.62
496.008	87.62
496.225	78.62
496.442	79.62
496.66	85.62
496.877	84.62
497.094	93.62
497.312	96.62
497.529	98.62
497.746	106.62
497.963	95.62
498.181	87.62
498.398	80.62
498.615	93.62
498.832	97.62
499.049	98.62
499.267	86.62
499.484	103.62
499.701	90.62
499.918	97.62
500.135	72.62
500.352	81.62
500.569	72.62
500.786	84.62
501.003	93.62
501.22	100.62
501.437	92.62
501.654	105.62
501.871	109.62
502.088	101.62
502.305	93.62
502.522	78.62
502.739	96.62
502.956	94.62
503.172	96.62
503.389	113.62
503.606	107.62
503.823	95.62
504.04	99.62
504.256	87.62
504.473	82.62
504.69	80.62
504.907	81.62
505.123	98.62
505.34	91.62
505.557	93.62
505.773	87.62
505.99	88.62
506.207	94.62
506.423	95.62
506.64	90.62
506.856	86.62
507.073	97.62
507.289	89.62
507.506	100.62
507.722	106.62
507.939	105.62
508.155	90.62
508.372	98.62
508.588	87.62
508.805	81.62
509.021	96.62
509.238	92.62
509.454	87.62
509.67	102.62
509.887	113.62
510.103	128.62
510.319	234.62
510.536	874.62
510.752	2907.62
510.968	832.62
511.184	154.62
511.401	117.62
511.617	92.62
511.833	79.62
512.049	89.62
512.265	98.62
512.481	102.62
512.698	90.62
512.914	90.62
513.13	88.62
513.346	88.62
513.562	81.62
513.778	105.62
513.994	87.62
514.21	97.62
514.426	119.62
514.642	137.62
514.858	115.62
515.074	179.62
515.29	524.62
515.506	1831.62
515.721	692.62
515.937	170.62
