Data from Circ_2022_H10_HRD10591_00013.txt Node
Date: Wed Jan 03 09:53:40 EST 2024
User: Yrep
Spectrometer: HR+D1059
Trigger mode: 1
Integration Time (sec): 1.000000E-1
Scans to average: 1
Electric dark correction enabled: true
Nonlinearity correction enabled: false
Boxcar width: 0
XAxis mode: Wavelengths
Number of Pixels in Spectrum: 2048
>>>>>Begin Spectral Data<<<<<
223.165	-8.31
223.4	-8.31
223.635	-8.31
223.869	-4.31
224.104	-32.31
224.338	-21.31
224.573	-19.31
224.808	-21.31
225.042	-4.31
225.277	0.69
225.511	1.69
225.746	11.69
225.98	-5.31
226.215	4.69
226.449	23.69
226.683	23.69
226.918	16.69
227.152	33.69
227.387	42.69
227.621	56.69
227.856	57.69
228.09	60.69
228.324	48.69
228.559	67.69
228.793	55.69
229.027	57.69
229.262	57.69
229.496	94.69
229.73	104.69
229.964	85.69
230.199	80.69
230.433	77.69
230.667	82.69
230.901	75.69
231.136	77.69
231.37	83.69
231.604	90.69
231.838	95.69
232.072	78.69
232.306	82.69
232.541	76.69
232.775	85.69
233.009	83.69
233.243	95.69
233.477	79.69
233.711	86.69
233.945	87.69
234.179	79.69
234.413	93.69
234.647	81.69
234.881	71.69
235.115	81.69
235.349	80.69
235.583	90.69
235.817	64.69
236.051	75.69
236.285	60.69
236.519	84.69
236.753	79.69
236.987	92.69
237.221	91.69
237.455	90.69
237.689	75.69
237.922	84.69
238.156	80.69
238.39	89.69
238.624	77.69
238.858	72.69
239.091	76.69
239.325	77.69
239.559	88.69
239.793	82.69
240.027	80.69
240.26	61.69
240.494	70.69
240.728	88.69
240.961	81.69
241.195	65.69
241.429	75.69
241.662	82.69
241.896	74.69
242.13	71.69
242.363	81.69
242.597	71.69
242.83	71.69
243.064	79.69
243.298	70.69
243.531	91.69
243.765	70.69
243.998	85.69
244.232	78.69
244.465	83.69
244.699	91.69
244.932	82.69
245.166	72.69
245.399	72.69
245.633	74.69
245.866	72.69
246.099	81.69
246.333	75.69
246.566	65.69
246.8	64.69
247.033	75.69
247.266	82.69
247.5	74.69
247.733	81.69
247.966	88.69
248.2	77.69
248.433	77.69
248.666	77.69
248.899	90.69
249.133	84.69
249.366	93.69
249.599	112.69
249.832	76.69
250.066	77.69
250.299	88.69
250.532	75.69
250.765	88.69
250.998	72.69
251.231	76.69
251.465	72.69
251.698	74.69
251.931	84.69
252.164	86.69
252.397	76.69
252.63	83.69
252.863	89.69
253.096	73.69
253.329	82.69
253.562	75.69
253.795	81.69
254.028	69.69
254.261	88.69
254.494	81.69
254.727	87.69
254.96	87.69
255.193	83.69
255.426	73.69
255.659	92.69
255.892	83.69
256.124	82.69
256.357	88.69
256.59	88.69
256.823	78.69
257.056	88.69
257.289	68.69
257.521	81.69
257.754	90.69
257.987	82.69
258.22	68.69
258.452	85.69
258.685	77.69
258.918	79.69
259.151	71.69
259.383	86.69
259.616	92.69
259.849	98.69
260.081	85.69
260.314	85.69
260.547	70.69
260.779	84.69
261.012	88.69
261.244	87.69
261.477	92.69
261.71	105.69
261.942	156.69
262.175	151.69
262.407	112.69
262.64	67.69
262.872	88.69
263.105	88.69
263.337	97.69
263.57	88.69
263.802	82.69
264.035	67.69
264.267	80.69
264.499	74.69
264.732	87.69
264.964	85.69
265.197	94.69
265.429	83.69
265.661	95.69
265.894	75.69
266.126	76.69
266.358	96.69
266.591	74.69
266.823	89.69
267.055	75.69
267.287	69.69
267.52	94.69
267.752	91.69
267.984	83.69
268.216	85.69
268.448	83.69
268.681	101.69
268.913	88.69
269.145	87.69
269.377	85.69
269.609	88.69
269.841	73.69
270.073	76.69
270.306	96.69
270.538	88.69
270.77	71.69
271.002	89.69
271.234	92.69
271.466	83.69
271.698	85.69
271.93	86.69
272.162	68.69
272.394	83.69
272.626	81.69
272.858	75.69
273.09	89.69
273.322	74.69
273.553	63.69
273.785	97.69
274.017	86.69
274.249	87.69
274.481	79.69
274.713	84.69
274.945	102.69
275.176	82.69
275.408	94.69
275.64	96.69
275.872	83.69
276.104	100.69
276.335	102.69
276.567	115.69
276.799	143.69
277.031	108.69
277.262	106.69
277.494	94.69
277.726	90.69
277.957	81.69
278.189	93.69
278.421	80.69
278.652	92.69
278.884	82.69
279.115	76.69
279.347	91.69
279.579	93.69
279.81	102.69
280.042	80.69
280.273	91.69
280.505	88.69
280.736	85.69
280.968	88.69
281.199	92.69
281.431	88.69
281.662	108.69
281.894	90.69
282.125	107.69
282.356	157.69
282.588	205.69
282.819	140.69
283.051	91.69
283.282	95.69
283.513	90.69
283.745	92.69
283.976	91.69
284.207	86.69
284.439	88.69
284.67	86.69
284.901	78.69
285.132	87.69
285.364	85.69
285.595	91.69
285.826	68.69
286.057	85.69
286.288	96.69
286.52	86.69
286.751	95.69
286.982	90.69
287.213	88.69
287.444	83.69
287.675	96.69
287.906	100.69
288.138	100.69
288.369	101.69
288.6	94.69
288.831	87.69
289.062	87.69
289.293	94.69
289.524	93.69
289.755	93.69
289.986	83.69
290.217	92.69
290.448	83.69
290.679	84.69
290.91	92.69
291.141	90.69
291.371	99.69
291.602	92.69
291.833	81.69
292.064	77.69
292.295	87.69
292.526	97.69
292.757	87.69
292.987	88.69
293.218	88.69
293.449	95.69
293.68	82.69
293.91	76.69
294.141	86.69
294.372	88.69
294.603	99.69
294.833	97.69
295.064	95.69
295.295	81.69
295.525	92.69
295.756	116.69
295.987	134.69
296.217	189.69
296.448	187.69
296.679	117.69
296.909	104.69
297.14	83.69
297.37	101.69
297.601	93.69
297.831	81.69
298.062	107.69
298.292	89.69
298.523	90.69
298.753	88.69
298.984	96.69
299.214	89.69
299.445	89.69
299.675	90.69
299.905	113.69
300.136	87.69
300.366	82.69
300.597	90.69
300.827	91.69
301.057	119.69
301.288	115.69
301.518	106.69
301.748	97.69
301.979	89.69
302.209	83.69
302.439	98.69
302.669	103.69
302.9	99.69
303.13	93.69
303.36	117.69
303.59	119.69
303.82	134.69
304.051	100.69
304.281	106.69
304.511	92.69
304.741	83.69
304.971	87.69
305.201	94.69
305.431	93.69
305.661	82.69
305.891	80.69
306.121	99.69
306.352	113.69
306.582	140.69
306.812	103.69
307.042	98.69
307.272	95.69
307.502	95.69
307.731	96.69
307.961	98.69
308.191	81.69
308.421	98.69
308.651	106.69
308.881	105.69
309.111	93.69
309.341	94.69
309.571	108.69
309.8	107.69
310.03	86.69
310.26	101.69
310.49	105.69
310.72	108.69
310.949	125.69
311.179	112.69
311.409	98.69
311.639	89.69
311.868	98.69
312.098	100.69
312.328	116.69
312.557	118.69
312.787	144.69
313.017	115.69
313.246	100.69
313.476	94.69
313.706	90.69
313.935	120.69
314.165	120.69
314.394	111.69
314.624	112.69
314.853	103.69
315.083	96.69
315.312	94.69
315.542	93.69
315.771	99.69
316.001	87.69
316.23	80.69
316.46	104.69
316.689	100.69
316.919	105.69
317.148	128.69
317.377	121.69
317.607	112.69
317.836	92.69
318.065	88.69
318.295	89.69
318.524	83.69
318.753	100.69
318.983	96.69
319.212	114.69
319.441	137.69
319.67	116.69
319.9	105.69
320.129	102.69
320.358	101.69
320.587	109.69
320.816	113.69
321.046	123.69
321.275	107.69
321.504	104.69
321.733	91.69
321.962	103.69
322.191	116.69
322.42	128.69
322.649	141.69
322.878	157.69
323.108	141.69
323.337	164.69
323.566	182.69
323.795	216.69
324.024	303.69
324.253	653.69
324.482	1424.69
324.71	2889.69
324.939	3912.69
325.168	1426.69
325.397	399.69
325.626	198.69
325.855	169.69
326.084	151.69
326.313	168.69
326.542	206.69
326.77	319.69
326.999	695.69
327.228	1482.69
327.457	2743.69
327.686	2198.69
327.914	586.69
328.143	295.69
328.372	206.69
328.6	173.69
328.829	167.69
329.058	177.69
329.287	190.69
329.515	138.69
329.744	104.69
329.972	117.69
330.201	120.69
330.43	160.69
330.658	176.69
330.887	227.69
331.115	177.69
331.344	128.69
331.572	103.69
331.801	131.69
332.03	138.69
332.258	117.69
332.486	119.69
332.715	100.69
332.943	108.69
333.172	88.69
333.4	106.69
333.629	116.69
333.857	129.69
334.085	133.69
334.314	106.69
334.542	122.69
334.771	114.69
334.999	111.69
335.227	111.69
335.455	96.69
335.684	108.69
335.912	99.69
336.14	98.69
336.369	102.69
336.597	118.69
336.825	107.69
337.053	103.69
337.281	92.69
337.51	92.69
337.738	95.69
337.966	114.69
338.194	118.69
338.422	112.69
338.65	96.69
338.878	94.69
339.106	86.69
339.334	85.69
339.562	101.69
339.79	103.69
340.018	98.69
340.246	102.69
340.474	88.69
340.702	108.69
340.93	84.69
341.158	107.69
341.386	112.69
341.614	106.69
341.842	109.69
342.07	100.69
342.298	94.69
342.526	88.69
342.754	100.69
342.981	86.69
343.209	83.69
343.437	107.69
343.665	87.69
343.893	77.69
344.12	97.69
344.348	80.69
344.576	87.69
344.804	94.69
345.031	107.69
345.259	109.69
345.487	109.69
345.714	98.69
345.942	97.69
346.17	99.69
346.397	77.69
346.625	107.69
346.853	95.69
347.08	88.69
347.308	103.69
347.535	105.69
347.763	132.69
347.99	119.69
348.218	124.69
348.445	131.69
348.673	128.69
348.9	97.69
349.128	96.69
349.355	99.69
349.583	108.69
349.81	91.69
350.037	116.69
350.265	104.69
350.492	93.69
350.72	103.69
350.947	121.69
351.174	144.69
351.402	145.69
351.629	117.69
351.856	112.69
352.083	122.69
352.311	134.69
352.538	132.69
352.765	125.69
352.992	133.69
353.22	129.69
353.447	115.69
353.674	111.69
353.901	96.69
354.128	93.69
354.355	84.69
354.583	103.69
354.81	87.69
355.037	94.69
355.264	102.69
355.491	92.69
355.718	90.69
355.945	92.69
356.172	94.69
356.399	105.69
356.626	104.69
356.853	112.69
357.08	99.69
357.307	87.69
357.534	88.69
357.761	96.69
357.988	88.69
358.215	95.69
358.441	96.69
358.668	84.69
358.895	95.69
359.122	104.69
359.349	95.69
359.576	102.69
359.802	113.69
360.029	164.69
360.256	152.69
360.483	118.69
360.709	95.69
360.936	97.69
361.163	107.69
361.39	97.69
361.616	129.69
361.843	106.69
362.07	97.69
362.296	113.69
362.523	113.69
362.749	112.69
362.976	115.69
363.203	116.69
363.429	96.69
363.656	106.69
363.882	90.69
364.109	106.69
364.335	107.69
364.562	102.69
364.788	97.69
365.015	99.69
365.241	115.69
365.468	123.69
365.694	139.69
365.92	129.69
366.147	103.69
366.373	93.69
366.599	84.69
366.826	90.69
367.052	88.69
367.278	92.69
367.505	93.69
367.731	109.69
367.957	103.69
368.184	104.69
368.41	126.69
368.636	142.69
368.862	150.69
369.089	140.69
369.315	102.69
369.541	101.69
369.767	97.69
369.993	104.69
370.219	86.69
370.445	102.69
370.672	84.69
370.898	81.69
371.124	82.69
371.35	83.69
371.576	100.69
371.802	88.69
372.028	86.69
372.254	82.69
372.48	88.69
372.706	91.69
372.932	96.69
373.158	96.69
373.384	95.69
373.61	95.69
373.835	95.69
374.061	100.69
374.287	98.69
374.513	93.69
374.739	74.69
374.965	85.69
375.191	100.69
375.416	89.69
375.642	104.69
375.868	87.69
376.094	113.69
376.319	103.69
376.545	91.69
376.771	92.69
376.997	103.69
377.222	91.69
377.448	104.69
377.674	95.69
377.899	63.69
378.125	89.69
378.35	100.69
378.576	98.69
378.802	92.69
379.027	103.69
379.253	83.69
379.478	95.69
379.704	94.69
379.929	101.69
380.155	104.69
380.38	101.69
380.606	96.69
380.831	103.69
381.057	99.69
381.282	93.69
381.507	97.69
381.733	101.69
381.958	101.69
382.184	103.69
382.409	111.69
382.634	106.69
382.86	93.69
383.085	105.69
383.31	99.69
383.535	108.69
383.761	118.69
383.986	101.69
384.211	97.69
384.436	104.69
384.662	101.69
384.887	107.69
385.112	109.69
385.337	107.69
385.562	111.69
385.787	125.69
386.013	129.69
386.238	132.69
386.463	120.69
386.688	127.69
386.913	131.69
387.138	117.69
387.363	108.69
387.588	112.69
387.813	101.69
388.038	106.69
388.263	121.69
388.488	106.69
388.713	86.69
388.938	97.69
389.163	99.69
389.387	92.69
389.612	81.69
389.837	108.69
390.062	89.69
390.287	98.69
390.512	82.69
390.736	107.69
390.961	96.69
391.186	83.69
391.411	96.69
391.636	86.69
391.86	82.69
392.085	102.69
392.31	82.69
392.534	101.69
392.759	96.69
392.984	101.69
393.208	101.69
393.433	121.69
393.658	96.69
393.882	81.69
394.107	68.69
394.331	84.69
394.556	86.69
394.78	85.69
395.005	90.69
395.229	83.69
395.454	101.69
395.678	88.69
395.903	92.69
396.127	87.69
396.352	94.69
396.576	96.69
396.801	90.69
397.025	109.69
397.249	97.69
397.474	100.69
397.698	86.69
397.922	88.69
398.147	96.69
398.371	89.69
398.595	77.69
398.82	92.69
399.044	99.69
399.268	87.69
399.492	93.69
399.717	100.69
399.941	87.69
400.165	98.69
400.389	97.69
400.613	79.69
400.837	88.69
401.062	88.69
401.286	103.69
401.51	108.69
401.734	96.69
401.958	108.69
402.182	180.69
402.406	286.69
402.63	175.69
402.854	112.69
403.078	91.69
403.302	82.69
403.526	88.69
403.75	106.69
403.974	99.69
404.198	89.69
404.422	100.69
404.645	88.69
404.869	90.69
405.093	115.69
405.317	109.69
405.541	120.69
405.765	133.69
405.988	146.69
406.212	286.69
406.436	416.69
406.66	260.69
406.883	131.69
407.107	119.69
407.331	107.69
407.555	111.69
407.778	99.69
408.002	101.69
408.226	107.69
408.449	92.69
408.673	99.69
408.896	106.69
409.12	99.69
409.344	96.69
409.567	86.69
409.791	101.69
410.014	76.69
410.238	90.69
410.461	95.69
410.685	88.69
410.908	96.69
411.132	126.69
411.355	103.69
411.578	98.69
411.802	89.69
412.025	80.69
412.249	95.69
412.472	94.69
412.695	97.69
412.919	92.69
413.142	85.69
413.365	79.69
413.589	84.69
413.812	80.69
414.035	88.69
414.258	96.69
414.482	95.69
414.705	96.69
414.928	89.69
415.151	104.69
415.374	91.69
415.597	93.69
415.821	100.69
416.044	84.69
416.267	94.69
416.49	93.69
416.713	84.69
416.936	109.69
417.159	87.69
417.382	94.69
417.605	92.69
417.828	102.69
418.051	92.69
418.274	83.69
418.497	93.69
418.72	95.69
418.943	87.69
419.166	97.69
419.389	81.69
419.611	95.69
419.834	85.69
420.057	98.69
420.28	93.69
420.503	78.69
420.726	96.69
420.948	78.69
421.171	100.69
421.394	102.69
421.617	93.69
421.839	85.69
422.062	90.69
422.285	113.69
422.507	119.69
422.73	113.69
422.953	95.69
423.175	99.69
423.398	86.69
423.621	80.69
423.843	82.69
424.066	92.69
424.288	102.69
424.511	88.69
424.733	84.69
424.956	125.69
425.178	110.69
425.401	103.69
425.623	105.69
425.846	101.69
426.068	116.69
426.291	97.69
426.513	106.69
426.735	104.69
426.958	97.69
427.18	107.69
427.402	160.69
427.625	258.69
427.847	200.69
428.069	118.69
428.292	95.69
428.514	98.69
428.736	91.69
428.958	83.69
429.181	93.69
429.403	90.69
429.625	85.69
429.847	104.69
430.069	113.69
430.292	97.69
430.514	81.69
430.736	97.69
430.958	88.69
431.18	87.69
431.402	92.69
431.624	85.69
431.846	92.69
432.068	92.69
432.29	85.69
432.512	89.69
432.734	99.69
432.956	97.69
433.178	113.69
433.4	112.69
433.622	75.69
433.844	91.69
434.066	96.69
434.287	99.69
434.509	102.69
434.731	104.69
434.953	84.69
435.175	88.69
435.397	112.69
435.618	102.69
435.84	112.69
436.062	135.69
436.284	129.69
436.505	114.69
436.727	104.69
436.949	99.69
437.17	90.69
437.392	89.69
437.614	96.69
437.835	145.69
438.057	165.69
438.278	139.69
438.5	120.69
438.721	133.69
438.943	114.69
439.165	100.69
439.386	79.69
439.608	91.69
439.829	130.69
440.05	176.69
440.272	210.69
440.493	111.69
440.715	104.69
440.936	92.69
441.158	89.69
441.379	93.69
441.6	106.69
441.822	87.69
442.043	96.69
442.264	111.69
442.486	115.69
442.707	108.69
442.928	127.69
443.149	191.69
443.371	182.69
443.592	136.69
443.813	112.69
444.034	111.69
444.255	95.69
444.476	82.69
444.698	91.69
444.919	98.69
445.14	136.69
445.361	132.69
445.582	148.69
445.803	197.69
446.024	185.69
446.245	176.69
446.466	139.69
446.687	91.69
446.908	98.69
447.129	111.69
447.35	91.69
447.571	105.69
447.792	112.69
448.013	129.69
448.234	163.69
448.455	106.69
448.675	136.69
448.896	129.69
449.117	103.69
449.338	110.69
449.559	150.69
449.779	164.69
450	116.69
450.221	101.69
450.442	95.69
450.662	93.69
450.883	153.69
451.104	154.69
451.324	115.69
451.545	100.69
451.766	101.69
451.986	86.69
452.207	83.69
452.428	107.69
452.648	111.69
452.869	148.69
453.089	161.69
453.31	166.69
453.53	97.69
453.751	115.69
453.971	131.69
454.192	157.69
454.412	103.69
454.633	81.69
454.853	100.69
455.073	80.69
455.294	87.69
455.514	109.69
455.734	110.69
455.955	89.69
456.175	89.69
456.395	88.69
456.616	92.69
456.836	85.69
457.056	87.69
457.276	88.69
457.497	79.69
457.717	87.69
457.937	81.69
458.157	88.69
458.377	100.69
458.598	137.69
458.818	241.69
459.038	270.69
459.258	164.69
459.478	101.69
459.698	77.69
459.918	89.69
460.138	88.69
460.358	75.69
460.578	92.69
460.798	88.69
461.018	100.69
461.238	87.69
461.458	90.69
461.678	74.69
461.898	84.69
462.118	89.69
462.338	89.69
462.558	93.69
462.777	101.69
462.997	90.69
463.217	81.69
463.437	88.69
463.657	88.69
463.876	90.69
464.096	101.69
464.316	101.69
464.536	111.69
464.755	99.69
464.975	124.69
465.195	268.69
465.414	284.69
465.634	120.69
465.854	81.69
466.073	104.69
466.293	74.69
466.512	93.69
466.732	71.69
466.951	80.69
467.171	93.69
467.391	107.69
467.61	134.69
467.829	122.69
468.049	102.69
468.268	99.69
468.488	83.69
468.707	91.69
468.927	100.69
469.146	86.69
469.365	76.69
469.585	100.69
469.804	127.69
470.023	119.69
470.243	113.69
470.462	117.69
470.681	138.69
470.901	100.69
471.12	76.69
471.339	89.69
471.558	91.69
471.777	98.69
471.997	90.69
472.216	92.69
472.435	112.69
472.654	99.69
472.873	99.69
473.092	82.69
473.311	96.69
473.53	113.69
473.749	87.69
473.968	98.69
474.187	131.69
474.406	99.69
474.625	83.69
474.844	97.69
475.063	79.69
475.282	91.69
475.501	93.69
475.72	98.69
475.939	80.69
476.158	76.69
476.377	87.69
476.596	75.69
476.814	109.69
477.033	102.69
477.252	90.69
477.471	98.69
477.69	97.69
477.908	100.69
478.127	91.69
478.346	92.69
478.564	94.69
478.783	97.69
479.002	103.69
479.22	100.69
479.439	114.69
479.658	128.69
479.876	103.69
480.095	97.69
480.313	98.69
480.532	92.69
480.751	92.69
480.969	99.69
481.188	137.69
481.406	124.69
481.624	103.69
481.843	88.69
482.061	83.69
482.28	88.69
482.498	88.69
482.717	85.69
482.935	86.69
483.153	83.69
483.372	72.69
483.59	79.69
483.808	88.69
484.027	98.69
484.245	100.69
484.463	95.69
484.681	102.69
484.9	98.69
485.118	92.69
485.336	101.69
485.554	118.69
485.772	104.69
485.99	92.69
486.209	107.69
486.427	113.69
486.645	128.69
486.863	128.69
487.081	110.69
487.299	102.69
487.517	97.69
487.735	91.69
487.953	108.69
488.171	103.69
488.389	107.69
488.607	96.69
488.825	81.69
489.043	91.69
489.261	98.69
489.479	99.69
489.696	97.69
489.914	97.69
490.132	90.69
490.35	93.69
490.568	92.69
490.786	91.69
491.003	81.69
491.221	88.69
491.439	88.69
491.657	94.69
491.874	92.69
492.092	82.69
492.31	89.69
492.527	99.69
492.745	82.69
492.963	107.69
493.18	108.69
493.398	100.69
493.615	88.69
493.833	106.69
494.05	92.69
494.268	88.69
494.485	88.69
494.703	87.69
494.92	91.69
495.138	92.69
495.355	77.69
495.573	98.69
495.79	81.69
496.008	93.69
496.225	79.69
496.442	85.69
496.66	81.69
496.877	93.69
497.094	91.69
497.312	96.69
497.529	95.69
497.746	103.69
497.963	94.69
498.181	95.69
498.398	112.69
498.615	113.69
498.832	104.69
499.049	90.69
499.267	91.69
499.484	88.69
499.701	88.69
499.918	102.69
500.135	94.69
500.352	97.69
500.569	104.69
500.786	87.69
501.003	102.69
501.22	84.69
501.437	91.69
501.654	119.69
501.871	145.69
502.088	102.69
502.305	93.69
502.522	93.69
502.739	96.69
502.956	83.69
503.172	104.69
503.389	99.69
503.606	133.69
503.823	104.69
504.04	92.69
504.256	108.69
504.473	114.69
504.69	87.69
504.907	79.69
505.123	99.69
505.34	103.69
505.557	101.69
505.773	80.69
505.99	94.69
506.207	83.69
506.423	99.69
506.64	101.69
506.856	90.69
507.073	89.69
507.289	107.69
507.506	109.69
507.722	145.69
507.939	151.69
508.155	101.69
508.372	100.69
508.588	105.69
508.805	106.69
509.021	97.69
509.238	105.69
509.454	114.69
509.67	123.69
509.887	139.69
510.103	171.69
510.319	325.69
510.536	1347.69
510.752	4852.69
510.968	1295.69
511.184	227.69
511.401	151.69
511.617	119.69
511.833	103.69
512.049	109.69
512.265	96.69
512.481	95.69
512.698	96.69
512.914	92.69
