Data from Circ_2022_H10_HRD10591_00007.txt Node
Date: Wed Jan 03 09:53:39 EST 2024
User: Yrep
Spectrometer: HR+D1059
Trigger mode: 1
Integration Time (sec): 1.000000E-1
Scans to average: 1
Electric dark correction enabled: true
Nonlinearity correction enabled: false
Boxcar width: 0
XAxis mode: Wavelengths
Number of Pixels in Spectrum: 2048
>>>>>Begin Spectral Data<<<<<
223.165	-18.44
223.4	-18.44
223.635	-18.44
223.869	-20.44
224.104	-27.44
224.338	3.56
224.573	-14.44
224.808	-20.44
225.042	-8.44
225.277	4.56
225.511	3.56
225.746	5.56
225.98	17.56
226.215	12.56
226.449	14.56
226.683	15.56
226.918	20.56
227.152	11.56
227.387	19.56
227.621	43.56
227.856	29.56
228.09	51.56
228.324	49.56
228.559	46.56
228.793	47.56
229.027	59.56
229.262	77.56
229.496	85.56
229.73	90.56
229.964	90.56
230.199	76.56
230.433	72.56
230.667	79.56
230.901	72.56
231.136	71.56
231.37	64.56
231.604	71.56
231.838	74.56
232.072	76.56
232.306	76.56
232.541	80.56
232.775	78.56
233.009	83.56
233.243	83.56
233.477	79.56
233.711	70.56
233.945	77.56
234.179	81.56
234.413	77.56
234.647	73.56
234.881	73.56
235.115	73.56
235.349	71.56
235.583	86.56
235.817	85.56
236.051	82.56
236.285	85.56
236.519	81.56
236.753	65.56
236.987	71.56
237.221	83.56
237.455	91.56
237.689	72.56
237.922	67.56
238.156	81.56
238.39	65.56
238.624	87.56
238.858	63.56
239.091	76.56
239.325	80.56
239.559	76.56
239.793	66.56
240.027	74.56
240.26	72.56
240.494	80.56
240.728	67.56
240.961	56.56
241.195	77.56
241.429	68.56
241.662	68.56
241.896	88.56
242.13	65.56
242.363	76.56
242.597	68.56
242.83	66.56
243.064	78.56
243.298	69.56
243.531	71.56
243.765	64.56
243.998	86.56
244.232	74.56
244.465	76.56
244.699	73.56
244.932	88.56
245.166	79.56
245.399	88.56
245.633	73.56
245.866	85.56
246.099	77.56
246.333	85.56
246.566	57.56
246.8	78.56
247.033	74.56
247.266	70.56
247.5	87.56
247.733	72.56
247.966	84.56
248.2	69.56
248.433	72.56
248.666	58.56
248.899	76.56
249.133	70.56
249.366	112.56
249.599	100.56
249.832	69.56
250.066	74.56
250.299	82.56
250.532	64.56
250.765	70.56
250.998	73.56
251.231	73.56
251.465	74.56
251.698	77.56
251.931	84.56
252.164	92.56
252.397	93.56
252.63	65.56
252.863	77.56
253.096	78.56
253.329	77.56
253.562	84.56
253.795	81.56
254.028	81.56
254.261	88.56
254.494	72.56
254.727	78.56
254.96	87.56
255.193	68.56
255.426	71.56
255.659	79.56
255.892	94.56
256.124	82.56
256.357	74.56
256.59	85.56
256.823	71.56
257.056	86.56
257.289	78.56
257.521	83.56
257.754	63.56
257.987	69.56
258.22	77.56
258.452	84.56
258.685	76.56
258.918	70.56
259.151	80.56
259.383	79.56
259.616	77.56
259.849	80.56
260.081	62.56
260.314	85.56
260.547	80.56
260.779	75.56
261.012	72.56
261.244	88.56
261.477	93.56
261.71	112.56
261.942	123.56
262.175	145.56
262.407	84.56
262.64	78.56
262.872	84.56
263.105	69.56
263.337	93.56
263.57	79.56
263.802	72.56
264.035	80.56
264.267	81.56
264.499	86.56
264.732	84.56
264.964	88.56
265.197	74.56
265.429	92.56
265.661	70.56
265.894	94.56
266.126	80.56
266.358	70.56
266.591	78.56
266.823	67.56
267.055	76.56
267.287	88.56
267.52	78.56
267.752	81.56
267.984	77.56
268.216	73.56
268.448	94.56
268.681	72.56
268.913	84.56
269.145	94.56
269.377	83.56
269.609	76.56
269.841	71.56
270.073	75.56
270.306	72.56
270.538	85.56
270.77	77.56
271.002	72.56
271.234	79.56
271.466	79.56
271.698	89.56
271.93	83.56
272.162	70.56
272.394	83.56
272.626	78.56
272.858	86.56
273.09	85.56
273.322	97.56
273.553	79.56
273.785	86.56
274.017	80.56
274.249	82.56
274.481	74.56
274.713	75.56
274.945	87.56
275.176	73.56
275.408	81.56
275.64	82.56
275.872	94.56
276.104	82.56
276.335	99.56
276.567	104.56
276.799	103.56
277.031	107.56
277.262	93.56
277.494	100.56
277.726	91.56
277.957	88.56
278.189	77.56
278.421	79.56
278.652	89.56
278.884	100.56
279.115	101.56
279.347	81.56
279.579	79.56
279.81	80.56
280.042	88.56
280.273	70.56
280.505	83.56
280.736	85.56
280.968	75.56
281.199	72.56
281.431	86.56
281.662	89.56
281.894	86.56
282.125	103.56
282.356	140.56
282.588	179.56
282.819	143.56
283.051	92.56
283.282	84.56
283.513	95.56
283.745	94.56
283.976	76.56
284.207	92.56
284.439	87.56
284.67	85.56
284.901	81.56
285.132	98.56
285.364	96.56
285.595	88.56
285.826	92.56
286.057	94.56
286.288	68.56
286.52	82.56
286.751	71.56
286.982	83.56
287.213	72.56
287.444	81.56
287.675	92.56
287.906	97.56
288.138	76.56
288.369	77.56
288.6	91.56
288.831	89.56
289.062	81.56
289.293	72.56
289.524	86.56
289.755	82.56
289.986	83.56
290.217	85.56
290.448	82.56
290.679	90.56
290.91	90.56
291.141	89.56
291.371	94.56
291.602	74.56
291.833	86.56
292.064	97.56
292.295	76.56
292.526	70.56
292.757	77.56
292.987	86.56
293.218	80.56
293.449	76.56
293.68	95.56
293.91	71.56
294.141	77.56
294.372	85.56
294.603	70.56
294.833	86.56
295.064	80.56
295.295	94.56
295.525	94.56
295.756	93.56
295.987	130.56
296.217	165.56
296.448	128.56
296.679	100.56
296.909	88.56
297.14	83.56
297.37	78.56
297.601	89.56
297.831	91.56
298.062	97.56
298.292	85.56
298.523	80.56
298.753	80.56
298.984	88.56
299.214	83.56
299.445	89.56
299.675	87.56
299.905	92.56
300.136	81.56
300.366	92.56
300.597	93.56
300.827	100.56
301.057	100.56
301.288	104.56
301.518	89.56
301.748	85.56
301.979	83.56
302.209	96.56
302.439	79.56
302.669	83.56
302.9	85.56
303.13	101.56
303.36	97.56
303.59	101.56
303.82	118.56
304.051	103.56
304.281	88.56
304.511	96.56
304.741	86.56
304.971	88.56
305.201	84.56
305.431	81.56
305.661	77.56
305.891	87.56
306.121	96.56
306.352	111.56
306.582	110.56
306.812	108.56
307.042	86.56
307.272	94.56
307.502	87.56
307.731	86.56
307.961	95.56
308.191	86.56
308.421	90.56
308.651	76.56
308.881	98.56
309.111	88.56
309.341	91.56
309.571	99.56
309.8	102.56
310.03	93.56
310.26	85.56
310.49	100.56
310.72	111.56
310.949	112.56
311.179	103.56
311.409	103.56
311.639	96.56
311.868	101.56
312.098	86.56
312.328	82.56
312.557	108.56
312.787	115.56
313.017	101.56
313.246	90.56
313.476	84.56
313.706	82.56
313.935	94.56
314.165	112.56
314.394	98.56
314.624	112.56
314.853	99.56
315.083	99.56
315.312	80.56
315.542	70.56
315.771	106.56
316.001	93.56
316.23	89.56
316.46	98.56
316.689	90.56
316.919	77.56
317.148	96.56
317.377	99.56
317.607	89.56
317.836	90.56
318.065	88.56
318.295	82.56
318.524	92.56
318.753	88.56
318.983	96.56
319.212	98.56
319.441	112.56
319.67	119.56
319.9	99.56
320.129	87.56
320.358	93.56
320.587	115.56
320.816	102.56
321.046	96.56
321.275	91.56
321.504	92.56
321.733	85.56
321.962	96.56
322.191	96.56
322.42	118.56
322.649	110.56
322.878	126.56
323.108	134.56
323.337	143.56
323.566	127.56
323.795	183.56
324.024	244.56
324.253	485.56
324.482	1129.56
324.71	2290.56
324.939	3088.56
325.168	1113.56
325.397	305.56
325.626	188.56
325.855	143.56
326.084	123.56
326.313	142.56
326.542	164.56
326.77	285.56
326.999	568.56
327.228	1208.56
327.457	2210.56
327.686	1751.56
327.914	464.56
328.143	232.56
328.372	187.56
328.6	125.56
328.829	138.56
329.058	158.56
329.287	160.56
329.515	120.56
329.744	85.56
329.972	88.56
330.201	95.56
330.43	111.56
330.658	136.56
330.887	185.56
331.115	158.56
331.344	102.56
331.572	104.56
331.801	118.56
332.03	101.56
332.258	96.56
332.486	98.56
332.715	108.56
332.943	90.56
333.172	86.56
333.4	98.56
333.629	103.56
333.857	125.56
334.085	117.56
334.314	96.56
334.542	102.56
334.771	97.56
334.999	99.56
335.227	99.56
335.455	108.56
335.684	100.56
335.912	98.56
336.14	93.56
336.369	103.56
336.597	107.56
336.825	82.56
337.053	99.56
337.281	91.56
337.51	83.56
337.738	88.56
337.966	98.56
338.194	97.56
338.422	100.56
338.65	114.56
338.878	111.56
339.106	96.56
339.334	90.56
339.562	84.56
339.79	94.56
340.018	88.56
340.246	92.56
340.474	90.56
340.702	100.56
340.93	100.56
341.158	103.56
341.386	89.56
341.614	103.56
341.842	93.56
342.07	79.56
342.298	83.56
342.526	83.56
342.754	78.56
342.981	92.56
343.209	85.56
343.437	91.56
343.665	86.56
343.893	68.56
344.12	94.56
344.348	102.56
344.576	93.56
344.804	86.56
345.031	90.56
345.259	91.56
345.487	87.56
345.714	92.56
345.942	95.56
346.17	77.56
346.397	95.56
346.625	102.56
346.853	85.56
347.08	90.56
347.308	98.56
347.535	96.56
347.763	109.56
347.99	119.56
348.218	104.56
348.445	101.56
348.673	105.56
348.9	87.56
349.128	93.56
349.355	92.56
349.583	84.56
349.81	98.56
350.037	101.56
350.265	91.56
350.492	89.56
350.72	96.56
350.947	101.56
351.174	119.56
351.402	125.56
351.629	122.56
351.856	104.56
352.083	101.56
352.311	107.56
352.538	121.56
352.765	111.56
352.992	131.56
353.22	117.56
353.447	116.56
353.674	105.56
353.901	92.56
354.128	109.56
354.355	99.56
354.583	98.56
354.81	105.56
355.037	92.56
355.264	105.56
355.491	86.56
355.718	95.56
355.945	101.56
356.172	92.56
356.399	89.56
356.626	86.56
356.853	102.56
357.08	93.56
357.307	92.56
357.534	83.56
357.761	93.56
357.988	109.56
358.215	85.56
358.441	93.56
358.668	84.56
358.895	85.56
359.122	92.56
359.349	102.56
359.576	107.56
359.802	103.56
360.029	127.56
360.256	114.56
360.483	109.56
360.709	87.56
360.936	90.56
361.163	92.56
361.39	104.56
361.616	97.56
361.843	97.56
362.07	106.56
362.296	108.56
362.523	88.56
362.749	89.56
362.976	85.56
363.203	81.56
363.429	79.56
363.656	81.56
363.882	92.56
364.109	92.56
364.335	90.56
364.562	96.56
364.788	98.56
365.015	99.56
365.241	104.56
365.468	108.56
365.694	111.56
365.92	97.56
366.147	99.56
366.373	86.56
366.599	88.56
366.826	107.56
367.052	87.56
367.278	103.56
367.505	102.56
367.731	95.56
367.957	96.56
368.184	95.56
368.41	120.56
368.636	125.56
368.862	151.56
369.089	122.56
369.315	106.56
369.541	101.56
369.767	98.56
369.993	90.56
370.219	94.56
370.445	82.56
370.672	74.56
370.898	85.56
371.124	94.56
371.35	89.56
371.576	85.56
371.802	83.56
372.028	91.56
372.254	95.56
372.48	89.56
372.706	71.56
372.932	93.56
373.158	95.56
373.384	85.56
373.61	97.56
373.835	94.56
374.061	86.56
374.287	86.56
374.513	82.56
374.739	92.56
374.965	85.56
375.191	91.56
375.416	86.56
375.642	82.56
375.868	77.56
376.094	98.56
376.319	108.56
376.545	79.56
376.771	87.56
376.997	89.56
377.222	93.56
377.448	98.56
377.674	99.56
377.899	83.56
378.125	79.56
378.35	78.56
378.576	96.56
378.802	85.56
379.027	92.56
379.253	97.56
379.478	96.56
379.704	97.56
379.929	76.56
380.155	104.56
380.38	95.56
380.606	99.56
380.831	92.56
381.057	97.56
381.282	105.56
381.507	101.56
381.733	103.56
381.958	98.56
382.184	100.56
382.409	102.56
382.634	108.56
382.86	107.56
383.085	94.56
383.31	119.56
383.535	106.56
383.761	113.56
383.986	92.56
384.211	94.56
384.436	104.56
384.662	107.56
384.887	122.56
385.112	117.56
385.337	107.56
385.562	112.56
385.787	114.56
386.013	134.56
386.238	126.56
386.463	100.56
386.688	93.56
386.913	121.56
387.138	99.56
387.363	108.56
387.588	87.56
387.813	107.56
388.038	101.56
388.263	118.56
388.488	123.56
388.713	96.56
388.938	88.56
389.163	108.56
389.387	101.56
389.612	91.56
389.837	87.56
390.062	109.56
390.287	108.56
390.512	104.56
390.736	91.56
390.961	86.56
391.186	96.56
391.411	104.56
391.636	91.56
391.86	88.56
392.085	88.56
392.31	86.56
392.534	96.56
392.759	88.56
392.984	94.56
393.208	107.56
393.433	117.56
393.658	104.56
393.882	88.56
394.107	78.56
394.331	87.56
394.556	96.56
394.78	76.56
395.005	84.56
395.229	71.56
395.454	91.56
395.678	81.56
395.903	83.56
396.127	84.56
396.352	78.56
396.576	80.56
396.801	94.56
397.025	96.56
397.249	96.56
397.474	95.56
397.698	84.56
397.922	92.56
398.147	87.56
398.371	92.56
398.595	86.56
398.82	77.56
399.044	81.56
399.268	85.56
399.492	93.56
399.717	86.56
399.941	99.56
400.165	86.56
400.389	98.56
400.613	87.56
400.837	91.56
401.062	99.56
401.286	88.56
401.51	85.56
401.734	99.56
401.958	103.56
402.182	145.56
402.406	200.56
402.63	145.56
402.854	82.56
403.078	94.56
403.302	71.56
403.526	80.56
403.75	92.56
403.974	84.56
404.198	95.56
404.422	93.56
404.645	74.56
404.869	92.56
405.093	94.56
405.317	94.56
405.541	110.56
405.765	117.56
405.988	132.56
406.212	226.56
406.436	314.56
406.66	195.56
406.883	106.56
407.107	102.56
407.331	89.56
407.555	113.56
407.778	90.56
408.002	91.56
408.226	88.56
408.449	97.56
408.673	81.56
408.896	86.56
409.12	100.56
409.344	92.56
409.567	87.56
409.791	100.56
410.014	77.56
410.238	86.56
410.461	79.56
410.685	91.56
410.908	91.56
411.132	110.56
411.355	99.56
411.578	85.56
411.802	88.56
412.025	83.56
412.249	88.56
412.472	95.56
412.695	85.56
412.919	56.56
413.142	84.56
413.365	86.56
413.589	71.56
413.812	79.56
414.035	92.56
414.258	92.56
414.482	86.56
414.705	77.56
414.928	87.56
415.151	104.56
415.374	93.56
415.597	83.56
415.821	86.56
416.044	91.56
416.267	89.56
416.49	90.56
416.713	89.56
416.936	84.56
417.159	80.56
417.382	84.56
417.605	87.56
417.828	105.56
418.051	94.56
418.274	96.56
418.497	88.56
418.72	93.56
418.943	86.56
419.166	79.56
419.389	88.56
419.611	98.56
419.834	86.56
420.057	78.56
420.28	90.56
420.503	80.56
420.726	91.56
420.948	71.56
421.171	89.56
421.394	95.56
421.617	81.56
421.839	88.56
422.062	94.56
422.285	93.56
422.507	94.56
422.73	112.56
422.953	92.56
423.175	79.56
423.398	83.56
423.621	95.56
423.843	79.56
424.066	87.56
424.288	79.56
424.511	94.56
424.733	104.56
424.956	111.56
425.178	104.56
425.401	114.56
425.623	104.56
425.846	85.56
426.068	84.56
426.291	100.56
426.513	92.56
426.735	73.56
426.958	99.56
427.18	104.56
427.402	174.56
427.625	209.56
427.847	151.56
428.069	100.56
428.292	85.56
428.514	88.56
428.736	94.56
428.958	78.56
429.181	73.56
429.403	85.56
429.625	78.56
429.847	78.56
430.069	92.56
430.292	86.56
430.514	81.56
430.736	75.56
430.958	92.56
431.18	78.56
431.402	67.56
431.624	93.56
431.846	93.56
432.068	88.56
432.29	86.56
432.512	74.56
432.734	77.56
432.956	104.56
433.178	100.56
433.4	100.56
433.622	94.56
433.844	89.56
434.066	104.56
434.287	86.56
434.509	86.56
434.731	74.56
434.953	78.56
435.175	77.56
435.397	100.56
435.618	91.56
435.84	102.56
436.062	147.56
436.284	137.56
436.505	100.56
436.727	120.56
436.949	97.56
437.17	91.56
437.392	82.56
437.614	85.56
437.835	120.56
438.057	129.56
438.278	110.56
438.5	94.56
438.721	121.56
438.943	99.56
439.165	93.56
439.386	90.56
439.608	79.56
439.829	103.56
440.05	126.56
440.272	168.56
440.493	93.56
440.715	86.56
440.936	91.56
441.158	92.56
441.379	99.56
441.6	92.56
441.822	101.56
442.043	101.56
442.264	108.56
442.486	120.56
442.707	98.56
442.928	112.56
443.149	157.56
443.371	144.56
443.592	121.56
443.813	127.56
444.034	102.56
444.255	78.56
444.476	80.56
444.698	93.56
444.919	89.56
445.14	123.56
445.361	125.56
445.582	123.56
445.803	160.56
446.024	161.56
446.245	160.56
446.466	127.56
446.687	89.56
446.908	77.56
447.129	86.56
447.35	89.56
447.571	71.56
447.792	102.56
448.013	103.56
448.234	127.56
448.455	101.56
448.675	119.56
448.896	116.56
449.117	87.56
449.338	101.56
449.559	133.56
449.779	142.56
450	110.56
450.221	92.56
450.442	89.56
450.662	104.56
450.883	120.56
451.104	115.56
451.324	86.56
451.545	86.56
451.766	90.56
451.986	96.56
452.207	80.56
452.428	102.56
452.648	109.56
452.869	131.56
453.089	139.56
453.31	149.56
453.53	91.56
453.751	95.56
453.971	105.56
454.192	127.56
454.412	95.56
454.633	91.56
454.853	76.56
455.073	73.56
455.294	91.56
455.514	104.56
455.734	84.56
455.955	91.56
456.175	87.56
456.395	94.56
456.616	87.56
456.836	75.56
457.056	86.56
457.276	86.56
457.497	89.56
457.717	103.56
457.937	82.56
458.157	82.56
458.377	90.56
458.598	130.56
458.818	192.56
459.038	194.56
459.258	136.56
459.478	108.56
459.698	90.56
459.918	94.56
460.138	87.56
460.358	80.56
460.578	98.56
460.798	81.56
461.018	96.56
461.238	79.56
461.458	75.56
461.678	76.56
461.898	77.56
462.118	92.56
462.338	80.56
462.558	79.56
462.777	87.56
462.997	76.56
463.217	84.56
463.437	64.56
463.657	70.56
463.876	91.56
464.096	95.56
464.316	85.56
464.536	91.56
464.755	96.56
464.975	121.56
465.195	226.56
465.414	209.56
465.634	102.56
465.854	93.56
466.073	78.56
466.293	77.56
466.512	79.56
466.732	87.56
466.951	89.56
467.171	92.56
467.391	95.56
467.61	125.56
467.829	112.56
468.049	92.56
468.268	91.56
468.488	88.56
468.707	77.56
468.927	73.56
469.146	95.56
469.365	86.56
469.585	93.56
469.804	80.56
470.023	91.56
470.243	97.56
470.462	119.56
470.681	123.56
470.901	98.56
471.12	96.56
471.339	91.56
471.558	85.56
471.777	82.56
471.997	76.56
472.216	87.56
472.435	102.56
472.654	89.56
472.873	80.56
473.092	92.56
473.311	91.56
473.53	88.56
473.749	76.56
473.968	85.56
474.187	119.56
474.406	102.56
474.625	91.56
474.844	89.56
475.063	96.56
475.282	87.56
475.501	87.56
475.72	74.56
475.939	82.56
476.158	108.56
476.377	98.56
476.596	99.56
476.814	101.56
477.033	99.56
477.252	88.56
477.471	72.56
477.69	81.56
477.908	81.56
478.127	85.56
478.346	83.56
478.564	99.56
478.783	88.56
479.002	92.56
479.22	90.56
479.439	101.56
479.658	117.56
479.876	94.56
480.095	100.56
480.313	95.56
480.532	96.56
480.751	76.56
480.969	73.56
481.188	97.56
481.406	105.56
481.624	101.56
481.843	73.56
482.061	73.56
482.28	82.56
482.498	83.56
482.717	84.56
482.935	94.56
483.153	89.56
483.372	97.56
483.59	89.56
483.808	95.56
484.027	84.56
484.245	88.56
484.463	84.56
484.681	93.56
484.9	96.56
485.118	95.56
485.336	97.56
485.554	95.56
485.772	97.56
485.99	92.56
486.209	100.56
486.427	97.56
486.645	111.56
486.863	127.56
487.081	102.56
487.299	103.56
487.517	92.56
487.735	81.56
487.953	80.56
488.171	92.56
488.389	87.56
488.607	94.56
488.825	96.56
489.043	87.56
489.261	85.56
489.479	79.56
489.696	88.56
489.914	74.56
490.132	92.56
490.35	87.56
490.568	85.56
490.786	83.56
491.003	84.56
491.221	77.56
491.439	94.56
491.657	82.56
491.874	94.56
492.092	82.56
492.31	77.56
492.527	80.56
492.745	89.56
492.963	93.56
493.18	90.56
493.398	90.56
493.615	103.56
493.833	92.56
494.05	89.56
494.268	89.56
494.485	87.56
494.703	90.56
494.92	80.56
495.138	77.56
495.355	86.56
495.573	104.56
495.79	89.56
496.008	95.56
496.225	87.56
496.442	91.56
496.66	96.56
496.877	76.56
497.094	82.56
497.312	92.56
497.529	100.56
497.746	87.56
497.963	91.56
498.181	86.56
498.398	96.56
498.615	118.56
498.832	102.56
499.049	85.56
499.267	90.56
499.484	92.56
499.701	99.56
499.918	91.56
500.135	95.56
500.352	85.56
500.569	87.56
500.786	90.56
501.003	83.56
501.22	83.56
501.437	91.56
501.654	96.56
501.871	111.56
502.088	92.56
502.305	75.56
502.522	99.56
502.739	104.56
502.956	86.56
503.172	101.56
503.389	107.56
503.606	120.56
503.823	99.56
504.04	93.56
504.256	91.56
504.473	80.56
504.69	89.56
504.907	93.56
505.123	63.56
505.34	90.56
505.557	91.56
505.773	92.56
505.99	87.56
506.207	76.56
506.423	73.56
506.64	94.56
506.856	84.56
507.073	86.56
507.289	89.56
507.506	108.56
507.722	143.56
507.939	127.56
508.155	97.56
508.372	97.56
508.588	91.56
508.805	99.56
509.021	101.56
509.238	84.56
509.454	102.56
509.67	111.56
509.887	129.56
510.103	144.56
510.319	253.56
510.536	1035.56
510.752	3624.56
510.968	985.56
511.184	194.56
511.401	123.56
511.617	96.56
511.833	93.56
512.049	105.56
512.265	96.56
512.481	93.56
512.698	98.56
512.914	97.56
513.13	109.56
513.346	98.56
513.562	99.56
513.778	95.56
513.994	108.56
514.21	109.56
514.426	118.56
514.642	160.56
514.858	154.56
515.074	212.56
515.29	676.56
