Data from Circ_2022_H10_HRD10591_00053.txt Node
Date: Wed Jan 03 09:53:48 EST 2024
User: Yrep
Spectrometer: HR+D1059
Trigger mode: 1
Integration Time (sec): 1.000000E-1
Scans to average: 1
Electric dark correction enabled: true
Nonlinearity correction enabled: false
Boxcar width: 0
XAxis mode: Wavelengths
Number of Pixels in Spectrum: 2048
>>>>>Begin Spectral Data<<<<<
223.165	-18.62
223.4	-18.62
223.635	-18.62
223.869	-27.62
224.104	-9.62
224.338	-7.62
224.573	-13.62
224.808	3.38
225.042	-1.62
225.277	-10.62
225.511	-13.62
225.746	-1.62
225.98	1.38
226.215	15.38
226.449	18.38
226.683	23.38
226.918	28.38
227.152	14.38
227.387	49.38
227.621	40.38
227.856	48.38
228.09	43.38
228.324	50.38
228.559	63.38
228.793	63.38
229.027	58.38
229.262	58.38
229.496	69.38
229.73	91.38
229.964	92.38
230.199	69.38
230.433	67.38
230.667	70.38
230.901	81.38
231.136	76.38
231.37	81.38
231.604	79.38
231.838	77.38
232.072	81.38
232.306	88.38
232.541	64.38
232.775	73.38
233.009	87.38
233.243	54.38
233.477	76.38
233.711	78.38
233.945	66.38
234.179	82.38
234.413	95.38
234.647	83.38
234.881	75.38
235.115	80.38
235.349	81.38
235.583	78.38
235.817	75.38
236.051	76.38
236.285	89.38
236.519	77.38
236.753	83.38
236.987	92.38
237.221	90.38
237.455	100.38
237.689	71.38
237.922	70.38
238.156	73.38
238.39	80.38
238.624	73.38
238.858	64.38
239.091	72.38
239.325	70.38
239.559	67.38
239.793	84.38
240.027	57.38
240.26	78.38
240.494	98.38
240.728	74.38
240.961	80.38
241.195	69.38
241.429	72.38
241.662	72.38
241.896	71.38
242.13	75.38
242.363	79.38
242.597	70.38
242.83	80.38
243.064	79.38
243.298	88.38
243.531	73.38
243.765	83.38
243.998	83.38
244.232	82.38
244.465	101.38
244.699	72.38
244.932	88.38
245.166	81.38
245.399	76.38
245.633	71.38
245.866	60.38
246.099	87.38
246.333	81.38
246.566	84.38
246.8	68.38
247.033	73.38
247.266	68.38
247.5	84.38
247.733	81.38
247.966	71.38
248.2	86.38
248.433	99.38
248.666	66.38
248.899	87.38
249.133	92.38
249.366	102.38
249.599	95.38
249.832	90.38
250.066	77.38
250.299	82.38
250.532	89.38
250.765	74.38
250.998	76.38
251.231	75.38
251.465	91.38
251.698	81.38
251.931	84.38
252.164	88.38
252.397	93.38
252.63	69.38
252.863	85.38
253.096	79.38
253.329	72.38
253.562	68.38
253.795	78.38
254.028	80.38
254.261	85.38
254.494	85.38
254.727	78.38
254.96	81.38
255.193	74.38
255.426	68.38
255.659	75.38
255.892	81.38
256.124	67.38
256.357	74.38
256.59	77.38
256.823	87.38
257.056	75.38
257.289	82.38
257.521	88.38
257.754	71.38
257.987	80.38
258.22	77.38
258.452	75.38
258.685	66.38
258.918	82.38
259.151	91.38
259.383	87.38
259.616	83.38
259.849	83.38
260.081	88.38
260.314	82.38
260.547	75.38
260.779	90.38
261.012	107.38
261.244	87.38
261.477	86.38
261.71	106.38
261.942	116.38
262.175	128.38
262.407	97.38
262.64	91.38
262.872	90.38
263.105	82.38
263.337	80.38
263.57	90.38
263.802	70.38
264.035	89.38
264.267	78.38
264.499	74.38
264.732	86.38
264.964	82.38
265.197	80.38
265.429	84.38
265.661	83.38
265.894	76.38
266.126	96.38
266.358	76.38
266.591	79.38
266.823	79.38
267.055	82.38
267.287	89.38
267.52	88.38
267.752	90.38
267.984	106.38
268.216	87.38
268.448	90.38
268.681	87.38
268.913	98.38
269.145	78.38
269.377	103.38
269.609	85.38
269.841	83.38
270.073	89.38
270.306	94.38
270.538	93.38
270.77	75.38
271.002	82.38
271.234	72.38
271.466	73.38
271.698	89.38
271.93	79.38
272.162	73.38
272.394	84.38
272.626	83.38
272.858	87.38
273.09	92.38
273.322	89.38
273.553	89.38
273.785	93.38
274.017	88.38
274.249	93.38
274.481	92.38
274.713	91.38
274.945	92.38
275.176	94.38
275.408	88.38
275.64	72.38
275.872	81.38
276.104	104.38
276.335	103.38
276.567	89.38
276.799	113.38
277.031	104.38
277.262	90.38
277.494	100.38
277.726	97.38
277.957	85.38
278.189	84.38
278.421	91.38
278.652	84.38
278.884	88.38
279.115	91.38
279.347	98.38
279.579	88.38
279.81	77.38
280.042	88.38
280.273	85.38
280.505	96.38
280.736	91.38
280.968	87.38
281.199	76.38
281.431	82.38
281.662	80.38
281.894	85.38
282.125	105.38
282.356	137.38
282.588	164.38
282.819	119.38
283.051	91.38
283.282	78.38
283.513	82.38
283.745	72.38
283.976	89.38
284.207	93.38
284.439	87.38
284.67	109.38
284.901	89.38
285.132	90.38
285.364	80.38
285.595	82.38
285.826	88.38
286.057	85.38
286.288	88.38
286.52	96.38
286.751	81.38
286.982	89.38
287.213	86.38
287.444	80.38
287.675	88.38
287.906	96.38
288.138	87.38
288.369	94.38
288.6	89.38
288.831	81.38
289.062	85.38
289.293	91.38
289.524	92.38
289.755	90.38
289.986	81.38
290.217	96.38
290.448	107.38
290.679	92.38
290.91	86.38
291.141	83.38
291.371	89.38
291.602	82.38
291.833	99.38
292.064	87.38
292.295	79.38
292.526	95.38
292.757	102.38
292.987	92.38
293.218	82.38
293.449	88.38
293.68	76.38
293.91	86.38
294.141	90.38
294.372	83.38
294.603	99.38
294.833	87.38
295.064	86.38
295.295	92.38
295.525	84.38
295.756	99.38
295.987	120.38
296.217	152.38
296.448	135.38
296.679	85.38
296.909	90.38
297.14	78.38
297.37	86.38
297.601	84.38
297.831	91.38
298.062	85.38
298.292	100.38
298.523	94.38
298.753	80.38
298.984	82.38
299.214	91.38
299.445	92.38
299.675	95.38
299.905	93.38
300.136	94.38
300.366	89.38
300.597	93.38
300.827	104.38
301.057	101.38
301.288	112.38
301.518	87.38
301.748	85.38
301.979	102.38
302.209	83.38
302.439	84.38
302.669	79.38
302.9	74.38
303.13	89.38
303.36	74.38
303.59	94.38
303.82	116.38
304.051	93.38
304.281	100.38
304.511	95.38
304.741	84.38
304.971	96.38
305.201	87.38
305.431	92.38
305.661	88.38
305.891	88.38
306.121	98.38
306.352	112.38
306.582	114.38
306.812	69.38
307.042	85.38
307.272	87.38
307.502	103.38
307.731	99.38
307.961	88.38
308.191	87.38
308.421	100.38
308.651	81.38
308.881	104.38
309.111	101.38
309.341	107.38
309.571	112.38
309.8	97.38
310.03	96.38
310.26	107.38
310.49	103.38
310.72	105.38
310.949	108.38
311.179	92.38
311.409	92.38
311.639	102.38
311.868	103.38
312.098	98.38
312.328	91.38
312.557	96.38
312.787	106.38
313.017	85.38
313.246	91.38
313.476	93.38
313.706	94.38
313.935	86.38
314.165	101.38
314.394	108.38
314.624	95.38
314.853	104.38
315.083	104.38
315.312	99.38
315.542	98.38
315.771	95.38
316.001	93.38
316.23	87.38
316.46	90.38
316.689	82.38
316.919	95.38
317.148	91.38
317.377	100.38
317.607	96.38
317.836	91.38
318.065	89.38
318.295	97.38
318.524	94.38
318.753	98.38
318.983	83.38
319.212	102.38
319.441	115.38
319.67	105.38
319.9	96.38
320.129	97.38
320.358	91.38
320.587	90.38
320.816	112.38
321.046	119.38
321.275	97.38
321.504	86.38
321.733	85.38
321.962	107.38
322.191	103.38
322.42	111.38
322.649	118.38
322.878	129.38
323.108	121.38
323.337	112.38
323.566	136.38
323.795	166.38
324.024	232.38
324.253	442.38
324.482	927.38
324.71	1850.38
324.939	2595.38
325.168	958.38
325.397	278.38
325.626	167.38
325.855	136.38
326.084	118.38
326.313	136.38
326.542	152.38
326.77	247.38
326.999	497.38
327.228	1049.38
327.457	1889.38
327.686	1508.38
327.914	431.38
328.143	218.38
328.372	183.38
328.6	143.38
328.829	136.38
329.058	159.38
329.287	165.38
329.515	134.38
329.744	128.38
329.972	133.38
330.201	154.38
330.43	204.38
330.658	160.38
330.887	179.38
331.115	147.38
331.344	111.38
331.572	102.38
331.801	110.38
332.03	118.38
332.258	83.38
332.486	84.38
332.715	99.38
332.943	98.38
333.172	106.38
333.4	106.38
333.629	107.38
333.857	126.38
334.085	135.38
334.314	169.38
334.542	232.38
334.771	215.38
334.999	119.38
335.227	94.38
335.455	102.38
335.684	105.38
335.912	90.38
336.14	95.38
336.369	113.38
336.597	99.38
336.825	103.38
337.053	104.38
337.281	91.38
337.51	98.38
337.738	84.38
337.966	87.38
338.194	100.38
338.422	105.38
338.65	83.38
338.878	99.38
339.106	95.38
339.334	90.38
339.562	84.38
339.79	99.38
340.018	103.38
340.246	107.38
340.474	103.38
340.702	86.38
340.93	91.38
341.158	113.38
341.386	101.38
341.614	101.38
341.842	101.38
342.07	85.38
342.298	83.38
342.526	87.38
342.754	86.38
342.981	97.38
343.209	100.38
343.437	84.38
343.665	86.38
343.893	85.38
344.12	90.38
344.348	80.38
344.576	97.38
344.804	90.38
345.031	84.38
345.259	107.38
345.487	91.38
345.714	91.38
345.942	88.38
346.17	87.38
346.397	89.38
346.625	97.38
346.853	90.38
347.08	93.38
347.308	96.38
347.535	94.38
347.763	107.38
347.99	105.38
348.218	99.38
348.445	104.38
348.673	107.38
348.9	103.38
349.128	98.38
349.355	97.38
349.583	103.38
349.81	99.38
350.037	105.38
350.265	103.38
350.492	92.38
350.72	92.38
350.947	97.38
351.174	108.38
351.402	113.38
351.629	101.38
351.856	104.38
352.083	108.38
352.311	95.38
352.538	112.38
352.765	128.38
352.992	114.38
353.22	127.38
353.447	97.38
353.674	105.38
353.901	96.38
354.128	98.38
354.355	111.38
354.583	92.38
354.81	89.38
355.037	84.38
355.264	87.38
355.491	89.38
355.718	95.38
355.945	87.38
356.172	81.38
356.399	93.38
356.626	89.38
356.853	87.38
357.08	87.38
357.307	93.38
357.534	81.38
357.761	106.38
357.988	87.38
358.215	94.38
358.441	103.38
358.668	95.38
358.895	83.38
359.122	91.38
359.349	99.38
359.576	91.38
359.802	97.38
360.029	120.38
360.256	118.38
360.483	102.38
360.709	88.38
360.936	91.38
361.163	98.38
361.39	104.38
361.616	88.38
361.843	100.38
362.07	111.38
362.296	102.38
362.523	95.38
362.749	102.38
362.976	103.38
363.203	92.38
363.429	99.38
363.656	97.38
363.882	84.38
364.109	98.38
364.335	98.38
364.562	75.38
364.788	89.38
365.015	95.38
365.241	99.38
365.468	104.38
365.694	104.38
365.92	105.38
366.147	79.38
366.373	88.38
366.599	105.38
366.826	89.38
367.052	90.38
367.278	96.38
367.505	80.38
367.731	83.38
367.957	99.38
368.184	79.38
368.41	99.38
368.636	114.38
368.862	141.38
369.089	113.38
369.315	96.38
369.541	100.38
369.767	96.38
369.993	91.38
370.219	108.38
370.445	96.38
370.672	99.38
370.898	89.38
371.124	91.38
371.35	97.38
371.576	102.38
371.802	86.38
372.028	91.38
372.254	76.38
372.48	97.38
372.706	91.38
372.932	90.38
373.158	86.38
373.384	80.38
373.61	75.38
373.835	95.38
374.061	99.38
374.287	89.38
374.513	95.38
374.739	86.38
374.965	77.38
375.191	86.38
375.416	83.38
375.642	84.38
375.868	82.38
376.094	87.38
376.319	89.38
376.545	93.38
376.771	75.38
376.997	86.38
377.222	96.38
377.448	96.38
377.674	90.38
377.899	89.38
378.125	92.38
378.35	94.38
378.576	89.38
378.802	82.38
379.027	89.38
379.253	100.38
379.478	94.38
379.704	86.38
379.929	96.38
380.155	90.38
380.38	90.38
380.606	88.38
380.831	104.38
381.057	89.38
381.282	100.38
381.507	103.38
381.733	101.38
381.958	99.38
382.184	95.38
382.409	92.38
382.634	99.38
382.86	92.38
383.085	99.38
383.31	98.38
383.535	93.38
383.761	98.38
383.986	108.38
384.211	93.38
384.436	90.38
384.662	94.38
384.887	84.38
385.112	87.38
385.337	96.38
385.562	97.38
385.787	104.38
386.013	116.38
386.238	120.38
386.463	95.38
386.688	100.38
386.913	105.38
387.138	111.38
387.363	86.38
387.588	90.38
387.813	102.38
388.038	89.38
388.263	115.38
388.488	112.38
388.713	95.38
388.938	104.38
389.163	100.38
389.387	92.38
389.612	98.38
389.837	87.38
390.062	97.38
390.287	88.38
390.512	99.38
390.736	87.38
390.961	95.38
391.186	73.38
391.411	82.38
391.636	88.38
391.86	68.38
392.085	80.38
392.31	81.38
392.534	86.38
392.759	88.38
392.984	87.38
393.208	99.38
393.433	99.38
393.658	79.38
393.882	78.38
394.107	78.38
394.331	77.38
394.556	91.38
394.78	79.38
395.005	100.38
395.229	90.38
395.454	82.38
395.678	89.38
395.903	80.38
396.127	89.38
396.352	84.38
396.576	91.38
396.801	81.38
397.025	85.38
397.249	83.38
397.474	97.38
397.698	86.38
397.922	101.38
398.147	85.38
398.371	88.38
398.595	75.38
398.82	84.38
399.044	79.38
399.268	83.38
399.492	83.38
399.717	84.38
399.941	94.38
400.165	100.38
400.389	87.38
400.613	99.38
400.837	79.38
401.062	95.38
401.286	103.38
401.51	86.38
401.734	85.38
401.958	111.38
402.182	134.38
402.406	188.38
402.63	140.38
402.854	103.38
403.078	100.38
403.302	82.38
403.526	82.38
403.75	82.38
403.974	94.38
404.198	86.38
404.422	89.38
404.645	95.38
404.869	90.38
405.093	100.38
405.317	103.38
405.541	113.38
405.765	108.38
405.988	137.38
406.212	189.38
406.436	257.38
406.66	176.38
406.883	108.38
407.107	100.38
407.331	102.38
407.555	90.38
407.778	102.38
408.002	89.38
408.226	83.38
408.449	92.38
408.673	104.38
408.896	88.38
409.12	87.38
409.344	91.38
409.567	93.38
409.791	89.38
410.014	77.38
410.238	88.38
410.461	92.38
410.685	95.38
410.908	88.38
411.132	107.38
411.355	119.38
411.578	104.38
411.802	72.38
412.025	92.38
412.249	97.38
412.472	112.38
412.695	104.38
412.919	85.38
413.142	86.38
413.365	85.38
413.589	92.38
413.812	85.38
414.035	92.38
414.258	89.38
414.482	83.38
414.705	89.38
414.928	98.38
415.151	86.38
415.374	97.38
415.597	88.38
415.821	79.38
416.044	99.38
416.267	92.38
416.49	93.38
416.713	81.38
416.936	85.38
417.159	69.38
417.382	87.38
417.605	86.38
417.828	87.38
418.051	86.38
418.274	101.38
418.497	89.38
418.72	91.38
418.943	85.38
419.166	98.38
419.389	88.38
419.611	81.38
419.834	88.38
420.057	84.38
420.28	87.38
420.503	89.38
420.726	75.38
420.948	93.38
421.171	103.38
421.394	103.38
421.617	92.38
421.839	86.38
422.062	108.38
422.285	92.38
422.507	109.38
422.73	133.38
422.953	94.38
423.175	79.38
423.398	79.38
423.621	90.38
423.843	83.38
424.066	94.38
424.288	104.38
424.511	98.38
424.733	98.38
424.956	106.38
425.178	96.38
425.401	123.38
425.623	106.38
425.846	94.38
426.068	100.38
426.291	90.38
426.513	95.38
426.735	86.38
426.958	92.38
427.18	112.38
427.402	154.38
427.625	212.38
427.847	154.38
428.069	131.38
428.292	86.38
428.514	84.38
428.736	88.38
428.958	96.38
429.181	91.38
429.403	96.38
429.625	86.38
429.847	99.38
430.069	105.38
430.292	95.38
430.514	101.38
430.736	89.38
430.958	94.38
431.18	99.38
431.402	101.38
431.624	92.38
431.846	98.38
432.068	88.38
432.29	83.38
432.512	94.38
432.734	83.38
432.956	88.38
433.178	101.38
433.4	107.38
433.622	87.38
433.844	105.38
434.066	99.38
434.287	83.38
434.509	92.38
434.731	103.38
434.953	104.38
435.175	93.38
435.397	103.38
435.618	90.38
435.84	113.38
436.062	127.38
436.284	111.38
436.505	102.38
436.727	103.38
436.949	92.38
437.17	91.38
437.392	92.38
437.614	99.38
437.835	122.38
438.057	125.38
438.278	122.38
438.5	102.38
438.721	126.38
438.943	105.38
439.165	97.38
439.386	94.38
439.608	88.38
439.829	110.38
440.05	148.38
440.272	179.38
440.493	107.38
440.715	107.38
440.936	80.38
441.158	96.38
441.379	92.38
441.6	90.38
441.822	78.38
442.043	101.38
442.264	120.38
442.486	112.38
442.707	104.38
442.928	114.38
443.149	153.38
443.371	157.38
443.592	116.38
443.813	116.38
444.034	117.38
444.255	93.38
444.476	82.38
444.698	92.38
444.919	76.38
445.14	127.38
445.361	131.38
445.582	123.38
445.803	158.38
446.024	153.38
446.245	149.38
446.466	114.38
446.687	86.38
446.908	97.38
447.129	84.38
447.35	89.38
447.571	95.38
447.792	109.38
448.013	103.38
448.234	111.38
448.455	110.38
448.675	118.38
448.896	124.38
449.117	113.38
449.338	115.38
449.559	138.38
449.779	139.38
450	107.38
450.221	92.38
450.442	97.38
450.662	101.38
450.883	117.38
451.104	120.38
451.324	91.38
451.545	85.38
451.766	99.38
451.986	94.38
452.207	91.38
452.428	118.38
452.648	95.38
452.869	126.38
453.089	127.38
453.31	122.38
453.53	94.38
453.751	97.38
453.971	98.38
454.192	120.38
454.412	90.38
454.633	69.38
454.853	86.38
455.073	105.38
455.294	88.38
455.514	112.38
455.734	106.38
455.955	76.38
456.175	92.38
456.395	78.38
456.616	81.38
456.836	82.38
457.056	88.38
457.276	98.38
457.497	74.38
457.717	82.38
457.937	82.38
458.157	85.38
458.377	98.38
458.598	115.38
458.818	182.38
459.038	207.38
459.258	131.38
459.478	86.38
459.698	90.38
459.918	88.38
460.138	99.38
460.358	88.38
460.578	87.38
460.798	101.38
461.018	107.38
461.238	96.38
461.458	80.38
461.678	74.38
461.898	82.38
462.118	88.38
462.338	98.38
462.558	99.38
462.777	99.38
462.997	102.38
463.217	84.38
463.437	74.38
463.657	82.38
463.876	91.38
464.096	97.38
464.316	96.38
464.536	96.38
464.755	105.38
464.975	111.38
465.195	196.38
465.414	191.38
465.634	93.38
465.854	94.38
466.073	93.38
466.293	81.38
466.512	92.38
466.732	83.38
466.951	91.38
467.171	102.38
467.391	104.38
467.61	113.38
467.829	112.38
468.049	122.38
468.268	133.38
468.488	104.38
468.707	86.38
468.927	84.38
469.146	83.38
469.365	84.38
469.585	101.38
469.804	110.38
470.023	101.38
470.243	83.38
470.462	105.38
470.681	115.38
470.901	98.38
471.12	88.38
471.339	83.38
471.558	98.38
471.777	100.38
471.997	97.38
472.216	153.38
472.435	260.38
472.654	127.38
472.873	102.38
473.092	93.38
473.311	87.38
473.53	88.38
473.749	95.38
473.968	101.38
474.187	111.38
474.406	116.38
474.625	91.38
474.844	86.38
475.063	95.38
475.282	94.38
475.501	85.38
475.72	74.38
475.939	86.38
476.158	82.38
476.377	89.38
476.596	87.38
476.814	97.38
477.033	87.38
477.252	101.38
477.471	101.38
477.69	80.38
477.908	90.38
478.127	89.38
478.346	84.38
478.564	98.38
478.783	96.38
479.002	86.38
479.22	86.38
479.439	113.38
479.658	103.38
479.876	111.38
480.095	96.38
480.313	91.38
480.532	93.38
480.751	106.38
480.969	157.38
481.188	397.38
481.406	274.38
481.624	95.38
481.843	89.38
482.061	101.38
482.28	84.38
482.498	90.38
482.717	88.38
482.935	90.38
483.153	96.38
483.372	90.38
483.59	81.38
483.808	83.38
484.027	87.38
484.245	94.38
484.463	103.38
484.681	86.38
484.9	81.38
485.118	95.38
485.336	101.38
485.554	72.38
485.772	110.38
485.99	95.38
486.209	99.38
486.427	94.38
486.645	115.38
486.863	117.38
487.081	111.38
487.299	105.38
487.517	102.38
487.735	88.38
487.953	92.38
488.171	102.38
488.389	90.38
488.607	92.38
488.825	97.38
489.043	91.38
489.261	78.38
489.479	91.38
489.696	94.38
489.914	90.38
490.132	69.38
490.35	96.38
490.568	86.38
490.786	83.38
491.003	93.38
491.221	89.38
491.439	94.38
491.657	84.38
491.874	83.38
492.092	89.38
492.31	88.38
492.527	99.38
492.745	96.38
492.963	101.38
493.18	92.38
493.398	97.38
493.615	96.38
493.833	76.38
494.05	97.38
494.268	92.38
494.485	84.38
494.703	89.38
494.92	76.38
495.138	91.38
495.355	86.38
495.573	94.38
495.79	100.38
496.008	87.38
496.225	86.38
496.442	87.38
496.66	96.38
496.877	91.38
497.094	94.38
497.312	79.38
497.529	95.38
497.746	101.38
497.963	91.38
498.181	97.38
498.398	112.38
498.615	116.38
498.832	97.38
499.049	105.38
499.267	83.38
499.484	99.38
499.701	92.38
499.918	98.38
500.135	82.38
500.352	87.38
500.569	96.38
500.786	100.38
501.003	91.38
501.22	93.38
501.437	98.38
501.654	108.38
501.871	108.38
502.088	91.38
502.305	94.38
502.522	87.38
502.739	87.38
502.956	86.38
503.172	82.38
503.389	90.38
503.606	96.38
503.823	96.38
504.04	95.38
504.256	93.38
504.473	83.38
504.69	98.38
504.907	82.38
505.123	99.38
505.34	81.38
505.557	83.38
505.773	94.38
505.99	81.38
506.207	87.38
506.423	98.38
506.64	95.38
506.856	88.38
507.073	89.38
507.289	104.38
507.506	101.38
507.722	134.38
507.939	113.38
508.155	91.38
508.372	97.38
508.588	96.38
508.805	91.38
509.021	104.38
509.238	94.38
509.454	110.38
509.67	110.38
509.887	126.38
510.103	134.38
510.319	230.38
510.536	858.38
510.752	2986.38
510.968	875.38
511.184	178.38
511.401	126.38
511.617	94.38
511.833	91.38
512.049	92.38
512.265	100.38
512.481	96.38
512.698	91.38
512.914	105.38
513.13	100.38
513.346	84.38
513.562	107.38
513.778	92.38
513.994	100.38
514.21	101.38
514.426	131.38
514.642	158.38
