Data from Circ_2022_H10_HRD10591_00010.txt Node
Date: Wed Jan 03 09:53:39 EST 2024
User: Yrep
Spectrometer: HR+D1059
Trigger mode: 1
Integration Time (sec): 1.000000E-1
Scans to average: 1
Electric dark correction enabled: true
Nonlinearity correction enabled: false
Boxcar width: 0
XAxis mode: Wavelengths
Number of Pixels in Spectrum: 2048
>>>>>Begin Spectral Data<<<<<
223.165	-5.94
223.4	-5.94
223.635	-5.94
223.869	-13.94
224.104	-13.94
224.338	-20.94
224.573	-21.94
224.808	-15.94
225.042	-4.94
225.277	-9.94
225.511	-1.94
225.746	-1.94
225.98	8.06
226.215	8.06
226.449	19.06
226.683	35.06
226.918	23.06
227.152	18.06
227.387	38.06
227.621	51.06
227.856	34.06
228.09	50.06
228.324	54.06
228.559	57.06
228.793	51.06
229.027	67.06
229.262	69.06
229.496	69.06
229.73	91.06
229.964	90.06
230.199	72.06
230.433	57.06
230.667	85.06
230.901	76.06
231.136	76.06
231.37	73.06
231.604	81.06
231.838	86.06
232.072	76.06
232.306	82.06
232.541	86.06
232.775	84.06
233.009	74.06
233.243	96.06
233.477	79.06
233.711	63.06
233.945	74.06
234.179	81.06
234.413	76.06
234.647	89.06
234.881	73.06
235.115	76.06
235.349	84.06
235.583	66.06
235.817	67.06
236.051	84.06
236.285	72.06
236.519	83.06
236.753	80.06
236.987	83.06
237.221	93.06
237.455	87.06
237.689	64.06
237.922	68.06
238.156	86.06
238.39	80.06
238.624	80.06
238.858	74.06
239.091	84.06
239.325	92.06
239.559	72.06
239.793	76.06
240.027	67.06
240.26	82.06
240.494	78.06
240.728	65.06
240.961	70.06
241.195	80.06
241.429	71.06
241.662	65.06
241.896	82.06
242.13	72.06
242.363	86.06
242.597	68.06
242.83	93.06
243.064	76.06
243.298	72.06
243.531	79.06
243.765	79.06
243.998	83.06
244.232	77.06
244.465	93.06
244.699	91.06
244.932	82.06
245.166	88.06
245.399	74.06
245.633	83.06
245.866	87.06
246.099	76.06
246.333	92.06
246.566	77.06
246.8	94.06
247.033	89.06
247.266	68.06
247.5	74.06
247.733	85.06
247.966	87.06
248.2	82.06
248.433	86.06
248.666	84.06
248.899	75.06
249.133	87.06
249.366	100.06
249.599	108.06
249.832	74.06
250.066	76.06
250.299	74.06
250.532	98.06
250.765	77.06
250.998	81.06
251.231	66.06
251.465	81.06
251.698	79.06
251.931	81.06
252.164	81.06
252.397	74.06
252.63	82.06
252.863	83.06
253.096	80.06
253.329	81.06
253.562	87.06
253.795	72.06
254.028	75.06
254.261	89.06
254.494	84.06
254.727	94.06
254.96	89.06
255.193	71.06
255.426	70.06
255.659	83.06
255.892	76.06
256.124	74.06
256.357	86.06
256.59	83.06
256.823	75.06
257.056	74.06
257.289	71.06
257.521	78.06
257.754	97.06
257.987	72.06
258.22	88.06
258.452	76.06
258.685	85.06
258.918	92.06
259.151	74.06
259.383	78.06
259.616	60.06
259.849	78.06
260.081	85.06
260.314	85.06
260.547	80.06
260.779	90.06
261.012	95.06
261.244	82.06
261.477	80.06
261.71	113.06
261.942	138.06
262.175	149.06
262.407	101.06
262.64	93.06
262.872	80.06
263.105	80.06
263.337	86.06
263.57	94.06
263.802	91.06
264.035	78.06
264.267	80.06
264.499	80.06
264.732	89.06
264.964	81.06
265.197	85.06
265.429	65.06
265.661	80.06
265.894	79.06
266.126	96.06
266.358	80.06
266.591	81.06
266.823	92.06
267.055	74.06
267.287	93.06
267.52	84.06
267.752	77.06
267.984	82.06
268.216	81.06
268.448	87.06
268.681	84.06
268.913	72.06
269.145	96.06
269.377	91.06
269.609	76.06
269.841	77.06
270.073	74.06
270.306	80.06
270.538	89.06
270.77	81.06
271.002	89.06
271.234	93.06
271.466	94.06
271.698	72.06
271.93	76.06
272.162	69.06
272.394	83.06
272.626	87.06
272.858	78.06
273.09	84.06
273.322	88.06
273.553	82.06
273.785	80.06
274.017	87.06
274.249	98.06
274.481	83.06
274.713	79.06
274.945	85.06
275.176	90.06
275.408	86.06
275.64	81.06
275.872	78.06
276.104	80.06
276.335	100.06
276.567	122.06
276.799	134.06
277.031	125.06
277.262	94.06
277.494	78.06
277.726	85.06
277.957	71.06
278.189	91.06
278.421	81.06
278.652	97.06
278.884	91.06
279.115	87.06
279.347	77.06
279.579	81.06
279.81	84.06
280.042	96.06
280.273	101.06
280.505	82.06
280.736	108.06
280.968	85.06
281.199	92.06
281.431	84.06
281.662	87.06
281.894	104.06
282.125	96.06
282.356	143.06
282.588	193.06
282.819	136.06
283.051	87.06
283.282	74.06
283.513	76.06
283.745	99.06
283.976	91.06
284.207	89.06
284.439	101.06
284.67	87.06
284.901	76.06
285.132	88.06
285.364	86.06
285.595	91.06
285.826	92.06
286.057	89.06
286.288	83.06
286.52	88.06
286.751	97.06
286.982	86.06
287.213	95.06
287.444	82.06
287.675	84.06
287.906	80.06
288.138	87.06
288.369	99.06
288.6	72.06
288.831	84.06
289.062	102.06
289.293	83.06
289.524	85.06
289.755	95.06
289.986	80.06
290.217	80.06
290.448	80.06
290.679	97.06
290.91	88.06
291.141	98.06
291.371	88.06
291.602	82.06
291.833	80.06
292.064	84.06
292.295	92.06
292.526	93.06
292.757	89.06
292.987	84.06
293.218	88.06
293.449	87.06
293.68	93.06
293.91	88.06
294.141	78.06
294.372	93.06
294.603	100.06
294.833	94.06
295.064	90.06
295.295	84.06
295.525	104.06
295.756	105.06
295.987	127.06
296.217	176.06
296.448	164.06
296.679	97.06
296.909	101.06
297.14	98.06
297.37	85.06
297.601	79.06
297.831	101.06
298.062	84.06
298.292	84.06
298.523	95.06
298.753	82.06
298.984	87.06
299.214	111.06
299.445	91.06
299.675	94.06
299.905	115.06
300.136	106.06
300.366	89.06
300.597	76.06
300.827	98.06
301.057	89.06
301.288	108.06
301.518	92.06
301.748	76.06
301.979	104.06
302.209	93.06
302.439	93.06
302.669	83.06
302.9	89.06
303.13	86.06
303.36	115.06
303.59	122.06
303.82	107.06
304.051	105.06
304.281	97.06
304.511	100.06
304.741	94.06
304.971	77.06
305.201	90.06
305.431	86.06
305.661	88.06
305.891	96.06
306.121	100.06
306.352	117.06
306.582	96.06
306.812	100.06
307.042	91.06
307.272	106.06
307.502	98.06
307.731	91.06
307.961	87.06
308.191	77.06
308.421	95.06
308.651	83.06
308.881	82.06
309.111	104.06
309.341	111.06
309.571	98.06
309.8	112.06
310.03	103.06
310.26	114.06
310.49	117.06
310.72	108.06
310.949	92.06
311.179	99.06
311.409	83.06
311.639	94.06
311.868	100.06
312.098	99.06
312.328	119.06
312.557	132.06
312.787	133.06
313.017	104.06
313.246	94.06
313.476	89.06
313.706	78.06
313.935	89.06
314.165	100.06
314.394	121.06
314.624	110.06
314.853	105.06
315.083	98.06
315.312	88.06
315.542	89.06
315.771	86.06
316.001	96.06
316.23	95.06
316.46	83.06
316.689	88.06
316.919	102.06
317.148	99.06
317.377	96.06
317.607	112.06
317.836	105.06
318.065	105.06
318.295	99.06
318.524	108.06
318.753	70.06
318.983	112.06
319.212	107.06
319.441	118.06
319.67	125.06
319.9	104.06
320.129	93.06
320.358	100.06
320.587	105.06
320.816	99.06
321.046	105.06
321.275	94.06
321.504	80.06
321.733	97.06
321.962	115.06
322.191	102.06
322.42	107.06
322.649	126.06
322.878	123.06
323.108	140.06
323.337	157.06
323.566	169.06
323.795	195.06
324.024	273.06
324.253	573.06
324.482	1216.06
324.71	2475.06
324.939	3267.06
325.168	1179.06
325.397	323.06
325.626	174.06
325.855	155.06
326.084	146.06
326.313	158.06
326.542	166.06
326.77	308.06
326.999	598.06
327.228	1215.06
327.457	2299.06
327.686	1866.06
327.914	506.06
328.143	265.06
328.372	188.06
328.6	161.06
328.829	154.06
329.058	178.06
329.287	146.06
329.515	121.06
329.744	113.06
329.972	111.06
330.201	97.06
330.43	119.06
330.658	156.06
330.887	194.06
331.115	156.06
331.344	117.06
331.572	106.06
331.801	124.06
332.03	119.06
332.258	94.06
332.486	91.06
332.715	93.06
332.943	86.06
333.172	96.06
333.4	106.06
333.629	111.06
333.857	124.06
334.085	108.06
334.314	108.06
334.542	100.06
334.771	94.06
334.999	107.06
335.227	90.06
335.455	92.06
335.684	104.06
335.912	92.06
336.14	100.06
336.369	94.06
336.597	122.06
336.825	115.06
337.053	95.06
337.281	96.06
337.51	107.06
337.738	102.06
337.966	97.06
338.194	106.06
338.422	95.06
338.65	103.06
338.878	100.06
339.106	92.06
339.334	83.06
339.562	92.06
339.79	103.06
340.018	95.06
340.246	78.06
340.474	86.06
340.702	97.06
340.93	88.06
341.158	89.06
341.386	114.06
341.614	105.06
341.842	87.06
342.07	94.06
342.298	85.06
342.526	102.06
342.754	95.06
342.981	91.06
343.209	74.06
343.437	96.06
343.665	86.06
343.893	75.06
344.12	81.06
344.348	99.06
344.576	92.06
344.804	86.06
345.031	109.06
345.259	94.06
345.487	91.06
345.714	100.06
345.942	91.06
346.17	83.06
346.397	111.06
346.625	85.06
346.853	99.06
347.08	100.06
347.308	106.06
347.535	98.06
347.763	125.06
347.99	91.06
348.218	105.06
348.445	114.06
348.673	118.06
348.9	102.06
349.128	93.06
349.355	101.06
349.583	102.06
349.81	98.06
350.037	95.06
350.265	84.06
350.492	99.06
350.72	122.06
350.947	109.06
351.174	123.06
351.402	130.06
351.629	101.06
351.856	101.06
352.083	111.06
352.311	107.06
352.538	115.06
352.765	130.06
352.992	131.06
353.22	130.06
353.447	113.06
353.674	99.06
353.901	82.06
354.128	83.06
354.355	91.06
354.583	107.06
354.81	100.06
355.037	101.06
355.264	101.06
355.491	96.06
355.718	96.06
355.945	81.06
356.172	95.06
356.399	88.06
356.626	107.06
356.853	91.06
357.08	90.06
357.307	97.06
357.534	102.06
357.761	85.06
357.988	82.06
358.215	94.06
358.441	94.06
358.668	90.06
358.895	89.06
359.122	94.06
359.349	95.06
359.576	91.06
359.802	105.06
360.029	144.06
360.256	151.06
360.483	108.06
360.709	110.06
360.936	103.06
361.163	93.06
361.39	111.06
361.616	98.06
361.843	95.06
362.07	103.06
362.296	113.06
362.523	104.06
362.749	92.06
362.976	95.06
363.203	93.06
363.429	104.06
363.656	85.06
363.882	95.06
364.109	86.06
364.335	92.06
364.562	100.06
364.788	91.06
365.015	100.06
365.241	117.06
365.468	118.06
365.694	116.06
365.92	88.06
366.147	83.06
366.373	102.06
366.599	93.06
366.826	87.06
367.052	113.06
367.278	99.06
367.505	85.06
367.731	95.06
367.957	95.06
368.184	101.06
368.41	108.06
368.636	129.06
368.862	146.06
369.089	126.06
369.315	83.06
369.541	103.06
369.767	88.06
369.993	97.06
370.219	96.06
370.445	97.06
370.672	87.06
370.898	97.06
371.124	104.06
371.35	107.06
371.576	92.06
371.802	85.06
372.028	90.06
372.254	95.06
372.48	92.06
372.706	92.06
372.932	96.06
373.158	97.06
373.384	91.06
373.61	103.06
373.835	83.06
374.061	87.06
374.287	101.06
374.513	85.06
374.739	82.06
374.965	88.06
375.191	91.06
375.416	99.06
375.642	93.06
375.868	99.06
376.094	96.06
376.319	90.06
376.545	88.06
376.771	91.06
376.997	92.06
377.222	110.06
377.448	97.06
377.674	89.06
377.899	92.06
378.125	79.06
378.35	90.06
378.576	87.06
378.802	83.06
379.027	78.06
379.253	101.06
379.478	100.06
379.704	89.06
379.929	103.06
380.155	113.06
380.38	103.06
380.606	100.06
380.831	89.06
381.057	96.06
381.282	101.06
381.507	90.06
381.733	100.06
381.958	92.06
382.184	121.06
382.409	100.06
382.634	101.06
382.86	110.06
383.085	114.06
383.31	121.06
383.535	111.06
383.761	115.06
383.986	121.06
384.211	109.06
384.436	110.06
384.662	114.06
384.887	116.06
385.112	127.06
385.337	111.06
385.562	131.06
385.787	100.06
386.013	128.06
386.238	137.06
386.463	106.06
386.688	113.06
386.913	114.06
387.138	124.06
387.363	127.06
387.588	109.06
387.813	104.06
388.038	134.06
388.263	125.06
388.488	107.06
388.713	96.06
388.938	92.06
389.163	87.06
389.387	90.06
389.612	92.06
389.837	86.06
390.062	93.06
390.287	96.06
390.512	89.06
390.736	89.06
390.961	87.06
391.186	103.06
391.411	87.06
391.636	98.06
391.86	85.06
392.085	91.06
392.31	88.06
392.534	81.06
392.759	76.06
392.984	107.06
393.208	110.06
393.433	112.06
393.658	114.06
393.882	108.06
394.107	83.06
394.331	83.06
394.556	87.06
394.78	94.06
395.005	95.06
395.229	94.06
395.454	93.06
395.678	72.06
395.903	87.06
396.127	90.06
396.352	82.06
396.576	94.06
396.801	102.06
397.025	111.06
397.249	83.06
397.474	74.06
397.698	71.06
397.922	102.06
398.147	92.06
398.371	92.06
398.595	89.06
398.82	90.06
399.044	86.06
399.268	87.06
399.492	90.06
399.717	96.06
399.941	81.06
400.165	88.06
400.389	88.06
400.613	81.06
400.837	98.06
401.062	90.06
401.286	80.06
401.51	90.06
401.734	102.06
401.958	112.06
402.182	156.06
402.406	218.06
402.63	158.06
402.854	106.06
403.078	92.06
403.302	95.06
403.526	84.06
403.75	96.06
403.974	76.06
404.198	89.06
404.422	90.06
404.645	90.06
404.869	96.06
405.093	90.06
405.317	106.06
405.541	99.06
405.765	124.06
405.988	158.06
406.212	244.06
406.436	355.06
406.66	231.06
406.883	114.06
407.107	96.06
407.331	101.06
407.555	95.06
407.778	102.06
408.002	107.06
408.226	99.06
408.449	93.06
408.673	98.06
408.896	92.06
409.12	104.06
409.344	86.06
409.567	93.06
409.791	83.06
410.014	95.06
410.238	97.06
410.461	87.06
410.685	90.06
410.908	101.06
411.132	107.06
411.355	101.06
411.578	88.06
411.802	88.06
412.025	95.06
412.249	98.06
412.472	95.06
412.695	96.06
412.919	91.06
413.142	105.06
413.365	90.06
413.589	103.06
413.812	105.06
414.035	96.06
414.258	90.06
414.482	84.06
414.705	86.06
414.928	94.06
415.151	92.06
415.374	91.06
415.597	84.06
415.821	74.06
416.044	83.06
416.267	91.06
416.49	84.06
416.713	86.06
416.936	82.06
417.159	103.06
417.382	90.06
417.605	86.06
417.828	88.06
418.051	91.06
418.274	89.06
418.497	79.06
418.72	83.06
418.943	89.06
419.166	82.06
419.389	82.06
419.611	103.06
419.834	85.06
420.057	101.06
420.28	92.06
420.503	88.06
420.726	84.06
420.948	87.06
421.171	92.06
421.394	85.06
421.617	101.06
421.839	100.06
422.062	105.06
422.285	94.06
422.507	106.06
422.73	128.06
422.953	82.06
423.175	84.06
423.398	91.06
423.621	91.06
423.843	98.06
424.066	82.06
424.288	112.06
424.511	95.06
424.733	105.06
424.956	117.06
425.178	122.06
425.401	105.06
425.623	107.06
425.846	105.06
426.068	110.06
426.291	106.06
426.513	101.06
426.735	92.06
426.958	97.06
427.18	99.06
427.402	158.06
427.625	249.06
427.847	174.06
428.069	110.06
428.292	81.06
428.514	95.06
428.736	81.06
428.958	93.06
429.181	81.06
429.403	75.06
429.625	98.06
429.847	100.06
430.069	95.06
430.292	101.06
430.514	81.06
430.736	86.06
430.958	88.06
431.18	75.06
431.402	83.06
431.624	82.06
431.846	77.06
432.068	79.06
432.29	85.06
432.512	92.06
432.734	89.06
432.956	107.06
433.178	101.06
433.4	92.06
433.622	94.06
433.844	88.06
434.066	95.06
434.287	102.06
434.509	95.06
434.731	81.06
434.953	83.06
435.175	84.06
435.397	106.06
435.618	111.06
435.84	108.06
436.062	150.06
436.284	125.06
436.505	120.06
436.727	110.06
436.949	87.06
437.17	87.06
437.392	90.06
437.614	96.06
437.835	131.06
438.057	150.06
438.278	134.06
438.5	127.06
438.721	123.06
438.943	105.06
439.165	90.06
439.386	90.06
439.608	90.06
439.829	112.06
440.05	153.06
440.272	154.06
440.493	108.06
440.715	95.06
440.936	94.06
441.158	98.06
441.379	90.06
441.6	107.06
441.822	123.06
442.043	100.06
442.264	110.06
442.486	106.06
442.707	108.06
442.928	115.06
443.149	166.06
443.371	183.06
443.592	130.06
443.813	120.06
444.034	117.06
444.255	95.06
444.476	95.06
444.698	90.06
444.919	80.06
445.14	130.06
445.361	129.06
445.582	133.06
445.803	188.06
446.024	192.06
446.245	160.06
446.466	120.06
446.687	91.06
446.908	98.06
447.129	92.06
447.35	92.06
447.571	99.06
447.792	103.06
448.013	116.06
448.234	126.06
448.455	101.06
448.675	121.06
448.896	130.06
449.117	106.06
449.338	105.06
449.559	149.06
449.779	129.06
450	102.06
450.221	96.06
450.442	83.06
450.662	114.06
450.883	122.06
451.104	135.06
451.324	97.06
451.545	103.06
451.766	111.06
451.986	98.06
452.207	91.06
452.428	105.06
452.648	116.06
452.869	144.06
453.089	148.06
453.31	155.06
453.53	106.06
453.751	84.06
453.971	127.06
454.192	139.06
454.412	106.06
454.633	118.06
454.853	103.06
455.073	89.06
455.294	85.06
455.514	96.06
455.734	96.06
455.955	86.06
456.175	89.06
456.395	94.06
456.616	82.06
456.836	89.06
457.056	86.06
457.276	85.06
457.497	91.06
457.717	97.06
457.937	84.06
458.157	84.06
458.377	107.06
458.598	127.06
458.818	220.06
459.038	230.06
459.258	144.06
459.478	97.06
459.698	102.06
459.918	80.06
460.138	89.06
460.358	95.06
460.578	75.06
460.798	97.06
461.018	112.06
461.238	105.06
461.458	82.06
461.678	80.06
461.898	96.06
462.118	90.06
462.338	96.06
462.558	82.06
462.777	83.06
462.997	96.06
463.217	74.06
463.437	90.06
463.657	88.06
463.876	111.06
464.096	92.06
464.316	97.06
464.536	97.06
464.755	88.06
464.975	132.06
465.195	244.06
465.414	233.06
465.634	112.06
465.854	82.06
466.073	81.06
466.293	94.06
466.512	76.06
466.732	83.06
466.951	69.06
467.171	89.06
467.391	103.06
467.61	119.06
467.829	106.06
468.049	78.06
468.268	86.06
468.488	91.06
468.707	82.06
468.927	84.06
469.146	80.06
469.365	92.06
469.585	101.06
469.804	111.06
470.023	106.06
470.243	94.06
470.462	106.06
470.681	125.06
470.901	101.06
471.12	100.06
471.339	91.06
471.558	84.06
471.777	91.06
471.997	83.06
472.216	89.06
472.435	100.06
472.654	87.06
472.873	87.06
473.092	99.06
473.311	82.06
473.53	96.06
473.749	98.06
473.968	105.06
474.187	115.06
474.406	85.06
474.625	94.06
474.844	84.06
475.063	96.06
475.282	99.06
475.501	88.06
475.72	92.06
475.939	83.06
476.158	94.06
476.377	92.06
476.596	92.06
476.814	105.06
477.033	106.06
477.252	78.06
477.471	94.06
477.69	82.06
477.908	98.06
478.127	89.06
478.346	95.06
478.564	91.06
478.783	108.06
479.002	111.06
479.22	105.06
479.439	111.06
479.658	117.06
479.876	99.06
480.095	91.06
480.313	100.06
480.532	99.06
480.751	90.06
480.969	82.06
481.188	103.06
481.406	115.06
481.624	111.06
481.843	97.06
482.061	104.06
482.28	93.06
482.498	88.06
482.717	98.06
482.935	89.06
483.153	94.06
483.372	92.06
483.59	90.06
483.808	85.06
484.027	78.06
484.245	101.06
484.463	103.06
484.681	96.06
484.9	96.06
485.118	87.06
485.336	102.06
485.554	88.06
485.772	97.06
485.99	105.06
486.209	107.06
486.427	100.06
486.645	118.06
486.863	127.06
487.081	107.06
487.299	86.06
487.517	103.06
487.735	108.06
487.953	89.06
488.171	85.06
488.389	99.06
488.607	95.06
488.825	99.06
489.043	75.06
489.261	92.06
489.479	85.06
489.696	89.06
489.914	97.06
490.132	92.06
490.35	83.06
490.568	89.06
490.786	96.06
491.003	81.06
491.221	95.06
491.439	96.06
491.657	100.06
491.874	91.06
492.092	89.06
492.31	92.06
492.527	91.06
492.745	92.06
492.963	98.06
493.18	100.06
493.398	95.06
493.615	98.06
493.833	107.06
494.05	82.06
494.268	78.06
494.485	89.06
494.703	87.06
494.92	90.06
495.138	82.06
495.355	103.06
495.573	119.06
495.79	90.06
496.008	97.06
496.225	83.06
496.442	101.06
496.66	97.06
496.877	89.06
497.094	90.06
497.312	95.06
497.529	93.06
497.746	93.06
497.963	85.06
498.181	94.06
498.398	93.06
498.615	111.06
498.832	122.06
499.049	95.06
499.267	96.06
499.484	92.06
499.701	95.06
499.918	98.06
500.135	83.06
500.352	87.06
500.569	88.06
500.786	102.06
501.003	91.06
501.22	81.06
501.437	88.06
501.654	84.06
501.871	128.06
502.088	100.06
502.305	92.06
502.522	95.06
502.739	84.06
502.956	81.06
503.172	101.06
503.389	107.06
503.606	136.06
503.823	99.06
504.04	83.06
504.256	107.06
504.473	88.06
504.69	90.06
504.907	92.06
505.123	94.06
505.34	78.06
505.557	90.06
505.773	86.06
505.99	103.06
506.207	83.06
506.423	109.06
506.64	97.06
506.856	84.06
507.073	90.06
507.289	90.06
507.506	122.06
507.722	112.06
507.939	146.06
508.155	101.06
508.372	103.06
508.588	102.06
508.805	105.06
509.021	101.06
509.238	98.06
509.454	107.06
509.67	93.06
509.887	129.06
510.103	159.06
510.319	274.06
510.536	1115.06
510.752	4021.06
510.968	1080.06
511.184	214.06
511.401	126.06
511.617	95.06
511.833	106.06
512.049	108.06
512.265	106.06
512.481	97.06
512.698	97.06
512.914	103.06
513.13	91.06
513.346	89.06
513.562	105.06
513.778	99.06
