Data from Coke_Can_Bottom_HRD10591_00010.txt Node
Date: Wed Nov 05 15:46:17 EST 2025
User: Yrep
Spectrometer: HR+D1059
Trigger mode: 1
Integration Time (sec): 1.000000E-1
Scans to average: 1
Electric dark correction enabled: true
Nonlinearity correction enabled: false
Boxcar width: 0
XAxis mode: Wavelengths
Number of Pixels in Spectrum: 2048
>>>>>Begin Spectral Data<<<<<
223.165	-8.56
223.4	-8.56
223.635	-8.56
223.869	-18.56
224.104	-17.56
224.338	-10.56
224.573	-13.56
224.808	-11.56
225.042	-17.56
225.277	1.44
225.511	6.44
225.746	-6.56
225.98	0.44
226.215	3.44
226.449	13.44
226.683	28.44
226.918	27.44
227.152	23.44
227.387	48.44
227.621	42.44
227.856	56.44
228.09	51.44
228.324	49.44
228.559	53.44
228.793	65.44
229.027	65.44
229.262	53.44
229.496	70.44
229.73	69.44
229.964	82.44
230.199	78.44
230.433	58.44
230.667	85.44
230.901	83.44
231.136	67.44
231.37	72.44
231.604	80.44
231.838	71.44
232.072	95.44
232.306	76.44
232.541	85.44
232.775	79.44
233.009	87.44
233.243	75.44
233.477	64.44
233.711	85.44
233.945	89.44
234.179	96.44
234.413	81.44
234.647	71.44
234.881	94.44
235.115	80.44
235.349	83.44
235.583	76.44
235.817	77.44
236.051	71.44
236.285	77.44
236.519	93.44
236.753	66.44
236.987	77.44
237.221	77.44
237.455	91.44
237.689	86.44
237.922	84.44
238.156	74.44
238.39	75.44
238.624	80.44
238.858	72.44
239.091	68.44
239.325	79.44
239.559	85.44
239.793	82.44
240.027	87.44
240.26	82.44
240.494	89.44
240.728	82.44
240.961	69.44
241.195	80.44
241.429	77.44
241.662	67.44
241.896	75.44
242.13	67.44
242.363	60.44
242.597	78.44
242.83	85.44
243.064	73.44
243.298	73.44
243.531	73.44
243.765	72.44
243.998	73.44
244.232	87.44
244.465	83.44
244.699	82.44
244.932	81.44
245.166	77.44
245.399	84.44
245.633	71.44
245.866	75.44
246.099	78.44
246.333	87.44
246.566	93.44
246.8	76.44
247.033	73.44
247.266	65.44
247.5	84.44
247.733	77.44
247.966	92.44
248.2	80.44
248.433	86.44
248.666	82.44
248.899	92.44
249.133	88.44
249.366	83.44
249.599	72.44
249.832	76.44
250.066	89.44
250.299	97.44
250.532	82.44
250.765	80.44
250.998	75.44
251.231	78.44
251.465	84.44
251.698	89.44
251.931	76.44
252.164	85.44
252.397	76.44
252.63	84.44
252.863	67.44
253.096	75.44
253.329	85.44
253.562	84.44
253.795	87.44
254.028	82.44
254.261	78.44
254.494	69.44
254.727	93.44
254.96	94.44
255.193	81.44
255.426	71.44
255.659	67.44
255.892	87.44
256.124	79.44
256.357	66.44
256.59	87.44
256.823	89.44
257.056	84.44
257.289	82.44
257.521	83.44
257.754	80.44
257.987	73.44
258.22	96.44
258.452	81.44
258.685	85.44
258.918	78.44
259.151	103.44
259.383	75.44
259.616	78.44
259.849	72.44
260.081	79.44
260.314	77.44
260.547	65.44
260.779	79.44
261.012	80.44
261.244	75.44
261.477	83.44
261.71	90.44
261.942	87.44
262.175	86.44
262.407	83.44
262.64	89.44
262.872	74.44
263.105	95.44
263.337	78.44
263.57	100.44
263.802	81.44
264.035	85.44
264.267	81.44
264.499	80.44
264.732	85.44
264.964	85.44
265.197	90.44
265.429	82.44
265.661	83.44
265.894	78.44
266.126	95.44
266.358	85.44
266.591	86.44
266.823	77.44
267.055	79.44
267.287	82.44
267.52	83.44
267.752	82.44
267.984	79.44
268.216	82.44
268.448	72.44
268.681	72.44
268.913	80.44
269.145	90.44
269.377	73.44
269.609	84.44
269.841	77.44
270.073	81.44
270.306	84.44
270.538	73.44
270.77	79.44
271.002	76.44
271.234	81.44
271.466	85.44
271.698	86.44
271.93	70.44
272.162	91.44
272.394	87.44
272.626	72.44
272.858	67.44
273.09	87.44
273.322	92.44
273.553	77.44
273.785	80.44
274.017	78.44
274.249	84.44
274.481	76.44
274.713	66.44
274.945	70.44
275.176	79.44
275.408	83.44
275.64	85.44
275.872	89.44
276.104	92.44
276.335	88.44
276.567	71.44
276.799	72.44
277.031	84.44
277.262	89.44
277.494	84.44
277.726	76.44
277.957	81.44
278.189	75.44
278.421	84.44
278.652	84.44
278.884	79.44
279.115	83.44
279.347	97.44
279.579	88.44
279.81	90.44
280.042	82.44
280.273	84.44
280.505	90.44
280.736	91.44
280.968	80.44
281.199	85.44
281.431	91.44
281.662	92.44
281.894	92.44
282.125	90.44
282.356	81.44
282.588	91.44
282.819	84.44
283.051	74.44
283.282	93.44
283.513	81.44
283.745	86.44
283.976	91.44
284.207	89.44
284.439	100.44
284.67	89.44
284.901	87.44
285.132	80.44
285.364	77.44
285.595	82.44
285.826	83.44
286.057	68.44
286.288	67.44
286.52	79.44
286.751	83.44
286.982	74.44
287.213	78.44
287.444	80.44
287.675	86.44
287.906	87.44
288.138	80.44
288.369	88.44
288.6	87.44
288.831	77.44
289.062	88.44
289.293	93.44
289.524	89.44
289.755	86.44
289.986	79.44
290.217	69.44
290.448	93.44
290.679	89.44
290.91	84.44
291.141	85.44
291.371	85.44
291.602	75.44
291.833	83.44
292.064	79.44
292.295	67.44
292.526	81.44
292.757	77.44
292.987	74.44
293.218	85.44
293.449	85.44
293.68	86.44
293.91	73.44
294.141	91.44
294.372	96.44
294.603	70.44
294.833	75.44
295.064	91.44
295.295	86.44
295.525	86.44
295.756	82.44
295.987	88.44
296.217	72.44
296.448	80.44
296.679	88.44
296.909	79.44
297.14	92.44
297.37	105.44
297.601	89.44
297.831	86.44
298.062	92.44
298.292	92.44
298.523	85.44
298.753	77.44
298.984	81.44
299.214	82.44
299.445	91.44
299.675	89.44
299.905	75.44
300.136	92.44
300.366	82.44
300.597	80.44
300.827	95.44
301.057	90.44
301.288	79.44
301.518	76.44
301.748	92.44
301.979	102.44
302.209	83.44
302.439	75.44
302.669	93.44
302.9	82.44
303.13	85.44
303.36	80.44
303.59	91.44
303.82	86.44
304.051	89.44
304.281	95.44
304.511	92.44
304.741	80.44
304.971	95.44
305.201	77.44
305.431	96.44
305.661	96.44
305.891	86.44
306.121	79.44
306.352	94.44
306.582	76.44
306.812	87.44
307.042	87.44
307.272	91.44
307.502	78.44
307.731	101.44
307.961	79.44
308.191	103.44
308.421	104.44
308.651	79.44
308.881	89.44
309.111	84.44
309.341	104.44
309.571	104.44
309.8	84.44
310.03	87.44
310.26	83.44
310.49	82.44
310.72	80.44
310.949	89.44
311.179	73.44
311.409	74.44
311.639	96.44
311.868	88.44
312.098	90.44
312.328	70.44
312.557	93.44
312.787	81.44
313.017	82.44
313.246	82.44
313.476	73.44
313.706	71.44
313.935	80.44
314.165	79.44
314.394	74.44
314.624	72.44
314.853	72.44
315.083	85.44
315.312	94.44
315.542	71.44
315.771	76.44
316.001	85.44
316.23	76.44
316.46	86.44
316.689	89.44
316.919	87.44
317.148	94.44
317.377	89.44
317.607	77.44
317.836	89.44
318.065	91.44
318.295	88.44
318.524	98.44
318.753	89.44
318.983	75.44
319.212	99.44
319.441	92.44
319.67	81.44
319.9	89.44
320.129	77.44
320.358	81.44
320.587	87.44
320.816	81.44
321.046	90.44
321.275	83.44
321.504	89.44
321.733	77.44
321.962	87.44
322.191	91.44
322.42	83.44
322.649	80.44
322.878	87.44
323.108	73.44
323.337	77.44
323.566	77.44
323.795	88.44
324.024	95.44
324.253	79.44
324.482	80.44
324.71	76.44
324.939	90.44
325.168	100.44
325.397	80.44
325.626	97.44
325.855	77.44
326.084	99.44
326.313	93.44
326.542	91.44
326.77	81.44
326.999	81.44
327.228	86.44
327.457	92.44
327.686	83.44
327.914	88.44
328.143	91.44
328.372	91.44
328.6	76.44
328.829	85.44
329.058	90.44
329.287	82.44
329.515	87.44
329.744	87.44
329.972	86.44
330.201	70.44
330.43	92.44
330.658	76.44
330.887	95.44
331.115	94.44
331.344	94.44
331.572	85.44
331.801	78.44
332.03	86.44
332.258	85.44
332.486	79.44
332.715	81.44
332.943	77.44
333.172	95.44
333.4	71.44
333.629	85.44
333.857	81.44
334.085	85.44
334.314	74.44
334.542	84.44
334.771	89.44
334.999	97.44
335.227	77.44
335.455	71.44
335.684	84.44
335.912	87.44
336.14	75.44
336.369	74.44
336.597	91.44
336.825	75.44
337.053	87.44
337.281	75.44
337.51	80.44
337.738	82.44
337.966	86.44
338.194	86.44
338.422	79.44
338.65	81.44
338.878	74.44
339.106	78.44
339.334	84.44
339.562	72.44
339.79	87.44
340.018	80.44
340.246	83.44
340.474	85.44
340.702	65.44
340.93	76.44
341.158	89.44
341.386	81.44
341.614	78.44
341.842	72.44
342.07	65.44
342.298	97.44
342.526	89.44
342.754	70.44
342.981	85.44
343.209	90.44
343.437	89.44
343.665	78.44
343.893	96.44
344.12	100.44
344.348	81.44
344.576	79.44
344.804	88.44
345.031	97.44
345.259	99.44
345.487	88.44
345.714	102.44
345.942	96.44
346.17	84.44
346.397	84.44
346.625	79.44
346.853	78.44
347.08	79.44
347.308	82.44
347.535	82.44
347.763	87.44
347.99	98.44
348.218	89.44
348.445	95.44
348.673	100.44
348.9	86.44
349.128	85.44
349.355	86.44
349.583	88.44
349.81	77.44
350.037	79.44
350.265	82.44
350.492	82.44
350.72	93.44
350.947	97.44
351.174	84.44
351.402	86.44
351.629	87.44
351.856	78.44
352.083	97.44
352.311	77.44
352.538	87.44
352.765	88.44
352.992	73.44
353.22	87.44
353.447	92.44
353.674	79.44
353.901	92.44
354.128	85.44
354.355	78.44
354.583	99.44
354.81	75.44
355.037	80.44
355.264	86.44
355.491	87.44
355.718	89.44
355.945	86.44
356.172	83.44
356.399	72.44
356.626	92.44
356.853	96.44
357.08	81.44
357.307	103.44
357.534	89.44
357.761	88.44
357.988	84.44
358.215	98.44
358.441	85.44
358.668	100.44
358.895	87.44
359.122	97.44
359.349	90.44
359.576	86.44
359.802	77.44
360.029	76.44
360.256	87.44
360.483	69.44
360.709	98.44
360.936	91.44
361.163	75.44
361.39	90.44
361.616	82.44
361.843	85.44
362.07	94.44
362.296	98.44
362.523	85.44
362.749	78.44
362.976	86.44
363.203	79.44
363.429	86.44
363.656	75.44
363.882	79.44
364.109	81.44
364.335	89.44
364.562	87.44
364.788	96.44
365.015	84.44
365.241	72.44
365.468	83.44
365.694	79.44
365.92	104.44
366.147	84.44
366.373	93.44
366.599	73.44
366.826	87.44
367.052	69.44
367.278	79.44
367.505	77.44
367.731	70.44
367.957	89.44
368.184	88.44
368.41	88.44
368.636	93.44
368.862	93.44
369.089	79.44
369.315	85.44
369.541	95.44
369.767	103.44
369.993	81.44
370.219	93.44
370.445	81.44
370.672	79.44
370.898	85.44
371.124	85.44
371.35	82.44
371.576	86.44
371.802	81.44
372.028	88.44
372.254	97.44
372.48	92.44
372.706	71.44
372.932	90.44
373.158	80.44
373.384	95.44
373.61	85.44
373.835	78.44
374.061	90.44
374.287	99.44
374.513	89.44
374.739	77.44
374.965	87.44
375.191	98.44
375.416	100.44
375.642	87.44
375.868	83.44
376.094	84.44
376.319	72.44
376.545	85.44
376.771	97.44
376.997	91.44
377.222	91.44
377.448	72.44
377.674	86.44
377.899	94.44
378.125	80.44
378.35	100.44
378.576	85.44
378.802	83.44
379.027	93.44
379.253	86.44
379.478	91.44
379.704	94.44
379.929	84.44
380.155	89.44
380.38	80.44
380.606	83.44
380.831	86.44
381.057	81.44
381.282	73.44
381.507	77.44
381.733	88.44
381.958	80.44
382.184	79.44
382.409	88.44
382.634	110.44
382.86	102.44
383.085	85.44
383.31	81.44
383.535	79.44
383.761	104.44
383.986	93.44
384.211	83.44
384.436	89.44
384.662	90.44
384.887	96.44
385.112	100.44
385.337	90.44
385.562	90.44
385.787	93.44
386.013	111.44
386.238	95.44
386.463	89.44
386.688	104.44
386.913	88.44
387.138	85.44
387.363	85.44
387.588	76.44
387.813	88.44
388.038	91.44
388.263	97.44
388.488	82.44
388.713	87.44
388.938	89.44
389.163	91.44
389.387	82.44
389.612	88.44
389.837	76.44
390.062	85.44
390.287	82.44
390.512	85.44
390.736	81.44
390.961	80.44
391.186	92.44
391.411	64.44
391.636	80.44
391.86	91.44
392.085	78.44
392.31	85.44
392.534	83.44
392.759	89.44
392.984	88.44
393.208	81.44
393.433	66.44
393.658	84.44
393.882	87.44
394.107	105.44
394.331	147.44
394.556	137.44
394.78	114.44
395.005	78.44
395.229	85.44
395.454	87.44
395.678	90.44
395.903	127.44
396.127	148.44
396.352	150.44
396.576	98.44
396.801	90.44
397.025	84.44
397.249	86.44
397.474	90.44
397.698	104.44
397.922	76.44
398.147	77.44
398.371	86.44
398.595	87.44
398.82	82.44
399.044	81.44
399.268	90.44
399.492	88.44
399.717	88.44
399.941	93.44
400.165	93.44
400.389	84.44
400.613	69.44
400.837	81.44
401.062	85.44
401.286	75.44
401.51	75.44
401.734	88.44
401.958	80.44
402.182	77.44
402.406	82.44
402.63	72.44
402.854	77.44
403.078	93.44
403.302	107.44
403.526	91.44
403.75	95.44
403.974	76.44
404.198	67.44
404.422	95.44
404.645	81.44
404.869	83.44
405.093	95.44
405.317	84.44
405.541	62.44
405.765	95.44
405.988	75.44
406.212	92.44
406.436	81.44
406.66	93.44
406.883	92.44
407.107	95.44
407.331	85.44
407.555	79.44
407.778	79.44
408.002	77.44
408.226	75.44
408.449	77.44
408.673	74.44
408.896	80.44
409.12	77.44
409.344	79.44
409.567	87.44
409.791	94.44
410.014	89.44
410.238	88.44
410.461	85.44
410.685	81.44
410.908	73.44
411.132	100.44
411.355	75.44
411.578	75.44
411.802	78.44
412.025	83.44
412.249	80.44
412.472	86.44
412.695	98.44
412.919	88.44
413.142	88.44
413.365	79.44
413.589	71.44
413.812	77.44
414.035	89.44
414.258	80.44
414.482	89.44
414.705	90.44
414.928	76.44
415.151	72.44
415.374	97.44
415.597	84.44
415.821	77.44
416.044	97.44
416.267	78.44
416.49	85.44
416.713	81.44
416.936	94.44
417.159	97.44
417.382	85.44
417.605	77.44
417.828	101.44
418.051	76.44
418.274	82.44
418.497	83.44
418.72	91.44
418.943	86.44
419.166	74.44
419.389	81.44
419.611	68.44
419.834	85.44
420.057	88.44
420.28	82.44
420.503	84.44
420.726	85.44
420.948	89.44
421.171	81.44
421.394	87.44
421.617	85.44
421.839	92.44
422.062	74.44
422.285	91.44
422.507	77.44
422.73	78.44
422.953	81.44
423.175	74.44
423.398	83.44
423.621	82.44
423.843	73.44
424.066	81.44
424.288	75.44
424.511	87.44
424.733	86.44
424.956	82.44
425.178	92.44
425.401	76.44
425.623	87.44
425.846	96.44
426.068	74.44
426.291	83.44
426.513	75.44
426.735	89.44
426.958	81.44
427.18	68.44
427.402	81.44
427.625	81.44
427.847	92.44
428.069	77.44
428.292	82.44
428.514	83.44
428.736	73.44
428.958	65.44
429.181	92.44
429.403	72.44
429.625	94.44
429.847	80.44
430.069	72.44
430.292	86.44
430.514	87.44
430.736	79.44
430.958	78.44
431.18	77.44
431.402	79.44
431.624	89.44
431.846	78.44
432.068	88.44
432.29	79.44
432.512	79.44
432.734	75.44
432.956	84.44
433.178	85.44
433.4	92.44
433.622	97.44
433.844	77.44
434.066	92.44
434.287	81.44
434.509	67.44
434.731	85.44
434.953	75.44
435.175	70.44
435.397	91.44
435.618	87.44
435.84	87.44
436.062	91.44
436.284	79.44
436.505	74.44
436.727	87.44
436.949	91.44
437.17	87.44
437.392	72.44
437.614	75.44
437.835	78.44
438.057	71.44
438.278	84.44
438.5	93.44
438.721	93.44
438.943	88.44
439.165	76.44
439.386	91.44
439.608	85.44
439.829	85.44
440.05	88.44
440.272	76.44
440.493	77.44
440.715	76.44
440.936	73.44
441.158	92.44
441.379	77.44
441.6	85.44
441.822	103.44
442.043	80.44
442.264	93.44
442.486	79.44
442.707	85.44
442.928	84.44
443.149	89.44
443.371	81.44
443.592	92.44
443.813	74.44
444.034	85.44
444.255	77.44
444.476	83.44
444.698	94.44
444.919	83.44
445.14	137.44
445.361	108.44
445.582	95.44
445.803	64.44
446.024	82.44
446.245	79.44
446.466	81.44
446.687	78.44
446.908	84.44
447.129	67.44
447.35	91.44
447.571	92.44
447.792	86.44
448.013	89.44
448.234	92.44
448.455	78.44
448.675	85.44
448.896	79.44
449.117	85.44
449.338	72.44
449.559	95.44
449.779	94.44
450	77.44
450.221	87.44
450.442	80.44
450.662	85.44
450.883	85.44
451.104	84.44
451.324	93.44
451.545	84.44
451.766	81.44
451.986	75.44
452.207	73.44
452.428	97.44
452.648	81.44
452.869	90.44
453.089	69.44
453.31	79.44
453.53	80.44
453.751	94.44
453.971	67.44
454.192	75.44
454.412	90.44
454.633	82.44
454.853	78.44
455.073	74.44
455.294	74.44
455.514	69.44
455.734	84.44
455.955	78.44
456.175	88.44
456.395	88.44
456.616	78.44
456.836	63.44
457.056	79.44
457.276	71.44
457.497	90.44
457.717	74.44
457.937	87.44
458.157	79.44
458.377	70.44
458.598	81.44
458.818	77.44
459.038	88.44
459.258	85.44
459.478	68.44
459.698	79.44
459.918	81.44
460.138	96.44
460.358	59.44
460.578	99.44
460.798	67.44
461.018	93.44
461.238	81.44
461.458	72.44
461.678	72.44
461.898	88.44
462.118	86.44
462.338	70.44
462.558	71.44
462.777	91.44
462.997	73.44
463.217	97.44
463.437	85.44
463.657	83.44
463.876	81.44
464.096	75.44
464.316	86.44
464.536	87.44
464.755	78.44
464.975	92.44
465.195	65.44
465.414	91.44
465.634	84.44
465.854	72.44
466.073	76.44
466.293	87.44
466.512	88.44
466.732	92.44
466.951	80.44
467.171	95.44
467.391	91.44
467.61	78.44
467.829	67.44
468.049	76.44
468.268	87.44
468.488	81.44
468.707	73.44
468.927	87.44
469.146	73.44
469.365	77.44
469.585	89.44
469.804	81.44
470.023	99.44
470.243	71.44
470.462	104.44
470.681	94.44
470.901	85.44
471.12	89.44
471.339	86.44
471.558	92.44
471.777	71.44
471.997	99.44
472.216	69.44
472.435	104.44
472.654	96.44
472.873	101.44
473.092	80.44
473.311	93.44
473.53	93.44
473.749	88.44
473.968	77.44
474.187	70.44
474.406	83.44
474.625	83.44
474.844	89.44
475.063	81.44
475.282	80.44
475.501	67.44
475.72	97.44
475.939	100.44
476.158	89.44
476.377	79.44
476.596	84.44
476.814	75.44
477.033	84.44
477.252	89.44
477.471	94.44
477.69	76.44
477.908	87.44
478.127	84.44
478.346	76.44
478.564	82.44
478.783	79.44
479.002	95.44
479.22	77.44
479.439	78.44
479.658	81.44
479.876	73.44
480.095	80.44
480.313	72.44
480.532	82.44
480.751	81.44
480.969	87.44
481.188	90.44
481.406	89.44
481.624	74.44
481.843	77.44
482.061	86.44
482.28	96.44
482.498	89.44
482.717	79.44
482.935	87.44
483.153	82.44
483.372	83.44
483.59	88.44
483.808	69.44
484.027	92.44
484.245	86.44
484.463	95.44
484.681	105.44
484.9	92.44
485.118	93.44
485.336	102.44
485.554	93.44
485.772	100.44
485.99	91.44
486.209	94.44
486.427	95.44
486.645	92.44
486.863	90.44
487.081	79.44
487.299	79.44
487.517	97.44
487.735	94.44
487.953	97.44
488.171	93.44
488.389	80.44
488.607	83.44
488.825	81.44
489.043	95.44
489.261	97.44
489.479	89.44
489.696	89.44
489.914	86.44
490.132	107.44
490.35	109.44
490.568	93.44
490.786	89.44
491.003	92.44
491.221	78.44
491.439	75.44
491.657	77.44
491.874	86.44
492.092	92.44
492.31	85.44
492.527	89.44
492.745	102.44
492.963	95.44
493.18	80.44
493.398	97.44
493.615	85.44
493.833	80.44
494.05	82.44
494.268	99.44
494.485	91.44
494.703	91.44
494.92	91.44
495.138	86.44
495.355	87.44
495.573	90.44
495.79	90.44
496.008	86.44
496.225	99.44
496.442	81.44
496.66	91.44
496.877	79.44
497.094	85.44
497.312	72.44
497.529	82.44
497.746	97.44
497.963	86.44
498.181	69.44
498.398	84.44
498.615	88.44
498.832	84.44
499.049	78.44
499.267	82.44
499.484	80.44
499.701	79.44
499.918	85.44
500.135	77.44
500.352	77.44
500.569	92.44
500.786	76.44
501.003	88.44
501.22	88.44
501.437	61.44
501.654	83.44
501.871	81.44
502.088	78.44
502.305	94.44
502.522	87.44
502.739	86.44
502.956	92.44
503.172	93.44
503.389	79.44
503.606	74.44
503.823	89.44
504.04	81.44
504.256	92.44
504.473	68.44
504.69	92.44
504.907	88.44
505.123	78.44
505.34	79.44
505.557	96.44
505.773	91.44
505.99	76.44
506.207	79.44
506.423	82.44
506.64	81.44
506.856	90.44
507.073	91.44
507.289	84.44
507.506	85.44
507.722	87.44
507.939	84.44
508.155	91.44
508.372	76.44
508.588	75.44
508.805	85.44
509.021	92.44
509.238	77.44
509.454	76.44
509.67	81.44
509.887	77.44
510.103	77.44
510.319	92.44
510.536	86.44
510.752	100.44
510.968	84.44
511.184	93.44
511.401	102.44
511.617	92.44
511.833	65.44
512.049	88.44
512.265	81.44
512.481	72.44
512.698	95.44
512.914	89.44
513.13	104.44
513.346	86.44
513.562	105.44
513.778	97.44
513.994	81.44
514.21	99.44
514.426	83.44
514.642	82.44
514.858	75.44
515.074	96.44
515.29	97.44
515.506	88.44
515.721	87.44
515.937	86.44
516.153	77.44
516.369	88.44
516.585	92.44
516.801	89.44
517.016	97.44
517.232	73.44
517.448	105.44
517.664	89.44
517.879	80.44
518.095	86.44
518.311	90.44
518.527	93.44
518.742	86.44
518.958	84.44
519.173	77.44
519.389	91.44
