Data from Coke_Can_Bottom_HRD10591_00020.txt Node
Date: Wed Nov 05 15:46:22 EST 2025
User: Yrep
Spectrometer: HR+D1059
Trigger mode: 1
Integration Time (sec): 1.000000E-1
Scans to average: 1
Electric dark correction enabled: true
Nonlinearity correction enabled: false
Boxcar width: 0
XAxis mode: Wavelengths
Number of Pixels in Spectrum: 2048
>>>>>Begin Spectral Data<<<<<
223.165	-11.12
223.4	-11.12
223.635	-11.12
223.869	-17.12
224.104	-6.12
224.338	-11.12
224.573	-7.12
224.808	-19.12
225.042	-6.12
225.277	-4.12
225.511	-10.12
225.746	2.88
225.98	-2.12
226.215	11.88
226.449	21.88
226.683	11.88
226.918	15.88
227.152	29.88
227.387	24.88
227.621	43.88
227.856	50.88
228.09	58.88
228.324	65.88
228.559	57.88
228.793	54.88
229.027	51.88
229.262	64.88
229.496	68.88
229.73	77.88
229.964	86.88
230.199	80.88
230.433	64.88
230.667	81.88
230.901	81.88
231.136	81.88
231.37	80.88
231.604	77.88
231.838	78.88
232.072	75.88
232.306	78.88
232.541	74.88
232.775	81.88
233.009	82.88
233.243	80.88
233.477	81.88
233.711	82.88
233.945	73.88
234.179	80.88
234.413	74.88
234.647	75.88
234.881	77.88
235.115	84.88
235.349	65.88
235.583	79.88
235.817	64.88
236.051	94.88
236.285	75.88
236.519	78.88
236.753	68.88
236.987	76.88
237.221	79.88
237.455	67.88
237.689	70.88
237.922	66.88
238.156	77.88
238.39	82.88
238.624	80.88
238.858	77.88
239.091	87.88
239.325	74.88
239.559	70.88
239.793	82.88
240.027	74.88
240.26	68.88
240.494	86.88
240.728	88.88
240.961	84.88
241.195	79.88
241.429	70.88
241.662	82.88
241.896	63.88
242.13	68.88
242.363	83.88
242.597	87.88
242.83	68.88
243.064	88.88
243.298	82.88
243.531	72.88
243.765	76.88
243.998	66.88
244.232	76.88
244.465	77.88
244.699	86.88
244.932	85.88
245.166	87.88
245.399	66.88
245.633	77.88
245.866	73.88
246.099	78.88
246.333	82.88
246.566	70.88
246.8	75.88
247.033	90.88
247.266	69.88
247.5	85.88
247.733	78.88
247.966	77.88
248.2	81.88
248.433	84.88
248.666	62.88
248.899	83.88
249.133	84.88
249.366	84.88
249.599	78.88
249.832	70.88
250.066	70.88
250.299	85.88
250.532	76.88
250.765	77.88
250.998	94.88
251.231	99.88
251.465	86.88
251.698	62.88
251.931	78.88
252.164	84.88
252.397	89.88
252.63	86.88
252.863	89.88
253.096	84.88
253.329	74.88
253.562	79.88
253.795	74.88
254.028	84.88
254.261	63.88
254.494	73.88
254.727	80.88
254.96	76.88
255.193	76.88
255.426	71.88
255.659	79.88
255.892	90.88
256.124	66.88
256.357	79.88
256.59	88.88
256.823	77.88
257.056	84.88
257.289	79.88
257.521	94.88
257.754	86.88
257.987	72.88
258.22	71.88
258.452	73.88
258.685	76.88
258.918	70.88
259.151	84.88
259.383	78.88
259.616	75.88
259.849	80.88
260.081	82.88
260.314	85.88
260.547	79.88
260.779	76.88
261.012	87.88
261.244	80.88
261.477	97.88
261.71	86.88
261.942	64.88
262.175	74.88
262.407	70.88
262.64	91.88
262.872	84.88
263.105	78.88
263.337	84.88
263.57	78.88
263.802	64.88
264.035	77.88
264.267	76.88
264.499	96.88
264.732	87.88
264.964	97.88
265.197	79.88
265.429	86.88
265.661	87.88
265.894	75.88
266.126	94.88
266.358	82.88
266.591	64.88
266.823	85.88
267.055	86.88
267.287	94.88
267.52	93.88
267.752	89.88
267.984	84.88
268.216	101.88
268.448	82.88
268.681	87.88
268.913	94.88
269.145	70.88
269.377	83.88
269.609	98.88
269.841	86.88
270.073	90.88
270.306	86.88
270.538	98.88
270.77	84.88
271.002	87.88
271.234	99.88
271.466	98.88
271.698	72.88
271.93	92.88
272.162	87.88
272.394	95.88
272.626	74.88
272.858	82.88
273.09	93.88
273.322	90.88
273.553	70.88
273.785	96.88
274.017	86.88
274.249	86.88
274.481	102.88
274.713	76.88
274.945	74.88
275.176	77.88
275.408	83.88
275.64	74.88
275.872	82.88
276.104	74.88
276.335	84.88
276.567	85.88
276.799	87.88
277.031	90.88
277.262	82.88
277.494	75.88
277.726	84.88
277.957	67.88
278.189	88.88
278.421	89.88
278.652	79.88
278.884	74.88
279.115	86.88
279.347	95.88
279.579	91.88
279.81	90.88
280.042	88.88
280.273	87.88
280.505	98.88
280.736	75.88
280.968	82.88
281.199	80.88
281.431	90.88
281.662	77.88
281.894	93.88
282.125	87.88
282.356	77.88
282.588	82.88
282.819	81.88
283.051	81.88
283.282	83.88
283.513	88.88
283.745	84.88
283.976	92.88
284.207	80.88
284.439	83.88
284.67	92.88
284.901	82.88
285.132	86.88
285.364	84.88
285.595	90.88
285.826	77.88
286.057	98.88
286.288	76.88
286.52	82.88
286.751	92.88
286.982	95.88
287.213	86.88
287.444	88.88
287.675	88.88
287.906	83.88
288.138	87.88
288.369	68.88
288.6	78.88
288.831	81.88
289.062	86.88
289.293	95.88
289.524	78.88
289.755	86.88
289.986	86.88
290.217	75.88
290.448	96.88
290.679	85.88
290.91	84.88
291.141	70.88
291.371	81.88
291.602	92.88
291.833	86.88
292.064	82.88
292.295	83.88
292.526	85.88
292.757	93.88
292.987	84.88
293.218	78.88
293.449	79.88
293.68	81.88
293.91	76.88
294.141	86.88
294.372	80.88
294.603	75.88
294.833	78.88
295.064	89.88
295.295	86.88
295.525	94.88
295.756	92.88
295.987	74.88
296.217	83.88
296.448	77.88
296.679	83.88
296.909	86.88
297.14	83.88
297.37	68.88
297.601	94.88
297.831	100.88
298.062	68.88
298.292	75.88
298.523	74.88
298.753	90.88
298.984	90.88
299.214	89.88
299.445	88.88
299.675	82.88
299.905	96.88
300.136	92.88
300.366	83.88
300.597	90.88
300.827	86.88
301.057	90.88
301.288	94.88
301.518	85.88
301.748	85.88
301.979	90.88
302.209	97.88
302.439	73.88
302.669	97.88
302.9	70.88
303.13	71.88
303.36	96.88
303.59	83.88
303.82	81.88
304.051	84.88
304.281	93.88
304.511	95.88
304.741	78.88
304.971	67.88
305.201	84.88
305.431	76.88
305.661	82.88
305.891	81.88
306.121	91.88
306.352	79.88
306.582	97.88
306.812	91.88
307.042	88.88
307.272	74.88
307.502	94.88
307.731	90.88
307.961	81.88
308.191	90.88
308.421	94.88
308.651	88.88
308.881	92.88
309.111	103.88
309.341	114.88
309.571	91.88
309.8	82.88
310.03	83.88
310.26	103.88
310.49	84.88
310.72	79.88
310.949	102.88
311.179	78.88
311.409	91.88
311.639	92.88
311.868	95.88
312.098	80.88
312.328	92.88
312.557	84.88
312.787	78.88
313.017	91.88
313.246	74.88
313.476	84.88
313.706	78.88
313.935	86.88
314.165	97.88
314.394	78.88
314.624	79.88
314.853	91.88
315.083	88.88
315.312	92.88
315.542	83.88
315.771	85.88
316.001	82.88
316.23	98.88
316.46	88.88
316.689	83.88
316.919	90.88
317.148	84.88
317.377	84.88
317.607	92.88
317.836	83.88
318.065	86.88
318.295	78.88
318.524	93.88
318.753	93.88
318.983	81.88
319.212	90.88
319.441	94.88
319.67	97.88
319.9	81.88
320.129	79.88
320.358	90.88
320.587	76.88
320.816	89.88
321.046	85.88
321.275	86.88
321.504	85.88
321.733	82.88
321.962	69.88
322.191	78.88
322.42	96.88
322.649	81.88
322.878	78.88
323.108	92.88
323.337	88.88
323.566	86.88
323.795	91.88
324.024	81.88
324.253	94.88
324.482	74.88
324.71	87.88
324.939	92.88
325.168	87.88
325.397	88.88
325.626	85.88
325.855	79.88
326.084	94.88
326.313	86.88
326.542	90.88
326.77	87.88
326.999	74.88
327.228	78.88
327.457	95.88
327.686	99.88
327.914	90.88
328.143	82.88
328.372	92.88
328.6	88.88
328.829	72.88
329.058	86.88
329.287	78.88
329.515	76.88
329.744	98.88
329.972	96.88
330.201	91.88
330.43	86.88
330.658	82.88
330.887	97.88
331.115	76.88
331.344	91.88
331.572	100.88
331.801	89.88
332.03	81.88
332.258	75.88
332.486	65.88
332.715	97.88
332.943	94.88
333.172	86.88
333.4	94.88
333.629	96.88
333.857	76.88
334.085	79.88
334.314	85.88
334.542	90.88
334.771	98.88
334.999	75.88
335.227	86.88
335.455	84.88
335.684	90.88
335.912	105.88
336.14	95.88
336.369	90.88
336.597	82.88
336.825	87.88
337.053	80.88
337.281	91.88
337.51	75.88
337.738	95.88
337.966	76.88
338.194	90.88
338.422	87.88
338.65	80.88
338.878	92.88
339.106	91.88
339.334	84.88
339.562	98.88
339.79	81.88
340.018	88.88
340.246	84.88
340.474	88.88
340.702	90.88
340.93	78.88
341.158	97.88
341.386	85.88
341.614	91.88
341.842	87.88
342.07	93.88
342.298	93.88
342.526	88.88
342.754	88.88
342.981	78.88
343.209	79.88
343.437	94.88
343.665	81.88
343.893	86.88
344.12	98.88
344.348	95.88
344.576	78.88
344.804	79.88
345.031	88.88
345.259	87.88
345.487	94.88
345.714	89.88
345.942	76.88
346.17	71.88
346.397	89.88
346.625	90.88
346.853	75.88
347.08	88.88
347.308	81.88
347.535	64.88
347.763	98.88
347.99	90.88
348.218	75.88
348.445	76.88
348.673	84.88
348.9	88.88
349.128	83.88
349.355	81.88
349.583	95.88
349.81	89.88
350.037	76.88
350.265	79.88
350.492	78.88
350.72	72.88
350.947	77.88
351.174	82.88
351.402	85.88
351.629	84.88
351.856	89.88
352.083	76.88
352.311	77.88
352.538	92.88
352.765	85.88
352.992	83.88
353.22	87.88
353.447	80.88
353.674	87.88
353.901	84.88
354.128	83.88
354.355	79.88
354.583	87.88
354.81	96.88
355.037	88.88
355.264	90.88
355.491	89.88
355.718	91.88
355.945	102.88
356.172	96.88
356.399	88.88
356.626	88.88
356.853	77.88
357.08	86.88
357.307	74.88
357.534	80.88
357.761	81.88
357.988	88.88
358.215	91.88
358.441	78.88
358.668	86.88
358.895	83.88
359.122	97.88
359.349	78.88
359.576	67.88
359.802	74.88
360.029	86.88
360.256	94.88
360.483	75.88
360.709	96.88
360.936	74.88
361.163	83.88
361.39	98.88
361.616	74.88
361.843	66.88
362.07	90.88
362.296	80.88
362.523	80.88
362.749	91.88
362.976	96.88
363.203	94.88
363.429	85.88
363.656	87.88
363.882	87.88
364.109	85.88
364.335	84.88
364.562	80.88
364.788	80.88
365.015	81.88
365.241	89.88
365.468	93.88
365.694	84.88
365.92	88.88
366.147	80.88
366.373	78.88
366.599	88.88
366.826	84.88
367.052	87.88
367.278	75.88
367.505	90.88
367.731	93.88
367.957	81.88
368.184	79.88
368.41	86.88
368.636	86.88
368.862	89.88
369.089	90.88
369.315	92.88
369.541	87.88
369.767	70.88
369.993	84.88
370.219	70.88
370.445	79.88
370.672	67.88
370.898	90.88
371.124	90.88
371.35	83.88
371.576	86.88
371.802	86.88
372.028	87.88
372.254	88.88
372.48	75.88
372.706	77.88
372.932	95.88
373.158	77.88
373.384	85.88
373.61	89.88
373.835	86.88
374.061	70.88
374.287	78.88
374.513	92.88
374.739	90.88
374.965	79.88
375.191	82.88
375.416	94.88
375.642	89.88
375.868	86.88
376.094	85.88
376.319	80.88
376.545	88.88
376.771	85.88
376.997	84.88
377.222	79.88
377.448	94.88
377.674	91.88
377.899	75.88
378.125	83.88
378.35	91.88
378.576	75.88
378.802	86.88
379.027	90.88
379.253	90.88
379.478	87.88
379.704	84.88
379.929	88.88
380.155	87.88
380.38	86.88
380.606	84.88
380.831	89.88
381.057	96.88
381.282	67.88
381.507	81.88
381.733	100.88
381.958	82.88
382.184	93.88
382.409	87.88
382.634	101.88
382.86	81.88
383.085	98.88
383.31	109.88
383.535	91.88
383.761	78.88
383.986	84.88
384.211	84.88
384.436	83.88
384.662	86.88
384.887	100.88
385.112	90.88
385.337	94.88
385.562	89.88
385.787	97.88
386.013	81.88
386.238	95.88
386.463	83.88
386.688	111.88
386.913	98.88
387.138	91.88
387.363	95.88
387.588	95.88
387.813	93.88
388.038	97.88
388.263	90.88
388.488	84.88
388.713	71.88
388.938	78.88
389.163	90.88
389.387	71.88
389.612	74.88
389.837	100.88
390.062	104.88
390.287	93.88
390.512	70.88
390.736	82.88
390.961	84.88
391.186	77.88
391.411	80.88
391.636	93.88
391.86	98.88
392.085	81.88
392.31	76.88
392.534	86.88
392.759	89.88
392.984	88.88
393.208	85.88
393.433	87.88
393.658	101.88
393.882	96.88
394.107	107.88
394.331	140.88
394.556	151.88
394.78	111.88
395.005	79.88
395.229	76.88
395.454	92.88
395.678	103.88
395.903	126.88
396.127	177.88
396.352	175.88
396.576	110.88
396.801	91.88
397.025	87.88
397.249	79.88
397.474	81.88
397.698	80.88
397.922	84.88
398.147	72.88
398.371	95.88
398.595	88.88
398.82	77.88
399.044	76.88
399.268	92.88
399.492	81.88
399.717	86.88
399.941	80.88
400.165	86.88
400.389	79.88
400.613	78.88
400.837	93.88
401.062	85.88
401.286	87.88
401.51	76.88
401.734	64.88
401.958	89.88
402.182	91.88
402.406	80.88
402.63	70.88
402.854	104.88
403.078	90.88
403.302	94.88
403.526	91.88
403.75	92.88
403.974	86.88
404.198	87.88
404.422	73.88
404.645	88.88
404.869	94.88
405.093	80.88
405.317	84.88
405.541	88.88
405.765	84.88
405.988	81.88
406.212	90.88
406.436	85.88
406.66	87.88
406.883	97.88
407.107	94.88
407.331	87.88
407.555	96.88
407.778	94.88
408.002	74.88
408.226	79.88
408.449	85.88
408.673	78.88
408.896	77.88
409.12	89.88
409.344	68.88
409.567	100.88
409.791	85.88
410.014	92.88
410.238	83.88
410.461	75.88
410.685	74.88
410.908	77.88
411.132	74.88
411.355	85.88
411.578	72.88
411.802	73.88
412.025	69.88
412.249	64.88
412.472	90.88
412.695	72.88
412.919	84.88
413.142	74.88
413.365	80.88
413.589	91.88
413.812	83.88
414.035	82.88
414.258	83.88
414.482	75.88
414.705	74.88
414.928	87.88
415.151	83.88
415.374	91.88
415.597	85.88
415.821	78.88
416.044	84.88
416.267	64.88
416.49	88.88
416.713	94.88
416.936	85.88
417.159	83.88
417.382	75.88
417.605	80.88
417.828	95.88
418.051	84.88
418.274	86.88
418.497	84.88
418.72	76.88
418.943	84.88
419.166	77.88
419.389	92.88
419.611	79.88
419.834	73.88
420.057	75.88
420.28	91.88
420.503	87.88
420.726	87.88
420.948	81.88
421.171	69.88
421.394	73.88
421.617	74.88
421.839	78.88
422.062	88.88
422.285	75.88
422.507	77.88
422.73	90.88
422.953	86.88
423.175	77.88
423.398	79.88
423.621	94.88
423.843	81.88
424.066	84.88
424.288	88.88
424.511	68.88
424.733	76.88
424.956	88.88
425.178	92.88
425.401	81.88
425.623	77.88
425.846	88.88
426.068	92.88
426.291	89.88
426.513	79.88
426.735	77.88
426.958	97.88
427.18	81.88
427.402	82.88
427.625	72.88
427.847	86.88
428.069	71.88
428.292	74.88
428.514	86.88
428.736	68.88
428.958	72.88
429.181	86.88
429.403	86.88
429.625	84.88
429.847	86.88
430.069	84.88
430.292	91.88
430.514	78.88
430.736	86.88
430.958	87.88
431.18	88.88
431.402	74.88
431.624	86.88
431.846	80.88
432.068	80.88
432.29	98.88
432.512	76.88
432.734	79.88
432.956	85.88
433.178	80.88
433.4	77.88
433.622	89.88
433.844	81.88
434.066	86.88
434.287	99.88
434.509	82.88
434.731	88.88
434.953	76.88
435.175	87.88
435.397	99.88
435.618	82.88
435.84	90.88
436.062	74.88
436.284	92.88
436.505	66.88
436.727	65.88
436.949	83.88
437.17	95.88
437.392	76.88
437.614	75.88
437.835	78.88
438.057	86.88
438.278	86.88
438.5	90.88
438.721	93.88
438.943	73.88
439.165	84.88
439.386	82.88
439.608	83.88
439.829	92.88
440.05	86.88
440.272	92.88
440.493	87.88
440.715	82.88
440.936	93.88
441.158	72.88
441.379	85.88
441.6	91.88
441.822	80.88
442.043	79.88
442.264	92.88
442.486	88.88
442.707	77.88
442.928	82.88
443.149	73.88
443.371	86.88
443.592	80.88
443.813	94.88
444.034	92.88
444.255	96.88
444.476	100.88
444.698	78.88
444.919	81.88
445.14	111.88
445.361	112.88
445.582	79.88
445.803	73.88
446.024	89.88
446.245	88.88
446.466	91.88
446.687	87.88
446.908	77.88
447.129	80.88
447.35	76.88
447.571	97.88
447.792	103.88
448.013	78.88
448.234	81.88
448.455	89.88
448.675	79.88
448.896	82.88
449.117	91.88
449.338	80.88
449.559	89.88
449.779	84.88
450	84.88
450.221	97.88
450.442	84.88
450.662	78.88
450.883	76.88
451.104	97.88
451.324	81.88
451.545	89.88
451.766	96.88
451.986	94.88
452.207	80.88
452.428	81.88
452.648	94.88
452.869	90.88
453.089	83.88
453.31	79.88
453.53	84.88
453.751	82.88
453.971	87.88
454.192	82.88
454.412	70.88
454.633	86.88
454.853	93.88
455.073	81.88
455.294	95.88
455.514	72.88
455.734	81.88
455.955	90.88
456.175	90.88
456.395	90.88
456.616	89.88
456.836	88.88
457.056	83.88
457.276	78.88
457.497	76.88
457.717	80.88
457.937	86.88
458.157	74.88
458.377	75.88
458.598	67.88
458.818	97.88
459.038	79.88
459.258	79.88
459.478	88.88
459.698	65.88
459.918	92.88
460.138	72.88
460.358	84.88
460.578	87.88
460.798	74.88
461.018	89.88
461.238	87.88
461.458	84.88
461.678	86.88
461.898	73.88
462.118	78.88
462.338	82.88
462.558	80.88
462.777	82.88
462.997	86.88
463.217	85.88
463.437	84.88
463.657	103.88
463.876	78.88
464.096	86.88
464.316	84.88
464.536	86.88
464.755	101.88
464.975	78.88
465.195	78.88
465.414	87.88
465.634	77.88
465.854	87.88
466.073	103.88
466.293	73.88
466.512	91.88
466.732	85.88
466.951	81.88
467.171	89.88
467.391	76.88
467.61	76.88
467.829	94.88
468.049	90.88
468.268	89.88
468.488	92.88
468.707	84.88
468.927	80.88
469.146	99.88
469.365	86.88
469.585	96.88
469.804	81.88
470.023	87.88
470.243	73.88
470.462	90.88
470.681	101.88
470.901	77.88
471.12	86.88
471.339	75.88
471.558	78.88
471.777	96.88
471.997	106.88
472.216	77.88
472.435	87.88
472.654	86.88
472.873	90.88
473.092	85.88
473.311	82.88
473.53	86.88
473.749	103.88
473.968	94.88
474.187	81.88
474.406	87.88
474.625	76.88
474.844	92.88
475.063	92.88
475.282	68.88
475.501	82.88
475.72	76.88
475.939	72.88
476.158	80.88
476.377	95.88
476.596	98.88
476.814	90.88
477.033	85.88
477.252	81.88
477.471	76.88
477.69	86.88
477.908	85.88
478.127	96.88
478.346	89.88
478.564	84.88
478.783	75.88
479.002	82.88
479.22	72.88
479.439	84.88
479.658	75.88
479.876	80.88
480.095	85.88
480.313	72.88
480.532	85.88
480.751	84.88
480.969	87.88
481.188	89.88
481.406	90.88
481.624	100.88
481.843	79.88
482.061	80.88
482.28	92.88
482.498	84.88
482.717	93.88
482.935	68.88
483.153	75.88
483.372	90.88
483.59	86.88
483.808	81.88
484.027	85.88
484.245	84.88
484.463	103.88
484.681	93.88
484.9	97.88
485.118	93.88
485.336	92.88
485.554	96.88
485.772	82.88
485.99	86.88
486.209	103.88
486.427	85.88
486.645	95.88
486.863	95.88
487.081	95.88
487.299	102.88
487.517	97.88
487.735	88.88
487.953	93.88
488.171	90.88
488.389	92.88
488.607	91.88
488.825	92.88
489.043	87.88
489.261	101.88
489.479	107.88
489.696	86.88
489.914	98.88
490.132	92.88
490.35	80.88
490.568	93.88
490.786	80.88
491.003	105.88
491.221	77.88
491.439	98.88
491.657	86.88
491.874	93.88
492.092	80.88
492.31	79.88
492.527	87.88
492.745	84.88
492.963	78.88
493.18	102.88
493.398	81.88
493.615	88.88
493.833	106.88
494.05	90.88
494.268	93.88
494.485	106.88
494.703	90.88
494.92	97.88
495.138	100.88
495.355	97.88
495.573	79.88
495.79	81.88
496.008	87.88
496.225	92.88
496.442	92.88
496.66	103.88
496.877	85.88
497.094	99.88
497.312	77.88
497.529	86.88
497.746	81.88
497.963	90.88
498.181	80.88
498.398	89.88
498.615	86.88
498.832	68.88
499.049	70.88
499.267	95.88
499.484	77.88
499.701	79.88
499.918	98.88
500.135	88.88
500.352	92.88
500.569	72.88
500.786	94.88
501.003	70.88
501.22	79.88
501.437	74.88
501.654	81.88
501.871	82.88
502.088	96.88
502.305	88.88
502.522	85.88
502.739	92.88
502.956	84.88
503.172	91.88
503.389	88.88
503.606	79.88
503.823	90.88
504.04	84.88
504.256	85.88
504.473	82.88
504.69	82.88
504.907	84.88
505.123	83.88
505.34	79.88
505.557	75.88
505.773	82.88
505.99	74.88
506.207	80.88
506.423	94.88
506.64	92.88
506.856	85.88
507.073	85.88
507.289	77.88
507.506	93.88
507.722	87.88
507.939	85.88
508.155	83.88
508.372	86.88
508.588	74.88
508.805	98.88
509.021	88.88
509.238	89.88
509.454	93.88
509.67	81.88
509.887	74.88
510.103	96.88
510.319	92.88
510.536	86.88
510.752	98.88
510.968	90.88
511.184	97.88
511.401	74.88
511.617	90.88
511.833	93.88
512.049	91.88
512.265	84.88
512.481	81.88
512.698	97.88
512.914	97.88
513.13	90.88
513.346	99.88
513.562	92.88
513.778	82.88
513.994	79.88
514.21	89.88
514.426	89.88
514.642	101.88
514.858	106.88
515.074	97.88
515.29	78.88
515.506	94.88
515.721	90.88
515.937	106.88
516.153	101.88
516.369	92.88
516.585	93.88
516.801	81.88
517.016	96.88
517.232	92.88
517.448	98.88
517.664	98.88
517.879	98.88
518.095	90.88
518.311	91.88
518.527	100.88
518.742	76.88
518.958	79.88
519.173	95.88
519.389	103.88
