Data from Coke_Can_Bottom_HRD10591_00006.txt Node
Date: Wed Nov 05 15:46:15 EST 2025
User: Yrep
Spectrometer: HR+D1059
Trigger mode: 1
Integration Time (sec): 1.000000E-1
Scans to average: 1
Electric dark correction enabled: true
Nonlinearity correction enabled: false
Boxcar width: 0
XAxis mode: Wavelengths
Number of Pixels in Spectrum: 2048
>>>>>Begin Spectral Data<<<<<
223.165	-12.88
223.4	-12.88
223.635	-12.88
223.869	-23.88
224.104	-21.88
224.338	-11.88
224.573	-20.88
224.808	-5.88
225.042	0.12
225.277	0.12
225.511	-8.88
225.746	4.12
225.98	12.12
226.215	-5.88
226.449	4.12
226.683	28.12
226.918	27.12
227.152	36.12
227.387	36.12
227.621	41.12
227.856	46.12
228.09	37.12
228.324	57.12
228.559	46.12
228.793	70.12
229.027	65.12
229.262	66.12
229.496	75.12
229.73	61.12
229.964	62.12
230.199	61.12
230.433	77.12
230.667	72.12
230.901	69.12
231.136	77.12
231.37	76.12
231.604	70.12
231.838	89.12
232.072	69.12
232.306	78.12
232.541	76.12
232.775	74.12
233.009	74.12
233.243	81.12
233.477	66.12
233.711	86.12
233.945	82.12
234.179	104.12
234.413	75.12
234.647	74.12
234.881	82.12
235.115	80.12
235.349	76.12
235.583	78.12
235.817	85.12
236.051	64.12
236.285	81.12
236.519	66.12
236.753	71.12
236.987	74.12
237.221	74.12
237.455	87.12
237.689	78.12
237.922	73.12
238.156	83.12
238.39	74.12
238.624	80.12
238.858	86.12
239.091	72.12
239.325	76.12
239.559	86.12
239.793	79.12
240.027	88.12
240.26	74.12
240.494	73.12
240.728	75.12
240.961	69.12
241.195	67.12
241.429	67.12
241.662	74.12
241.896	75.12
242.13	78.12
242.363	71.12
242.597	71.12
242.83	89.12
243.064	86.12
243.298	74.12
243.531	70.12
243.765	73.12
243.998	77.12
244.232	88.12
244.465	82.12
244.699	81.12
244.932	80.12
245.166	72.12
245.399	79.12
245.633	77.12
245.866	76.12
246.099	75.12
246.333	78.12
246.566	83.12
246.8	68.12
247.033	74.12
247.266	69.12
247.5	78.12
247.733	68.12
247.966	82.12
248.2	80.12
248.433	75.12
248.666	80.12
248.899	84.12
249.133	83.12
249.366	76.12
249.599	67.12
249.832	75.12
250.066	70.12
250.299	76.12
250.532	67.12
250.765	88.12
250.998	90.12
251.231	78.12
251.465	73.12
251.698	75.12
251.931	63.12
252.164	70.12
252.397	78.12
252.63	74.12
252.863	78.12
253.096	69.12
253.329	96.12
253.562	76.12
253.795	89.12
254.028	77.12
254.261	70.12
254.494	68.12
254.727	62.12
254.96	77.12
255.193	87.12
255.426	75.12
255.659	82.12
255.892	74.12
256.124	71.12
256.357	61.12
256.59	75.12
256.823	79.12
257.056	65.12
257.289	76.12
257.521	86.12
257.754	73.12
257.987	96.12
258.22	76.12
258.452	76.12
258.685	83.12
258.918	74.12
259.151	90.12
259.383	81.12
259.616	84.12
259.849	84.12
260.081	87.12
260.314	71.12
260.547	80.12
260.779	72.12
261.012	73.12
261.244	93.12
261.477	85.12
261.71	71.12
261.942	78.12
262.175	96.12
262.407	95.12
262.64	86.12
262.872	86.12
263.105	80.12
263.337	79.12
263.57	85.12
263.802	82.12
264.035	91.12
264.267	74.12
264.499	72.12
264.732	73.12
264.964	75.12
265.197	78.12
265.429	73.12
265.661	89.12
265.894	74.12
266.126	64.12
266.358	84.12
266.591	73.12
266.823	80.12
267.055	84.12
267.287	86.12
267.52	87.12
267.752	85.12
267.984	88.12
268.216	67.12
268.448	72.12
268.681	76.12
268.913	88.12
269.145	80.12
269.377	88.12
269.609	79.12
269.841	88.12
270.073	85.12
270.306	78.12
270.538	81.12
270.77	86.12
271.002	88.12
271.234	76.12
271.466	77.12
271.698	84.12
271.93	66.12
272.162	90.12
272.394	84.12
272.626	68.12
272.858	79.12
273.09	74.12
273.322	84.12
273.553	79.12
273.785	88.12
274.017	72.12
274.249	90.12
274.481	84.12
274.713	85.12
274.945	82.12
275.176	77.12
275.408	98.12
275.64	86.12
275.872	76.12
276.104	82.12
276.335	79.12
276.567	84.12
276.799	91.12
277.031	74.12
277.262	86.12
277.494	84.12
277.726	92.12
277.957	68.12
278.189	84.12
278.421	81.12
278.652	92.12
278.884	86.12
279.115	82.12
279.347	94.12
279.579	82.12
279.81	85.12
280.042	93.12
280.273	70.12
280.505	82.12
280.736	77.12
280.968	85.12
281.199	89.12
281.431	77.12
281.662	79.12
281.894	79.12
282.125	74.12
282.356	88.12
282.588	93.12
282.819	85.12
283.051	79.12
283.282	90.12
283.513	84.12
283.745	70.12
283.976	84.12
284.207	86.12
284.439	72.12
284.67	82.12
284.901	84.12
285.132	87.12
285.364	95.12
285.595	77.12
285.826	86.12
286.057	81.12
286.288	83.12
286.52	74.12
286.751	77.12
286.982	77.12
287.213	79.12
287.444	76.12
287.675	90.12
287.906	78.12
288.138	82.12
288.369	84.12
288.6	67.12
288.831	76.12
289.062	81.12
289.293	80.12
289.524	74.12
289.755	80.12
289.986	60.12
290.217	88.12
290.448	104.12
290.679	79.12
290.91	82.12
291.141	88.12
291.371	91.12
291.602	79.12
291.833	96.12
292.064	70.12
292.295	71.12
292.526	84.12
292.757	84.12
292.987	76.12
293.218	79.12
293.449	84.12
293.68	89.12
293.91	79.12
294.141	86.12
294.372	77.12
294.603	92.12
294.833	84.12
295.064	80.12
295.295	91.12
295.525	80.12
295.756	96.12
295.987	84.12
296.217	72.12
296.448	85.12
296.679	84.12
296.909	104.12
297.14	96.12
297.37	84.12
297.601	72.12
297.831	76.12
298.062	89.12
298.292	90.12
298.523	77.12
298.753	90.12
298.984	75.12
299.214	83.12
299.445	91.12
299.675	95.12
299.905	84.12
300.136	84.12
300.366	73.12
300.597	81.12
300.827	85.12
301.057	71.12
301.288	82.12
301.518	74.12
301.748	76.12
301.979	102.12
302.209	70.12
302.439	83.12
302.669	83.12
302.9	84.12
303.13	75.12
303.36	90.12
303.59	77.12
303.82	99.12
304.051	88.12
304.281	87.12
304.511	91.12
304.741	92.12
304.971	82.12
305.201	78.12
305.431	94.12
305.661	72.12
305.891	75.12
306.121	80.12
306.352	82.12
306.582	81.12
306.812	87.12
307.042	90.12
307.272	79.12
307.502	72.12
307.731	92.12
307.961	85.12
308.191	97.12
308.421	84.12
308.651	97.12
308.881	92.12
309.111	101.12
309.341	108.12
309.571	100.12
309.8	79.12
310.03	66.12
310.26	79.12
310.49	88.12
310.72	77.12
310.949	87.12
311.179	79.12
311.409	76.12
311.639	85.12
311.868	80.12
312.098	76.12
312.328	84.12
312.557	93.12
312.787	82.12
313.017	89.12
313.246	90.12
313.476	81.12
313.706	79.12
313.935	82.12
314.165	77.12
314.394	92.12
314.624	76.12
314.853	88.12
315.083	79.12
315.312	84.12
315.542	107.12
315.771	85.12
316.001	81.12
316.23	92.12
316.46	88.12
316.689	81.12
316.919	82.12
317.148	85.12
317.377	79.12
317.607	85.12
317.836	90.12
318.065	77.12
318.295	84.12
318.524	85.12
318.753	89.12
318.983	95.12
319.212	92.12
319.441	86.12
319.67	96.12
319.9	88.12
320.129	80.12
320.358	77.12
320.587	79.12
320.816	88.12
321.046	92.12
321.275	86.12
321.504	91.12
321.733	78.12
321.962	79.12
322.191	83.12
322.42	69.12
322.649	78.12
322.878	91.12
323.108	77.12
323.337	78.12
323.566	79.12
323.795	90.12
324.024	94.12
324.253	85.12
324.482	93.12
324.71	72.12
324.939	86.12
325.168	82.12
325.397	83.12
325.626	80.12
325.855	97.12
326.084	96.12
326.313	88.12
326.542	74.12
326.77	76.12
326.999	89.12
327.228	89.12
327.457	82.12
327.686	92.12
327.914	84.12
328.143	85.12
328.372	76.12
328.6	82.12
328.829	80.12
329.058	79.12
329.287	87.12
329.515	71.12
329.744	73.12
329.972	83.12
330.201	84.12
330.43	81.12
330.658	69.12
330.887	94.12
331.115	77.12
331.344	75.12
331.572	84.12
331.801	85.12
332.03	80.12
332.258	92.12
332.486	81.12
332.715	86.12
332.943	73.12
333.172	91.12
333.4	80.12
333.629	83.12
333.857	74.12
334.085	80.12
334.314	86.12
334.542	71.12
334.771	99.12
334.999	78.12
335.227	89.12
335.455	76.12
335.684	88.12
335.912	91.12
336.14	81.12
336.369	80.12
336.597	89.12
336.825	84.12
337.053	98.12
337.281	81.12
337.51	88.12
337.738	92.12
337.966	81.12
338.194	92.12
338.422	88.12
338.65	73.12
338.878	84.12
339.106	78.12
339.334	80.12
339.562	84.12
339.79	90.12
340.018	81.12
340.246	82.12
340.474	69.12
340.702	88.12
340.93	89.12
341.158	97.12
341.386	66.12
341.614	70.12
341.842	73.12
342.07	67.12
342.298	86.12
342.526	82.12
342.754	85.12
342.981	78.12
343.209	84.12
343.437	105.12
343.665	82.12
343.893	67.12
344.12	79.12
344.348	85.12
344.576	72.12
344.804	72.12
345.031	98.12
345.259	94.12
345.487	80.12
345.714	92.12
345.942	80.12
346.17	75.12
346.397	88.12
346.625	85.12
346.853	84.12
347.08	70.12
347.308	74.12
347.535	73.12
347.763	79.12
347.99	88.12
348.218	82.12
348.445	84.12
348.673	82.12
348.9	73.12
349.128	84.12
349.355	93.12
349.583	71.12
349.81	82.12
350.037	84.12
350.265	81.12
350.492	80.12
350.72	88.12
350.947	75.12
351.174	95.12
351.402	76.12
351.629	86.12
351.856	86.12
352.083	77.12
352.311	83.12
352.538	78.12
352.765	85.12
352.992	100.12
353.22	78.12
353.447	74.12
353.674	72.12
353.901	92.12
354.128	95.12
354.355	76.12
354.583	89.12
354.81	96.12
355.037	79.12
355.264	82.12
355.491	70.12
355.718	87.12
355.945	96.12
356.172	84.12
356.399	76.12
356.626	70.12
356.853	73.12
357.08	93.12
357.307	88.12
357.534	84.12
357.761	79.12
357.988	99.12
358.215	94.12
358.441	107.12
358.668	86.12
358.895	83.12
359.122	98.12
359.349	73.12
359.576	82.12
359.802	77.12
360.029	88.12
360.256	74.12
360.483	64.12
360.709	91.12
360.936	77.12
361.163	70.12
361.39	91.12
361.616	76.12
361.843	88.12
362.07	90.12
362.296	100.12
362.523	74.12
362.749	78.12
362.976	89.12
363.203	84.12
363.429	80.12
363.656	90.12
363.882	89.12
364.109	82.12
364.335	84.12
364.562	84.12
364.788	69.12
365.015	85.12
365.241	85.12
365.468	94.12
365.694	88.12
365.92	65.12
366.147	76.12
366.373	93.12
366.599	81.12
366.826	82.12
367.052	80.12
367.278	78.12
367.505	66.12
367.731	92.12
367.957	84.12
368.184	93.12
368.41	82.12
368.636	82.12
368.862	82.12
369.089	76.12
369.315	82.12
369.541	82.12
369.767	83.12
369.993	71.12
370.219	75.12
370.445	85.12
370.672	76.12
370.898	72.12
371.124	74.12
371.35	90.12
371.576	73.12
371.802	86.12
372.028	76.12
372.254	87.12
372.48	77.12
372.706	80.12
372.932	80.12
373.158	86.12
373.384	86.12
373.61	90.12
373.835	87.12
374.061	75.12
374.287	81.12
374.513	82.12
374.739	77.12
374.965	82.12
375.191	80.12
375.416	88.12
375.642	88.12
375.868	91.12
376.094	73.12
376.319	79.12
376.545	89.12
376.771	88.12
376.997	98.12
377.222	70.12
377.448	86.12
377.674	91.12
377.899	86.12
378.125	88.12
378.35	89.12
378.576	82.12
378.802	86.12
379.027	93.12
379.253	89.12
379.478	94.12
379.704	81.12
379.929	80.12
380.155	81.12
380.38	85.12
380.606	81.12
380.831	82.12
381.057	91.12
381.282	76.12
381.507	90.12
381.733	108.12
381.958	85.12
382.184	93.12
382.409	90.12
382.634	101.12
382.86	93.12
383.085	84.12
383.31	84.12
383.535	80.12
383.761	90.12
383.986	89.12
384.211	90.12
384.436	100.12
384.662	75.12
384.887	104.12
385.112	81.12
385.337	105.12
385.562	92.12
385.787	86.12
386.013	79.12
386.238	97.12
386.463	90.12
386.688	96.12
386.913	84.12
387.138	85.12
387.363	82.12
387.588	93.12
387.813	92.12
388.038	98.12
388.263	95.12
388.488	92.12
388.713	72.12
388.938	90.12
389.163	77.12
389.387	79.12
389.612	77.12
389.837	78.12
390.062	90.12
390.287	88.12
390.512	88.12
390.736	76.12
390.961	75.12
391.186	77.12
391.411	77.12
391.636	78.12
391.86	76.12
392.085	84.12
392.31	79.12
392.534	89.12
392.759	82.12
392.984	79.12
393.208	78.12
393.433	85.12
393.658	90.12
393.882	104.12
394.107	123.12
394.331	139.12
394.556	147.12
394.78	93.12
395.005	94.12
395.229	80.12
395.454	85.12
395.678	109.12
395.903	112.12
396.127	192.12
396.352	157.12
396.576	98.12
396.801	74.12
397.025	67.12
397.249	78.12
397.474	93.12
397.698	89.12
397.922	78.12
398.147	97.12
398.371	77.12
398.595	94.12
398.82	85.12
399.044	79.12
399.268	94.12
399.492	73.12
399.717	92.12
399.941	77.12
400.165	75.12
400.389	85.12
400.613	77.12
400.837	82.12
401.062	66.12
401.286	73.12
401.51	89.12
401.734	77.12
401.958	84.12
402.182	92.12
402.406	79.12
402.63	78.12
402.854	83.12
403.078	79.12
403.302	99.12
403.526	99.12
403.75	90.12
403.974	83.12
404.198	79.12
404.422	73.12
404.645	76.12
404.869	86.12
405.093	84.12
405.317	90.12
405.541	71.12
405.765	77.12
405.988	71.12
406.212	71.12
406.436	85.12
406.66	86.12
406.883	76.12
407.107	84.12
407.331	85.12
407.555	76.12
407.778	88.12
408.002	60.12
408.226	84.12
408.449	69.12
408.673	92.12
408.896	80.12
409.12	64.12
409.344	97.12
409.567	77.12
409.791	72.12
410.014	80.12
410.238	87.12
410.461	72.12
410.685	86.12
410.908	92.12
411.132	88.12
411.355	78.12
411.578	84.12
411.802	79.12
412.025	87.12
412.249	84.12
412.472	96.12
412.695	90.12
412.919	72.12
413.142	88.12
413.365	75.12
413.589	78.12
413.812	77.12
414.035	68.12
414.258	67.12
414.482	72.12
414.705	75.12
414.928	90.12
415.151	72.12
415.374	74.12
415.597	75.12
415.821	84.12
416.044	72.12
416.267	76.12
416.49	82.12
416.713	85.12
416.936	67.12
417.159	87.12
417.382	82.12
417.605	94.12
417.828	90.12
418.051	73.12
418.274	88.12
418.497	76.12
418.72	96.12
418.943	68.12
419.166	94.12
419.389	81.12
419.611	100.12
419.834	90.12
420.057	101.12
420.28	74.12
420.503	86.12
420.726	75.12
420.948	80.12
421.171	87.12
421.394	89.12
421.617	84.12
421.839	86.12
422.062	96.12
422.285	80.12
422.507	73.12
422.73	71.12
422.953	86.12
423.175	89.12
423.398	87.12
423.621	88.12
423.843	69.12
424.066	68.12
424.288	84.12
424.511	92.12
424.733	83.12
424.956	90.12
425.178	90.12
425.401	79.12
425.623	84.12
425.846	73.12
426.068	72.12
426.291	85.12
426.513	82.12
426.735	85.12
426.958	85.12
427.18	69.12
427.402	82.12
427.625	72.12
427.847	81.12
428.069	71.12
428.292	77.12
428.514	80.12
428.736	70.12
428.958	86.12
429.181	85.12
429.403	82.12
429.625	88.12
429.847	77.12
430.069	85.12
430.292	82.12
430.514	80.12
430.736	75.12
430.958	69.12
431.18	80.12
431.402	78.12
431.624	88.12
431.846	77.12
432.068	82.12
432.29	80.12
432.512	76.12
432.734	91.12
432.956	84.12
433.178	75.12
433.4	83.12
433.622	84.12
433.844	81.12
434.066	84.12
434.287	83.12
434.509	82.12
434.731	79.12
434.953	83.12
435.175	74.12
435.397	86.12
435.618	80.12
435.84	87.12
436.062	73.12
436.284	80.12
436.505	88.12
436.727	92.12
436.949	83.12
437.17	88.12
437.392	75.12
437.614	76.12
437.835	76.12
438.057	87.12
438.278	99.12
438.5	74.12
438.721	64.12
438.943	76.12
439.165	72.12
439.386	77.12
439.608	84.12
439.829	75.12
440.05	80.12
440.272	88.12
440.493	75.12
440.715	82.12
440.936	74.12
441.158	75.12
441.379	89.12
441.6	80.12
441.822	86.12
442.043	75.12
442.264	62.12
442.486	95.12
442.707	86.12
442.928	80.12
443.149	85.12
443.371	72.12
443.592	96.12
443.813	83.12
444.034	90.12
444.255	94.12
444.476	74.12
444.698	79.12
444.919	86.12
445.14	154.12
445.361	106.12
445.582	81.12
445.803	83.12
446.024	89.12
446.245	83.12
446.466	82.12
446.687	77.12
446.908	84.12
447.129	92.12
447.35	72.12
447.571	73.12
447.792	83.12
448.013	86.12
448.234	84.12
448.455	77.12
448.675	74.12
448.896	85.12
449.117	88.12
449.338	79.12
449.559	80.12
449.779	91.12
450	88.12
450.221	84.12
450.442	71.12
450.662	89.12
450.883	77.12
451.104	88.12
451.324	77.12
451.545	88.12
451.766	72.12
451.986	85.12
452.207	85.12
452.428	74.12
452.648	83.12
452.869	79.12
453.089	75.12
453.31	77.12
453.53	71.12
453.751	82.12
453.971	88.12
454.192	78.12
454.412	82.12
454.633	88.12
454.853	82.12
455.073	80.12
455.294	91.12
455.514	79.12
455.734	78.12
455.955	76.12
456.175	85.12
456.395	78.12
456.616	76.12
456.836	70.12
457.056	66.12
457.276	83.12
457.497	90.12
457.717	76.12
457.937	94.12
458.157	81.12
458.377	77.12
458.598	78.12
458.818	75.12
459.038	83.12
459.258	79.12
459.478	95.12
459.698	93.12
459.918	82.12
460.138	86.12
460.358	71.12
460.578	91.12
460.798	84.12
461.018	89.12
461.238	65.12
461.458	72.12
461.678	80.12
461.898	85.12
462.118	89.12
462.338	68.12
462.558	80.12
462.777	79.12
462.997	77.12
463.217	76.12
463.437	86.12
463.657	91.12
463.876	84.12
464.096	86.12
464.316	72.12
464.536	76.12
464.755	81.12
464.975	88.12
465.195	92.12
465.414	105.12
465.634	78.12
465.854	75.12
466.073	84.12
466.293	87.12
466.512	82.12
466.732	81.12
466.951	77.12
467.171	86.12
467.391	79.12
467.61	90.12
467.829	92.12
468.049	88.12
468.268	76.12
468.488	84.12
468.707	83.12
468.927	84.12
469.146	91.12
469.365	88.12
469.585	82.12
469.804	104.12
470.023	67.12
470.243	76.12
470.462	91.12
470.681	78.12
470.901	80.12
471.12	78.12
471.339	88.12
471.558	82.12
471.777	88.12
471.997	84.12
472.216	71.12
472.435	88.12
472.654	88.12
472.873	86.12
473.092	82.12
473.311	82.12
473.53	80.12
473.749	79.12
473.968	94.12
474.187	92.12
474.406	89.12
474.625	100.12
474.844	86.12
475.063	80.12
475.282	77.12
475.501	66.12
475.72	78.12
475.939	80.12
476.158	78.12
476.377	91.12
476.596	77.12
476.814	84.12
477.033	82.12
477.252	86.12
477.471	76.12
477.69	87.12
477.908	94.12
478.127	82.12
478.346	94.12
478.564	81.12
478.783	80.12
479.002	84.12
479.22	91.12
479.439	87.12
479.658	80.12
479.876	73.12
480.095	72.12
480.313	80.12
480.532	72.12
480.751	104.12
480.969	81.12
481.188	88.12
481.406	90.12
481.624	85.12
481.843	72.12
482.061	84.12
482.28	85.12
482.498	67.12
482.717	84.12
482.935	84.12
483.153	86.12
483.372	78.12
483.59	97.12
483.808	87.12
484.027	87.12
484.245	104.12
484.463	90.12
484.681	97.12
484.9	85.12
485.118	100.12
485.336	83.12
485.554	87.12
485.772	93.12
485.99	92.12
486.209	75.12
486.427	82.12
486.645	95.12
486.863	119.12
487.081	100.12
487.299	92.12
487.517	96.12
487.735	88.12
487.953	107.12
488.171	105.12
488.389	78.12
488.607	88.12
488.825	79.12
489.043	94.12
489.261	88.12
489.479	93.12
489.696	79.12
489.914	85.12
490.132	104.12
490.35	68.12
490.568	85.12
490.786	104.12
491.003	82.12
491.221	92.12
491.439	84.12
491.657	90.12
491.874	100.12
492.092	91.12
492.31	95.12
492.527	82.12
492.745	90.12
492.963	94.12
493.18	88.12
493.398	87.12
493.615	87.12
493.833	79.12
494.05	90.12
494.268	76.12
494.485	85.12
494.703	93.12
494.92	82.12
495.138	74.12
495.355	88.12
495.573	97.12
495.79	92.12
496.008	92.12
496.225	101.12
496.442	84.12
496.66	90.12
496.877	69.12
497.094	84.12
497.312	84.12
497.529	87.12
497.746	70.12
497.963	69.12
498.181	91.12
498.398	80.12
498.615	89.12
498.832	76.12
499.049	73.12
499.267	98.12
499.484	100.12
499.701	92.12
499.918	96.12
500.135	84.12
500.352	83.12
500.569	98.12
500.786	83.12
501.003	96.12
501.22	85.12
501.437	91.12
501.654	99.12
501.871	86.12
502.088	100.12
502.305	78.12
502.522	75.12
502.739	68.12
502.956	99.12
503.172	72.12
503.389	94.12
503.606	88.12
503.823	75.12
504.04	94.12
504.256	88.12
504.473	91.12
504.69	73.12
504.907	100.12
505.123	90.12
505.34	97.12
505.557	93.12
505.773	93.12
505.99	83.12
506.207	65.12
506.423	80.12
506.64	96.12
506.856	74.12
507.073	85.12
507.289	69.12
507.506	85.12
507.722	60.12
507.939	88.12
508.155	89.12
508.372	81.12
508.588	84.12
508.805	94.12
509.021	84.12
509.238	91.12
509.454	93.12
509.67	84.12
509.887	71.12
510.103	101.12
510.319	83.12
510.536	90.12
510.752	88.12
510.968	81.12
511.184	76.12
511.401	66.12
511.617	90.12
511.833	83.12
512.049	82.12
512.265	83.12
512.481	77.12
512.698	88.12
512.914	76.12
513.13	86.12
513.346	90.12
513.562	78.12
513.778	79.12
513.994	96.12
514.21	86.12
514.426	99.12
514.642	95.12
514.858	92.12
515.074	80.12
515.29	83.12
515.506	84.12
515.721	79.12
515.937	84.12
516.153	90.12
516.369	96.12
516.585	94.12
516.801	93.12
517.016	83.12
517.232	85.12
517.448	90.12
517.664	96.12
517.879	83.12
518.095	97.12
518.311	83.12
518.527	92.12
518.742	89.12
518.958	96.12
519.173	88.12
519.389	92.12
519.605	90.12
