Data from Coke_Can_Bottom_HRD10591_00017.txt Node
Date: Wed Nov 05 15:46:20 EST 2025
User: Yrep
Spectrometer: HR+D1059
Trigger mode: 1
Integration Time (sec): 1.000000E-1
Scans to average: 1
Electric dark correction enabled: true
Nonlinearity correction enabled: false
Boxcar width: 0
XAxis mode: Wavelengths
Number of Pixels in Spectrum: 2048
>>>>>Begin Spectral Data<<<<<
223.165	-8
223.4	-8
223.635	-8
223.869	-33
224.104	-22
224.338	-9
224.573	-32
224.808	-18
225.042	5
225.277	-14
225.511	4
225.746	7
225.98	6
226.215	20
226.449	13
226.683	13
226.918	29
227.152	39
227.387	28
227.621	42
227.856	44
228.09	51
228.324	60
228.559	52
228.793	54
229.027	63
229.262	50
229.496	52
229.73	41
229.964	82
230.199	72
230.433	62
230.667	69
230.901	75
231.136	78
231.37	72
231.604	75
231.838	77
232.072	68
232.306	80
232.541	84
232.775	76
233.009	73
233.243	73
233.477	79
233.711	80
233.945	86
234.179	81
234.413	79
234.647	85
234.881	83
235.115	90
235.349	90
235.583	71
235.817	68
236.051	76
236.285	78
236.519	74
236.753	74
236.987	79
237.221	80
237.455	73
237.689	82
237.922	77
238.156	77
238.39	70
238.624	66
238.858	66
239.091	73
239.325	75
239.559	76
239.793	75
240.027	83
240.26	74
240.494	64
240.728	90
240.961	66
241.195	84
241.429	78
241.662	71
241.896	74
242.13	69
242.363	67
242.597	60
242.83	60
243.064	77
243.298	78
243.531	89
243.765	81
243.998	71
244.232	61
244.465	72
244.699	68
244.932	78
245.166	70
245.399	68
245.633	73
245.866	76
246.099	77
246.333	79
246.566	74
246.8	64
247.033	74
247.266	73
247.5	73
247.733	76
247.966	66
248.2	82
248.433	67
248.666	69
248.899	73
249.133	74
249.366	73
249.599	76
249.832	74
250.066	70
250.299	79
250.532	78
250.765	81
250.998	74
251.231	72
251.465	77
251.698	81
251.931	82
252.164	76
252.397	71
252.63	86
252.863	69
253.096	79
253.329	82
253.562	69
253.795	78
254.028	68
254.261	91
254.494	85
254.727	79
254.96	79
255.193	91
255.426	74
255.659	68
255.892	68
256.124	74
256.357	78
256.59	77
256.823	72
257.056	94
257.289	78
257.521	79
257.754	70
257.987	71
258.22	82
258.452	79
258.685	78
258.918	74
259.151	77
259.383	79
259.616	90
259.849	95
260.081	78
260.314	84
260.547	73
260.779	72
261.012	86
261.244	77
261.477	92
261.71	89
261.942	71
262.175	71
262.407	85
262.64	81
262.872	67
263.105	79
263.337	73
263.57	85
263.802	83
264.035	89
264.267	74
264.499	78
264.732	85
264.964	79
265.197	68
265.429	83
265.661	82
265.894	71
266.126	92
266.358	83
266.591	84
266.823	75
267.055	82
267.287	95
267.52	78
267.752	68
267.984	86
268.216	82
268.448	76
268.681	77
268.913	89
269.145	84
269.377	77
269.609	88
269.841	84
270.073	85
270.306	88
270.538	75
270.77	78
271.002	86
271.234	73
271.466	82
271.698	89
271.93	76
272.162	85
272.394	86
272.626	82
272.858	74
273.09	75
273.322	94
273.553	82
273.785	87
274.017	82
274.249	82
274.481	80
274.713	76
274.945	88
275.176	87
275.408	90
275.64	74
275.872	84
276.104	70
276.335	71
276.567	71
276.799	84
277.031	95
277.262	83
277.494	78
277.726	78
277.957	90
278.189	85
278.421	87
278.652	76
278.884	90
279.115	92
279.347	92
279.579	92
279.81	82
280.042	81
280.273	91
280.505	78
280.736	75
280.968	78
281.199	81
281.431	82
281.662	75
281.894	76
282.125	76
282.356	88
282.588	83
282.819	73
283.051	76
283.282	86
283.513	88
283.745	90
283.976	78
284.207	76
284.439	93
284.67	89
284.901	100
285.132	86
285.364	81
285.595	89
285.826	87
286.057	96
286.288	84
286.52	85
286.751	92
286.982	91
287.213	99
287.444	80
287.675	83
287.906	78
288.138	97
288.369	88
288.6	82
288.831	92
289.062	72
289.293	79
289.524	89
289.755	86
289.986	87
290.217	100
290.448	86
290.679	74
290.91	98
291.141	72
291.371	80
291.602	76
291.833	98
292.064	98
292.295	83
292.526	76
292.757	78
292.987	76
293.218	72
293.449	86
293.68	89
293.91	72
294.141	92
294.372	82
294.603	81
294.833	94
295.064	83
295.295	74
295.525	74
295.756	84
295.987	80
296.217	71
296.448	68
296.679	83
296.909	94
297.14	89
297.37	85
297.601	88
297.831	84
298.062	78
298.292	88
298.523	84
298.753	84
298.984	81
299.214	86
299.445	86
299.675	92
299.905	74
300.136	74
300.366	76
300.597	91
300.827	84
301.057	84
301.288	80
301.518	69
301.748	90
301.979	104
302.209	98
302.439	89
302.669	82
302.9	106
303.13	84
303.36	91
303.59	86
303.82	86
304.051	85
304.281	85
304.511	69
304.741	82
304.971	86
305.201	74
305.431	88
305.661	84
305.891	88
306.121	83
306.352	90
306.582	90
306.812	76
307.042	78
307.272	74
307.502	95
307.731	88
307.961	84
308.191	97
308.421	91
308.651	94
308.881	81
309.111	84
309.341	97
309.571	94
309.8	91
310.03	75
310.26	89
310.49	95
310.72	68
310.949	84
311.179	62
311.409	89
311.639	73
311.868	85
312.098	94
312.328	84
312.557	88
312.787	86
313.017	86
313.246	77
313.476	78
313.706	91
313.935	84
314.165	86
314.394	86
314.624	73
314.853	96
315.083	78
315.312	77
315.542	74
315.771	80
316.001	86
316.23	85
316.46	76
316.689	84
316.919	87
317.148	98
317.377	93
317.607	81
317.836	65
318.065	93
318.295	90
318.524	80
318.753	79
318.983	85
319.212	79
319.441	74
319.67	78
319.9	87
320.129	83
320.358	91
320.587	88
320.816	89
321.046	85
321.275	91
321.504	88
321.733	76
321.962	77
322.191	93
322.42	90
322.649	85
322.878	76
323.108	80
323.337	90
323.566	90
323.795	80
324.024	94
324.253	92
324.482	91
324.71	97
324.939	89
325.168	80
325.397	84
325.626	85
325.855	72
326.084	86
326.313	90
326.542	87
326.77	89
326.999	75
327.228	101
327.457	83
327.686	90
327.914	77
328.143	77
328.372	90
328.6	76
328.829	87
329.058	88
329.287	82
329.515	84
329.744	86
329.972	71
330.201	74
330.43	88
330.658	86
330.887	90
331.115	96
331.344	78
331.572	83
331.801	76
332.03	87
332.258	89
332.486	90
332.715	99
332.943	84
333.172	89
333.4	80
333.629	87
333.857	88
334.085	95
334.314	87
334.542	77
334.771	87
334.999	82
335.227	67
335.455	88
335.684	77
335.912	96
336.14	92
336.369	74
336.597	80
336.825	93
337.053	71
337.281	90
337.51	82
337.738	68
337.966	66
338.194	75
338.422	96
338.65	90
338.878	86
339.106	84
339.334	99
339.562	81
339.79	84
340.018	69
340.246	78
340.474	72
340.702	87
340.93	75
341.158	95
341.386	91
341.614	87
341.842	75
342.07	86
342.298	81
342.526	75
342.754	76
342.981	76
343.209	79
343.437	93
343.665	82
343.893	89
344.12	96
344.348	82
344.576	97
344.804	82
345.031	78
345.259	75
345.487	75
345.714	100
345.942	87
346.17	81
346.397	91
346.625	94
346.853	80
347.08	86
347.308	80
347.535	85
347.763	71
347.99	89
348.218	84
348.445	81
348.673	87
348.9	89
349.128	74
349.355	81
349.583	94
349.81	73
350.037	74
350.265	92
350.492	73
350.72	84
350.947	91
351.174	84
351.402	61
351.629	87
351.856	88
352.083	79
352.311	81
352.538	89
352.765	72
352.992	90
353.22	76
353.447	96
353.674	78
353.901	86
354.128	85
354.355	68
354.583	90
354.81	85
355.037	86
355.264	92
355.491	93
355.718	96
355.945	76
356.172	85
356.399	98
356.626	101
356.853	84
357.08	86
357.307	79
357.534	73
357.761	91
357.988	86
358.215	85
358.441	92
358.668	86
358.895	85
359.122	96
359.349	92
359.576	86
359.802	76
360.029	54
360.256	77
360.483	80
360.709	84
360.936	89
361.163	94
361.39	101
361.616	76
361.843	82
362.07	86
362.296	89
362.523	83
362.749	69
362.976	93
363.203	90
363.429	96
363.656	90
363.882	85
364.109	86
364.335	91
364.562	82
364.788	79
365.015	82
365.241	78
365.468	68
365.694	84
365.92	84
366.147	81
366.373	76
366.599	90
366.826	80
367.052	79
367.278	76
367.505	81
367.731	80
367.957	86
368.184	70
368.41	92
368.636	86
368.862	77
369.089	90
369.315	80
369.541	73
369.767	69
369.993	79
370.219	100
370.445	92
370.672	96
370.898	87
371.124	96
371.35	75
371.576	84
371.802	70
372.028	88
372.254	80
372.48	87
372.706	70
372.932	73
373.158	96
373.384	68
373.61	92
373.835	84
374.061	76
374.287	89
374.513	84
374.739	68
374.965	76
375.191	91
375.416	75
375.642	67
375.868	77
376.094	85
376.319	74
376.545	84
376.771	82
376.997	87
377.222	79
377.448	74
377.674	86
377.899	74
378.125	80
378.35	69
378.576	91
378.802	84
379.027	89
379.253	84
379.478	92
379.704	83
379.929	94
380.155	84
380.38	75
380.606	86
380.831	84
381.057	92
381.282	97
381.507	96
381.733	78
381.958	87
382.184	84
382.409	88
382.634	86
382.86	76
383.085	101
383.31	89
383.535	82
383.761	91
383.986	95
384.211	89
384.436	92
384.662	88
384.887	90
385.112	81
385.337	90
385.562	88
385.787	90
386.013	83
386.238	97
386.463	81
386.688	116
386.913	86
387.138	85
387.363	93
387.588	98
387.813	84
388.038	103
388.263	105
388.488	78
388.713	91
388.938	77
389.163	74
389.387	80
389.612	84
389.837	87
390.062	89
390.287	76
390.512	77
390.736	82
390.961	77
391.186	85
391.411	82
391.636	74
391.86	87
392.085	81
392.31	77
392.534	79
392.759	92
392.984	76
393.208	80
393.433	90
393.658	91
393.882	86
394.107	104
394.331	148
394.556	164
394.78	99
395.005	92
395.229	76
395.454	91
395.678	102
395.903	117
396.127	161
396.352	199
396.576	109
396.801	80
397.025	76
397.249	72
397.474	81
397.698	74
397.922	77
398.147	63
398.371	92
398.595	89
398.82	91
399.044	64
399.268	82
399.492	78
399.717	85
399.941	93
400.165	82
400.389	76
400.613	79
400.837	76
401.062	82
401.286	69
401.51	83
401.734	74
401.958	77
402.182	81
402.406	89
402.63	93
402.854	93
403.078	76
403.302	105
403.526	84
403.75	73
403.974	78
404.198	96
404.422	76
404.645	86
404.869	84
405.093	83
405.317	90
405.541	78
405.765	69
405.988	77
406.212	77
406.436	74
406.66	76
406.883	79
407.107	70
407.331	72
407.555	84
407.778	98
408.002	96
408.226	93
408.449	92
408.673	73
408.896	73
409.12	94
409.344	73
409.567	77
409.791	84
410.014	88
410.238	70
410.461	83
410.685	81
410.908	84
411.132	68
411.355	82
411.578	77
411.802	80
412.025	86
412.249	85
412.472	83
412.695	73
412.919	79
413.142	78
413.365	82
413.589	86
413.812	74
414.035	91
414.258	70
414.482	80
414.705	77
414.928	78
415.151	85
415.374	75
415.597	71
415.821	84
416.044	72
416.267	75
416.49	68
416.713	83
416.936	82
417.159	84
417.382	77
417.605	80
417.828	88
418.051	94
418.274	73
418.497	86
418.72	90
418.943	92
419.166	82
419.389	78
419.611	77
419.834	73
420.057	77
420.28	70
420.503	78
420.726	87
420.948	79
421.171	73
421.394	94
421.617	94
421.839	72
422.062	85
422.285	78
422.507	73
422.73	73
422.953	84
423.175	78
423.398	89
423.621	89
423.843	86
424.066	84
424.288	80
424.511	79
424.733	81
424.956	74
425.178	77
425.401	79
425.623	85
425.846	86
426.068	89
426.291	81
426.513	77
426.735	86
426.958	74
427.18	79
427.402	88
427.625	83
427.847	90
428.069	74
428.292	74
428.514	88
428.736	84
428.958	64
429.181	85
429.403	76
429.625	68
429.847	83
430.069	86
430.292	93
430.514	82
430.736	78
430.958	93
431.18	93
431.402	87
431.624	94
431.846	70
432.068	77
432.29	72
432.512	73
432.734	81
432.956	73
433.178	84
433.4	78
433.622	73
433.844	84
434.066	94
434.287	75
434.509	74
434.731	82
434.953	81
435.175	73
435.397	89
435.618	83
435.84	90
436.062	92
436.284	74
436.505	85
436.727	74
436.949	76
437.17	88
437.392	86
437.614	86
437.835	75
438.057	77
438.278	78
438.5	72
438.721	81
438.943	78
439.165	79
439.386	76
439.608	84
439.829	77
440.05	80
440.272	83
440.493	88
440.715	75
440.936	79
441.158	84
441.379	74
441.6	72
441.822	92
442.043	88
442.264	78
442.486	74
442.707	76
442.928	84
443.149	62
443.371	87
443.592	88
443.813	90
444.034	88
444.255	83
444.476	92
444.698	84
444.919	69
445.14	151
445.361	130
445.582	90
445.803	94
446.024	70
446.245	97
446.466	74
446.687	70
446.908	71
447.129	84
447.35	82
447.571	84
447.792	78
448.013	80
448.234	77
448.455	78
448.675	100
448.896	84
449.117	79
449.338	73
449.559	64
449.779	92
450	92
450.221	93
450.442	82
450.662	88
450.883	88
451.104	84
451.324	77
451.545	69
451.766	82
451.986	82
452.207	83
452.428	74
452.648	87
452.869	96
453.089	88
453.31	75
453.53	79
453.751	69
453.971	85
454.192	85
454.412	79
454.633	86
454.853	67
455.073	85
455.294	70
455.514	96
455.734	70
455.955	77
456.175	69
456.395	84
456.616	88
456.836	93
457.056	81
457.276	82
457.497	81
457.717	77
457.937	81
458.157	86
458.377	80
458.598	73
458.818	88
459.038	76
459.258	89
459.478	86
459.698	82
459.918	84
460.138	84
460.358	92
460.578	79
460.798	91
461.018	82
461.238	76
461.458	80
461.678	82
461.898	68
462.118	84
462.338	96
462.558	79
462.777	76
462.997	93
463.217	76
463.437	82
463.657	75
463.876	86
464.096	78
464.316	68
464.536	75
464.755	81
464.975	88
465.195	76
465.414	90
465.634	79
465.854	76
466.073	64
466.293	73
466.512	95
466.732	89
466.951	88
467.171	81
467.391	82
467.61	81
467.829	65
468.049	89
468.268	82
468.488	84
468.707	78
468.927	81
469.146	82
469.365	71
469.585	74
469.804	74
470.023	78
470.243	77
470.462	79
470.681	89
470.901	82
471.12	77
471.339	83
471.558	90
471.777	79
471.997	84
472.216	101
472.435	83
472.654	80
472.873	65
473.092	78
473.311	78
473.53	91
473.749	68
473.968	96
474.187	99
474.406	92
474.625	85
474.844	77
475.063	84
475.282	82
475.501	94
475.72	80
475.939	72
476.158	89
476.377	89
476.596	89
476.814	79
477.033	78
477.252	84
477.471	89
477.69	93
477.908	102
478.127	78
478.346	64
478.564	78
478.783	84
479.002	78
479.22	88
479.439	76
479.658	78
479.876	78
480.095	81
480.313	73
480.532	85
480.751	87
480.969	70
481.188	92
481.406	99
481.624	92
481.843	82
482.061	89
482.28	84
482.498	76
482.717	79
482.935	92
483.153	80
483.372	73
483.59	76
483.808	81
484.027	84
484.245	104
484.463	101
484.681	107
484.9	87
485.118	90
485.336	90
485.554	89
485.772	84
485.99	88
486.209	90
486.427	82
486.645	89
486.863	93
487.081	94
487.299	93
487.517	82
487.735	84
487.953	89
488.171	101
488.389	93
488.607	88
488.825	89
489.043	94
489.261	83
489.479	73
489.696	80
489.914	96
490.132	78
490.35	97
490.568	84
490.786	85
491.003	113
491.221	85
491.439	91
491.657	90
491.874	76
492.092	90
492.31	94
492.527	89
492.745	94
492.963	98
493.18	92
493.398	100
493.615	82
493.833	84
494.05	81
494.268	83
494.485	86
494.703	98
494.92	89
495.138	80
495.355	83
495.573	82
495.79	75
496.008	86
496.225	79
496.442	77
496.66	91
496.877	82
497.094	71
497.312	85
497.529	92
497.746	82
497.963	68
498.181	68
498.398	71
498.615	88
498.832	90
499.049	64
499.267	91
499.484	85
499.701	93
499.918	77
500.135	85
500.352	78
500.569	77
500.786	87
501.003	72
501.22	69
501.437	84
501.654	76
501.871	90
502.088	81
502.305	78
502.522	94
502.739	90
502.956	67
503.172	83
503.389	86
503.606	86
503.823	85
504.04	77
504.256	85
504.473	81
504.69	83
504.907	96
505.123	92
505.34	78
505.557	79
505.773	89
505.99	82
506.207	90
506.423	77
506.64	73
506.856	84
507.073	86
507.289	82
507.506	76
507.722	84
507.939	68
508.155	83
508.372	79
508.588	85
508.805	93
509.021	101
509.238	94
509.454	92
509.67	82
509.887	86
510.103	89
510.319	89
510.536	96
510.752	91
510.968	89
511.184	86
511.401	83
511.617	106
511.833	91
512.049	74
512.265	90
512.481	89
512.698	101
512.914	91
513.13	80
513.346	70
513.562	92
513.778	101
513.994	91
514.21	97
514.426	78
514.642	89
514.858	97
515.074	84
515.29	96
515.506	88
515.721	84
515.937	86
516.153	85
516.369	95
516.585	82
516.801	84
517.016	92
517.232	74
517.448	93
517.664	86
517.879	88
518.095	90
518.311	86
518.527	91
518.742	105
518.958	78
519.173	78
519.389	76
519.605	84
519.82	79
520.036	88
520.251	85
520.467	75
520.682	95
520.898	79
521.113	66
521.329	82
521.544	86
521.76	84
521.975	84
522.19	94
522.406	71
522.621	99
522.836	91
523.052	82
523.267	80
523.482	92
523.698	87
523.913	90
524.128	93
524.343	85
524.559	85
524.774	87
524.989	84
525.204	83
525.419	90
525.634	71
525.849	92
526.064	83
526.28	87
526.495	86
526.71	84
526.925	74
527.14	78
527.355	88
527.57	89
527.785	90
527.999	85
528.214	94
528.429	89
528.644	72
528.859	82
529.074	89
529.289	74
529.503	86
529.718	72
529.933	74
530.148	92
530.363	81
530.577	92
530.792	68
531.007	81
531.221	84
531.436	88
531.651	85
531.865	92
532.08	93
532.295	91
532.509	85
532.724	81
532.938	85
533.153	85
533.367	77
533.582	83
533.796	90
534.011	87
534.225	92
534.44	82
534.654	77
534.868	73
535.083	81
535.297	81
535.511	74
535.726	77
535.94	86
536.154	97
536.369	80
536.583	83
536.797	84
537.011	88
537.225	80
537.44	73
537.654	91
537.868	90
538.082	90
538.296	74
538.51	91
538.724	92
538.938	87
539.153	91
539.367	108
539.581	82
539.795	97
540.009	91
540.222	92
540.436	78
540.65	78
540.864	82
541.078	78
541.292	87
541.506	93
541.72	97
541.934	70
542.147	73
542.361	99
542.575	82
542.789	99
543.002	84
543.216	86
543.43	97
543.644	88
543.857	93
544.071	92
544.285	85
544.498	84
544.712	89
544.925	82
545.139	96
545.352	78
545.566	89
545.779	82
545.993	93
546.206	90
546.42	77
546.633	76
546.847	94
547.06	89
547.274	84
547.487	84
547.7	87
547.914	82
548.127	92
548.34	90
548.554	93
548.767	92
548.98	94
549.193	78
549.407	96
549.62	86
549.833	78
550.046	83
550.259	72
550.473	75
550.686	92
550.899	77
551.112	74
551.325	93
551.538	92
551.751	81
551.964	77
552.177	77
552.39	85
552.603	95
552.816	81
553.029	82
553.242	89
553.455	79
553.667	94
553.88	74
554.093	86
554.306	70
554.519	83
554.732	83
554.944	95
555.157	88
555.37	78
555.583	83
555.795	84
556.008	89
556.221	88
556.433	81
556.646	94
556.859	77
557.071	102
557.284	75
557.496	98
557.709	88
557.921	76
558.134	73
558.346	86
558.559	84
558.771	87
558.984	97
559.196	90
559.409	76
559.621	97
559.833	80
560.046	84
560.258	75
560.47	90
560.683	79
560.895	84
561.107	90
561.32	77
561.532	76
561.744	75
561.956	75
562.168	78
562.381	84
562.593	74
562.805	87
563.017	92
563.229	89
563.441	74
563.653	80
563.865	83
564.077	88
564.289	103
564.501	75
564.713	79
564.925	81
565.137	88
565.349	89
565.561	81
565.773	76
565.985	91
566.197	76
566.408	73
566.62	87
566.832	73
567.044	99
567.255	84
567.467	86
567.679	85
567.891	87
568.102	92
568.314	70
568.526	87
568.737	79
568.949	74
569.161	101
569.372	84
569.584	74
569.795	88
570.007	76
570.218	75
570.43	87
570.641	92
570.853	74
571.064	84
571.276	92
571.487	91
571.698	89
571.91	82
572.121	71
572.333	74
572.544	75
572.755	84
572.966	86
573.178	90
573.389	77
573.6	84
573.811	79
574.023	92
574.234	88
574.445	82
574.656	73
574.867	91
575.078	81
575.289	77
575.501	82
575.712	79
575.923	86
576.134	92
576.345	83
576.556	84
576.767	103
576.978	90
577.188	74
577.399	90
577.61	84
577.821	94
578.032	84
578.243	73
578.454	79
578.665	86
578.875	97
579.086	82
579.297	78
579.508	85
579.718	81
579.929	105
580.14	80
580.35	96
580.561	83
580.772	88
580.982	93
581.193	80
581.403	86
581.614	82
581.825	85
582.035	78
582.246	86
582.456	86
582.667	78
582.877	90
583.087	88
583.298	87
583.508	79
583.719	91
583.929	93
584.139	79
584.35	93
584.56	84
584.77	80
584.981	74
585.191	79
585.401	92
585.611	72
585.821	75
586.032	77
586.242	68
586.452	76
586.662	69
586.872	86
587.082	85
587.292	87
587.502	76
587.713	75
587.923	88
588.133	90
588.343	92
588.553	70
588.762	85
588.972	88
589.182	88
589.392	92
589.602	88
589.812	86
590.022	86
590.232	80
