Data from Coke_Can_Bottom_HRD10591_00009.txt Node
Date: Wed Nov 05 15:46:16 EST 2025
User: Yrep
Spectrometer: HR+D1059
Trigger mode: 1
Integration Time (sec): 1.000000E-1
Scans to average: 1
Electric dark correction enabled: true
Nonlinearity correction enabled: false
Boxcar width: 0
XAxis mode: Wavelengths
Number of Pixels in Spectrum: 2048
>>>>>Begin Spectral Data<<<<<
223.165	-4.31
223.4	-4.31
223.635	-4.31
223.869	-6.31
224.104	-32.31
224.338	-16.31
224.573	-13.31
224.808	-9.31
225.042	-2.31
225.277	-11.31
225.511	4.69
225.746	-11.31
225.98	1.69
226.215	10.69
226.449	12.69
226.683	15.69
226.918	31.69
227.152	29.69
227.387	36.69
227.621	56.69
227.856	55.69
228.09	55.69
228.324	44.69
228.559	54.69
228.793	65.69
229.027	60.69
229.262	68.69
229.496	59.69
229.73	65.69
229.964	72.69
230.199	73.69
230.433	74.69
230.667	73.69
230.901	61.69
231.136	72.69
231.37	82.69
231.604	73.69
231.838	86.69
232.072	75.69
232.306	74.69
232.541	80.69
232.775	88.69
233.009	92.69
233.243	70.69
233.477	84.69
233.711	81.69
233.945	84.69
234.179	83.69
234.413	79.69
234.647	87.69
234.881	78.69
235.115	81.69
235.349	96.69
235.583	85.69
235.817	79.69
236.051	92.69
236.285	81.69
236.519	82.69
236.753	71.69
236.987	81.69
237.221	80.69
237.455	73.69
237.689	82.69
237.922	69.69
238.156	93.69
238.39	80.69
238.624	64.69
238.858	81.69
239.091	73.69
239.325	76.69
239.559	85.69
239.793	81.69
240.027	81.69
240.26	77.69
240.494	86.69
240.728	85.69
240.961	76.69
241.195	84.69
241.429	86.69
241.662	81.69
241.896	72.69
242.13	70.69
242.363	76.69
242.597	81.69
242.83	96.69
243.064	82.69
243.298	74.69
243.531	77.69
243.765	72.69
243.998	78.69
244.232	69.69
244.465	83.69
244.699	77.69
244.932	74.69
245.166	81.69
245.399	82.69
245.633	79.69
245.866	89.69
246.099	80.69
246.333	79.69
246.566	80.69
246.8	76.69
247.033	73.69
247.266	65.69
247.5	78.69
247.733	84.69
247.966	68.69
248.2	89.69
248.433	95.69
248.666	83.69
248.899	90.69
249.133	88.69
249.366	78.69
249.599	75.69
249.832	73.69
250.066	80.69
250.299	87.69
250.532	76.69
250.765	88.69
250.998	78.69
251.231	81.69
251.465	76.69
251.698	90.69
251.931	97.69
252.164	94.69
252.397	88.69
252.63	78.69
252.863	79.69
253.096	93.69
253.329	80.69
253.562	78.69
253.795	94.69
254.028	93.69
254.261	73.69
254.494	74.69
254.727	87.69
254.96	78.69
255.193	66.69
255.426	73.69
255.659	77.69
255.892	68.69
256.124	85.69
256.357	86.69
256.59	88.69
256.823	91.69
257.056	93.69
257.289	82.69
257.521	83.69
257.754	79.69
257.987	94.69
258.22	69.69
258.452	81.69
258.685	80.69
258.918	97.69
259.151	73.69
259.383	84.69
259.616	87.69
259.849	81.69
260.081	89.69
260.314	84.69
260.547	76.69
260.779	80.69
261.012	91.69
261.244	73.69
261.477	90.69
261.71	83.69
261.942	89.69
262.175	75.69
262.407	86.69
262.64	88.69
262.872	73.69
263.105	70.69
263.337	85.69
263.57	82.69
263.802	77.69
264.035	79.69
264.267	86.69
264.499	82.69
264.732	88.69
264.964	88.69
265.197	73.69
265.429	80.69
265.661	78.69
265.894	89.69
266.126	88.69
266.358	65.69
266.591	83.69
266.823	94.69
267.055	70.69
267.287	88.69
267.52	70.69
267.752	72.69
267.984	92.69
268.216	86.69
268.448	86.69
268.681	103.69
268.913	91.69
269.145	78.69
269.377	78.69
269.609	75.69
269.841	82.69
270.073	74.69
270.306	71.69
270.538	81.69
270.77	100.69
271.002	84.69
271.234	77.69
271.466	86.69
271.698	96.69
271.93	76.69
272.162	86.69
272.394	81.69
272.626	77.69
272.858	86.69
273.09	84.69
273.322	73.69
273.553	89.69
273.785	84.69
274.017	75.69
274.249	82.69
274.481	81.69
274.713	71.69
274.945	84.69
275.176	82.69
275.408	90.69
275.64	88.69
275.872	89.69
276.104	86.69
276.335	82.69
276.567	82.69
276.799	71.69
277.031	80.69
277.262	83.69
277.494	100.69
277.726	94.69
277.957	78.69
278.189	77.69
278.421	83.69
278.652	86.69
278.884	82.69
279.115	78.69
279.347	86.69
279.579	86.69
279.81	86.69
280.042	87.69
280.273	86.69
280.505	97.69
280.736	78.69
280.968	86.69
281.199	77.69
281.431	79.69
281.662	88.69
281.894	99.69
282.125	78.69
282.356	72.69
282.588	88.69
282.819	84.69
283.051	87.69
283.282	81.69
283.513	94.69
283.745	87.69
283.976	85.69
284.207	91.69
284.439	81.69
284.67	82.69
284.901	81.69
285.132	89.69
285.364	76.69
285.595	90.69
285.826	98.69
286.057	94.69
286.288	84.69
286.52	87.69
286.751	85.69
286.982	97.69
287.213	71.69
287.444	76.69
287.675	90.69
287.906	88.69
288.138	94.69
288.369	94.69
288.6	76.69
288.831	76.69
289.062	78.69
289.293	83.69
289.524	72.69
289.755	89.69
289.986	90.69
290.217	93.69
290.448	80.69
290.679	86.69
290.91	97.69
291.141	86.69
291.371	89.69
291.602	81.69
291.833	90.69
292.064	88.69
292.295	96.69
292.526	72.69
292.757	84.69
292.987	87.69
293.218	79.69
293.449	95.69
293.68	95.69
293.91	93.69
294.141	96.69
294.372	109.69
294.603	106.69
294.833	94.69
295.064	106.69
295.295	90.69
295.525	78.69
295.756	85.69
295.987	70.69
296.217	86.69
296.448	87.69
296.679	86.69
296.909	85.69
297.14	81.69
297.37	84.69
297.601	85.69
297.831	87.69
298.062	100.69
298.292	83.69
298.523	89.69
298.753	75.69
298.984	80.69
299.214	94.69
299.445	84.69
299.675	78.69
299.905	85.69
300.136	86.69
300.366	83.69
300.597	70.69
300.827	86.69
301.057	92.69
301.288	86.69
301.518	80.69
301.748	84.69
301.979	92.69
302.209	86.69
302.439	84.69
302.669	87.69
302.9	77.69
303.13	87.69
303.36	85.69
303.59	81.69
303.82	86.69
304.051	80.69
304.281	79.69
304.511	90.69
304.741	100.69
304.971	93.69
305.201	86.69
305.431	84.69
305.661	80.69
305.891	81.69
306.121	84.69
306.352	74.69
306.582	80.69
306.812	90.69
307.042	88.69
307.272	90.69
307.502	106.69
307.731	93.69
307.961	96.69
308.191	94.69
308.421	101.69
308.651	89.69
308.881	104.69
309.111	101.69
309.341	110.69
309.571	90.69
309.8	87.69
310.03	85.69
310.26	91.69
310.49	82.69
310.72	79.69
310.949	79.69
311.179	92.69
311.409	77.69
311.639	82.69
311.868	81.69
312.098	94.69
312.328	91.69
312.557	80.69
312.787	93.69
313.017	90.69
313.246	97.69
313.476	98.69
313.706	80.69
313.935	88.69
314.165	76.69
314.394	92.69
314.624	75.69
314.853	89.69
315.083	84.69
315.312	86.69
315.542	91.69
315.771	92.69
316.001	74.69
316.23	99.69
316.46	79.69
316.689	86.69
316.919	76.69
317.148	83.69
317.377	84.69
317.607	96.69
317.836	95.69
318.065	94.69
318.295	83.69
318.524	82.69
318.753	88.69
318.983	84.69
319.212	85.69
319.441	76.69
319.67	94.69
319.9	94.69
320.129	97.69
320.358	96.69
320.587	87.69
320.816	88.69
321.046	83.69
321.275	86.69
321.504	80.69
321.733	91.69
321.962	72.69
322.191	83.69
322.42	69.69
322.649	77.69
322.878	94.69
323.108	106.69
323.337	78.69
323.566	83.69
323.795	86.69
324.024	80.69
324.253	88.69
324.482	88.69
324.71	90.69
324.939	80.69
325.168	89.69
325.397	80.69
325.626	94.69
325.855	81.69
326.084	86.69
326.313	76.69
326.542	88.69
326.77	80.69
326.999	81.69
327.228	91.69
327.457	82.69
327.686	82.69
327.914	92.69
328.143	80.69
328.372	81.69
328.6	74.69
328.829	77.69
329.058	80.69
329.287	83.69
329.515	80.69
329.744	69.69
329.972	84.69
330.201	79.69
330.43	86.69
330.658	82.69
330.887	97.69
331.115	83.69
331.344	89.69
331.572	88.69
331.801	100.69
332.03	90.69
332.258	81.69
332.486	84.69
332.715	76.69
332.943	80.69
333.172	75.69
333.4	91.69
333.629	96.69
333.857	93.69
334.085	81.69
334.314	92.69
334.542	82.69
334.771	83.69
334.999	86.69
335.227	81.69
335.455	76.69
335.684	84.69
335.912	88.69
336.14	85.69
336.369	90.69
336.597	81.69
336.825	73.69
337.053	101.69
337.281	80.69
337.51	96.69
337.738	96.69
337.966	88.69
338.194	81.69
338.422	86.69
338.65	91.69
338.878	84.69
339.106	83.69
339.334	79.69
339.562	80.69
339.79	82.69
340.018	86.69
340.246	77.69
340.474	86.69
340.702	90.69
340.93	89.69
341.158	90.69
341.386	81.69
341.614	89.69
341.842	81.69
342.07	80.69
342.298	62.69
342.526	82.69
342.754	90.69
342.981	82.69
343.209	70.69
343.437	80.69
343.665	88.69
343.893	89.69
344.12	86.69
344.348	88.69
344.576	81.69
344.804	87.69
345.031	95.69
345.259	87.69
345.487	93.69
345.714	72.69
345.942	82.69
346.17	85.69
346.397	93.69
346.625	74.69
346.853	92.69
347.08	76.69
347.308	73.69
347.535	94.69
347.763	80.69
347.99	80.69
348.218	76.69
348.445	82.69
348.673	82.69
348.9	90.69
349.128	75.69
349.355	82.69
349.583	82.69
349.81	84.69
350.037	86.69
350.265	91.69
350.492	85.69
350.72	88.69
350.947	93.69
351.174	89.69
351.402	101.69
351.629	82.69
351.856	80.69
352.083	81.69
352.311	83.69
352.538	104.69
352.765	87.69
352.992	88.69
353.22	85.69
353.447	81.69
353.674	73.69
353.901	93.69
354.128	85.69
354.355	88.69
354.583	86.69
354.81	74.69
355.037	80.69
355.264	107.69
355.491	93.69
355.718	91.69
355.945	81.69
356.172	88.69
356.399	96.69
356.626	84.69
356.853	99.69
357.08	93.69
357.307	80.69
357.534	72.69
357.761	104.69
357.988	92.69
358.215	91.69
358.441	92.69
358.668	85.69
358.895	77.69
359.122	89.69
359.349	86.69
359.576	75.69
359.802	86.69
360.029	80.69
360.256	86.69
360.483	71.69
360.709	80.69
360.936	86.69
361.163	93.69
361.39	81.69
361.616	85.69
361.843	88.69
362.07	81.69
362.296	96.69
362.523	86.69
362.749	79.69
362.976	83.69
363.203	89.69
363.429	92.69
363.656	92.69
363.882	83.69
364.109	79.69
364.335	85.69
364.562	88.69
364.788	88.69
365.015	87.69
365.241	88.69
365.468	92.69
365.694	81.69
365.92	80.69
366.147	90.69
366.373	72.69
366.599	88.69
366.826	81.69
367.052	78.69
367.278	72.69
367.505	92.69
367.731	94.69
367.957	82.69
368.184	81.69
368.41	89.69
368.636	87.69
368.862	86.69
369.089	89.69
369.315	98.69
369.541	79.69
369.767	97.69
369.993	100.69
370.219	68.69
370.445	86.69
370.672	95.69
370.898	80.69
371.124	102.69
371.35	81.69
371.576	84.69
371.802	74.69
372.028	92.69
372.254	103.69
372.48	100.69
372.706	70.69
372.932	85.69
373.158	81.69
373.384	77.69
373.61	75.69
373.835	81.69
374.061	69.69
374.287	72.69
374.513	81.69
374.739	87.69
374.965	73.69
375.191	94.69
375.416	98.69
375.642	77.69
375.868	85.69
376.094	85.69
376.319	82.69
376.545	94.69
376.771	93.69
376.997	92.69
377.222	79.69
377.448	99.69
377.674	84.69
377.899	94.69
378.125	95.69
378.35	83.69
378.576	92.69
378.802	91.69
379.027	88.69
379.253	102.69
379.478	88.69
379.704	93.69
379.929	86.69
380.155	84.69
380.38	82.69
380.606	90.69
380.831	86.69
381.057	99.69
381.282	106.69
381.507	80.69
381.733	96.69
381.958	97.69
382.184	79.69
382.409	76.69
382.634	82.69
382.86	91.69
383.085	88.69
383.31	100.69
383.535	108.69
383.761	92.69
383.986	100.69
384.211	88.69
384.436	83.69
384.662	87.69
384.887	88.69
385.112	101.69
385.337	91.69
385.562	94.69
385.787	93.69
386.013	98.69
386.238	103.69
386.463	104.69
386.688	105.69
386.913	107.69
387.138	97.69
387.363	86.69
387.588	88.69
387.813	86.69
388.038	97.69
388.263	100.69
388.488	93.69
388.713	82.69
388.938	83.69
389.163	87.69
389.387	96.69
389.612	76.69
389.837	74.69
390.062	88.69
390.287	72.69
390.512	80.69
390.736	80.69
390.961	81.69
391.186	83.69
391.411	92.69
391.636	85.69
391.86	87.69
392.085	85.69
392.31	85.69
392.534	83.69
392.759	98.69
392.984	80.69
393.208	104.69
393.433	83.69
393.658	86.69
393.882	91.69
394.107	114.69
394.331	146.69
394.556	149.69
394.78	91.69
395.005	101.69
395.229	88.69
395.454	90.69
395.678	107.69
395.903	118.69
396.127	154.69
396.352	167.69
396.576	98.69
396.801	110.69
397.025	75.69
397.249	83.69
397.474	88.69
397.698	76.69
397.922	76.69
398.147	81.69
398.371	95.69
398.595	78.69
398.82	82.69
399.044	76.69
399.268	96.69
399.492	85.69
399.717	76.69
399.941	79.69
400.165	85.69
400.389	72.69
400.613	82.69
400.837	73.69
401.062	82.69
401.286	86.69
401.51	72.69
401.734	80.69
401.958	70.69
402.182	100.69
402.406	69.69
402.63	75.69
402.854	86.69
403.078	92.69
403.302	76.69
403.526	85.69
403.75	84.69
403.974	77.69
404.198	88.69
404.422	76.69
404.645	95.69
404.869	76.69
405.093	69.69
405.317	89.69
405.541	83.69
405.765	92.69
405.988	81.69
406.212	83.69
406.436	82.69
406.66	82.69
406.883	73.69
407.107	79.69
407.331	72.69
407.555	86.69
407.778	80.69
408.002	81.69
408.226	78.69
408.449	75.69
408.673	93.69
408.896	78.69
409.12	92.69
409.344	81.69
409.567	72.69
409.791	88.69
410.014	95.69
410.238	80.69
410.461	72.69
410.685	73.69
410.908	80.69
411.132	86.69
411.355	100.69
411.578	92.69
411.802	102.69
412.025	78.69
412.249	91.69
412.472	84.69
412.695	96.69
412.919	84.69
413.142	78.69
413.365	78.69
413.589	83.69
413.812	89.69
414.035	86.69
414.258	87.69
414.482	86.69
414.705	95.69
414.928	85.69
415.151	93.69
415.374	82.69
415.597	76.69
415.821	81.69
416.044	83.69
416.267	89.69
416.49	74.69
416.713	85.69
416.936	82.69
417.159	84.69
417.382	86.69
417.605	86.69
417.828	84.69
418.051	88.69
418.274	86.69
418.497	96.69
418.72	96.69
418.943	87.69
419.166	88.69
419.389	88.69
419.611	88.69
419.834	93.69
420.057	84.69
420.28	74.69
420.503	83.69
420.726	95.69
420.948	78.69
421.171	72.69
421.394	76.69
421.617	80.69
421.839	86.69
422.062	71.69
422.285	80.69
422.507	72.69
422.73	92.69
422.953	74.69
423.175	74.69
423.398	85.69
423.621	72.69
423.843	72.69
424.066	81.69
424.288	78.69
424.511	92.69
424.733	89.69
424.956	77.69
425.178	77.69
425.401	76.69
425.623	80.69
425.846	83.69
426.068	82.69
426.291	84.69
426.513	88.69
426.735	82.69
426.958	88.69
427.18	80.69
427.402	75.69
427.625	81.69
427.847	93.69
428.069	81.69
428.292	84.69
428.514	87.69
428.736	92.69
428.958	87.69
429.181	72.69
429.403	82.69
429.625	77.69
429.847	74.69
430.069	86.69
430.292	88.69
430.514	86.69
430.736	83.69
430.958	90.69
431.18	76.69
431.402	73.69
431.624	82.69
431.846	78.69
432.068	62.69
432.29	88.69
432.512	80.69
432.734	77.69
432.956	81.69
433.178	81.69
433.4	72.69
433.622	81.69
433.844	88.69
434.066	86.69
434.287	79.69
434.509	73.69
434.731	93.69
434.953	83.69
435.175	93.69
435.397	80.69
435.618	90.69
435.84	92.69
436.062	68.69
436.284	74.69
436.505	84.69
436.727	87.69
436.949	76.69
437.17	86.69
437.392	76.69
437.614	81.69
437.835	84.69
438.057	80.69
438.278	94.69
438.5	76.69
438.721	92.69
438.943	102.69
439.165	72.69
439.386	85.69
439.608	80.69
439.829	93.69
440.05	93.69
440.272	88.69
440.493	90.69
440.715	88.69
440.936	85.69
441.158	87.69
441.379	89.69
441.6	86.69
441.822	75.69
442.043	88.69
442.264	89.69
442.486	88.69
442.707	74.69
442.928	82.69
443.149	86.69
443.371	96.69
443.592	74.69
443.813	91.69
444.034	83.69
444.255	74.69
444.476	71.69
444.698	92.69
444.919	88.69
445.14	138.69
445.361	110.69
445.582	70.69
445.803	80.69
446.024	80.69
446.245	80.69
446.466	84.69
446.687	76.69
446.908	74.69
447.129	76.69
447.35	74.69
447.571	73.69
447.792	88.69
448.013	87.69
448.234	81.69
448.455	86.69
448.675	94.69
448.896	88.69
449.117	97.69
449.338	79.69
449.559	72.69
449.779	67.69
450	81.69
450.221	91.69
450.442	87.69
450.662	72.69
450.883	88.69
451.104	85.69
451.324	92.69
451.545	68.69
451.766	91.69
451.986	85.69
452.207	83.69
452.428	99.69
452.648	83.69
452.869	94.69
453.089	82.69
453.31	87.69
453.53	81.69
453.751	78.69
453.971	89.69
454.192	83.69
454.412	81.69
454.633	75.69
454.853	86.69
455.073	99.69
455.294	90.69
455.514	83.69
455.734	92.69
455.955	80.69
456.175	93.69
456.395	90.69
456.616	85.69
456.836	74.69
457.056	88.69
457.276	88.69
457.497	79.69
457.717	91.69
457.937	89.69
458.157	76.69
458.377	93.69
458.598	82.69
458.818	85.69
459.038	83.69
459.258	85.69
459.478	81.69
459.698	74.69
459.918	76.69
460.138	82.69
460.358	79.69
460.578	88.69
460.798	80.69
461.018	82.69
461.238	83.69
461.458	70.69
461.678	78.69
461.898	80.69
462.118	69.69
462.338	84.69
462.558	79.69
462.777	90.69
462.997	76.69
463.217	82.69
463.437	80.69
463.657	90.69
463.876	92.69
464.096	69.69
464.316	86.69
464.536	84.69
464.755	76.69
464.975	83.69
465.195	92.69
465.414	78.69
465.634	74.69
465.854	80.69
466.073	88.69
466.293	99.69
466.512	83.69
466.732	82.69
466.951	88.69
467.171	72.69
467.391	88.69
467.61	97.69
467.829	85.69
468.049	69.69
468.268	88.69
468.488	82.69
468.707	93.69
468.927	87.69
469.146	81.69
469.365	80.69
469.585	104.69
469.804	110.69
470.023	97.69
470.243	85.69
470.462	91.69
470.681	90.69
470.901	94.69
471.12	85.69
471.339	94.69
471.558	86.69
471.777	82.69
471.997	93.69
472.216	92.69
472.435	87.69
472.654	94.69
472.873	99.69
473.092	81.69
473.311	91.69
473.53	103.69
473.749	104.69
473.968	105.69
474.187	78.69
474.406	98.69
474.625	94.69
474.844	94.69
475.063	78.69
475.282	80.69
475.501	87.69
475.72	94.69
475.939	80.69
476.158	95.69
476.377	92.69
476.596	78.69
476.814	94.69
477.033	78.69
477.252	86.69
477.471	82.69
477.69	80.69
477.908	105.69
478.127	92.69
478.346	82.69
478.564	92.69
478.783	94.69
479.002	92.69
479.22	88.69
479.439	72.69
479.658	77.69
479.876	91.69
480.095	78.69
480.313	75.69
480.532	89.69
480.751	84.69
480.969	82.69
481.188	94.69
481.406	73.69
481.624	76.69
481.843	103.69
482.061	92.69
482.28	91.69
482.498	93.69
482.717	89.69
482.935	76.69
483.153	80.69
483.372	98.69
483.59	81.69
483.808	99.69
484.027	80.69
484.245	98.69
484.463	98.69
484.681	116.69
484.9	96.69
485.118	100.69
485.336	97.69
485.554	85.69
485.772	82.69
485.99	94.69
486.209	78.69
486.427	93.69
486.645	92.69
486.863	93.69
487.081	96.69
487.299	84.69
487.517	92.69
487.735	87.69
487.953	93.69
488.171	98.69
488.389	82.69
488.607	93.69
488.825	81.69
489.043	87.69
489.261	92.69
489.479	95.69
489.696	106.69
489.914	94.69
490.132	83.69
490.35	82.69
490.568	88.69
490.786	92.69
491.003	105.69
491.221	96.69
491.439	78.69
491.657	88.69
491.874	94.69
492.092	84.69
492.31	87.69
492.527	100.69
492.745	85.69
492.963	78.69
493.18	89.69
493.398	83.69
493.615	106.69
493.833	105.69
494.05	94.69
494.268	101.69
494.485	98.69
494.703	89.69
494.92	120.69
495.138	86.69
495.355	89.69
495.573	88.69
495.79	105.69
496.008	94.69
496.225	88.69
496.442	94.69
496.66	82.69
496.877	85.69
497.094	82.69
497.312	86.69
497.529	82.69
497.746	98.69
497.963	82.69
498.181	86.69
498.398	86.69
498.615	89.69
498.832	87.69
499.049	86.69
499.267	81.69
499.484	87.69
499.701	96.69
499.918	83.69
500.135	84.69
500.352	95.69
500.569	75.69
500.786	87.69
501.003	86.69
501.22	76.69
501.437	101.69
501.654	68.69
501.871	81.69
502.088	88.69
502.305	84.69
502.522	92.69
502.739	85.69
502.956	84.69
503.172	86.69
503.389	85.69
503.606	79.69
503.823	79.69
504.04	100.69
504.256	82.69
504.473	82.69
504.69	95.69
504.907	91.69
505.123	80.69
505.34	93.69
505.557	90.69
505.773	94.69
505.99	89.69
506.207	83.69
506.423	80.69
506.64	86.69
506.856	82.69
507.073	85.69
507.289	87.69
507.506	86.69
507.722	88.69
507.939	89.69
508.155	95.69
508.372	80.69
508.588	83.69
508.805	91.69
509.021	88.69
509.238	90.69
509.454	75.69
509.67	90.69
509.887	78.69
510.103	88.69
510.319	81.69
510.536	105.69
510.752	74.69
510.968	83.69
511.184	90.69
511.401	93.69
511.617	87.69
511.833	91.69
512.049	99.69
512.265	90.69
512.481	88.69
512.698	89.69
512.914	90.69
513.13	77.69
513.346	75.69
513.562	91.69
513.778	82.69
513.994	84.69
514.21	90.69
514.426	104.69
514.642	97.69
514.858	97.69
515.074	82.69
515.29	101.69
515.506	81.69
515.721	88.69
515.937	105.69
516.153	84.69
516.369	94.69
516.585	88.69
516.801	90.69
517.016	91.69
517.232	86.69
517.448	89.69
517.664	79.69
517.879	80.69
518.095	97.69
518.311	81.69
518.527	97.69
518.742	93.69
518.958	103.69
519.173	68.69
