Data from Coke_Can_Bottom_HRD10591_00019.txt Node
Date: Wed Nov 05 15:46:21 EST 2025
User: Yrep
Spectrometer: HR+D1059
Trigger mode: 1
Integration Time (sec): 1.000000E-1
Scans to average: 1
Electric dark correction enabled: true
Nonlinearity correction enabled: false
Boxcar width: 0
XAxis mode: Wavelengths
Number of Pixels in Spectrum: 2048
>>>>>Begin Spectral Data<<<<<
223.165	-7.88
223.4	-7.88
223.635	-7.88
223.869	-9.88
224.104	-6.88
224.338	-12.88
224.573	-20.88
224.808	-18.88
225.042	-8.88
225.277	0.12
225.511	-4.88
225.746	14.12
225.98	8.12
226.215	5.12
226.449	13.12
226.683	5.12
226.918	16.12
227.152	29.12
227.387	25.12
227.621	45.12
227.856	42.12
228.09	40.12
228.324	50.12
228.559	72.12
228.793	65.12
229.027	60.12
229.262	57.12
229.496	61.12
229.73	62.12
229.964	77.12
230.199	73.12
230.433	72.12
230.667	74.12
230.901	55.12
231.136	67.12
231.37	71.12
231.604	79.12
231.838	94.12
232.072	66.12
232.306	70.12
232.541	81.12
232.775	70.12
233.009	71.12
233.243	72.12
233.477	88.12
233.711	86.12
233.945	72.12
234.179	93.12
234.413	78.12
234.647	62.12
234.881	67.12
235.115	79.12
235.349	75.12
235.583	75.12
235.817	80.12
236.051	70.12
236.285	76.12
236.519	79.12
236.753	73.12
236.987	78.12
237.221	79.12
237.455	88.12
237.689	78.12
237.922	61.12
238.156	74.12
238.39	73.12
238.624	64.12
238.858	77.12
239.091	72.12
239.325	93.12
239.559	66.12
239.793	75.12
240.027	81.12
240.26	83.12
240.494	68.12
240.728	66.12
240.961	76.12
241.195	70.12
241.429	72.12
241.662	79.12
241.896	84.12
242.13	73.12
242.363	63.12
242.597	79.12
242.83	75.12
243.064	81.12
243.298	83.12
243.531	79.12
243.765	81.12
243.998	66.12
244.232	84.12
244.465	91.12
244.699	70.12
244.932	74.12
245.166	80.12
245.399	72.12
245.633	78.12
245.866	62.12
246.099	79.12
246.333	83.12
246.566	78.12
246.8	86.12
247.033	84.12
247.266	81.12
247.5	82.12
247.733	73.12
247.966	72.12
248.2	78.12
248.433	82.12
248.666	90.12
248.899	85.12
249.133	67.12
249.366	87.12
249.599	76.12
249.832	63.12
250.066	70.12
250.299	72.12
250.532	86.12
250.765	83.12
250.998	71.12
251.231	72.12
251.465	81.12
251.698	58.12
251.931	72.12
252.164	81.12
252.397	74.12
252.63	78.12
252.863	82.12
253.096	80.12
253.329	79.12
253.562	85.12
253.795	94.12
254.028	86.12
254.261	89.12
254.494	92.12
254.727	80.12
254.96	86.12
255.193	82.12
255.426	85.12
255.659	94.12
255.892	76.12
256.124	76.12
256.357	84.12
256.59	81.12
256.823	79.12
257.056	82.12
257.289	68.12
257.521	84.12
257.754	77.12
257.987	72.12
258.22	95.12
258.452	89.12
258.685	75.12
258.918	76.12
259.151	87.12
259.383	82.12
259.616	78.12
259.849	95.12
260.081	75.12
260.314	76.12
260.547	79.12
260.779	79.12
261.012	95.12
261.244	86.12
261.477	88.12
261.71	68.12
261.942	75.12
262.175	85.12
262.407	89.12
262.64	88.12
262.872	80.12
263.105	80.12
263.337	79.12
263.57	88.12
263.802	92.12
264.035	86.12
264.267	66.12
264.499	88.12
264.732	83.12
264.964	81.12
265.197	70.12
265.429	94.12
265.661	87.12
265.894	80.12
266.126	86.12
266.358	83.12
266.591	82.12
266.823	90.12
267.055	67.12
267.287	79.12
267.52	78.12
267.752	87.12
267.984	72.12
268.216	76.12
268.448	81.12
268.681	82.12
268.913	71.12
269.145	82.12
269.377	75.12
269.609	80.12
269.841	83.12
270.073	91.12
270.306	80.12
270.538	84.12
270.77	89.12
271.002	76.12
271.234	78.12
271.466	90.12
271.698	76.12
271.93	80.12
272.162	77.12
272.394	81.12
272.626	75.12
272.858	73.12
273.09	93.12
273.322	72.12
273.553	78.12
273.785	72.12
274.017	96.12
274.249	71.12
274.481	70.12
274.713	84.12
274.945	78.12
275.176	72.12
275.408	77.12
275.64	79.12
275.872	80.12
276.104	77.12
276.335	73.12
276.567	80.12
276.799	79.12
277.031	72.12
277.262	83.12
277.494	80.12
277.726	70.12
277.957	92.12
278.189	81.12
278.421	87.12
278.652	74.12
278.884	74.12
279.115	76.12
279.347	101.12
279.579	83.12
279.81	89.12
280.042	80.12
280.273	85.12
280.505	76.12
280.736	98.12
280.968	72.12
281.199	84.12
281.431	79.12
281.662	90.12
281.894	86.12
282.125	83.12
282.356	82.12
282.588	76.12
282.819	84.12
283.051	67.12
283.282	82.12
283.513	82.12
283.745	99.12
283.976	79.12
284.207	84.12
284.439	86.12
284.67	93.12
284.901	80.12
285.132	79.12
285.364	83.12
285.595	97.12
285.826	88.12
286.057	69.12
286.288	81.12
286.52	88.12
286.751	95.12
286.982	76.12
287.213	74.12
287.444	94.12
287.675	88.12
287.906	78.12
288.138	76.12
288.369	79.12
288.6	70.12
288.831	67.12
289.062	82.12
289.293	95.12
289.524	81.12
289.755	84.12
289.986	77.12
290.217	74.12
290.448	83.12
290.679	72.12
290.91	81.12
291.141	80.12
291.371	78.12
291.602	102.12
291.833	79.12
292.064	94.12
292.295	87.12
292.526	90.12
292.757	78.12
292.987	94.12
293.218	75.12
293.449	83.12
293.68	92.12
293.91	72.12
294.141	80.12
294.372	72.12
294.603	83.12
294.833	79.12
295.064	80.12
295.295	84.12
295.525	88.12
295.756	84.12
295.987	95.12
296.217	70.12
296.448	74.12
296.679	76.12
296.909	84.12
297.14	82.12
297.37	83.12
297.601	78.12
297.831	79.12
298.062	92.12
298.292	79.12
298.523	79.12
298.753	83.12
298.984	92.12
299.214	90.12
299.445	89.12
299.675	85.12
299.905	87.12
300.136	77.12
300.366	79.12
300.597	90.12
300.827	80.12
301.057	86.12
301.288	80.12
301.518	74.12
301.748	87.12
301.979	95.12
302.209	73.12
302.439	66.12
302.669	81.12
302.9	87.12
303.13	81.12
303.36	72.12
303.59	81.12
303.82	88.12
304.051	81.12
304.281	82.12
304.511	71.12
304.741	84.12
304.971	77.12
305.201	88.12
305.431	79.12
305.661	88.12
305.891	75.12
306.121	86.12
306.352	86.12
306.582	99.12
306.812	96.12
307.042	72.12
307.272	91.12
307.502	79.12
307.731	100.12
307.961	80.12
308.191	99.12
308.421	96.12
308.651	88.12
308.881	84.12
309.111	79.12
309.341	114.12
309.571	104.12
309.8	92.12
310.03	78.12
310.26	89.12
310.49	82.12
310.72	80.12
310.949	85.12
311.179	70.12
311.409	78.12
311.639	89.12
311.868	83.12
312.098	95.12
312.328	79.12
312.557	76.12
312.787	79.12
313.017	84.12
313.246	78.12
313.476	74.12
313.706	75.12
313.935	79.12
314.165	84.12
314.394	78.12
314.624	88.12
314.853	85.12
315.083	81.12
315.312	94.12
315.542	82.12
315.771	75.12
316.001	89.12
316.23	90.12
316.46	90.12
316.689	87.12
316.919	93.12
317.148	85.12
317.377	82.12
317.607	78.12
317.836	76.12
318.065	86.12
318.295	88.12
318.524	83.12
318.753	89.12
318.983	99.12
319.212	85.12
319.441	84.12
319.67	79.12
319.9	72.12
320.129	78.12
320.358	94.12
320.587	82.12
320.816	78.12
321.046	71.12
321.275	91.12
321.504	71.12
321.733	80.12
321.962	73.12
322.191	72.12
322.42	91.12
322.649	102.12
322.878	79.12
323.108	90.12
323.337	90.12
323.566	78.12
323.795	70.12
324.024	75.12
324.253	81.12
324.482	87.12
324.71	83.12
324.939	78.12
325.168	83.12
325.397	71.12
325.626	72.12
325.855	93.12
326.084	81.12
326.313	91.12
326.542	87.12
326.77	77.12
326.999	78.12
327.228	79.12
327.457	85.12
327.686	81.12
327.914	80.12
328.143	74.12
328.372	67.12
328.6	78.12
328.829	80.12
329.058	75.12
329.287	81.12
329.515	74.12
329.744	88.12
329.972	79.12
330.201	87.12
330.43	94.12
330.658	81.12
330.887	63.12
331.115	81.12
331.344	74.12
331.572	79.12
331.801	94.12
332.03	81.12
332.258	80.12
332.486	66.12
332.715	79.12
332.943	76.12
333.172	89.12
333.4	90.12
333.629	75.12
333.857	78.12
334.085	95.12
334.314	85.12
334.542	80.12
334.771	83.12
334.999	98.12
335.227	85.12
335.455	88.12
335.684	75.12
335.912	74.12
336.14	85.12
336.369	70.12
336.597	83.12
336.825	76.12
337.053	67.12
337.281	76.12
337.51	85.12
337.738	88.12
337.966	86.12
338.194	72.12
338.422	84.12
338.65	86.12
338.878	80.12
339.106	77.12
339.334	93.12
339.562	77.12
339.79	79.12
340.018	76.12
340.246	78.12
340.474	86.12
340.702	72.12
340.93	95.12
341.158	75.12
341.386	84.12
341.614	82.12
341.842	73.12
342.07	79.12
342.298	85.12
342.526	78.12
342.754	78.12
342.981	86.12
343.209	76.12
343.437	94.12
343.665	89.12
343.893	74.12
344.12	93.12
344.348	79.12
344.576	80.12
344.804	98.12
345.031	78.12
345.259	70.12
345.487	79.12
345.714	76.12
345.942	80.12
346.17	85.12
346.397	84.12
346.625	67.12
346.853	79.12
347.08	75.12
347.308	83.12
347.535	79.12
347.763	88.12
347.99	80.12
348.218	87.12
348.445	83.12
348.673	79.12
348.9	81.12
349.128	88.12
349.355	87.12
349.583	82.12
349.81	90.12
350.037	68.12
350.265	81.12
350.492	78.12
350.72	73.12
350.947	84.12
351.174	83.12
351.402	72.12
351.629	85.12
351.856	82.12
352.083	76.12
352.311	81.12
352.538	83.12
352.765	82.12
352.992	83.12
353.22	80.12
353.447	74.12
353.674	79.12
353.901	100.12
354.128	88.12
354.355	66.12
354.583	75.12
354.81	76.12
355.037	79.12
355.264	87.12
355.491	83.12
355.718	79.12
355.945	91.12
356.172	86.12
356.399	77.12
356.626	86.12
356.853	78.12
357.08	84.12
357.307	78.12
357.534	68.12
357.761	90.12
357.988	74.12
358.215	80.12
358.441	94.12
358.668	92.12
358.895	86.12
359.122	82.12
359.349	81.12
359.576	78.12
359.802	69.12
360.029	78.12
360.256	89.12
360.483	85.12
360.709	87.12
360.936	88.12
361.163	82.12
361.39	79.12
361.616	86.12
361.843	79.12
362.07	80.12
362.296	83.12
362.523	89.12
362.749	71.12
362.976	70.12
363.203	88.12
363.429	72.12
363.656	76.12
363.882	91.12
364.109	84.12
364.335	93.12
364.562	78.12
364.788	78.12
365.015	79.12
365.241	91.12
365.468	81.12
365.694	70.12
365.92	78.12
366.147	79.12
366.373	94.12
366.599	68.12
366.826	83.12
367.052	78.12
367.278	88.12
367.505	84.12
367.731	86.12
367.957	85.12
368.184	81.12
368.41	75.12
368.636	80.12
368.862	92.12
369.089	94.12
369.315	87.12
369.541	91.12
369.767	99.12
369.993	89.12
370.219	74.12
370.445	84.12
370.672	76.12
370.898	75.12
371.124	66.12
371.35	75.12
371.576	85.12
371.802	81.12
372.028	88.12
372.254	84.12
372.48	78.12
372.706	76.12
372.932	84.12
373.158	65.12
373.384	75.12
373.61	87.12
373.835	84.12
374.061	78.12
374.287	76.12
374.513	83.12
374.739	84.12
374.965	72.12
375.191	91.12
375.416	79.12
375.642	69.12
375.868	78.12
376.094	84.12
376.319	82.12
376.545	83.12
376.771	92.12
376.997	71.12
377.222	79.12
377.448	78.12
377.674	89.12
377.899	92.12
378.125	89.12
378.35	79.12
378.576	94.12
378.802	83.12
379.027	75.12
379.253	81.12
379.478	70.12
379.704	78.12
379.929	91.12
380.155	78.12
380.38	84.12
380.606	86.12
380.831	89.12
381.057	95.12
381.282	77.12
381.507	76.12
381.733	74.12
381.958	81.12
382.184	82.12
382.409	78.12
382.634	86.12
382.86	88.12
383.085	90.12
383.31	88.12
383.535	97.12
383.761	82.12
383.986	92.12
384.211	103.12
384.436	83.12
384.662	82.12
384.887	92.12
385.112	95.12
385.337	83.12
385.562	90.12
385.787	72.12
386.013	88.12
386.238	81.12
386.463	80.12
386.688	86.12
386.913	103.12
387.138	94.12
387.363	80.12
387.588	92.12
387.813	87.12
388.038	86.12
388.263	88.12
388.488	78.12
388.713	62.12
388.938	72.12
389.163	60.12
389.387	82.12
389.612	72.12
389.837	85.12
390.062	77.12
390.287	80.12
390.512	69.12
390.736	61.12
390.961	67.12
391.186	78.12
391.411	84.12
391.636	75.12
391.86	67.12
392.085	88.12
392.31	91.12
392.534	76.12
392.759	76.12
392.984	79.12
393.208	76.12
393.433	86.12
393.658	79.12
393.882	89.12
394.107	91.12
394.331	130.12
394.556	147.12
394.78	107.12
395.005	84.12
395.229	84.12
395.454	96.12
395.678	86.12
395.903	113.12
396.127	157.12
396.352	155.12
396.576	86.12
396.801	104.12
397.025	80.12
397.249	72.12
397.474	79.12
397.698	82.12
397.922	78.12
398.147	80.12
398.371	69.12
398.595	84.12
398.82	76.12
399.044	74.12
399.268	92.12
399.492	75.12
399.717	69.12
399.941	65.12
400.165	81.12
400.389	81.12
400.613	74.12
400.837	100.12
401.062	85.12
401.286	76.12
401.51	88.12
401.734	90.12
401.958	85.12
402.182	84.12
402.406	81.12
402.63	85.12
402.854	84.12
403.078	92.12
403.302	99.12
403.526	80.12
403.75	70.12
403.974	83.12
404.198	74.12
404.422	85.12
404.645	80.12
404.869	81.12
405.093	84.12
405.317	79.12
405.541	70.12
405.765	86.12
405.988	73.12
406.212	85.12
406.436	74.12
406.66	77.12
406.883	86.12
407.107	70.12
407.331	77.12
407.555	67.12
407.778	71.12
408.002	89.12
408.226	84.12
408.449	88.12
408.673	81.12
408.896	61.12
409.12	96.12
409.344	78.12
409.567	78.12
409.791	72.12
410.014	76.12
410.238	78.12
410.461	81.12
410.685	86.12
410.908	95.12
411.132	85.12
411.355	80.12
411.578	74.12
411.802	87.12
412.025	71.12
412.249	94.12
412.472	62.12
412.695	80.12
412.919	74.12
413.142	78.12
413.365	73.12
413.589	91.12
413.812	85.12
414.035	87.12
414.258	87.12
414.482	70.12
414.705	62.12
414.928	79.12
415.151	75.12
415.374	89.12
415.597	80.12
415.821	70.12
416.044	79.12
416.267	90.12
416.49	81.12
416.713	81.12
416.936	84.12
417.159	80.12
417.382	68.12
417.605	81.12
417.828	90.12
418.051	73.12
418.274	85.12
418.497	91.12
418.72	85.12
418.943	70.12
419.166	80.12
419.389	79.12
419.611	80.12
419.834	83.12
420.057	89.12
420.28	78.12
420.503	81.12
420.726	70.12
420.948	82.12
421.171	80.12
421.394	64.12
421.617	83.12
421.839	92.12
422.062	91.12
422.285	89.12
422.507	84.12
422.73	87.12
422.953	72.12
423.175	81.12
423.398	74.12
423.621	79.12
423.843	77.12
424.066	85.12
424.288	88.12
424.511	73.12
424.733	81.12
424.956	71.12
425.178	86.12
425.401	77.12
425.623	85.12
425.846	90.12
426.068	78.12
426.291	84.12
426.513	76.12
426.735	90.12
426.958	71.12
427.18	77.12
427.402	84.12
427.625	88.12
427.847	72.12
428.069	81.12
428.292	63.12
428.514	82.12
428.736	81.12
428.958	75.12
429.181	88.12
429.403	73.12
429.625	78.12
429.847	75.12
430.069	71.12
430.292	87.12
430.514	85.12
430.736	75.12
430.958	66.12
431.18	81.12
431.402	80.12
431.624	98.12
431.846	82.12
432.068	94.12
432.29	80.12
432.512	72.12
432.734	89.12
432.956	80.12
433.178	75.12
433.4	80.12
433.622	72.12
433.844	86.12
434.066	93.12
434.287	78.12
434.509	77.12
434.731	87.12
434.953	86.12
435.175	71.12
435.397	80.12
435.618	83.12
435.84	75.12
436.062	91.12
436.284	90.12
436.505	61.12
436.727	78.12
436.949	79.12
437.17	92.12
437.392	85.12
437.614	91.12
437.835	72.12
438.057	82.12
438.278	77.12
438.5	77.12
438.721	80.12
438.943	93.12
439.165	86.12
439.386	94.12
439.608	76.12
439.829	84.12
440.05	79.12
440.272	90.12
440.493	79.12
440.715	93.12
440.936	79.12
441.158	85.12
441.379	74.12
441.6	82.12
441.822	81.12
442.043	88.12
442.264	94.12
442.486	91.12
442.707	75.12
442.928	91.12
443.149	74.12
443.371	90.12
443.592	88.12
443.813	101.12
444.034	82.12
444.255	83.12
444.476	83.12
444.698	76.12
444.919	82.12
445.14	141.12
445.361	102.12
445.582	88.12
445.803	72.12
446.024	82.12
446.245	80.12
446.466	82.12
446.687	84.12
446.908	86.12
447.129	93.12
447.35	89.12
447.571	82.12
447.792	85.12
448.013	82.12
448.234	83.12
448.455	80.12
448.675	78.12
448.896	75.12
449.117	72.12
449.338	68.12
449.559	76.12
449.779	80.12
450	87.12
450.221	68.12
450.442	78.12
450.662	85.12
450.883	68.12
451.104	83.12
451.324	79.12
451.545	74.12
451.766	78.12
451.986	84.12
452.207	86.12
452.428	74.12
452.648	86.12
452.869	68.12
453.089	67.12
453.31	77.12
453.53	77.12
453.751	82.12
453.971	79.12
454.192	87.12
454.412	74.12
454.633	77.12
454.853	80.12
455.073	84.12
455.294	75.12
455.514	80.12
455.734	87.12
455.955	93.12
456.175	69.12
456.395	83.12
456.616	68.12
456.836	88.12
457.056	86.12
457.276	69.12
457.497	87.12
457.717	66.12
457.937	86.12
458.157	81.12
458.377	66.12
458.598	68.12
458.818	87.12
459.038	61.12
459.258	77.12
459.478	71.12
459.698	72.12
459.918	85.12
460.138	80.12
460.358	78.12
460.578	93.12
460.798	77.12
461.018	77.12
461.238	74.12
461.458	81.12
461.678	82.12
461.898	90.12
462.118	93.12
462.338	67.12
462.558	73.12
462.777	74.12
462.997	87.12
463.217	74.12
463.437	70.12
463.657	81.12
463.876	77.12
464.096	79.12
464.316	74.12
464.536	88.12
464.755	96.12
464.975	86.12
465.195	69.12
465.414	79.12
465.634	83.12
465.854	82.12
466.073	93.12
466.293	71.12
466.512	78.12
466.732	72.12
466.951	79.12
467.171	88.12
467.391	90.12
467.61	93.12
467.829	75.12
468.049	76.12
468.268	86.12
468.488	103.12
468.707	84.12
468.927	93.12
469.146	71.12
469.365	89.12
469.585	94.12
469.804	84.12
470.023	79.12
470.243	76.12
470.462	93.12
470.681	69.12
470.901	91.12
471.12	78.12
471.339	88.12
471.558	75.12
471.777	82.12
471.997	93.12
472.216	98.12
472.435	86.12
472.654	85.12
472.873	103.12
473.092	82.12
473.311	74.12
473.53	106.12
473.749	98.12
473.968	90.12
474.187	79.12
474.406	81.12
474.625	77.12
474.844	75.12
475.063	75.12
475.282	73.12
475.501	74.12
475.72	74.12
475.939	80.12
476.158	74.12
476.377	77.12
476.596	73.12
476.814	86.12
477.033	85.12
477.252	86.12
477.471	85.12
477.69	92.12
477.908	83.12
478.127	90.12
478.346	83.12
478.564	88.12
478.783	70.12
479.002	77.12
479.22	84.12
479.439	72.12
479.658	78.12
479.876	89.12
480.095	93.12
480.313	92.12
480.532	83.12
480.751	84.12
480.969	72.12
481.188	78.12
481.406	92.12
481.624	93.12
481.843	78.12
482.061	88.12
482.28	90.12
482.498	70.12
482.717	86.12
482.935	78.12
483.153	82.12
483.372	85.12
483.59	88.12
483.808	79.12
484.027	86.12
484.245	99.12
484.463	98.12
484.681	92.12
484.9	97.12
485.118	82.12
485.336	94.12
485.554	97.12
485.772	87.12
485.99	83.12
486.209	88.12
486.427	88.12
486.645	98.12
486.863	93.12
487.081	89.12
487.299	82.12
487.517	97.12
487.735	91.12
487.953	88.12
488.171	83.12
488.389	82.12
488.607	90.12
488.825	103.12
489.043	77.12
489.261	90.12
489.479	86.12
489.696	81.12
489.914	80.12
490.132	86.12
490.35	79.12
490.568	88.12
490.786	86.12
491.003	78.12
491.221	91.12
491.439	74.12
491.657	77.12
491.874	79.12
492.092	98.12
492.31	105.12
492.527	91.12
492.745	70.12
492.963	86.12
493.18	92.12
493.398	80.12
493.615	75.12
493.833	91.12
494.05	87.12
494.268	87.12
494.485	85.12
494.703	81.12
494.92	78.12
495.138	86.12
495.355	88.12
495.573	91.12
495.79	81.12
496.008	87.12
496.225	80.12
496.442	74.12
496.66	79.12
496.877	75.12
497.094	86.12
497.312	90.12
497.529	85.12
497.746	88.12
497.963	73.12
498.181	98.12
498.398	74.12
498.615	74.12
498.832	78.12
499.049	99.12
499.267	94.12
499.484	83.12
499.701	91.12
499.918	68.12
500.135	88.12
500.352	87.12
500.569	61.12
500.786	87.12
501.003	81.12
501.22	96.12
501.437	85.12
501.654	87.12
501.871	90.12
502.088	92.12
502.305	71.12
502.522	93.12
502.739	78.12
502.956	87.12
503.172	98.12
503.389	75.12
503.606	81.12
503.823	84.12
504.04	80.12
504.256	80.12
504.473	74.12
504.69	82.12
504.907	94.12
505.123	85.12
505.34	79.12
505.557	79.12
505.773	70.12
505.99	71.12
506.207	87.12
506.423	81.12
506.64	90.12
506.856	84.12
507.073	80.12
507.289	76.12
507.506	89.12
507.722	92.12
507.939	75.12
508.155	89.12
508.372	76.12
508.588	75.12
508.805	83.12
509.021	80.12
509.238	81.12
509.454	80.12
509.67	78.12
509.887	86.12
510.103	80.12
510.319	86.12
510.536	72.12
510.752	92.12
510.968	89.12
511.184	91.12
511.401	79.12
511.617	82.12
511.833	78.12
512.049	92.12
512.265	90.12
512.481	91.12
512.698	98.12
512.914	92.12
513.13	94.12
513.346	82.12
513.562	80.12
513.778	84.12
513.994	91.12
514.21	83.12
514.426	89.12
514.642	86.12
514.858	88.12
515.074	85.12
515.29	87.12
515.506	85.12
515.721	87.12
515.937	81.12
516.153	75.12
516.369	90.12
516.585	79.12
516.801	91.12
517.016	91.12
517.232	78.12
517.448	94.12
517.664	84.12
517.879	86.12
518.095	83.12
518.311	82.12
518.527	87.12
518.742	89.12
518.958	78.12
519.173	73.12
519.389	96.12
519.605	91.12
519.82	99.12
520.036	76.12
