Data from Coke_Can_Bottom_HRD10591_00008.txt Node
Date: Wed Nov 05 15:46:16 EST 2025
User: Yrep
Spectrometer: HR+D1059
Trigger mode: 1
Integration Time (sec): 1.000000E-1
Scans to average: 1
Electric dark correction enabled: true
Nonlinearity correction enabled: false
Boxcar width: 0
XAxis mode: Wavelengths
Number of Pixels in Spectrum: 2048
>>>>>Begin Spectral Data<<<<<
223.165	-12.38
223.4	-12.38
223.635	-12.38
223.869	-30.38
224.104	-13.38
224.338	-8.38
224.573	-7.38
224.808	-13.38
225.042	-10.38
225.277	-28.38
225.511	-11.38
225.746	-6.38
225.98	6.62
226.215	22.62
226.449	21.62
226.683	23.62
226.918	32.62
227.152	34.62
227.387	35.62
227.621	37.62
227.856	49.62
228.09	37.62
228.324	59.62
228.559	60.62
228.793	60.62
229.027	68.62
229.262	54.62
229.496	69.62
229.73	66.62
229.964	62.62
230.199	68.62
230.433	64.62
230.667	58.62
230.901	87.62
231.136	75.62
231.37	74.62
231.604	80.62
231.838	69.62
232.072	78.62
232.306	76.62
232.541	74.62
232.775	95.62
233.009	70.62
233.243	82.62
233.477	74.62
233.711	97.62
233.945	66.62
234.179	65.62
234.413	77.62
234.647	80.62
234.881	80.62
235.115	77.62
235.349	72.62
235.583	92.62
235.817	76.62
236.051	80.62
236.285	78.62
236.519	78.62
236.753	75.62
236.987	79.62
237.221	88.62
237.455	88.62
237.689	73.62
237.922	83.62
238.156	80.62
238.39	67.62
238.624	74.62
238.858	75.62
239.091	68.62
239.325	65.62
239.559	57.62
239.793	67.62
240.027	74.62
240.26	79.62
240.494	80.62
240.728	69.62
240.961	71.62
241.195	80.62
241.429	73.62
241.662	66.62
241.896	70.62
242.13	62.62
242.363	66.62
242.597	68.62
242.83	74.62
243.064	68.62
243.298	84.62
243.531	65.62
243.765	75.62
243.998	80.62
244.232	84.62
244.465	77.62
244.699	64.62
244.932	80.62
245.166	71.62
245.399	69.62
245.633	76.62
245.866	88.62
246.099	64.62
246.333	76.62
246.566	76.62
246.8	81.62
247.033	66.62
247.266	90.62
247.5	77.62
247.733	81.62
247.966	80.62
248.2	76.62
248.433	76.62
248.666	69.62
248.899	78.62
249.133	74.62
249.366	74.62
249.599	78.62
249.832	75.62
250.066	75.62
250.299	82.62
250.532	87.62
250.765	70.62
250.998	66.62
251.231	87.62
251.465	80.62
251.698	79.62
251.931	64.62
252.164	82.62
252.397	72.62
252.63	78.62
252.863	66.62
253.096	78.62
253.329	82.62
253.562	64.62
253.795	66.62
254.028	91.62
254.261	70.62
254.494	77.62
254.727	81.62
254.96	66.62
255.193	78.62
255.426	80.62
255.659	75.62
255.892	74.62
256.124	87.62
256.357	68.62
256.59	79.62
256.823	89.62
257.056	73.62
257.289	74.62
257.521	90.62
257.754	84.62
257.987	89.62
258.22	82.62
258.452	85.62
258.685	83.62
258.918	72.62
259.151	70.62
259.383	87.62
259.616	92.62
259.849	86.62
260.081	85.62
260.314	86.62
260.547	83.62
260.779	78.62
261.012	76.62
261.244	73.62
261.477	94.62
261.71	74.62
261.942	85.62
262.175	86.62
262.407	88.62
262.64	84.62
262.872	80.62
263.105	90.62
263.337	73.62
263.57	85.62
263.802	89.62
264.035	89.62
264.267	82.62
264.499	86.62
264.732	91.62
264.964	74.62
265.197	80.62
265.429	74.62
265.661	83.62
265.894	72.62
266.126	86.62
266.358	84.62
266.591	86.62
266.823	91.62
267.055	92.62
267.287	75.62
267.52	76.62
267.752	84.62
267.984	77.62
268.216	96.62
268.448	86.62
268.681	72.62
268.913	79.62
269.145	79.62
269.377	86.62
269.609	63.62
269.841	82.62
270.073	81.62
270.306	76.62
270.538	83.62
270.77	88.62
271.002	86.62
271.234	84.62
271.466	85.62
271.698	88.62
271.93	88.62
272.162	86.62
272.394	69.62
272.626	82.62
272.858	73.62
273.09	82.62
273.322	84.62
273.553	88.62
273.785	72.62
274.017	85.62
274.249	77.62
274.481	89.62
274.713	86.62
274.945	82.62
275.176	76.62
275.408	78.62
275.64	88.62
275.872	73.62
276.104	76.62
276.335	76.62
276.567	76.62
276.799	81.62
277.031	82.62
277.262	77.62
277.494	80.62
277.726	76.62
277.957	78.62
278.189	73.62
278.421	77.62
278.652	82.62
278.884	85.62
279.115	82.62
279.347	83.62
279.579	87.62
279.81	86.62
280.042	92.62
280.273	90.62
280.505	82.62
280.736	88.62
280.968	88.62
281.199	72.62
281.431	93.62
281.662	82.62
281.894	89.62
282.125	66.62
282.356	90.62
282.588	77.62
282.819	84.62
283.051	69.62
283.282	71.62
283.513	96.62
283.745	88.62
283.976	86.62
284.207	78.62
284.439	75.62
284.67	77.62
284.901	85.62
285.132	72.62
285.364	84.62
285.595	81.62
285.826	97.62
286.057	89.62
286.288	78.62
286.52	78.62
286.751	87.62
286.982	70.62
287.213	91.62
287.444	96.62
287.675	78.62
287.906	59.62
288.138	68.62
288.369	86.62
288.6	90.62
288.831	91.62
289.062	85.62
289.293	77.62
289.524	69.62
289.755	79.62
289.986	87.62
290.217	75.62
290.448	81.62
290.679	84.62
290.91	90.62
291.141	79.62
291.371	88.62
291.602	103.62
291.833	79.62
292.064	84.62
292.295	81.62
292.526	74.62
292.757	77.62
292.987	83.62
293.218	88.62
293.449	79.62
293.68	80.62
293.91	90.62
294.141	76.62
294.372	85.62
294.603	84.62
294.833	77.62
295.064	63.62
295.295	76.62
295.525	82.62
295.756	92.62
295.987	80.62
296.217	81.62
296.448	61.62
296.679	77.62
296.909	85.62
297.14	80.62
297.37	84.62
297.601	77.62
297.831	80.62
298.062	70.62
298.292	79.62
298.523	84.62
298.753	82.62
298.984	97.62
299.214	79.62
299.445	93.62
299.675	74.62
299.905	83.62
300.136	76.62
300.366	90.62
300.597	91.62
300.827	79.62
301.057	84.62
301.288	80.62
301.518	88.62
301.748	81.62
301.979	82.62
302.209	84.62
302.439	69.62
302.669	88.62
302.9	86.62
303.13	77.62
303.36	70.62
303.59	85.62
303.82	77.62
304.051	92.62
304.281	90.62
304.511	81.62
304.741	93.62
304.971	87.62
305.201	97.62
305.431	92.62
305.661	75.62
305.891	84.62
306.121	87.62
306.352	89.62
306.582	87.62
306.812	79.62
307.042	112.62
307.272	98.62
307.502	81.62
307.731	85.62
307.961	86.62
308.191	101.62
308.421	90.62
308.651	101.62
308.881	88.62
309.111	97.62
309.341	107.62
309.571	96.62
309.8	91.62
310.03	84.62
310.26	87.62
310.49	86.62
310.72	86.62
310.949	85.62
311.179	84.62
311.409	84.62
311.639	72.62
311.868	70.62
312.098	84.62
312.328	85.62
312.557	93.62
312.787	75.62
313.017	86.62
313.246	90.62
313.476	80.62
313.706	89.62
313.935	88.62
314.165	71.62
314.394	84.62
314.624	70.62
314.853	82.62
315.083	75.62
315.312	91.62
315.542	62.62
315.771	96.62
316.001	80.62
316.23	77.62
316.46	80.62
316.689	87.62
316.919	89.62
317.148	90.62
317.377	91.62
317.607	84.62
317.836	79.62
318.065	86.62
318.295	82.62
318.524	90.62
318.753	70.62
318.983	92.62
319.212	81.62
319.441	89.62
319.67	71.62
319.9	78.62
320.129	91.62
320.358	66.62
320.587	90.62
320.816	75.62
321.046	88.62
321.275	88.62
321.504	83.62
321.733	77.62
321.962	73.62
322.191	75.62
322.42	72.62
322.649	77.62
322.878	80.62
323.108	82.62
323.337	91.62
323.566	96.62
323.795	90.62
324.024	90.62
324.253	84.62
324.482	76.62
324.71	89.62
324.939	88.62
325.168	86.62
325.397	78.62
325.626	87.62
325.855	90.62
326.084	93.62
326.313	83.62
326.542	83.62
326.77	84.62
326.999	78.62
327.228	75.62
327.457	103.62
327.686	89.62
327.914	79.62
328.143	99.62
328.372	77.62
328.6	88.62
328.829	73.62
329.058	73.62
329.287	70.62
329.515	76.62
329.744	95.62
329.972	66.62
330.201	85.62
330.43	83.62
330.658	87.62
330.887	76.62
331.115	72.62
331.344	80.62
331.572	93.62
331.801	85.62
332.03	87.62
332.258	90.62
332.486	79.62
332.715	89.62
332.943	86.62
333.172	78.62
333.4	74.62
333.629	76.62
333.857	67.62
334.085	83.62
334.314	84.62
334.542	81.62
334.771	78.62
334.999	76.62
335.227	89.62
335.455	90.62
335.684	76.62
335.912	93.62
336.14	83.62
336.369	84.62
336.597	89.62
336.825	90.62
337.053	69.62
337.281	100.62
337.51	88.62
337.738	86.62
337.966	78.62
338.194	84.62
338.422	99.62
338.65	86.62
338.878	86.62
339.106	86.62
339.334	93.62
339.562	79.62
339.79	88.62
340.018	104.62
340.246	81.62
340.474	80.62
340.702	75.62
340.93	79.62
341.158	69.62
341.386	91.62
341.614	68.62
341.842	102.62
342.07	86.62
342.298	89.62
342.526	86.62
342.754	70.62
342.981	85.62
343.209	85.62
343.437	81.62
343.665	78.62
343.893	81.62
344.12	73.62
344.348	78.62
344.576	85.62
344.804	84.62
345.031	76.62
345.259	96.62
345.487	73.62
345.714	84.62
345.942	85.62
346.17	82.62
346.397	84.62
346.625	83.62
346.853	76.62
347.08	67.62
347.308	70.62
347.535	69.62
347.763	73.62
347.99	75.62
348.218	84.62
348.445	70.62
348.673	88.62
348.9	83.62
349.128	83.62
349.355	92.62
349.583	82.62
349.81	73.62
350.037	76.62
350.265	86.62
350.492	67.62
350.72	90.62
350.947	76.62
351.174	87.62
351.402	71.62
351.629	75.62
351.856	92.62
352.083	87.62
352.311	76.62
352.538	66.62
352.765	82.62
352.992	92.62
353.22	78.62
353.447	89.62
353.674	82.62
353.901	92.62
354.128	88.62
354.355	79.62
354.583	87.62
354.81	89.62
355.037	74.62
355.264	87.62
355.491	79.62
355.718	100.62
355.945	91.62
356.172	78.62
356.399	79.62
356.626	79.62
356.853	77.62
357.08	86.62
357.307	104.62
357.534	97.62
357.761	83.62
357.988	92.62
358.215	78.62
358.441	95.62
358.668	82.62
358.895	74.62
359.122	94.62
359.349	90.62
359.576	96.62
359.802	77.62
360.029	72.62
360.256	83.62
360.483	78.62
360.709	82.62
360.936	82.62
361.163	93.62
361.39	87.62
361.616	74.62
361.843	102.62
362.07	76.62
362.296	72.62
362.523	80.62
362.749	92.62
362.976	91.62
363.203	95.62
363.429	76.62
363.656	87.62
363.882	72.62
364.109	89.62
364.335	78.62
364.562	65.62
364.788	78.62
365.015	96.62
365.241	74.62
365.468	90.62
365.694	94.62
365.92	90.62
366.147	82.62
366.373	72.62
366.599	76.62
366.826	80.62
367.052	84.62
367.278	97.62
367.505	72.62
367.731	91.62
367.957	82.62
368.184	81.62
368.41	79.62
368.636	86.62
368.862	87.62
369.089	77.62
369.315	90.62
369.541	71.62
369.767	82.62
369.993	74.62
370.219	93.62
370.445	80.62
370.672	75.62
370.898	77.62
371.124	77.62
371.35	92.62
371.576	75.62
371.802	74.62
372.028	69.62
372.254	76.62
372.48	88.62
372.706	77.62
372.932	89.62
373.158	77.62
373.384	96.62
373.61	92.62
373.835	89.62
374.061	62.62
374.287	89.62
374.513	73.62
374.739	92.62
374.965	77.62
375.191	82.62
375.416	84.62
375.642	78.62
375.868	80.62
376.094	75.62
376.319	80.62
376.545	86.62
376.771	84.62
376.997	89.62
377.222	91.62
377.448	93.62
377.674	78.62
377.899	93.62
378.125	88.62
378.35	87.62
378.576	89.62
378.802	80.62
379.027	84.62
379.253	89.62
379.478	72.62
379.704	92.62
379.929	85.62
380.155	63.62
380.38	84.62
380.606	97.62
380.831	96.62
381.057	97.62
381.282	83.62
381.507	98.62
381.733	84.62
381.958	70.62
382.184	82.62
382.409	80.62
382.634	90.62
382.86	82.62
383.085	88.62
383.31	96.62
383.535	81.62
383.761	84.62
383.986	92.62
384.211	90.62
384.436	87.62
384.662	88.62
384.887	90.62
385.112	110.62
385.337	82.62
385.562	99.62
385.787	89.62
386.013	84.62
386.238	86.62
386.463	89.62
386.688	98.62
386.913	84.62
387.138	84.62
387.363	81.62
387.588	86.62
387.813	91.62
388.038	100.62
388.263	91.62
388.488	76.62
388.713	72.62
388.938	89.62
389.163	84.62
389.387	81.62
389.612	89.62
389.837	78.62
390.062	78.62
390.287	77.62
390.512	76.62
390.736	84.62
390.961	92.62
391.186	67.62
391.411	89.62
391.636	80.62
391.86	76.62
392.085	86.62
392.31	90.62
392.534	86.62
392.759	85.62
392.984	79.62
393.208	92.62
393.433	78.62
393.658	81.62
393.882	79.62
394.107	100.62
394.331	128.62
394.556	146.62
394.78	92.62
395.005	82.62
395.229	95.62
395.454	102.62
395.678	97.62
395.903	136.62
396.127	170.62
396.352	147.62
396.576	105.62
396.801	84.62
397.025	86.62
397.249	72.62
397.474	80.62
397.698	90.62
397.922	86.62
398.147	84.62
398.371	73.62
398.595	86.62
398.82	84.62
399.044	81.62
399.268	87.62
399.492	86.62
399.717	79.62
399.941	86.62
400.165	88.62
400.389	75.62
400.613	86.62
400.837	76.62
401.062	79.62
401.286	72.62
401.51	72.62
401.734	63.62
401.958	79.62
402.182	80.62
402.406	96.62
402.63	67.62
402.854	81.62
403.078	84.62
403.302	83.62
403.526	80.62
403.75	91.62
403.974	94.62
404.198	96.62
404.422	78.62
404.645	71.62
404.869	88.62
405.093	65.62
405.317	82.62
405.541	90.62
405.765	82.62
405.988	92.62
406.212	93.62
406.436	64.62
406.66	88.62
406.883	78.62
407.107	82.62
407.331	82.62
407.555	68.62
407.778	84.62
408.002	84.62
408.226	83.62
408.449	81.62
408.673	84.62
408.896	63.62
409.12	80.62
409.344	77.62
409.567	82.62
409.791	80.62
410.014	73.62
410.238	74.62
410.461	82.62
410.685	73.62
410.908	64.62
411.132	80.62
411.355	74.62
411.578	82.62
411.802	73.62
412.025	102.62
412.249	82.62
412.472	79.62
412.695	68.62
412.919	68.62
413.142	78.62
413.365	81.62
413.589	92.62
413.812	78.62
414.035	94.62
414.258	86.62
414.482	76.62
414.705	75.62
414.928	88.62
415.151	66.62
415.374	81.62
415.597	77.62
415.821	78.62
416.044	86.62
416.267	82.62
416.49	97.62
416.713	79.62
416.936	87.62
417.159	89.62
417.382	84.62
417.605	92.62
417.828	76.62
418.051	89.62
418.274	84.62
418.497	76.62
418.72	82.62
418.943	79.62
419.166	93.62
419.389	87.62
419.611	84.62
419.834	82.62
420.057	79.62
420.28	86.62
420.503	86.62
420.726	89.62
420.948	72.62
421.171	82.62
421.394	73.62
421.617	86.62
421.839	89.62
422.062	89.62
422.285	71.62
422.507	100.62
422.73	80.62
422.953	73.62
423.175	92.62
423.398	64.62
423.621	95.62
423.843	97.62
424.066	87.62
424.288	68.62
424.511	89.62
424.733	88.62
424.956	81.62
425.178	86.62
425.401	77.62
425.623	93.62
425.846	85.62
426.068	81.62
426.291	81.62
426.513	77.62
426.735	95.62
426.958	74.62
427.18	89.62
427.402	86.62
427.625	72.62
427.847	88.62
428.069	81.62
428.292	71.62
428.514	90.62
428.736	64.62
428.958	82.62
429.181	88.62
429.403	84.62
429.625	91.62
429.847	82.62
430.069	72.62
430.292	79.62
430.514	73.62
430.736	80.62
430.958	78.62
431.18	73.62
431.402	81.62
431.624	86.62
431.846	81.62
432.068	74.62
432.29	92.62
432.512	92.62
432.734	79.62
432.956	83.62
433.178	87.62
433.4	90.62
433.622	84.62
433.844	84.62
434.066	88.62
434.287	75.62
434.509	87.62
434.731	80.62
434.953	87.62
435.175	97.62
435.397	93.62
435.618	71.62
435.84	78.62
436.062	100.62
436.284	85.62
436.505	86.62
436.727	91.62
436.949	72.62
437.17	79.62
437.392	77.62
437.614	84.62
437.835	83.62
438.057	64.62
438.278	84.62
438.5	82.62
438.721	88.62
438.943	92.62
439.165	84.62
439.386	82.62
439.608	82.62
439.829	86.62
440.05	79.62
440.272	82.62
440.493	82.62
440.715	61.62
440.936	84.62
441.158	81.62
441.379	80.62
441.6	86.62
441.822	77.62
442.043	78.62
442.264	87.62
442.486	82.62
442.707	76.62
442.928	81.62
443.149	82.62
443.371	91.62
443.592	82.62
443.813	92.62
444.034	84.62
444.255	95.62
444.476	83.62
444.698	85.62
444.919	82.62
445.14	152.62
445.361	115.62
445.582	86.62
445.803	79.62
446.024	89.62
446.245	97.62
446.466	77.62
446.687	88.62
446.908	82.62
447.129	92.62
447.35	69.62
447.571	89.62
447.792	82.62
448.013	75.62
448.234	82.62
448.455	85.62
448.675	91.62
448.896	71.62
449.117	80.62
449.338	82.62
449.559	91.62
449.779	84.62
450	73.62
450.221	82.62
450.442	79.62
450.662	84.62
450.883	71.62
451.104	69.62
451.324	62.62
451.545	93.62
451.766	69.62
451.986	82.62
452.207	89.62
452.428	79.62
452.648	74.62
452.869	97.62
453.089	77.62
453.31	72.62
453.53	83.62
453.751	88.62
453.971	84.62
454.192	71.62
454.412	80.62
454.633	68.62
454.853	81.62
455.073	80.62
455.294	62.62
455.514	96.62
455.734	77.62
455.955	72.62
456.175	94.62
456.395	92.62
456.616	80.62
456.836	86.62
457.056	84.62
457.276	78.62
457.497	76.62
457.717	81.62
457.937	77.62
458.157	93.62
458.377	77.62
458.598	94.62
458.818	73.62
459.038	60.62
459.258	75.62
459.478	73.62
459.698	85.62
459.918	72.62
460.138	64.62
460.358	82.62
460.578	83.62
460.798	98.62
461.018	85.62
461.238	90.62
461.458	84.62
461.678	86.62
461.898	78.62
462.118	96.62
462.338	80.62
462.558	88.62
462.777	79.62
462.997	68.62
463.217	85.62
463.437	82.62
463.657	68.62
463.876	78.62
464.096	64.62
464.316	92.62
464.536	88.62
464.755	78.62
464.975	79.62
465.195	80.62
465.414	87.62
465.634	78.62
465.854	79.62
466.073	90.62
466.293	91.62
466.512	90.62
466.732	81.62
466.951	78.62
467.171	89.62
467.391	93.62
467.61	96.62
467.829	81.62
468.049	86.62
468.268	83.62
468.488	77.62
468.707	83.62
468.927	92.62
469.146	73.62
469.365	75.62
469.585	97.62
469.804	80.62
470.023	101.62
470.243	85.62
470.462	90.62
470.681	87.62
470.901	71.62
471.12	81.62
471.339	94.62
471.558	83.62
471.777	76.62
471.997	85.62
472.216	85.62
472.435	90.62
472.654	82.62
472.873	84.62
473.092	91.62
473.311	84.62
473.53	93.62
473.749	93.62
473.968	91.62
474.187	82.62
474.406	93.62
474.625	87.62
474.844	91.62
475.063	86.62
475.282	88.62
475.501	91.62
475.72	86.62
475.939	76.62
476.158	77.62
476.377	84.62
476.596	85.62
476.814	82.62
477.033	71.62
477.252	77.62
477.471	69.62
477.69	85.62
477.908	86.62
478.127	93.62
478.346	98.62
478.564	73.62
478.783	82.62
479.002	84.62
479.22	89.62
479.439	96.62
479.658	74.62
479.876	74.62
480.095	75.62
480.313	90.62
480.532	97.62
480.751	89.62
480.969	85.62
481.188	76.62
481.406	88.62
481.624	70.62
481.843	74.62
482.061	87.62
482.28	87.62
482.498	85.62
482.717	90.62
482.935	81.62
483.153	90.62
483.372	85.62
483.59	82.62
483.808	82.62
484.027	88.62
484.245	84.62
484.463	83.62
484.681	99.62
484.9	89.62
485.118	97.62
485.336	83.62
485.554	85.62
485.772	90.62
485.99	86.62
486.209	89.62
486.427	87.62
486.645	81.62
486.863	97.62
487.081	84.62
487.299	94.62
487.517	100.62
487.735	94.62
487.953	95.62
488.171	82.62
488.389	91.62
488.607	96.62
488.825	89.62
489.043	86.62
489.261	81.62
489.479	81.62
489.696	90.62
489.914	90.62
490.132	108.62
490.35	78.62
490.568	78.62
490.786	93.62
491.003	93.62
491.221	91.62
491.439	108.62
491.657	106.62
491.874	86.62
492.092	94.62
492.31	103.62
492.527	85.62
492.745	90.62
492.963	91.62
493.18	74.62
493.398	84.62
493.615	84.62
493.833	81.62
494.05	93.62
494.268	74.62
494.485	96.62
494.703	73.62
494.92	84.62
495.138	81.62
495.355	97.62
495.573	88.62
495.79	85.62
496.008	89.62
496.225	91.62
496.442	84.62
496.66	97.62
496.877	80.62
497.094	93.62
497.312	88.62
497.529	88.62
497.746	81.62
497.963	86.62
498.181	75.62
498.398	96.62
498.615	79.62
498.832	73.62
499.049	78.62
499.267	98.62
499.484	77.62
499.701	72.62
499.918	84.62
500.135	79.62
500.352	82.62
500.569	86.62
500.786	79.62
501.003	75.62
501.22	96.62
501.437	81.62
501.654	96.62
501.871	82.62
502.088	84.62
502.305	93.62
502.522	83.62
502.739	81.62
502.956	80.62
503.172	93.62
503.389	78.62
503.606	84.62
503.823	80.62
504.04	88.62
504.256	83.62
504.473	89.62
504.69	78.62
504.907	91.62
505.123	96.62
505.34	84.62
505.557	68.62
505.773	89.62
505.99	85.62
506.207	87.62
506.423	77.62
506.64	78.62
506.856	73.62
507.073	76.62
507.289	91.62
507.506	87.62
507.722	78.62
507.939	82.62
508.155	84.62
508.372	87.62
508.588	84.62
508.805	78.62
509.021	81.62
509.238	78.62
509.454	81.62
509.67	82.62
509.887	81.62
510.103	91.62
510.319	91.62
510.536	87.62
510.752	89.62
510.968	72.62
511.184	88.62
511.401	88.62
511.617	76.62
511.833	83.62
512.049	87.62
512.265	87.62
512.481	84.62
512.698	82.62
512.914	74.62
513.13	76.62
513.346	92.62
513.562	92.62
513.778	88.62
513.994	87.62
514.21	104.62
514.426	88.62
514.642	99.62
514.858	83.62
515.074	77.62
515.29	89.62
515.506	74.62
515.721	82.62
515.937	97.62
516.153	89.62
516.369	86.62
516.585	82.62
516.801	91.62
517.016	85.62
517.232	96.62
517.448	88.62
517.664	88.62
517.879	98.62
518.095	94.62
518.311	81.62
518.527	96.62
518.742	86.62
518.958	83.62
519.173	75.62
519.389	88.62
519.605	89.62
