Data from Coke_Can_Bottom_HRD10591_00014.txt Node
Date: Wed Nov 05 15:46:19 EST 2025
User: Yrep
Spectrometer: HR+D1059
Trigger mode: 1
Integration Time (sec): 1.000000E-1
Scans to average: 1
Electric dark correction enabled: true
Nonlinearity correction enabled: false
Boxcar width: 0
XAxis mode: Wavelengths
Number of Pixels in Spectrum: 2048
>>>>>Begin Spectral Data<<<<<
223.165	-24.62
223.4	-24.62
223.635	-24.62
223.869	-11.62
224.104	-28.62
224.338	-13.62
224.573	-22.62
224.808	-3.62
225.042	-11.62
225.277	-10.62
225.511	2.38
225.746	12.38
225.98	-8.62
226.215	4.38
226.449	21.38
226.683	27.38
226.918	29.38
227.152	38.38
227.387	26.38
227.621	34.38
227.856	45.38
228.09	45.38
228.324	61.38
228.559	50.38
228.793	70.38
229.027	65.38
229.262	71.38
229.496	68.38
229.73	57.38
229.964	72.38
230.199	75.38
230.433	74.38
230.667	69.38
230.901	74.38
231.136	74.38
231.37	76.38
231.604	78.38
231.838	73.38
232.072	79.38
232.306	78.38
232.541	82.38
232.775	93.38
233.009	80.38
233.243	80.38
233.477	69.38
233.711	84.38
233.945	80.38
234.179	68.38
234.413	73.38
234.647	81.38
234.881	80.38
235.115	75.38
235.349	78.38
235.583	81.38
235.817	77.38
236.051	84.38
236.285	78.38
236.519	76.38
236.753	84.38
236.987	74.38
237.221	77.38
237.455	84.38
237.689	76.38
237.922	59.38
238.156	72.38
238.39	88.38
238.624	75.38
238.858	84.38
239.091	72.38
239.325	67.38
239.559	80.38
239.793	84.38
240.027	73.38
240.26	76.38
240.494	69.38
240.728	78.38
240.961	76.38
241.195	72.38
241.429	70.38
241.662	86.38
241.896	69.38
242.13	64.38
242.363	74.38
242.597	80.38
242.83	70.38
243.064	76.38
243.298	77.38
243.531	72.38
243.765	82.38
243.998	75.38
244.232	90.38
244.465	88.38
244.699	82.38
244.932	73.38
245.166	87.38
245.399	84.38
245.633	94.38
245.866	65.38
246.099	76.38
246.333	88.38
246.566	73.38
246.8	72.38
247.033	76.38
247.266	88.38
247.5	84.38
247.733	73.38
247.966	88.38
248.2	90.38
248.433	87.38
248.666	88.38
248.899	75.38
249.133	75.38
249.366	89.38
249.599	69.38
249.832	72.38
250.066	82.38
250.299	72.38
250.532	72.38
250.765	73.38
250.998	69.38
251.231	76.38
251.465	76.38
251.698	63.38
251.931	71.38
252.164	96.38
252.397	93.38
252.63	66.38
252.863	71.38
253.096	75.38
253.329	86.38
253.562	68.38
253.795	74.38
254.028	88.38
254.261	72.38
254.494	83.38
254.727	76.38
254.96	78.38
255.193	90.38
255.426	84.38
255.659	78.38
255.892	82.38
256.124	75.38
256.357	82.38
256.59	76.38
256.823	89.38
257.056	85.38
257.289	58.38
257.521	80.38
257.754	64.38
257.987	75.38
258.22	81.38
258.452	76.38
258.685	72.38
258.918	66.38
259.151	64.38
259.383	84.38
259.616	74.38
259.849	96.38
260.081	83.38
260.314	69.38
260.547	84.38
260.779	67.38
261.012	83.38
261.244	80.38
261.477	73.38
261.71	78.38
261.942	72.38
262.175	77.38
262.407	78.38
262.64	84.38
262.872	70.38
263.105	82.38
263.337	66.38
263.57	76.38
263.802	87.38
264.035	85.38
264.267	72.38
264.499	87.38
264.732	82.38
264.964	86.38
265.197	86.38
265.429	85.38
265.661	76.38
265.894	74.38
266.126	86.38
266.358	84.38
266.591	82.38
266.823	83.38
267.055	84.38
267.287	89.38
267.52	86.38
267.752	87.38
267.984	85.38
268.216	83.38
268.448	75.38
268.681	60.38
268.913	83.38
269.145	88.38
269.377	88.38
269.609	79.38
269.841	71.38
270.073	86.38
270.306	82.38
270.538	77.38
270.77	92.38
271.002	68.38
271.234	80.38
271.466	98.38
271.698	79.38
271.93	88.38
272.162	79.38
272.394	82.38
272.626	75.38
272.858	80.38
273.09	94.38
273.322	80.38
273.553	72.38
273.785	76.38
274.017	78.38
274.249	87.38
274.481	80.38
274.713	75.38
274.945	81.38
275.176	79.38
275.408	93.38
275.64	75.38
275.872	84.38
276.104	84.38
276.335	83.38
276.567	62.38
276.799	76.38
277.031	87.38
277.262	90.38
277.494	77.38
277.726	93.38
277.957	73.38
278.189	84.38
278.421	94.38
278.652	61.38
278.884	72.38
279.115	90.38
279.347	83.38
279.579	68.38
279.81	82.38
280.042	73.38
280.273	92.38
280.505	73.38
280.736	84.38
280.968	102.38
281.199	82.38
281.431	77.38
281.662	91.38
281.894	94.38
282.125	72.38
282.356	93.38
282.588	89.38
282.819	77.38
283.051	88.38
283.282	77.38
283.513	86.38
283.745	86.38
283.976	86.38
284.207	78.38
284.439	94.38
284.67	84.38
284.901	81.38
285.132	100.38
285.364	82.38
285.595	87.38
285.826	85.38
286.057	102.38
286.288	85.38
286.52	96.38
286.751	82.38
286.982	82.38
287.213	73.38
287.444	76.38
287.675	89.38
287.906	73.38
288.138	85.38
288.369	67.38
288.6	70.38
288.831	88.38
289.062	84.38
289.293	84.38
289.524	69.38
289.755	85.38
289.986	75.38
290.217	85.38
290.448	77.38
290.679	88.38
290.91	84.38
291.141	68.38
291.371	90.38
291.602	106.38
291.833	89.38
292.064	73.38
292.295	69.38
292.526	85.38
292.757	75.38
292.987	69.38
293.218	78.38
293.449	81.38
293.68	70.38
293.91	81.38
294.141	95.38
294.372	77.38
294.603	87.38
294.833	82.38
295.064	83.38
295.295	89.38
295.525	84.38
295.756	74.38
295.987	77.38
296.217	74.38
296.448	95.38
296.679	84.38
296.909	88.38
297.14	97.38
297.37	82.38
297.601	93.38
297.831	84.38
298.062	100.38
298.292	84.38
298.523	105.38
298.753	78.38
298.984	78.38
299.214	71.38
299.445	76.38
299.675	87.38
299.905	87.38
300.136	73.38
300.366	77.38
300.597	79.38
300.827	84.38
301.057	81.38
301.288	82.38
301.518	67.38
301.748	87.38
301.979	100.38
302.209	93.38
302.439	84.38
302.669	70.38
302.9	85.38
303.13	71.38
303.36	87.38
303.59	64.38
303.82	94.38
304.051	87.38
304.281	85.38
304.511	85.38
304.741	68.38
304.971	88.38
305.201	94.38
305.431	97.38
305.661	72.38
305.891	82.38
306.121	77.38
306.352	80.38
306.582	84.38
306.812	70.38
307.042	89.38
307.272	84.38
307.502	85.38
307.731	83.38
307.961	83.38
308.191	97.38
308.421	96.38
308.651	97.38
308.881	94.38
309.111	97.38
309.341	104.38
309.571	74.38
309.8	69.38
310.03	76.38
310.26	74.38
310.49	82.38
310.72	78.38
310.949	88.38
311.179	66.38
311.409	81.38
311.639	86.38
311.868	74.38
312.098	90.38
312.328	82.38
312.557	82.38
312.787	93.38
313.017	78.38
313.246	94.38
313.476	87.38
313.706	86.38
313.935	87.38
314.165	75.38
314.394	71.38
314.624	86.38
314.853	77.38
315.083	87.38
315.312	80.38
315.542	79.38
315.771	85.38
316.001	81.38
316.23	87.38
316.46	85.38
316.689	83.38
316.919	84.38
317.148	81.38
317.377	88.38
317.607	81.38
317.836	84.38
318.065	88.38
318.295	76.38
318.524	73.38
318.753	92.38
318.983	94.38
319.212	89.38
319.441	83.38
319.67	81.38
319.9	80.38
320.129	93.38
320.358	86.38
320.587	77.38
320.816	70.38
321.046	77.38
321.275	84.38
321.504	82.38
321.733	81.38
321.962	79.38
322.191	86.38
322.42	76.38
322.649	85.38
322.878	101.38
323.108	73.38
323.337	81.38
323.566	82.38
323.795	79.38
324.024	80.38
324.253	91.38
324.482	80.38
324.71	94.38
324.939	91.38
325.168	74.38
325.397	65.38
325.626	80.38
325.855	102.38
326.084	88.38
326.313	85.38
326.542	77.38
326.77	91.38
326.999	87.38
327.228	83.38
327.457	84.38
327.686	101.38
327.914	93.38
328.143	84.38
328.372	72.38
328.6	76.38
328.829	72.38
329.058	84.38
329.287	70.38
329.515	86.38
329.744	72.38
329.972	88.38
330.201	78.38
330.43	88.38
330.658	84.38
330.887	79.38
331.115	78.38
331.344	78.38
331.572	90.38
331.801	84.38
332.03	84.38
332.258	79.38
332.486	69.38
332.715	77.38
332.943	86.38
333.172	90.38
333.4	74.38
333.629	79.38
333.857	88.38
334.085	96.38
334.314	84.38
334.542	84.38
334.771	83.38
334.999	92.38
335.227	78.38
335.455	93.38
335.684	66.38
335.912	87.38
336.14	76.38
336.369	81.38
336.597	72.38
336.825	82.38
337.053	79.38
337.281	92.38
337.51	88.38
337.738	76.38
337.966	75.38
338.194	82.38
338.422	79.38
338.65	88.38
338.878	85.38
339.106	72.38
339.334	87.38
339.562	72.38
339.79	78.38
340.018	79.38
340.246	80.38
340.474	74.38
340.702	82.38
340.93	76.38
341.158	61.38
341.386	88.38
341.614	80.38
341.842	92.38
342.07	84.38
342.298	90.38
342.526	93.38
342.754	98.38
342.981	93.38
343.209	86.38
343.437	94.38
343.665	78.38
343.893	75.38
344.12	88.38
344.348	88.38
344.576	90.38
344.804	90.38
345.031	70.38
345.259	82.38
345.487	76.38
345.714	69.38
345.942	82.38
346.17	84.38
346.397	74.38
346.625	77.38
346.853	83.38
347.08	84.38
347.308	96.38
347.535	108.38
347.763	79.38
347.99	74.38
348.218	83.38
348.445	64.38
348.673	76.38
348.9	79.38
349.128	87.38
349.355	75.38
349.583	81.38
349.81	99.38
350.037	82.38
350.265	90.38
350.492	92.38
350.72	73.38
350.947	81.38
351.174	74.38
351.402	91.38
351.629	78.38
351.856	78.38
352.083	91.38
352.311	81.38
352.538	88.38
352.765	74.38
352.992	96.38
353.22	96.38
353.447	86.38
353.674	94.38
353.901	75.38
354.128	82.38
354.355	88.38
354.583	86.38
354.81	89.38
355.037	88.38
355.264	83.38
355.491	98.38
355.718	89.38
355.945	97.38
356.172	89.38
356.399	60.38
356.626	89.38
356.853	96.38
357.08	77.38
357.307	76.38
357.534	81.38
357.761	86.38
357.988	85.38
358.215	86.38
358.441	91.38
358.668	100.38
358.895	79.38
359.122	81.38
359.349	90.38
359.576	92.38
359.802	85.38
360.029	81.38
360.256	74.38
360.483	81.38
360.709	82.38
360.936	80.38
361.163	86.38
361.39	92.38
361.616	84.38
361.843	95.38
362.07	83.38
362.296	76.38
362.523	85.38
362.749	82.38
362.976	79.38
363.203	90.38
363.429	66.38
363.656	85.38
363.882	81.38
364.109	82.38
364.335	86.38
364.562	78.38
364.788	75.38
365.015	89.38
365.241	96.38
365.468	83.38
365.694	72.38
365.92	86.38
366.147	74.38
366.373	78.38
366.599	86.38
366.826	70.38
367.052	83.38
367.278	80.38
367.505	96.38
367.731	104.38
367.957	86.38
368.184	76.38
368.41	77.38
368.636	78.38
368.862	82.38
369.089	84.38
369.315	99.38
369.541	77.38
369.767	75.38
369.993	70.38
370.219	79.38
370.445	76.38
370.672	91.38
370.898	78.38
371.124	93.38
371.35	76.38
371.576	82.38
371.802	78.38
372.028	70.38
372.254	68.38
372.48	75.38
372.706	70.38
372.932	92.38
373.158	76.38
373.384	89.38
373.61	81.38
373.835	84.38
374.061	85.38
374.287	77.38
374.513	78.38
374.739	70.38
374.965	85.38
375.191	86.38
375.416	83.38
375.642	82.38
375.868	91.38
376.094	96.38
376.319	81.38
376.545	83.38
376.771	71.38
376.997	89.38
377.222	83.38
377.448	88.38
377.674	84.38
377.899	72.38
378.125	86.38
378.35	82.38
378.576	68.38
378.802	84.38
379.027	81.38
379.253	95.38
379.478	99.38
379.704	96.38
379.929	79.38
380.155	90.38
380.38	77.38
380.606	82.38
380.831	78.38
381.057	91.38
381.282	85.38
381.507	96.38
381.733	86.38
381.958	94.38
382.184	75.38
382.409	82.38
382.634	86.38
382.86	91.38
383.085	91.38
383.31	104.38
383.535	98.38
383.761	103.38
383.986	93.38
384.211	85.38
384.436	82.38
384.662	80.38
384.887	81.38
385.112	78.38
385.337	92.38
385.562	80.38
385.787	91.38
386.013	104.38
386.238	92.38
386.463	96.38
386.688	108.38
386.913	97.38
387.138	102.38
387.363	83.38
387.588	77.38
387.813	86.38
388.038	96.38
388.263	108.38
388.488	96.38
388.713	84.38
388.938	73.38
389.163	83.38
389.387	78.38
389.612	84.38
389.837	74.38
390.062	84.38
390.287	92.38
390.512	74.38
390.736	67.38
390.961	90.38
391.186	76.38
391.411	86.38
391.636	80.38
391.86	79.38
392.085	85.38
392.31	87.38
392.534	71.38
392.759	84.38
392.984	77.38
393.208	83.38
393.433	84.38
393.658	96.38
393.882	83.38
394.107	105.38
394.331	142.38
394.556	154.38
394.78	97.38
395.005	88.38
395.229	100.38
395.454	74.38
395.678	92.38
395.903	108.38
396.127	165.38
396.352	172.38
396.576	104.38
396.801	95.38
397.025	84.38
397.249	88.38
397.474	79.38
397.698	72.38
397.922	80.38
398.147	78.38
398.371	80.38
398.595	67.38
398.82	80.38
399.044	79.38
399.268	70.38
399.492	84.38
399.717	97.38
399.941	88.38
400.165	81.38
400.389	85.38
400.613	65.38
400.837	74.38
401.062	84.38
401.286	91.38
401.51	82.38
401.734	81.38
401.958	74.38
402.182	85.38
402.406	75.38
402.63	87.38
402.854	82.38
403.078	83.38
403.302	86.38
403.526	93.38
403.75	87.38
403.974	97.38
404.198	84.38
404.422	82.38
404.645	87.38
404.869	80.38
405.093	82.38
405.317	78.38
405.541	81.38
405.765	73.38
405.988	77.38
406.212	98.38
406.436	86.38
406.66	73.38
406.883	88.38
407.107	92.38
407.331	65.38
407.555	84.38
407.778	83.38
408.002	82.38
408.226	85.38
408.449	78.38
408.673	78.38
408.896	70.38
409.12	74.38
409.344	74.38
409.567	79.38
409.791	89.38
410.014	90.38
410.238	87.38
410.461	80.38
410.685	81.38
410.908	88.38
411.132	80.38
411.355	75.38
411.578	90.38
411.802	81.38
412.025	80.38
412.249	78.38
412.472	79.38
412.695	77.38
412.919	68.38
413.142	79.38
413.365	76.38
413.589	72.38
413.812	71.38
414.035	84.38
414.258	82.38
414.482	82.38
414.705	76.38
414.928	76.38
415.151	68.38
415.374	88.38
415.597	68.38
415.821	79.38
416.044	74.38
416.267	73.38
416.49	80.38
416.713	78.38
416.936	78.38
417.159	73.38
417.382	88.38
417.605	75.38
417.828	71.38
418.051	88.38
418.274	79.38
418.497	83.38
418.72	87.38
418.943	84.38
419.166	66.38
419.389	78.38
419.611	72.38
419.834	76.38
420.057	56.38
420.28	66.38
420.503	78.38
420.726	78.38
420.948	82.38
421.171	76.38
421.394	84.38
421.617	77.38
421.839	81.38
422.062	78.38
422.285	90.38
422.507	82.38
422.73	85.38
422.953	99.38
423.175	70.38
423.398	77.38
423.621	84.38
423.843	81.38
424.066	93.38
424.288	91.38
424.511	89.38
424.733	75.38
424.956	80.38
425.178	87.38
425.401	92.38
425.623	74.38
425.846	68.38
426.068	93.38
426.291	76.38
426.513	73.38
426.735	71.38
426.958	85.38
427.18	84.38
427.402	80.38
427.625	80.38
427.847	87.38
428.069	84.38
428.292	91.38
428.514	71.38
428.736	85.38
428.958	85.38
429.181	81.38
429.403	85.38
429.625	69.38
429.847	78.38
430.069	68.38
430.292	77.38
430.514	77.38
430.736	97.38
430.958	84.38
431.18	61.38
431.402	66.38
431.624	95.38
431.846	78.38
432.068	70.38
432.29	76.38
432.512	69.38
432.734	85.38
432.956	75.38
433.178	89.38
433.4	71.38
433.622	77.38
433.844	64.38
434.066	86.38
434.287	80.38
434.509	77.38
434.731	94.38
434.953	77.38
435.175	78.38
435.397	79.38
435.618	88.38
435.84	63.38
436.062	72.38
436.284	94.38
436.505	80.38
436.727	96.38
436.949	79.38
437.17	84.38
437.392	84.38
437.614	89.38
437.835	80.38
438.057	76.38
438.278	77.38
438.5	76.38
438.721	80.38
438.943	91.38
439.165	76.38
439.386	73.38
439.608	88.38
439.829	80.38
440.05	75.38
440.272	75.38
440.493	93.38
440.715	69.38
440.936	85.38
441.158	91.38
441.379	68.38
441.6	89.38
441.822	80.38
442.043	85.38
442.264	82.38
442.486	73.38
442.707	72.38
442.928	74.38
443.149	70.38
443.371	78.38
443.592	72.38
443.813	90.38
444.034	76.38
444.255	65.38
444.476	72.38
444.698	92.38
444.919	87.38
445.14	148.38
445.361	124.38
445.582	90.38
445.803	66.38
446.024	90.38
446.245	76.38
446.466	85.38
446.687	76.38
446.908	90.38
447.129	82.38
447.35	84.38
447.571	85.38
447.792	84.38
448.013	83.38
448.234	82.38
448.455	75.38
448.675	89.38
448.896	88.38
449.117	84.38
449.338	64.38
449.559	72.38
449.779	76.38
450	85.38
450.221	86.38
450.442	90.38
450.662	87.38
450.883	88.38
451.104	73.38
451.324	76.38
451.545	82.38
451.766	92.38
451.986	90.38
452.207	88.38
452.428	83.38
452.648	96.38
452.869	89.38
453.089	78.38
453.31	75.38
453.53	74.38
453.751	85.38
453.971	91.38
454.192	77.38
454.412	90.38
454.633	84.38
454.853	78.38
455.073	85.38
455.294	76.38
455.514	76.38
455.734	76.38
455.955	79.38
456.175	72.38
456.395	102.38
456.616	81.38
456.836	67.38
457.056	89.38
457.276	64.38
457.497	76.38
457.717	81.38
457.937	80.38
458.157	93.38
458.377	80.38
458.598	84.38
458.818	85.38
459.038	82.38
459.258	84.38
459.478	88.38
459.698	94.38
459.918	91.38
460.138	87.38
460.358	94.38
460.578	87.38
460.798	84.38
461.018	85.38
461.238	80.38
461.458	70.38
461.678	77.38
461.898	86.38
462.118	82.38
462.338	84.38
462.558	70.38
462.777	92.38
462.997	98.38
463.217	86.38
463.437	71.38
463.657	84.38
463.876	87.38
464.096	80.38
464.316	97.38
464.536	68.38
464.755	74.38
464.975	74.38
465.195	78.38
465.414	94.38
465.634	84.38
465.854	84.38
466.073	91.38
466.293	77.38
466.512	83.38
466.732	69.38
466.951	84.38
467.171	74.38
467.391	73.38
467.61	83.38
467.829	84.38
468.049	90.38
468.268	74.38
468.488	93.38
468.707	85.38
468.927	97.38
469.146	84.38
469.365	88.38
469.585	84.38
469.804	83.38
470.023	81.38
470.243	87.38
470.462	86.38
470.681	86.38
470.901	78.38
471.12	84.38
471.339	97.38
471.558	72.38
471.777	78.38
471.997	68.38
472.216	93.38
472.435	93.38
472.654	85.38
472.873	94.38
473.092	85.38
473.311	88.38
473.53	85.38
473.749	87.38
473.968	84.38
474.187	79.38
474.406	74.38
474.625	96.38
474.844	85.38
475.063	82.38
475.282	90.38
475.501	98.38
475.72	88.38
475.939	72.38
476.158	76.38
476.377	91.38
476.596	88.38
476.814	88.38
477.033	88.38
477.252	102.38
477.471	71.38
477.69	95.38
477.908	82.38
478.127	82.38
478.346	86.38
478.564	90.38
478.783	92.38
479.002	84.38
479.22	76.38
479.439	91.38
479.658	76.38
479.876	75.38
480.095	100.38
480.313	91.38
480.532	82.38
480.751	79.38
480.969	65.38
481.188	71.38
481.406	86.38
481.624	82.38
481.843	76.38
482.061	73.38
482.28	93.38
482.498	90.38
482.717	93.38
482.935	79.38
483.153	83.38
483.372	98.38
483.59	80.38
483.808	79.38
484.027	85.38
484.245	76.38
484.463	92.38
484.681	105.38
484.9	80.38
485.118	73.38
485.336	87.38
485.554	89.38
485.772	86.38
485.99	90.38
486.209	84.38
486.427	95.38
486.645	89.38
486.863	100.38
487.081	72.38
487.299	88.38
487.517	97.38
487.735	86.38
487.953	79.38
488.171	82.38
488.389	85.38
488.607	78.38
488.825	82.38
489.043	88.38
489.261	94.38
489.479	88.38
489.696	98.38
489.914	88.38
490.132	89.38
490.35	78.38
490.568	95.38
490.786	74.38
491.003	98.38
491.221	92.38
491.439	72.38
491.657	82.38
491.874	86.38
492.092	101.38
492.31	91.38
492.527	82.38
492.745	86.38
492.963	91.38
493.18	74.38
493.398	80.38
493.615	78.38
493.833	92.38
494.05	94.38
494.268	75.38
494.485	84.38
494.703	96.38
494.92	83.38
495.138	80.38
495.355	84.38
495.573	88.38
495.79	81.38
496.008	93.38
496.225	91.38
496.442	92.38
496.66	87.38
496.877	90.38
497.094	96.38
497.312	85.38
497.529	76.38
497.746	88.38
497.963	72.38
498.181	88.38
498.398	80.38
498.615	73.38
498.832	88.38
499.049	65.38
499.267	74.38
499.484	82.38
499.701	79.38
499.918	74.38
500.135	91.38
500.352	84.38
500.569	79.38
500.786	85.38
501.003	92.38
501.22	77.38
501.437	76.38
501.654	83.38
501.871	87.38
502.088	78.38
502.305	84.38
502.522	97.38
502.739	81.38
502.956	90.38
503.172	75.38
503.389	86.38
503.606	81.38
503.823	83.38
504.04	85.38
504.256	78.38
504.473	94.38
504.69	96.38
504.907	94.38
505.123	95.38
505.34	89.38
505.557	88.38
505.773	84.38
505.99	84.38
506.207	83.38
506.423	84.38
506.64	81.38
506.856	88.38
507.073	76.38
507.289	77.38
507.506	82.38
507.722	86.38
507.939	72.38
508.155	76.38
508.372	81.38
508.588	98.38
508.805	92.38
509.021	70.38
509.238	85.38
509.454	68.38
509.67	82.38
509.887	84.38
510.103	92.38
510.319	90.38
510.536	93.38
510.752	98.38
510.968	74.38
511.184	83.38
511.401	89.38
511.617	80.38
511.833	83.38
512.049	84.38
512.265	84.38
512.481	81.38
512.698	91.38
512.914	88.38
513.13	89.38
513.346	86.38
513.562	84.38
513.778	74.38
513.994	85.38
514.21	88.38
514.426	102.38
514.642	90.38
514.858	77.38
515.074	88.38
515.29	104.38
515.506	94.38
515.721	91.38
515.937	96.38
516.153	101.38
516.369	104.38
516.585	92.38
516.801	85.38
517.016	96.38
517.232	89.38
517.448	106.38
517.664	101.38
517.879	77.38
518.095	95.38
518.311	90.38
518.527	86.38
518.742	82.38
518.958	84.38
519.173	79.38
519.389	86.38
519.605	84.38
