Data from Coke_Can_Bottom_HRD10591_00007.txt Node
Date: Wed Nov 05 15:46:15 EST 2025
User: Yrep
Spectrometer: HR+D1059
Trigger mode: 1
Integration Time (sec): 1.000000E-1
Scans to average: 1
Electric dark correction enabled: true
Nonlinearity correction enabled: false
Boxcar width: 0
XAxis mode: Wavelengths
Number of Pixels in Spectrum: 2048
>>>>>Begin Spectral Data<<<<<
223.165	-21.12
223.4	-21.12
223.635	-21.12
223.869	-13.12
224.104	-19.12
224.338	-23.12
224.573	-7.12
224.808	-20.12
225.042	-21.12
225.277	-17.12
225.511	10.88
225.746	13.88
225.98	12.88
226.215	20.88
226.449	6.88
226.683	21.88
226.918	16.88
227.152	37.88
227.387	42.88
227.621	32.88
227.856	52.88
228.09	34.88
228.324	35.88
228.559	55.88
228.793	60.88
229.027	52.88
229.262	59.88
229.496	61.88
229.73	69.88
229.964	78.88
230.199	76.88
230.433	65.88
230.667	68.88
230.901	86.88
231.136	78.88
231.37	85.88
231.604	92.88
231.838	79.88
232.072	84.88
232.306	83.88
232.541	91.88
232.775	73.88
233.009	72.88
233.243	69.88
233.477	63.88
233.711	74.88
233.945	78.88
234.179	93.88
234.413	81.88
234.647	84.88
234.881	79.88
235.115	64.88
235.349	69.88
235.583	74.88
235.817	71.88
236.051	77.88
236.285	76.88
236.519	79.88
236.753	82.88
236.987	80.88
237.221	77.88
237.455	71.88
237.689	72.88
237.922	63.88
238.156	77.88
238.39	78.88
238.624	89.88
238.858	74.88
239.091	77.88
239.325	79.88
239.559	87.88
239.793	78.88
240.027	81.88
240.26	71.88
240.494	83.88
240.728	79.88
240.961	68.88
241.195	99.88
241.429	71.88
241.662	77.88
241.896	87.88
242.13	80.88
242.363	72.88
242.597	75.88
242.83	84.88
243.064	68.88
243.298	65.88
243.531	70.88
243.765	78.88
243.998	80.88
244.232	72.88
244.465	83.88
244.699	81.88
244.932	81.88
245.166	67.88
245.399	56.88
245.633	70.88
245.866	82.88
246.099	79.88
246.333	80.88
246.566	75.88
246.8	72.88
247.033	81.88
247.266	64.88
247.5	74.88
247.733	81.88
247.966	83.88
248.2	93.88
248.433	63.88
248.666	79.88
248.899	71.88
249.133	79.88
249.366	94.88
249.599	60.88
249.832	90.88
250.066	77.88
250.299	74.88
250.532	75.88
250.765	77.88
250.998	70.88
251.231	73.88
251.465	81.88
251.698	83.88
251.931	84.88
252.164	74.88
252.397	83.88
252.63	74.88
252.863	81.88
253.096	72.88
253.329	78.88
253.562	84.88
253.795	62.88
254.028	85.88
254.261	90.88
254.494	79.88
254.727	69.88
254.96	86.88
255.193	84.88
255.426	77.88
255.659	92.88
255.892	67.88
256.124	85.88
256.357	78.88
256.59	95.88
256.823	91.88
257.056	81.88
257.289	88.88
257.521	84.88
257.754	86.88
257.987	85.88
258.22	92.88
258.452	79.88
258.685	90.88
258.918	85.88
259.151	70.88
259.383	79.88
259.616	75.88
259.849	67.88
260.081	90.88
260.314	73.88
260.547	81.88
260.779	64.88
261.012	68.88
261.244	76.88
261.477	84.88
261.71	66.88
261.942	84.88
262.175	85.88
262.407	75.88
262.64	84.88
262.872	78.88
263.105	84.88
263.337	78.88
263.57	76.88
263.802	66.88
264.035	68.88
264.267	70.88
264.499	87.88
264.732	88.88
264.964	85.88
265.197	84.88
265.429	81.88
265.661	70.88
265.894	93.88
266.126	76.88
266.358	90.88
266.591	86.88
266.823	70.88
267.055	86.88
267.287	78.88
267.52	72.88
267.752	60.88
267.984	63.88
268.216	76.88
268.448	90.88
268.681	89.88
268.913	83.88
269.145	94.88
269.377	87.88
269.609	80.88
269.841	88.88
270.073	71.88
270.306	84.88
270.538	83.88
270.77	81.88
271.002	87.88
271.234	79.88
271.466	90.88
271.698	86.88
271.93	79.88
272.162	84.88
272.394	94.88
272.626	90.88
272.858	84.88
273.09	90.88
273.322	83.88
273.553	91.88
273.785	79.88
274.017	69.88
274.249	73.88
274.481	73.88
274.713	76.88
274.945	74.88
275.176	86.88
275.408	91.88
275.64	76.88
275.872	94.88
276.104	85.88
276.335	86.88
276.567	86.88
276.799	70.88
277.031	75.88
277.262	83.88
277.494	93.88
277.726	87.88
277.957	64.88
278.189	76.88
278.421	76.88
278.652	86.88
278.884	79.88
279.115	84.88
279.347	72.88
279.579	82.88
279.81	86.88
280.042	73.88
280.273	78.88
280.505	88.88
280.736	82.88
280.968	79.88
281.199	93.88
281.431	75.88
281.662	61.88
281.894	66.88
282.125	91.88
282.356	76.88
282.588	77.88
282.819	86.88
283.051	90.88
283.282	81.88
283.513	74.88
283.745	84.88
283.976	80.88
284.207	92.88
284.439	68.88
284.67	94.88
284.901	82.88
285.132	105.88
285.364	90.88
285.595	78.88
285.826	79.88
286.057	87.88
286.288	100.88
286.52	90.88
286.751	86.88
286.982	71.88
287.213	87.88
287.444	76.88
287.675	90.88
287.906	78.88
288.138	89.88
288.369	104.88
288.6	75.88
288.831	69.88
289.062	70.88
289.293	73.88
289.524	84.88
289.755	90.88
289.986	89.88
290.217	87.88
290.448	83.88
290.679	87.88
290.91	83.88
291.141	85.88
291.371	85.88
291.602	81.88
291.833	78.88
292.064	75.88
292.295	98.88
292.526	94.88
292.757	73.88
292.987	84.88
293.218	80.88
293.449	91.88
293.68	91.88
293.91	84.88
294.141	78.88
294.372	69.88
294.603	84.88
294.833	80.88
295.064	77.88
295.295	87.88
295.525	80.88
295.756	79.88
295.987	75.88
296.217	92.88
296.448	87.88
296.679	92.88
296.909	91.88
297.14	90.88
297.37	102.88
297.601	93.88
297.831	80.88
298.062	90.88
298.292	77.88
298.523	81.88
298.753	86.88
298.984	79.88
299.214	83.88
299.445	97.88
299.675	98.88
299.905	71.88
300.136	77.88
300.366	99.88
300.597	89.88
300.827	89.88
301.057	82.88
301.288	85.88
301.518	94.88
301.748	94.88
301.979	78.88
302.209	91.88
302.439	80.88
302.669	78.88
302.9	77.88
303.13	79.88
303.36	85.88
303.59	85.88
303.82	83.88
304.051	102.88
304.281	90.88
304.511	85.88
304.741	87.88
304.971	78.88
305.201	86.88
305.431	85.88
305.661	88.88
305.891	90.88
306.121	78.88
306.352	81.88
306.582	81.88
306.812	87.88
307.042	81.88
307.272	80.88
307.502	74.88
307.731	88.88
307.961	90.88
308.191	84.88
308.421	103.88
308.651	98.88
308.881	92.88
309.111	98.88
309.341	109.88
309.571	72.88
309.8	83.88
310.03	82.88
310.26	84.88
310.49	87.88
310.72	86.88
310.949	78.88
311.179	70.88
311.409	90.88
311.639	83.88
311.868	82.88
312.098	91.88
312.328	81.88
312.557	79.88
312.787	100.88
313.017	90.88
313.246	86.88
313.476	70.88
313.706	86.88
313.935	90.88
314.165	84.88
314.394	79.88
314.624	82.88
314.853	93.88
315.083	95.88
315.312	90.88
315.542	96.88
315.771	73.88
316.001	83.88
316.23	77.88
316.46	76.88
316.689	81.88
316.919	68.88
317.148	80.88
317.377	86.88
317.607	92.88
317.836	91.88
318.065	86.88
318.295	88.88
318.524	94.88
318.753	92.88
318.983	66.88
319.212	86.88
319.441	78.88
319.67	87.88
319.9	92.88
320.129	76.88
320.358	76.88
320.587	87.88
320.816	86.88
321.046	80.88
321.275	69.88
321.504	93.88
321.733	80.88
321.962	86.88
322.191	98.88
322.42	88.88
322.649	87.88
322.878	84.88
323.108	102.88
323.337	76.88
323.566	79.88
323.795	80.88
324.024	94.88
324.253	101.88
324.482	72.88
324.71	90.88
324.939	86.88
325.168	81.88
325.397	87.88
325.626	82.88
325.855	94.88
326.084	76.88
326.313	83.88
326.542	88.88
326.77	86.88
326.999	92.88
327.228	75.88
327.457	74.88
327.686	80.88
327.914	81.88
328.143	84.88
328.372	89.88
328.6	78.88
328.829	77.88
329.058	75.88
329.287	86.88
329.515	92.88
329.744	87.88
329.972	74.88
330.201	74.88
330.43	76.88
330.658	84.88
330.887	89.88
331.115	87.88
331.344	84.88
331.572	86.88
331.801	75.88
332.03	79.88
332.258	69.88
332.486	75.88
332.715	91.88
332.943	89.88
333.172	93.88
333.4	81.88
333.629	76.88
333.857	81.88
334.085	79.88
334.314	78.88
334.542	86.88
334.771	87.88
334.999	93.88
335.227	76.88
335.455	94.88
335.684	85.88
335.912	83.88
336.14	78.88
336.369	100.88
336.597	83.88
336.825	78.88
337.053	84.88
337.281	88.88
337.51	84.88
337.738	69.88
337.966	86.88
338.194	87.88
338.422	86.88
338.65	81.88
338.878	94.88
339.106	94.88
339.334	76.88
339.562	87.88
339.79	79.88
340.018	84.88
340.246	80.88
340.474	72.88
340.702	80.88
340.93	68.88
341.158	82.88
341.386	71.88
341.614	78.88
341.842	74.88
342.07	76.88
342.298	90.88
342.526	72.88
342.754	85.88
342.981	85.88
343.209	80.88
343.437	94.88
343.665	79.88
343.893	90.88
344.12	88.88
344.348	77.88
344.576	88.88
344.804	83.88
345.031	86.88
345.259	80.88
345.487	81.88
345.714	79.88
345.942	78.88
346.17	80.88
346.397	91.88
346.625	80.88
346.853	80.88
347.08	75.88
347.308	84.88
347.535	81.88
347.763	82.88
347.99	92.88
348.218	90.88
348.445	75.88
348.673	84.88
348.9	93.88
349.128	87.88
349.355	95.88
349.583	79.88
349.81	85.88
350.037	80.88
350.265	89.88
350.492	79.88
350.72	74.88
350.947	77.88
351.174	97.88
351.402	86.88
351.629	71.88
351.856	85.88
352.083	88.88
352.311	79.88
352.538	77.88
352.765	69.88
352.992	83.88
353.22	81.88
353.447	75.88
353.674	74.88
353.901	72.88
354.128	76.88
354.355	86.88
354.583	82.88
354.81	93.88
355.037	91.88
355.264	77.88
355.491	96.88
355.718	70.88
355.945	86.88
356.172	90.88
356.399	83.88
356.626	87.88
356.853	85.88
357.08	89.88
357.307	84.88
357.534	74.88
357.761	82.88
357.988	79.88
358.215	70.88
358.441	83.88
358.668	85.88
358.895	91.88
359.122	89.88
359.349	79.88
359.576	75.88
359.802	75.88
360.029	86.88
360.256	93.88
360.483	87.88
360.709	83.88
360.936	88.88
361.163	73.88
361.39	86.88
361.616	82.88
361.843	82.88
362.07	92.88
362.296	73.88
362.523	66.88
362.749	90.88
362.976	88.88
363.203	68.88
363.429	68.88
363.656	90.88
363.882	82.88
364.109	91.88
364.335	79.88
364.562	85.88
364.788	80.88
365.015	83.88
365.241	84.88
365.468	71.88
365.694	88.88
365.92	86.88
366.147	76.88
366.373	82.88
366.599	90.88
366.826	83.88
367.052	84.88
367.278	86.88
367.505	102.88
367.731	92.88
367.957	77.88
368.184	83.88
368.41	85.88
368.636	84.88
368.862	87.88
369.089	84.88
369.315	80.88
369.541	66.88
369.767	75.88
369.993	74.88
370.219	87.88
370.445	76.88
370.672	85.88
370.898	78.88
371.124	89.88
371.35	75.88
371.576	70.88
371.802	77.88
372.028	77.88
372.254	96.88
372.48	73.88
372.706	78.88
372.932	80.88
373.158	87.88
373.384	95.88
373.61	83.88
373.835	69.88
374.061	85.88
374.287	68.88
374.513	76.88
374.739	72.88
374.965	87.88
375.191	86.88
375.416	94.88
375.642	78.88
375.868	88.88
376.094	88.88
376.319	87.88
376.545	84.88
376.771	82.88
376.997	75.88
377.222	98.88
377.448	82.88
377.674	78.88
377.899	88.88
378.125	79.88
378.35	72.88
378.576	71.88
378.802	63.88
379.027	77.88
379.253	82.88
379.478	88.88
379.704	83.88
379.929	83.88
380.155	64.88
380.38	82.88
380.606	72.88
380.831	92.88
381.057	79.88
381.282	85.88
381.507	80.88
381.733	68.88
381.958	90.88
382.184	84.88
382.409	92.88
382.634	86.88
382.86	81.88
383.085	79.88
383.31	77.88
383.535	99.88
383.761	93.88
383.986	80.88
384.211	95.88
384.436	87.88
384.662	91.88
384.887	80.88
385.112	98.88
385.337	94.88
385.562	94.88
385.787	91.88
386.013	81.88
386.238	77.88
386.463	84.88
386.688	97.88
386.913	84.88
387.138	114.88
387.363	87.88
387.588	82.88
387.813	107.88
388.038	93.88
388.263	91.88
388.488	98.88
388.713	81.88
388.938	70.88
389.163	78.88
389.387	91.88
389.612	84.88
389.837	77.88
390.062	89.88
390.287	78.88
390.512	74.88
390.736	68.88
390.961	78.88
391.186	91.88
391.411	80.88
391.636	84.88
391.86	81.88
392.085	69.88
392.31	73.88
392.534	83.88
392.759	82.88
392.984	96.88
393.208	87.88
393.433	78.88
393.658	81.88
393.882	93.88
394.107	95.88
394.331	139.88
394.556	134.88
394.78	114.88
395.005	80.88
395.229	90.88
395.454	101.88
395.678	98.88
395.903	124.88
396.127	171.88
396.352	181.88
396.576	84.88
396.801	71.88
397.025	91.88
397.249	76.88
397.474	89.88
397.698	86.88
397.922	76.88
398.147	80.88
398.371	82.88
398.595	86.88
398.82	80.88
399.044	70.88
399.268	65.88
399.492	92.88
399.717	85.88
399.941	73.88
400.165	77.88
400.389	74.88
400.613	80.88
400.837	87.88
401.062	80.88
401.286	85.88
401.51	81.88
401.734	76.88
401.958	90.88
402.182	89.88
402.406	78.88
402.63	87.88
402.854	94.88
403.078	91.88
403.302	91.88
403.526	75.88
403.75	75.88
403.974	88.88
404.198	66.88
404.422	82.88
404.645	72.88
404.869	85.88
405.093	100.88
405.317	82.88
405.541	71.88
405.765	96.88
405.988	87.88
406.212	90.88
406.436	76.88
406.66	75.88
406.883	69.88
407.107	89.88
407.331	83.88
407.555	78.88
407.778	90.88
408.002	74.88
408.226	87.88
408.449	76.88
408.673	87.88
408.896	80.88
409.12	80.88
409.344	80.88
409.567	90.88
409.791	68.88
410.014	83.88
410.238	85.88
410.461	89.88
410.685	91.88
410.908	72.88
411.132	93.88
411.355	106.88
411.578	77.88
411.802	77.88
412.025	107.88
412.249	81.88
412.472	58.88
412.695	80.88
412.919	102.88
413.142	73.88
413.365	98.88
413.589	83.88
413.812	89.88
414.035	87.88
414.258	80.88
414.482	82.88
414.705	92.88
414.928	76.88
415.151	68.88
415.374	71.88
415.597	78.88
415.821	78.88
416.044	104.88
416.267	88.88
416.49	70.88
416.713	77.88
416.936	91.88
417.159	94.88
417.382	81.88
417.605	91.88
417.828	84.88
418.051	88.88
418.274	79.88
418.497	76.88
418.72	80.88
418.943	76.88
419.166	86.88
419.389	87.88
419.611	90.88
419.834	77.88
420.057	70.88
420.28	78.88
420.503	78.88
420.726	100.88
420.948	91.88
421.171	83.88
421.394	73.88
421.617	77.88
421.839	86.88
422.062	81.88
422.285	90.88
422.507	85.88
422.73	82.88
422.953	64.88
423.175	87.88
423.398	87.88
423.621	78.88
423.843	80.88
424.066	92.88
424.288	85.88
424.511	81.88
424.733	79.88
424.956	78.88
425.178	87.88
425.401	78.88
425.623	88.88
425.846	74.88
426.068	76.88
426.291	83.88
426.513	74.88
426.735	84.88
426.958	72.88
427.18	81.88
427.402	77.88
427.625	85.88
427.847	76.88
428.069	86.88
428.292	68.88
428.514	80.88
428.736	86.88
428.958	84.88
429.181	96.88
429.403	73.88
429.625	70.88
429.847	69.88
430.069	78.88
430.292	72.88
430.514	76.88
430.736	92.88
430.958	91.88
431.18	74.88
431.402	81.88
431.624	71.88
431.846	72.88
432.068	63.88
432.29	77.88
432.512	69.88
432.734	86.88
432.956	83.88
433.178	88.88
433.4	80.88
433.622	85.88
433.844	75.88
434.066	89.88
434.287	90.88
434.509	88.88
434.731	74.88
434.953	72.88
435.175	79.88
435.397	90.88
435.618	83.88
435.84	81.88
436.062	71.88
436.284	86.88
436.505	77.88
436.727	78.88
436.949	76.88
437.17	90.88
437.392	79.88
437.614	88.88
437.835	74.88
438.057	83.88
438.278	86.88
438.5	83.88
438.721	83.88
438.943	85.88
439.165	82.88
439.386	85.88
439.608	87.88
439.829	75.88
440.05	76.88
440.272	79.88
440.493	92.88
440.715	78.88
440.936	81.88
441.158	83.88
441.379	75.88
441.6	81.88
441.822	79.88
442.043	85.88
442.264	85.88
442.486	91.88
442.707	74.88
442.928	78.88
443.149	80.88
443.371	72.88
443.592	71.88
443.813	64.88
444.034	75.88
444.255	82.88
444.476	79.88
444.698	88.88
444.919	94.88
445.14	150.88
445.361	116.88
445.582	71.88
445.803	78.88
446.024	75.88
446.245	81.88
446.466	94.88
446.687	85.88
446.908	84.88
447.129	80.88
447.35	95.88
447.571	66.88
447.792	82.88
448.013	84.88
448.234	93.88
448.455	84.88
448.675	76.88
448.896	84.88
449.117	78.88
449.338	72.88
449.559	88.88
449.779	81.88
450	76.88
450.221	69.88
450.442	77.88
450.662	78.88
450.883	95.88
451.104	77.88
451.324	83.88
451.545	82.88
451.766	85.88
451.986	83.88
452.207	88.88
452.428	82.88
452.648	90.88
452.869	87.88
453.089	88.88
453.31	89.88
453.53	92.88
453.751	84.88
453.971	75.88
454.192	84.88
454.412	80.88
454.633	78.88
454.853	88.88
455.073	85.88
455.294	81.88
455.514	79.88
455.734	81.88
455.955	81.88
456.175	78.88
456.395	73.88
456.616	100.88
456.836	91.88
457.056	83.88
457.276	83.88
457.497	75.88
457.717	77.88
457.937	89.88
458.157	76.88
458.377	85.88
458.598	70.88
458.818	80.88
459.038	73.88
459.258	98.88
459.478	69.88
459.698	70.88
459.918	65.88
460.138	78.88
460.358	77.88
460.578	95.88
460.798	72.88
461.018	73.88
461.238	78.88
461.458	80.88
461.678	83.88
461.898	84.88
462.118	84.88
462.338	85.88
462.558	75.88
462.777	79.88
462.997	85.88
463.217	68.88
463.437	74.88
463.657	77.88
463.876	74.88
464.096	79.88
464.316	82.88
464.536	79.88
464.755	75.88
464.975	101.88
465.195	81.88
465.414	88.88
465.634	98.88
465.854	84.88
466.073	74.88
466.293	79.88
466.512	76.88
466.732	77.88
466.951	79.88
467.171	95.88
467.391	87.88
467.61	76.88
467.829	90.88
468.049	80.88
468.268	95.88
468.488	88.88
468.707	79.88
468.927	90.88
469.146	69.88
469.365	82.88
469.585	81.88
469.804	87.88
470.023	77.88
470.243	98.88
470.462	80.88
470.681	90.88
470.901	93.88
471.12	78.88
471.339	95.88
471.558	88.88
471.777	72.88
471.997	92.88
472.216	101.88
472.435	86.88
472.654	77.88
472.873	89.88
473.092	91.88
473.311	83.88
473.53	76.88
473.749	82.88
473.968	76.88
474.187	76.88
474.406	75.88
474.625	84.88
474.844	88.88
475.063	71.88
475.282	90.88
475.501	84.88
475.72	76.88
475.939	74.88
476.158	88.88
476.377	76.88
476.596	83.88
476.814	72.88
477.033	86.88
477.252	79.88
477.471	70.88
477.69	79.88
477.908	80.88
478.127	79.88
478.346	79.88
478.564	91.88
478.783	84.88
479.002	70.88
479.22	85.88
479.439	91.88
479.658	79.88
479.876	70.88
480.095	86.88
480.313	79.88
480.532	84.88
480.751	94.88
480.969	70.88
481.188	85.88
481.406	79.88
481.624	75.88
481.843	98.88
482.061	86.88
482.28	74.88
482.498	89.88
482.717	92.88
482.935	80.88
483.153	87.88
483.372	62.88
483.59	83.88
483.808	80.88
484.027	74.88
484.245	90.88
484.463	88.88
484.681	90.88
484.9	78.88
485.118	81.88
485.336	89.88
485.554	94.88
485.772	84.88
485.99	78.88
486.209	96.88
486.427	90.88
486.645	88.88
486.863	113.88
487.081	96.88
487.299	88.88
487.517	83.88
487.735	87.88
487.953	89.88
488.171	93.88
488.389	80.88
488.607	78.88
488.825	91.88
489.043	92.88
489.261	96.88
489.479	93.88
489.696	103.88
489.914	85.88
490.132	98.88
490.35	98.88
490.568	64.88
490.786	90.88
491.003	84.88
491.221	98.88
491.439	84.88
491.657	87.88
491.874	91.88
492.092	87.88
492.31	96.88
492.527	77.88
492.745	88.88
492.963	74.88
493.18	86.88
493.398	90.88
493.615	83.88
493.833	94.88
494.05	86.88
494.268	86.88
494.485	84.88
494.703	78.88
494.92	81.88
495.138	94.88
495.355	87.88
495.573	74.88
495.79	93.88
496.008	79.88
496.225	72.88
496.442	94.88
496.66	90.88
496.877	86.88
497.094	89.88
497.312	91.88
497.529	85.88
497.746	80.88
497.963	82.88
498.181	96.88
498.398	87.88
498.615	84.88
498.832	79.88
499.049	69.88
499.267	81.88
499.484	91.88
499.701	87.88
499.918	89.88
500.135	89.88
500.352	99.88
500.569	84.88
500.786	81.88
501.003	82.88
501.22	89.88
501.437	87.88
501.654	86.88
501.871	84.88
502.088	73.88
502.305	82.88
502.522	74.88
502.739	74.88
502.956	80.88
503.172	76.88
503.389	86.88
503.606	76.88
503.823	83.88
504.04	99.88
504.256	78.88
504.473	86.88
504.69	71.88
504.907	87.88
505.123	92.88
505.34	78.88
505.557	95.88
505.773	88.88
505.99	81.88
506.207	69.88
506.423	86.88
506.64	77.88
506.856	77.88
507.073	88.88
507.289	87.88
507.506	71.88
507.722	93.88
507.939	82.88
508.155	91.88
508.372	95.88
508.588	72.88
508.805	90.88
509.021	91.88
509.238	75.88
509.454	75.88
509.67	90.88
509.887	84.88
510.103	88.88
510.319	80.88
510.536	84.88
510.752	84.88
510.968	81.88
511.184	87.88
511.401	77.88
511.617	73.88
511.833	83.88
512.049	78.88
512.265	86.88
512.481	88.88
512.698	91.88
512.914	81.88
513.13	82.88
513.346	91.88
513.562	88.88
513.778	78.88
513.994	99.88
514.21	102.88
514.426	84.88
514.642	94.88
514.858	90.88
515.074	88.88
515.29	97.88
515.506	80.88
515.721	92.88
515.937	77.88
516.153	90.88
516.369	90.88
516.585	91.88
516.801	88.88
517.016	74.88
517.232	93.88
517.448	87.88
517.664	92.88
517.879	90.88
518.095	86.88
518.311	93.88
518.527	89.88
518.742	89.88
518.958	90.88
519.173	86.88
519.389	89.88
519.605	69.88
