Data from Coke_Can_Bottom_HRD10591_00011.txt Node
Date: Wed Nov 05 15:46:17 EST 2025
User: Yrep
Spectrometer: HR+D1059
Trigger mode: 1
Integration Time (sec): 1.000000E-1
Scans to average: 1
Electric dark correction enabled: true
Nonlinearity correction enabled: false
Boxcar width: 0
XAxis mode: Wavelengths
Number of Pixels in Spectrum: 2048
>>>>>Begin Spectral Data<<<<<
223.165	-24.5
223.4	-24.5
223.635	-24.5
223.869	-25.5
224.104	-15.5
224.338	-7.5
224.573	-6.5
224.808	-22.5
225.042	-7.5
225.277	0.5
225.511	-3.5
225.746	5.5
225.98	15.5
226.215	10.5
226.449	5.5
226.683	17.5
226.918	24.5
227.152	33.5
227.387	39.5
227.621	41.5
227.856	45.5
228.09	50.5
228.324	64.5
228.559	47.5
228.793	63.5
229.027	53.5
229.262	75.5
229.496	60.5
229.73	73.5
229.964	78.5
230.199	80.5
230.433	78.5
230.667	72.5
230.901	61.5
231.136	76.5
231.37	81.5
231.604	88.5
231.838	88.5
232.072	72.5
232.306	94.5
232.541	83.5
232.775	96.5
233.009	85.5
233.243	98.5
233.477	85.5
233.711	77.5
233.945	74.5
234.179	77.5
234.413	77.5
234.647	92.5
234.881	81.5
235.115	91.5
235.349	87.5
235.583	79.5
235.817	82.5
236.051	85.5
236.285	81.5
236.519	80.5
236.753	78.5
236.987	77.5
237.221	75.5
237.455	62.5
237.689	101.5
237.922	76.5
238.156	76.5
238.39	68.5
238.624	91.5
238.858	65.5
239.091	75.5
239.325	75.5
239.559	68.5
239.793	72.5
240.027	70.5
240.26	72.5
240.494	74.5
240.728	83.5
240.961	87.5
241.195	87.5
241.429	83.5
241.662	77.5
241.896	70.5
242.13	83.5
242.363	80.5
242.597	80.5
242.83	78.5
243.064	78.5
243.298	87.5
243.531	85.5
243.765	88.5
243.998	73.5
244.232	83.5
244.465	85.5
244.699	71.5
244.932	88.5
245.166	67.5
245.399	66.5
245.633	71.5
245.866	72.5
246.099	73.5
246.333	86.5
246.566	85.5
246.8	72.5
247.033	79.5
247.266	81.5
247.5	91.5
247.733	80.5
247.966	73.5
248.2	92.5
248.433	90.5
248.666	71.5
248.899	88.5
249.133	75.5
249.366	79.5
249.599	77.5
249.832	79.5
250.066	85.5
250.299	76.5
250.532	93.5
250.765	79.5
250.998	75.5
251.231	76.5
251.465	88.5
251.698	79.5
251.931	78.5
252.164	67.5
252.397	77.5
252.63	87.5
252.863	83.5
253.096	73.5
253.329	77.5
253.562	79.5
253.795	56.5
254.028	80.5
254.261	75.5
254.494	91.5
254.727	77.5
254.96	79.5
255.193	79.5
255.426	82.5
255.659	93.5
255.892	87.5
256.124	78.5
256.357	91.5
256.59	76.5
256.823	71.5
257.056	75.5
257.289	91.5
257.521	84.5
257.754	71.5
257.987	88.5
258.22	79.5
258.452	74.5
258.685	71.5
258.918	71.5
259.151	69.5
259.383	82.5
259.616	89.5
259.849	83.5
260.081	83.5
260.314	87.5
260.547	86.5
260.779	78.5
261.012	68.5
261.244	90.5
261.477	82.5
261.71	79.5
261.942	84.5
262.175	71.5
262.407	89.5
262.64	81.5
262.872	79.5
263.105	82.5
263.337	77.5
263.57	93.5
263.802	82.5
264.035	82.5
264.267	81.5
264.499	83.5
264.732	75.5
264.964	89.5
265.197	97.5
265.429	83.5
265.661	92.5
265.894	85.5
266.126	95.5
266.358	73.5
266.591	87.5
266.823	92.5
267.055	79.5
267.287	85.5
267.52	87.5
267.752	78.5
267.984	85.5
268.216	79.5
268.448	83.5
268.681	73.5
268.913	87.5
269.145	80.5
269.377	89.5
269.609	73.5
269.841	87.5
270.073	85.5
270.306	83.5
270.538	94.5
270.77	79.5
271.002	81.5
271.234	80.5
271.466	81.5
271.698	80.5
271.93	81.5
272.162	77.5
272.394	73.5
272.626	87.5
272.858	77.5
273.09	87.5
273.322	93.5
273.553	88.5
273.785	81.5
274.017	81.5
274.249	89.5
274.481	83.5
274.713	63.5
274.945	75.5
275.176	89.5
275.408	91.5
275.64	87.5
275.872	84.5
276.104	77.5
276.335	79.5
276.567	90.5
276.799	84.5
277.031	93.5
277.262	93.5
277.494	99.5
277.726	80.5
277.957	91.5
278.189	98.5
278.421	89.5
278.652	67.5
278.884	79.5
279.115	89.5
279.347	89.5
279.579	86.5
279.81	88.5
280.042	87.5
280.273	96.5
280.505	92.5
280.736	91.5
280.968	91.5
281.199	88.5
281.431	85.5
281.662	84.5
281.894	88.5
282.125	91.5
282.356	85.5
282.588	96.5
282.819	81.5
283.051	77.5
283.282	78.5
283.513	79.5
283.745	91.5
283.976	79.5
284.207	84.5
284.439	89.5
284.67	100.5
284.901	94.5
285.132	83.5
285.364	81.5
285.595	84.5
285.826	94.5
286.057	103.5
286.288	90.5
286.52	96.5
286.751	75.5
286.982	81.5
287.213	87.5
287.444	90.5
287.675	89.5
287.906	95.5
288.138	87.5
288.369	91.5
288.6	76.5
288.831	76.5
289.062	88.5
289.293	79.5
289.524	78.5
289.755	76.5
289.986	73.5
290.217	85.5
290.448	83.5
290.679	79.5
290.91	93.5
291.141	85.5
291.371	106.5
291.602	79.5
291.833	83.5
292.064	92.5
292.295	76.5
292.526	75.5
292.757	86.5
292.987	76.5
293.218	75.5
293.449	89.5
293.68	83.5
293.91	89.5
294.141	80.5
294.372	93.5
294.603	83.5
294.833	89.5
295.064	76.5
295.295	79.5
295.525	77.5
295.756	82.5
295.987	89.5
296.217	83.5
296.448	85.5
296.679	73.5
296.909	81.5
297.14	80.5
297.37	89.5
297.601	83.5
297.831	80.5
298.062	95.5
298.292	77.5
298.523	82.5
298.753	87.5
298.984	88.5
299.214	86.5
299.445	89.5
299.675	91.5
299.905	85.5
300.136	83.5
300.366	86.5
300.597	83.5
300.827	92.5
301.057	80.5
301.288	80.5
301.518	94.5
301.748	88.5
301.979	86.5
302.209	94.5
302.439	84.5
302.669	77.5
302.9	93.5
303.13	92.5
303.36	115.5
303.59	99.5
303.82	78.5
304.051	88.5
304.281	81.5
304.511	100.5
304.741	87.5
304.971	105.5
305.201	93.5
305.431	93.5
305.661	76.5
305.891	80.5
306.121	84.5
306.352	84.5
306.582	88.5
306.812	94.5
307.042	88.5
307.272	97.5
307.502	80.5
307.731	102.5
307.961	101.5
308.191	85.5
308.421	95.5
308.651	90.5
308.881	75.5
309.111	95.5
309.341	95.5
309.571	112.5
309.8	89.5
310.03	73.5
310.26	72.5
310.49	90.5
310.72	85.5
310.949	90.5
311.179	79.5
311.409	94.5
311.639	85.5
311.868	104.5
312.098	81.5
312.328	85.5
312.557	98.5
312.787	71.5
313.017	69.5
313.246	87.5
313.476	81.5
313.706	91.5
313.935	80.5
314.165	77.5
314.394	95.5
314.624	95.5
314.853	96.5
315.083	81.5
315.312	82.5
315.542	78.5
315.771	79.5
316.001	97.5
316.23	81.5
316.46	93.5
316.689	80.5
316.919	90.5
317.148	83.5
317.377	77.5
317.607	99.5
317.836	84.5
318.065	87.5
318.295	84.5
318.524	88.5
318.753	79.5
318.983	88.5
319.212	87.5
319.441	80.5
319.67	85.5
319.9	81.5
320.129	67.5
320.358	78.5
320.587	92.5
320.816	87.5
321.046	87.5
321.275	71.5
321.504	74.5
321.733	79.5
321.962	85.5
322.191	99.5
322.42	85.5
322.649	93.5
322.878	91.5
323.108	89.5
323.337	103.5
323.566	92.5
323.795	87.5
324.024	87.5
324.253	88.5
324.482	95.5
324.71	86.5
324.939	87.5
325.168	89.5
325.397	80.5
325.626	87.5
325.855	96.5
326.084	93.5
326.313	95.5
326.542	96.5
326.77	98.5
326.999	78.5
327.228	75.5
327.457	77.5
327.686	75.5
327.914	99.5
328.143	86.5
328.372	88.5
328.6	85.5
328.829	85.5
329.058	87.5
329.287	74.5
329.515	95.5
329.744	80.5
329.972	72.5
330.201	92.5
330.43	78.5
330.658	103.5
330.887	89.5
331.115	89.5
331.344	84.5
331.572	83.5
331.801	74.5
332.03	95.5
332.258	87.5
332.486	80.5
332.715	96.5
332.943	73.5
333.172	81.5
333.4	68.5
333.629	73.5
333.857	85.5
334.085	92.5
334.314	86.5
334.542	88.5
334.771	87.5
334.999	70.5
335.227	87.5
335.455	85.5
335.684	99.5
335.912	92.5
336.14	94.5
336.369	89.5
336.597	82.5
336.825	84.5
337.053	88.5
337.281	92.5
337.51	88.5
337.738	86.5
337.966	81.5
338.194	81.5
338.422	91.5
338.65	92.5
338.878	89.5
339.106	79.5
339.334	92.5
339.562	76.5
339.79	76.5
340.018	94.5
340.246	87.5
340.474	94.5
340.702	86.5
340.93	90.5
341.158	87.5
341.386	82.5
341.614	80.5
341.842	85.5
342.07	79.5
342.298	82.5
342.526	73.5
342.754	89.5
342.981	87.5
343.209	81.5
343.437	93.5
343.665	70.5
343.893	87.5
344.12	86.5
344.348	90.5
344.576	97.5
344.804	89.5
345.031	87.5
345.259	95.5
345.487	91.5
345.714	77.5
345.942	65.5
346.17	88.5
346.397	88.5
346.625	88.5
346.853	79.5
347.08	91.5
347.308	88.5
347.535	87.5
347.763	85.5
347.99	93.5
348.218	87.5
348.445	88.5
348.673	93.5
348.9	101.5
349.128	95.5
349.355	71.5
349.583	77.5
349.81	71.5
350.037	94.5
350.265	89.5
350.492	92.5
350.72	88.5
350.947	88.5
351.174	86.5
351.402	93.5
351.629	91.5
351.856	86.5
352.083	92.5
352.311	85.5
352.538	82.5
352.765	93.5
352.992	86.5
353.22	95.5
353.447	99.5
353.674	96.5
353.901	85.5
354.128	89.5
354.355	86.5
354.583	71.5
354.81	83.5
355.037	91.5
355.264	92.5
355.491	92.5
355.718	92.5
355.945	99.5
356.172	96.5
356.399	85.5
356.626	96.5
356.853	80.5
357.08	80.5
357.307	71.5
357.534	95.5
357.761	90.5
357.988	86.5
358.215	84.5
358.441	80.5
358.668	80.5
358.895	85.5
359.122	69.5
359.349	98.5
359.576	83.5
359.802	82.5
360.029	82.5
360.256	77.5
360.483	85.5
360.709	77.5
360.936	95.5
361.163	87.5
361.39	81.5
361.616	94.5
361.843	92.5
362.07	75.5
362.296	89.5
362.523	85.5
362.749	90.5
362.976	81.5
363.203	83.5
363.429	80.5
363.656	74.5
363.882	86.5
364.109	75.5
364.335	97.5
364.562	89.5
364.788	100.5
365.015	92.5
365.241	94.5
365.468	87.5
365.694	76.5
365.92	98.5
366.147	73.5
366.373	72.5
366.599	80.5
366.826	89.5
367.052	82.5
367.278	93.5
367.505	80.5
367.731	89.5
367.957	87.5
368.184	92.5
368.41	88.5
368.636	76.5
368.862	79.5
369.089	62.5
369.315	89.5
369.541	87.5
369.767	92.5
369.993	85.5
370.219	67.5
370.445	71.5
370.672	81.5
370.898	94.5
371.124	104.5
371.35	76.5
371.576	87.5
371.802	80.5
372.028	81.5
372.254	88.5
372.48	82.5
372.706	75.5
372.932	79.5
373.158	93.5
373.384	87.5
373.61	88.5
373.835	95.5
374.061	94.5
374.287	75.5
374.513	91.5
374.739	75.5
374.965	87.5
375.191	86.5
375.416	89.5
375.642	107.5
375.868	104.5
376.094	79.5
376.319	89.5
376.545	78.5
376.771	77.5
376.997	86.5
377.222	75.5
377.448	72.5
377.674	77.5
377.899	92.5
378.125	91.5
378.35	97.5
378.576	83.5
378.802	96.5
379.027	87.5
379.253	80.5
379.478	95.5
379.704	86.5
379.929	82.5
380.155	89.5
380.38	79.5
380.606	97.5
380.831	68.5
381.057	96.5
381.282	89.5
381.507	95.5
381.733	88.5
381.958	95.5
382.184	78.5
382.409	81.5
382.634	90.5
382.86	81.5
383.085	97.5
383.31	116.5
383.535	87.5
383.761	90.5
383.986	85.5
384.211	83.5
384.436	89.5
384.662	96.5
384.887	94.5
385.112	92.5
385.337	89.5
385.562	93.5
385.787	85.5
386.013	99.5
386.238	106.5
386.463	98.5
386.688	110.5
386.913	93.5
387.138	100.5
387.363	96.5
387.588	92.5
387.813	98.5
388.038	99.5
388.263	95.5
388.488	95.5
388.713	91.5
388.938	87.5
389.163	80.5
389.387	79.5
389.612	67.5
389.837	94.5
390.062	95.5
390.287	84.5
390.512	96.5
390.736	96.5
390.961	82.5
391.186	72.5
391.411	86.5
391.636	80.5
391.86	87.5
392.085	94.5
392.31	84.5
392.534	101.5
392.759	86.5
392.984	89.5
393.208	92.5
393.433	76.5
393.658	85.5
393.882	88.5
394.107	108.5
394.331	137.5
394.556	139.5
394.78	112.5
395.005	91.5
395.229	93.5
395.454	66.5
395.678	87.5
395.903	129.5
396.127	183.5
396.352	177.5
396.576	103.5
396.801	87.5
397.025	88.5
397.249	77.5
397.474	79.5
397.698	79.5
397.922	84.5
398.147	85.5
398.371	67.5
398.595	97.5
398.82	87.5
399.044	81.5
399.268	91.5
399.492	89.5
399.717	90.5
399.941	71.5
400.165	87.5
400.389	82.5
400.613	107.5
400.837	80.5
401.062	78.5
401.286	74.5
401.51	75.5
401.734	79.5
401.958	88.5
402.182	75.5
402.406	83.5
402.63	90.5
402.854	83.5
403.078	102.5
403.302	96.5
403.526	79.5
403.75	90.5
403.974	85.5
404.198	89.5
404.422	89.5
404.645	68.5
404.869	77.5
405.093	73.5
405.317	85.5
405.541	90.5
405.765	100.5
405.988	83.5
406.212	77.5
406.436	93.5
406.66	87.5
406.883	79.5
407.107	71.5
407.331	92.5
407.555	83.5
407.778	89.5
408.002	81.5
408.226	87.5
408.449	91.5
408.673	92.5
408.896	86.5
409.12	84.5
409.344	89.5
409.567	73.5
409.791	89.5
410.014	79.5
410.238	86.5
410.461	78.5
410.685	96.5
410.908	85.5
411.132	90.5
411.355	87.5
411.578	95.5
411.802	80.5
412.025	79.5
412.249	92.5
412.472	83.5
412.695	71.5
412.919	86.5
413.142	92.5
413.365	96.5
413.589	91.5
413.812	93.5
414.035	87.5
414.258	93.5
414.482	87.5
414.705	82.5
414.928	93.5
415.151	93.5
415.374	81.5
415.597	81.5
415.821	74.5
416.044	92.5
416.267	81.5
416.49	77.5
416.713	77.5
416.936	82.5
417.159	82.5
417.382	91.5
417.605	80.5
417.828	95.5
418.051	92.5
418.274	77.5
418.497	83.5
418.72	73.5
418.943	102.5
419.166	94.5
419.389	84.5
419.611	89.5
419.834	93.5
420.057	95.5
420.28	91.5
420.503	87.5
420.726	96.5
420.948	74.5
421.171	64.5
421.394	82.5
421.617	77.5
421.839	85.5
422.062	95.5
422.285	88.5
422.507	87.5
422.73	85.5
422.953	72.5
423.175	93.5
423.398	83.5
423.621	89.5
423.843	83.5
424.066	77.5
424.288	95.5
424.511	79.5
424.733	78.5
424.956	73.5
425.178	84.5
425.401	88.5
425.623	95.5
425.846	71.5
426.068	79.5
426.291	81.5
426.513	81.5
426.735	87.5
426.958	89.5
427.18	106.5
427.402	88.5
427.625	88.5
427.847	96.5
428.069	74.5
428.292	89.5
428.514	81.5
428.736	91.5
428.958	79.5
429.181	79.5
429.403	70.5
429.625	88.5
429.847	87.5
430.069	82.5
430.292	77.5
430.514	74.5
430.736	82.5
430.958	84.5
431.18	89.5
431.402	94.5
431.624	76.5
431.846	84.5
432.068	82.5
432.29	86.5
432.512	94.5
432.734	91.5
432.956	89.5
433.178	96.5
433.4	89.5
433.622	85.5
433.844	84.5
434.066	84.5
434.287	81.5
434.509	73.5
434.731	100.5
434.953	91.5
435.175	77.5
435.397	84.5
435.618	79.5
435.84	74.5
436.062	108.5
436.284	78.5
436.505	90.5
436.727	87.5
436.949	80.5
437.17	81.5
437.392	87.5
437.614	86.5
437.835	88.5
438.057	84.5
438.278	67.5
438.5	86.5
438.721	87.5
438.943	87.5
439.165	86.5
439.386	95.5
439.608	89.5
439.829	91.5
440.05	84.5
440.272	83.5
440.493	88.5
440.715	105.5
440.936	82.5
441.158	98.5
441.379	84.5
441.6	85.5
441.822	81.5
442.043	79.5
442.264	75.5
442.486	78.5
442.707	81.5
442.928	87.5
443.149	89.5
443.371	92.5
443.592	87.5
443.813	103.5
444.034	74.5
444.255	73.5
444.476	73.5
444.698	81.5
444.919	74.5
445.14	154.5
445.361	104.5
445.582	87.5
445.803	90.5
446.024	80.5
446.245	92.5
446.466	78.5
446.687	87.5
446.908	93.5
447.129	94.5
447.35	81.5
447.571	77.5
447.792	89.5
448.013	75.5
448.234	87.5
448.455	99.5
448.675	77.5
448.896	84.5
449.117	72.5
449.338	91.5
449.559	89.5
449.779	98.5
450	93.5
450.221	87.5
450.442	88.5
450.662	97.5
450.883	88.5
451.104	81.5
451.324	93.5
451.545	93.5
451.766	86.5
451.986	84.5
452.207	86.5
452.428	75.5
452.648	86.5
452.869	89.5
453.089	83.5
453.31	89.5
453.53	87.5
453.751	94.5
453.971	79.5
454.192	71.5
454.412	83.5
454.633	90.5
454.853	95.5
455.073	82.5
455.294	88.5
455.514	84.5
455.734	83.5
455.955	74.5
456.175	89.5
456.395	71.5
456.616	89.5
456.836	86.5
457.056	90.5
457.276	74.5
457.497	82.5
457.717	88.5
457.937	74.5
458.157	81.5
458.377	82.5
458.598	85.5
458.818	95.5
459.038	80.5
459.258	82.5
459.478	76.5
459.698	86.5
459.918	75.5
460.138	90.5
460.358	85.5
460.578	92.5
460.798	85.5
461.018	95.5
461.238	95.5
461.458	68.5
461.678	65.5
461.898	82.5
462.118	73.5
462.338	94.5
462.558	83.5
462.777	83.5
462.997	76.5
463.217	64.5
463.437	89.5
463.657	90.5
463.876	93.5
464.096	88.5
464.316	83.5
464.536	84.5
464.755	95.5
464.975	88.5
465.195	86.5
465.414	82.5
465.634	93.5
465.854	86.5
466.073	87.5
466.293	86.5
466.512	79.5
466.732	78.5
466.951	80.5
467.171	89.5
467.391	97.5
467.61	95.5
467.829	87.5
468.049	92.5
468.268	81.5
468.488	89.5
468.707	96.5
468.927	84.5
469.146	93.5
469.365	94.5
469.585	89.5
469.804	85.5
470.023	85.5
470.243	90.5
470.462	77.5
470.681	87.5
470.901	88.5
471.12	81.5
471.339	83.5
471.558	87.5
471.777	103.5
471.997	97.5
472.216	95.5
472.435	87.5
472.654	74.5
472.873	86.5
473.092	89.5
473.311	107.5
473.53	99.5
473.749	75.5
473.968	93.5
474.187	92.5
474.406	85.5
474.625	85.5
474.844	82.5
475.063	93.5
475.282	87.5
475.501	83.5
475.72	73.5
475.939	91.5
476.158	91.5
476.377	87.5
476.596	89.5
476.814	102.5
477.033	83.5
477.252	88.5
477.471	87.5
477.69	85.5
477.908	78.5
478.127	88.5
478.346	75.5
478.564	85.5
478.783	94.5
479.002	91.5
479.22	77.5
479.439	99.5
479.658	81.5
479.876	87.5
480.095	93.5
480.313	89.5
480.532	89.5
480.751	85.5
480.969	89.5
481.188	95.5
481.406	89.5
481.624	91.5
481.843	81.5
482.061	97.5
482.28	90.5
482.498	78.5
482.717	79.5
482.935	77.5
483.153	94.5
483.372	104.5
483.59	81.5
483.808	96.5
484.027	85.5
484.245	80.5
484.463	90.5
484.681	117.5
484.9	104.5
485.118	101.5
485.336	88.5
485.554	100.5
485.772	100.5
485.99	99.5
486.209	96.5
486.427	91.5
486.645	102.5
486.863	107.5
487.081	107.5
487.299	92.5
487.517	101.5
487.735	100.5
487.953	87.5
488.171	96.5
488.389	104.5
488.607	87.5
488.825	80.5
489.043	89.5
489.261	91.5
489.479	90.5
489.696	94.5
489.914	94.5
490.132	98.5
490.35	101.5
490.568	105.5
490.786	98.5
491.003	86.5
491.221	97.5
491.439	92.5
491.657	99.5
491.874	85.5
492.092	108.5
492.31	84.5
492.527	93.5
492.745	99.5
492.963	101.5
493.18	101.5
493.398	85.5
493.615	89.5
493.833	82.5
494.05	84.5
494.268	96.5
494.485	96.5
494.703	92.5
494.92	80.5
495.138	97.5
495.355	85.5
495.573	78.5
495.79	93.5
496.008	93.5
496.225	90.5
496.442	91.5
496.66	94.5
496.877	87.5
497.094	91.5
497.312	91.5
497.529	88.5
497.746	90.5
497.963	101.5
498.181	81.5
498.398	83.5
498.615	81.5
498.832	79.5
499.049	80.5
499.267	83.5
499.484	89.5
499.701	99.5
499.918	95.5
500.135	82.5
500.352	94.5
500.569	98.5
500.786	77.5
501.003	79.5
501.22	101.5
501.437	78.5
501.654	87.5
501.871	87.5
502.088	79.5
502.305	96.5
502.522	91.5
502.739	76.5
502.956	77.5
503.172	79.5
503.389	77.5
503.606	82.5
503.823	93.5
504.04	87.5
504.256	78.5
504.473	95.5
504.69	85.5
504.907	73.5
505.123	83.5
505.34	76.5
505.557	75.5
505.773	83.5
505.99	65.5
506.207	81.5
506.423	88.5
506.64	81.5
506.856	78.5
507.073	78.5
507.289	92.5
507.506	80.5
507.722	77.5
507.939	70.5
508.155	82.5
508.372	108.5
508.588	89.5
508.805	75.5
509.021	85.5
509.238	97.5
509.454	87.5
509.67	87.5
509.887	77.5
510.103	83.5
510.319	94.5
510.536	79.5
510.752	87.5
510.968	95.5
511.184	87.5
511.401	88.5
511.617	97.5
511.833	94.5
512.049	90.5
512.265	96.5
512.481	91.5
512.698	91.5
512.914	104.5
513.13	85.5
513.346	87.5
513.562	91.5
513.778	96.5
513.994	94.5
514.21	93.5
514.426	82.5
514.642	97.5
514.858	105.5
515.074	85.5
515.29	93.5
515.506	84.5
515.721	93.5
515.937	99.5
516.153	93.5
516.369	91.5
516.585	100.5
516.801	96.5
517.016	95.5
517.232	90.5
517.448	119.5
517.664	87.5
517.879	88.5
518.095	99.5
518.311	105.5
518.527	98.5
518.742	89.5
518.958	81.5
519.173	99.5
519.389	84.5
519.605	107.5
519.82	81.5
520.036	89.5
520.251	77.5
520.467	71.5
520.682	88.5
520.898	95.5
521.113	81.5
521.329	90.5
521.544	84.5
521.76	88.5
521.975	78.5
522.19	85.5
522.406	87.5
522.621	94.5
522.836	90.5
523.052	99.5
523.267	88.5
523.482	90.5
523.698	99.5
523.913	81.5
524.128	86.5
524.343	81.5
524.559	103.5
524.774	94.5
524.989	75.5
525.204	66.5
525.419	72.5
525.634	77.5
525.849	97.5
526.064	96.5
526.28	92.5
526.495	79.5
526.71	97.5
526.925	86.5
527.14	87.5
527.355	77.5
527.57	95.5
527.785	83.5
527.999	81.5
528.214	84.5
528.429	89.5
528.644	96.5
528.859	93.5
529.074	88.5
529.289	79.5
529.503	79.5
529.718	94.5
529.933	94.5
530.148	81.5
530.363	92.5
530.577	88.5
530.792	84.5
531.007	66.5
531.221	88.5
531.436	93.5
531.651	87.5
531.865	79.5
532.08	75.5
532.295	112.5
532.509	100.5
532.724	99.5
532.938	86.5
533.153	80.5
533.367	91.5
533.582	71.5
533.796	95.5
534.011	78.5
534.225	89.5
534.44	80.5
534.654	95.5
534.868	93.5
535.083	82.5
535.297	92.5
535.511	98.5
535.726	82.5
535.94	89.5
536.154	92.5
536.369	83.5
536.583	84.5
536.797	92.5
537.011	79.5
537.225	75.5
537.44	78.5
537.654	92.5
537.868	87.5
538.082	91.5
538.296	94.5
538.51	92.5
538.724	83.5
538.938	77.5
539.153	92.5
539.367	99.5
539.581	81.5
