Data from Coke_Can_Bottom_HRD10591_00012.txt Node
Date: Wed Nov 05 15:46:18 EST 2025
User: Yrep
Spectrometer: HR+D1059
Trigger mode: 1
Integration Time (sec): 1.000000E-1
Scans to average: 1
Electric dark correction enabled: true
Nonlinearity correction enabled: false
Boxcar width: 0
XAxis mode: Wavelengths
Number of Pixels in Spectrum: 2048
>>>>>Begin Spectral Data<<<<<
223.165	-24.75
223.4	-24.75
223.635	-24.75
223.869	-16.75
224.104	-18.75
224.338	-13.75
224.573	-14.75
224.808	-5.75
225.042	-3.75
225.277	-9.75
225.511	6.25
225.746	-6.75
225.98	-3.75
226.215	18.25
226.449	26.25
226.683	19.25
226.918	19.25
227.152	29.25
227.387	44.25
227.621	36.25
227.856	39.25
228.09	50.25
228.324	66.25
228.559	72.25
228.793	57.25
229.027	65.25
229.262	73.25
229.496	75.25
229.73	68.25
229.964	78.25
230.199	77.25
230.433	76.25
230.667	82.25
230.901	83.25
231.136	78.25
231.37	72.25
231.604	89.25
231.838	63.25
232.072	86.25
232.306	74.25
232.541	73.25
232.775	79.25
233.009	90.25
233.243	82.25
233.477	72.25
233.711	90.25
233.945	72.25
234.179	70.25
234.413	85.25
234.647	87.25
234.881	90.25
235.115	85.25
235.349	87.25
235.583	92.25
235.817	88.25
236.051	97.25
236.285	75.25
236.519	86.25
236.753	85.25
236.987	75.25
237.221	74.25
237.455	63.25
237.689	76.25
237.922	85.25
238.156	77.25
238.39	66.25
238.624	98.25
238.858	79.25
239.091	93.25
239.325	80.25
239.559	72.25
239.793	86.25
240.027	86.25
240.26	76.25
240.494	78.25
240.728	87.25
240.961	88.25
241.195	85.25
241.429	94.25
241.662	85.25
241.896	87.25
242.13	82.25
242.363	74.25
242.597	77.25
242.83	70.25
243.064	74.25
243.298	76.25
243.531	88.25
243.765	78.25
243.998	81.25
244.232	88.25
244.465	86.25
244.699	81.25
244.932	90.25
245.166	74.25
245.399	84.25
245.633	85.25
245.866	70.25
246.099	76.25
246.333	76.25
246.566	78.25
246.8	75.25
247.033	78.25
247.266	79.25
247.5	81.25
247.733	88.25
247.966	71.25
248.2	75.25
248.433	78.25
248.666	85.25
248.899	68.25
249.133	83.25
249.366	88.25
249.599	77.25
249.832	82.25
250.066	84.25
250.299	71.25
250.532	81.25
250.765	79.25
250.998	73.25
251.231	91.25
251.465	96.25
251.698	88.25
251.931	88.25
252.164	79.25
252.397	82.25
252.63	72.25
252.863	95.25
253.096	74.25
253.329	90.25
253.562	99.25
253.795	84.25
254.028	89.25
254.261	70.25
254.494	70.25
254.727	94.25
254.96	92.25
255.193	77.25
255.426	87.25
255.659	75.25
255.892	92.25
256.124	91.25
256.357	90.25
256.59	82.25
256.823	75.25
257.056	81.25
257.289	106.25
257.521	85.25
257.754	75.25
257.987	95.25
258.22	89.25
258.452	69.25
258.685	88.25
258.918	83.25
259.151	66.25
259.383	82.25
259.616	87.25
259.849	91.25
260.081	87.25
260.314	70.25
260.547	84.25
260.779	87.25
261.012	81.25
261.244	99.25
261.477	97.25
261.71	102.25
261.942	74.25
262.175	90.25
262.407	80.25
262.64	81.25
262.872	74.25
263.105	87.25
263.337	89.25
263.57	76.25
263.802	82.25
264.035	90.25
264.267	78.25
264.499	94.25
264.732	84.25
264.964	91.25
265.197	84.25
265.429	92.25
265.661	94.25
265.894	98.25
266.126	77.25
266.358	84.25
266.591	96.25
266.823	72.25
267.055	87.25
267.287	84.25
267.52	82.25
267.752	77.25
267.984	91.25
268.216	82.25
268.448	100.25
268.681	104.25
268.913	96.25
269.145	87.25
269.377	94.25
269.609	72.25
269.841	96.25
270.073	76.25
270.306	78.25
270.538	95.25
270.77	95.25
271.002	82.25
271.234	77.25
271.466	89.25
271.698	76.25
271.93	82.25
272.162	94.25
272.394	81.25
272.626	71.25
272.858	74.25
273.09	89.25
273.322	88.25
273.553	75.25
273.785	92.25
274.017	86.25
274.249	98.25
274.481	94.25
274.713	79.25
274.945	84.25
275.176	77.25
275.408	88.25
275.64	86.25
275.872	88.25
276.104	84.25
276.335	90.25
276.567	84.25
276.799	97.25
277.031	92.25
277.262	74.25
277.494	79.25
277.726	76.25
277.957	80.25
278.189	82.25
278.421	77.25
278.652	90.25
278.884	84.25
279.115	90.25
279.347	88.25
279.579	80.25
279.81	91.25
280.042	76.25
280.273	89.25
280.505	92.25
280.736	94.25
280.968	81.25
281.199	92.25
281.431	76.25
281.662	90.25
281.894	90.25
282.125	95.25
282.356	83.25
282.588	88.25
282.819	96.25
283.051	82.25
283.282	79.25
283.513	71.25
283.745	80.25
283.976	99.25
284.207	87.25
284.439	86.25
284.67	87.25
284.901	92.25
285.132	101.25
285.364	91.25
285.595	83.25
285.826	96.25
286.057	92.25
286.288	94.25
286.52	91.25
286.751	84.25
286.982	90.25
287.213	72.25
287.444	96.25
287.675	90.25
287.906	102.25
288.138	82.25
288.369	95.25
288.6	100.25
288.831	94.25
289.062	90.25
289.293	79.25
289.524	84.25
289.755	94.25
289.986	99.25
290.217	83.25
290.448	92.25
290.679	87.25
290.91	91.25
291.141	92.25
291.371	76.25
291.602	85.25
291.833	86.25
292.064	84.25
292.295	94.25
292.526	78.25
292.757	81.25
292.987	83.25
293.218	84.25
293.449	92.25
293.68	94.25
293.91	92.25
294.141	95.25
294.372	86.25
294.603	84.25
294.833	98.25
295.064	77.25
295.295	73.25
295.525	81.25
295.756	81.25
295.987	90.25
296.217	86.25
296.448	83.25
296.679	70.25
296.909	84.25
297.14	85.25
297.37	88.25
297.601	89.25
297.831	77.25
298.062	83.25
298.292	91.25
298.523	104.25
298.753	96.25
298.984	78.25
299.214	75.25
299.445	91.25
299.675	90.25
299.905	85.25
300.136	88.25
300.366	97.25
300.597	82.25
300.827	81.25
301.057	96.25
301.288	100.25
301.518	96.25
301.748	97.25
301.979	98.25
302.209	90.25
302.439	96.25
302.669	88.25
302.9	91.25
303.13	87.25
303.36	82.25
303.59	89.25
303.82	90.25
304.051	92.25
304.281	98.25
304.511	84.25
304.741	78.25
304.971	92.25
305.201	89.25
305.431	102.25
305.661	103.25
305.891	90.25
306.121	84.25
306.352	82.25
306.582	83.25
306.812	85.25
307.042	84.25
307.272	84.25
307.502	103.25
307.731	90.25
307.961	84.25
308.191	111.25
308.421	100.25
308.651	83.25
308.881	112.25
309.111	115.25
309.341	114.25
309.571	106.25
309.8	95.25
310.03	97.25
310.26	83.25
310.49	96.25
310.72	90.25
310.949	95.25
311.179	99.25
311.409	93.25
311.639	88.25
311.868	95.25
312.098	99.25
312.328	88.25
312.557	83.25
312.787	95.25
313.017	96.25
313.246	92.25
313.476	91.25
313.706	97.25
313.935	86.25
314.165	79.25
314.394	96.25
314.624	82.25
314.853	96.25
315.083	95.25
315.312	79.25
315.542	81.25
315.771	89.25
316.001	98.25
316.23	85.25
316.46	82.25
316.689	86.25
316.919	77.25
317.148	82.25
317.377	95.25
317.607	96.25
317.836	87.25
318.065	82.25
318.295	98.25
318.524	78.25
318.753	87.25
318.983	90.25
319.212	84.25
319.441	92.25
319.67	85.25
319.9	92.25
320.129	81.25
320.358	94.25
320.587	107.25
320.816	94.25
321.046	81.25
321.275	94.25
321.504	78.25
321.733	95.25
321.962	90.25
322.191	99.25
322.42	90.25
322.649	76.25
322.878	91.25
323.108	86.25
323.337	104.25
323.566	90.25
323.795	93.25
324.024	91.25
324.253	89.25
324.482	78.25
324.71	95.25
324.939	76.25
325.168	95.25
325.397	77.25
325.626	94.25
325.855	83.25
326.084	90.25
326.313	84.25
326.542	88.25
326.77	90.25
326.999	80.25
327.228	91.25
327.457	90.25
327.686	93.25
327.914	94.25
328.143	86.25
328.372	91.25
328.6	82.25
328.829	78.25
329.058	87.25
329.287	88.25
329.515	98.25
329.744	88.25
329.972	78.25
330.201	93.25
330.43	92.25
330.658	80.25
330.887	85.25
331.115	84.25
331.344	88.25
331.572	88.25
331.801	81.25
332.03	94.25
332.258	82.25
332.486	106.25
332.715	84.25
332.943	90.25
333.172	88.25
333.4	93.25
333.629	94.25
333.857	85.25
334.085	85.25
334.314	88.25
334.542	94.25
334.771	74.25
334.999	89.25
335.227	81.25
335.455	87.25
335.684	101.25
335.912	79.25
336.14	96.25
336.369	83.25
336.597	81.25
336.825	96.25
337.053	91.25
337.281	96.25
337.51	84.25
337.738	97.25
337.966	75.25
338.194	80.25
338.422	77.25
338.65	71.25
338.878	87.25
339.106	66.25
339.334	79.25
339.562	90.25
339.79	100.25
340.018	93.25
340.246	82.25
340.474	95.25
340.702	116.25
340.93	94.25
341.158	90.25
341.386	75.25
341.614	68.25
341.842	84.25
342.07	78.25
342.298	88.25
342.526	81.25
342.754	82.25
342.981	85.25
343.209	99.25
343.437	99.25
343.665	80.25
343.893	79.25
344.12	85.25
344.348	90.25
344.576	81.25
344.804	80.25
345.031	84.25
345.259	86.25
345.487	90.25
345.714	92.25
345.942	100.25
346.17	84.25
346.397	78.25
346.625	82.25
346.853	77.25
347.08	94.25
347.308	98.25
347.535	84.25
347.763	88.25
347.99	87.25
348.218	93.25
348.445	91.25
348.673	89.25
348.9	88.25
349.128	90.25
349.355	81.25
349.583	90.25
349.81	86.25
350.037	76.25
350.265	78.25
350.492	80.25
350.72	76.25
350.947	91.25
351.174	74.25
351.402	94.25
351.629	74.25
351.856	96.25
352.083	86.25
352.311	91.25
352.538	87.25
352.765	98.25
352.992	98.25
353.22	98.25
353.447	84.25
353.674	86.25
353.901	91.25
354.128	88.25
354.355	98.25
354.583	77.25
354.81	76.25
355.037	102.25
355.264	89.25
355.491	95.25
355.718	89.25
355.945	99.25
356.172	91.25
356.399	88.25
356.626	76.25
356.853	87.25
357.08	79.25
357.307	88.25
357.534	100.25
357.761	94.25
357.988	80.25
358.215	91.25
358.441	88.25
358.668	83.25
358.895	82.25
359.122	74.25
359.349	91.25
359.576	85.25
359.802	104.25
360.029	97.25
360.256	88.25
360.483	67.25
360.709	82.25
360.936	78.25
361.163	86.25
361.39	74.25
361.616	92.25
361.843	83.25
362.07	78.25
362.296	75.25
362.523	82.25
362.749	78.25
362.976	88.25
363.203	88.25
363.429	95.25
363.656	83.25
363.882	91.25
364.109	77.25
364.335	79.25
364.562	82.25
364.788	82.25
365.015	94.25
365.241	91.25
365.468	74.25
365.694	91.25
365.92	80.25
366.147	79.25
366.373	94.25
366.599	86.25
366.826	90.25
367.052	82.25
367.278	91.25
367.505	94.25
367.731	101.25
367.957	99.25
368.184	86.25
368.41	87.25
368.636	83.25
368.862	84.25
369.089	76.25
369.315	96.25
369.541	80.25
369.767	90.25
369.993	86.25
370.219	98.25
370.445	85.25
370.672	88.25
370.898	98.25
371.124	80.25
371.35	93.25
371.576	102.25
371.802	75.25
372.028	88.25
372.254	94.25
372.48	93.25
372.706	89.25
372.932	85.25
373.158	90.25
373.384	97.25
373.61	97.25
373.835	83.25
374.061	89.25
374.287	85.25
374.513	83.25
374.739	87.25
374.965	89.25
375.191	86.25
375.416	90.25
375.642	88.25
375.868	92.25
376.094	96.25
376.319	83.25
376.545	90.25
376.771	80.25
376.997	80.25
377.222	95.25
377.448	94.25
377.674	83.25
377.899	96.25
378.125	94.25
378.35	95.25
378.576	95.25
378.802	97.25
379.027	86.25
379.253	106.25
379.478	97.25
379.704	80.25
379.929	87.25
380.155	91.25
380.38	105.25
380.606	79.25
380.831	76.25
381.057	90.25
381.282	90.25
381.507	82.25
381.733	84.25
381.958	78.25
382.184	97.25
382.409	98.25
382.634	98.25
382.86	114.25
383.085	99.25
383.31	94.25
383.535	100.25
383.761	92.25
383.986	96.25
384.211	94.25
384.436	97.25
384.662	96.25
384.887	97.25
385.112	106.25
385.337	104.25
385.562	92.25
385.787	100.25
386.013	88.25
386.238	98.25
386.463	110.25
386.688	100.25
386.913	97.25
387.138	96.25
387.363	101.25
387.588	96.25
387.813	94.25
388.038	93.25
388.263	98.25
388.488	96.25
388.713	91.25
388.938	74.25
389.163	92.25
389.387	80.25
389.612	87.25
389.837	88.25
390.062	83.25
390.287	85.25
390.512	85.25
390.736	88.25
390.961	86.25
391.186	92.25
391.411	82.25
391.636	74.25
391.86	75.25
392.085	89.25
392.31	99.25
392.534	91.25
392.759	95.25
392.984	97.25
393.208	89.25
393.433	90.25
393.658	84.25
393.882	99.25
394.107	104.25
394.331	143.25
394.556	148.25
394.78	108.25
395.005	102.25
395.229	100.25
395.454	104.25
395.678	106.25
395.903	132.25
396.127	185.25
396.352	195.25
396.576	137.25
396.801	107.25
397.025	83.25
397.249	75.25
397.474	98.25
397.698	81.25
397.922	97.25
398.147	79.25
398.371	76.25
398.595	97.25
398.82	88.25
399.044	76.25
399.268	93.25
399.492	83.25
399.717	89.25
399.941	98.25
400.165	79.25
400.389	94.25
400.613	81.25
400.837	86.25
401.062	80.25
401.286	72.25
401.51	79.25
401.734	82.25
401.958	84.25
402.182	76.25
402.406	81.25
402.63	89.25
402.854	85.25
403.078	106.25
403.302	92.25
403.526	99.25
403.75	81.25
403.974	83.25
404.198	87.25
404.422	73.25
404.645	92.25
404.869	92.25
405.093	99.25
405.317	88.25
405.541	76.25
405.765	82.25
405.988	100.25
406.212	92.25
406.436	91.25
406.66	80.25
406.883	88.25
407.107	90.25
407.331	90.25
407.555	82.25
407.778	83.25
408.002	84.25
408.226	96.25
408.449	93.25
408.673	77.25
408.896	72.25
409.12	95.25
409.344	98.25
409.567	84.25
409.791	89.25
410.014	94.25
410.238	104.25
410.461	80.25
410.685	83.25
410.908	90.25
411.132	88.25
411.355	87.25
411.578	77.25
411.802	98.25
412.025	96.25
412.249	87.25
412.472	92.25
412.695	92.25
412.919	98.25
413.142	92.25
413.365	84.25
413.589	86.25
413.812	96.25
414.035	84.25
414.258	90.25
414.482	79.25
414.705	90.25
414.928	92.25
415.151	89.25
415.374	90.25
415.597	77.25
415.821	76.25
416.044	74.25
416.267	92.25
416.49	79.25
416.713	94.25
416.936	95.25
417.159	87.25
417.382	102.25
417.605	86.25
417.828	91.25
418.051	99.25
418.274	89.25
418.497	74.25
418.72	79.25
418.943	70.25
419.166	92.25
419.389	82.25
419.611	73.25
419.834	99.25
420.057	84.25
420.28	97.25
420.503	94.25
420.726	95.25
420.948	101.25
421.171	94.25
421.394	88.25
421.617	102.25
421.839	90.25
422.062	102.25
422.285	81.25
422.507	94.25
422.73	94.25
422.953	82.25
423.175	88.25
423.398	81.25
423.621	76.25
423.843	76.25
424.066	72.25
424.288	91.25
424.511	82.25
424.733	84.25
424.956	83.25
425.178	83.25
425.401	96.25
425.623	91.25
425.846	74.25
426.068	69.25
426.291	64.25
426.513	92.25
426.735	81.25
426.958	96.25
427.18	74.25
427.402	90.25
427.625	72.25
427.847	102.25
428.069	100.25
428.292	89.25
428.514	95.25
428.736	85.25
428.958	90.25
429.181	104.25
429.403	91.25
429.625	80.25
429.847	92.25
430.069	94.25
430.292	97.25
430.514	88.25
430.736	98.25
430.958	83.25
431.18	89.25
431.402	85.25
431.624	90.25
431.846	81.25
432.068	77.25
432.29	86.25
432.512	92.25
432.734	83.25
432.956	78.25
433.178	92.25
433.4	84.25
433.622	80.25
433.844	95.25
434.066	86.25
434.287	84.25
434.509	84.25
434.731	79.25
434.953	86.25
435.175	82.25
435.397	76.25
435.618	79.25
435.84	89.25
436.062	90.25
436.284	102.25
436.505	97.25
436.727	84.25
436.949	78.25
437.17	77.25
437.392	88.25
437.614	82.25
437.835	90.25
438.057	83.25
438.278	81.25
438.5	92.25
438.721	78.25
438.943	91.25
439.165	94.25
439.386	80.25
439.608	90.25
439.829	78.25
440.05	93.25
440.272	92.25
440.493	85.25
440.715	80.25
440.936	83.25
441.158	98.25
441.379	79.25
441.6	75.25
441.822	97.25
442.043	96.25
442.264	65.25
442.486	90.25
442.707	93.25
442.928	91.25
443.149	90.25
443.371	92.25
443.592	83.25
443.813	99.25
444.034	78.25
444.255	91.25
444.476	97.25
444.698	91.25
444.919	78.25
445.14	158.25
445.361	112.25
445.582	88.25
445.803	104.25
446.024	81.25
446.245	108.25
446.466	94.25
446.687	88.25
446.908	85.25
447.129	101.25
447.35	92.25
447.571	85.25
447.792	81.25
448.013	80.25
448.234	97.25
448.455	85.25
448.675	88.25
448.896	91.25
449.117	96.25
449.338	96.25
449.559	84.25
449.779	92.25
450	82.25
450.221	90.25
450.442	91.25
450.662	96.25
450.883	84.25
451.104	77.25
451.324	72.25
451.545	93.25
451.766	84.25
451.986	88.25
452.207	88.25
452.428	90.25
452.648	89.25
452.869	95.25
453.089	72.25
453.31	88.25
453.53	88.25
453.751	77.25
453.971	79.25
454.192	98.25
454.412	95.25
454.633	97.25
454.853	96.25
455.073	76.25
455.294	78.25
455.514	95.25
455.734	91.25
455.955	77.25
456.175	76.25
456.395	82.25
456.616	92.25
456.836	84.25
457.056	83.25
457.276	89.25
457.497	87.25
457.717	92.25
457.937	71.25
458.157	81.25
458.377	85.25
458.598	87.25
458.818	82.25
459.038	82.25
459.258	106.25
459.478	90.25
459.698	88.25
459.918	93.25
460.138	99.25
460.358	97.25
460.578	92.25
460.798	90.25
461.018	90.25
461.238	88.25
461.458	99.25
461.678	86.25
461.898	81.25
462.118	85.25
462.338	94.25
462.558	88.25
462.777	82.25
462.997	86.25
463.217	84.25
463.437	78.25
463.657	86.25
463.876	79.25
464.096	90.25
464.316	90.25
464.536	100.25
464.755	98.25
464.975	86.25
465.195	90.25
465.414	90.25
465.634	88.25
465.854	91.25
466.073	94.25
466.293	85.25
466.512	93.25
466.732	87.25
466.951	94.25
467.171	85.25
467.391	97.25
467.61	100.25
467.829	103.25
468.049	92.25
468.268	99.25
468.488	90.25
468.707	86.25
468.927	96.25
469.146	89.25
469.365	109.25
469.585	102.25
469.804	99.25
470.023	89.25
470.243	103.25
470.462	103.25
470.681	93.25
470.901	92.25
471.12	96.25
471.339	102.25
471.558	104.25
471.777	98.25
471.997	86.25
472.216	98.25
472.435	74.25
472.654	90.25
472.873	99.25
473.092	90.25
473.311	82.25
473.53	89.25
473.749	94.25
473.968	80.25
474.187	94.25
474.406	88.25
474.625	93.25
474.844	91.25
475.063	93.25
475.282	85.25
475.501	86.25
475.72	89.25
475.939	85.25
476.158	67.25
476.377	90.25
476.596	93.25
476.814	84.25
477.033	96.25
477.252	90.25
477.471	79.25
477.69	87.25
477.908	96.25
478.127	84.25
478.346	90.25
478.564	109.25
478.783	100.25
479.002	94.25
479.22	85.25
479.439	87.25
479.658	74.25
479.876	94.25
480.095	90.25
480.313	82.25
480.532	83.25
480.751	100.25
480.969	89.25
481.188	102.25
481.406	95.25
481.624	91.25
481.843	84.25
482.061	86.25
482.28	92.25
482.498	83.25
482.717	104.25
482.935	83.25
483.153	105.25
483.372	94.25
483.59	92.25
483.808	84.25
484.027	93.25
484.245	105.25
484.463	102.25
484.681	107.25
484.9	99.25
485.118	111.25
485.336	103.25
485.554	94.25
485.772	103.25
485.99	105.25
486.209	84.25
486.427	99.25
486.645	95.25
486.863	93.25
487.081	103.25
487.299	106.25
487.517	91.25
487.735	96.25
487.953	107.25
488.171	106.25
488.389	98.25
488.607	95.25
488.825	96.25
489.043	103.25
489.261	101.25
489.479	86.25
489.696	99.25
489.914	99.25
490.132	96.25
490.35	99.25
490.568	82.25
490.786	74.25
491.003	107.25
491.221	104.25
491.439	90.25
491.657	92.25
491.874	95.25
492.092	89.25
492.31	103.25
492.527	106.25
492.745	87.25
492.963	93.25
493.18	89.25
493.398	87.25
493.615	82.25
493.833	100.25
494.05	92.25
494.268	94.25
494.485	92.25
494.703	96.25
494.92	83.25
495.138	88.25
495.355	99.25
495.573	97.25
495.79	77.25
496.008	91.25
496.225	96.25
496.442	99.25
496.66	99.25
496.877	103.25
497.094	98.25
497.312	95.25
497.529	99.25
497.746	88.25
497.963	102.25
498.181	86.25
498.398	103.25
498.615	86.25
498.832	86.25
499.049	98.25
499.267	84.25
499.484	85.25
499.701	88.25
499.918	95.25
500.135	89.25
500.352	89.25
500.569	84.25
500.786	98.25
501.003	79.25
501.22	80.25
501.437	86.25
501.654	90.25
501.871	107.25
502.088	84.25
502.305	90.25
502.522	111.25
502.739	99.25
502.956	94.25
503.172	85.25
503.389	88.25
503.606	99.25
503.823	100.25
504.04	103.25
504.256	84.25
504.473	75.25
504.69	83.25
504.907	91.25
505.123	90.25
505.34	105.25
505.557	105.25
505.773	94.25
505.99	93.25
506.207	92.25
506.423	97.25
506.64	89.25
506.856	81.25
507.073	83.25
507.289	80.25
507.506	90.25
507.722	93.25
507.939	85.25
508.155	105.25
508.372	99.25
508.588	79.25
508.805	92.25
509.021	81.25
509.238	93.25
509.454	87.25
509.67	88.25
509.887	90.25
510.103	89.25
510.319	103.25
510.536	92.25
510.752	94.25
510.968	92.25
511.184	86.25
511.401	95.25
511.617	106.25
511.833	98.25
512.049	81.25
512.265	85.25
512.481	95.25
512.698	106.25
512.914	81.25
513.13	92.25
513.346	98.25
513.562	89.25
513.778	91.25
513.994	80.25
514.21	81.25
514.426	81.25
514.642	100.25
514.858	96.25
515.074	93.25
515.29	91.25
515.506	94.25
515.721	88.25
515.937	99.25
516.153	109.25
516.369	107.25
516.585	89.25
516.801	91.25
517.016	106.25
517.232	96.25
517.448	105.25
517.664	93.25
517.879	85.25
518.095	94.25
518.311	90.25
518.527	118.25
