Data from Coke_Can_Bottom_HRD10591_00013.txt Node
Date: Wed Nov 05 15:46:18 EST 2025
User: Yrep
Spectrometer: HR+D1059
Trigger mode: 1
Integration Time (sec): 1.000000E-1
Scans to average: 1
Electric dark correction enabled: true
Nonlinearity correction enabled: false
Boxcar width: 0
XAxis mode: Wavelengths
Number of Pixels in Spectrum: 2048
>>>>>Begin Spectral Data<<<<<
223.165	-20
223.4	-20
223.635	-20
223.869	-32
224.104	-26
224.338	-5
224.573	-14
224.808	-7
225.042	-27
225.277	0
225.511	-8
225.746	-3
225.98	-2
226.215	24
226.449	25
226.683	19
226.918	29
227.152	47
227.387	54
227.621	45
227.856	46
228.09	42
228.324	40
228.559	63
228.793	55
229.027	70
229.262	74
229.496	66
229.73	62
229.964	74
230.199	64
230.433	67
230.667	71
230.901	79
231.136	87
231.37	72
231.604	84
231.838	73
232.072	76
232.306	82
232.541	88
232.775	83
233.009	91
233.243	76
233.477	88
233.711	94
233.945	83
234.179	81
234.413	90
234.647	90
234.881	94
235.115	77
235.349	93
235.583	86
235.817	76
236.051	84
236.285	90
236.519	73
236.753	80
236.987	75
237.221	79
237.455	82
237.689	79
237.922	76
238.156	83
238.39	90
238.624	57
238.858	88
239.091	84
239.325	91
239.559	70
239.793	87
240.027	84
240.26	91
240.494	74
240.728	76
240.961	85
241.195	77
241.429	72
241.662	90
241.896	76
242.13	78
242.363	82
242.597	86
242.83	77
243.064	79
243.298	79
243.531	71
243.765	72
243.998	90
244.232	82
244.465	68
244.699	81
244.932	64
245.166	83
245.399	83
245.633	82
245.866	77
246.099	85
246.333	75
246.566	84
246.8	81
247.033	93
247.266	88
247.5	64
247.733	94
247.966	85
248.2	89
248.433	78
248.666	73
248.899	83
249.133	72
249.366	86
249.599	77
249.832	79
250.066	82
250.299	77
250.532	71
250.765	82
250.998	81
251.231	82
251.465	88
251.698	78
251.931	76
252.164	81
252.397	78
252.63	87
252.863	81
253.096	79
253.329	76
253.562	86
253.795	78
254.028	67
254.261	97
254.494	87
254.727	83
254.96	83
255.193	76
255.426	77
255.659	78
255.892	86
256.124	79
256.357	83
256.59	83
256.823	78
257.056	83
257.289	84
257.521	89
257.754	84
257.987	77
258.22	96
258.452	77
258.685	84
258.918	80
259.151	73
259.383	96
259.616	76
259.849	81
260.081	87
260.314	72
260.547	73
260.779	78
261.012	71
261.244	89
261.477	93
261.71	74
261.942	64
262.175	81
262.407	93
262.64	79
262.872	83
263.105	87
263.337	77
263.57	81
263.802	70
264.035	91
264.267	79
264.499	85
264.732	93
264.964	75
265.197	93
265.429	91
265.661	81
265.894	90
266.126	89
266.358	75
266.591	83
266.823	83
267.055	77
267.287	91
267.52	99
267.752	74
267.984	87
268.216	80
268.448	88
268.681	91
268.913	82
269.145	86
269.377	95
269.609	98
269.841	90
270.073	87
270.306	94
270.538	92
270.77	91
271.002	80
271.234	89
271.466	77
271.698	109
271.93	89
272.162	82
272.394	80
272.626	95
272.858	89
273.09	78
273.322	77
273.553	80
273.785	88
274.017	87
274.249	82
274.481	80
274.713	89
274.945	85
275.176	85
275.408	78
275.64	81
275.872	79
276.104	91
276.335	83
276.567	85
276.799	74
277.031	76
277.262	81
277.494	88
277.726	89
277.957	77
278.189	77
278.421	64
278.652	73
278.884	76
279.115	84
279.347	90
279.579	80
279.81	94
280.042	87
280.273	101
280.505	82
280.736	91
280.968	82
281.199	90
281.431	71
281.662	86
281.894	73
282.125	97
282.356	83
282.588	83
282.819	80
283.051	91
283.282	94
283.513	91
283.745	82
283.976	84
284.207	88
284.439	95
284.67	75
284.901	90
285.132	83
285.364	94
285.595	82
285.826	79
286.057	99
286.288	82
286.52	87
286.751	69
286.982	93
287.213	97
287.444	84
287.675	83
287.906	87
288.138	65
288.369	98
288.6	75
288.831	82
289.062	99
289.293	72
289.524	89
289.755	74
289.986	87
290.217	91
290.448	87
290.679	90
290.91	89
291.141	88
291.371	99
291.602	90
291.833	98
292.064	89
292.295	89
292.526	80
292.757	85
292.987	80
293.218	88
293.449	67
293.68	86
293.91	91
294.141	89
294.372	95
294.603	87
294.833	85
295.064	80
295.295	83
295.525	76
295.756	82
295.987	93
296.217	87
296.448	99
296.679	99
296.909	89
297.14	86
297.37	91
297.601	83
297.831	89
298.062	77
298.292	78
298.523	89
298.753	69
298.984	92
299.214	87
299.445	80
299.675	97
299.905	110
300.136	92
300.366	74
300.597	96
300.827	84
301.057	91
301.288	93
301.518	92
301.748	81
301.979	99
302.209	73
302.439	83
302.669	84
302.9	99
303.13	78
303.36	86
303.59	93
303.82	91
304.051	88
304.281	88
304.511	83
304.741	83
304.971	90
305.201	93
305.431	91
305.661	82
305.891	79
306.121	92
306.352	86
306.582	95
306.812	99
307.042	87
307.272	81
307.502	92
307.731	113
307.961	87
308.191	94
308.421	96
308.651	75
308.881	97
309.111	104
309.341	102
309.571	90
309.8	86
310.03	83
310.26	89
310.49	92
310.72	84
310.949	71
311.179	87
311.409	89
311.639	90
311.868	77
312.098	87
312.328	88
312.557	86
312.787	82
313.017	100
313.246	100
313.476	88
313.706	71
313.935	81
314.165	77
314.394	79
314.624	83
314.853	84
315.083	83
315.312	88
315.542	87
315.771	87
316.001	102
316.23	93
316.46	81
316.689	80
316.919	86
317.148	85
317.377	94
317.607	82
317.836	94
318.065	75
318.295	91
318.524	81
318.753	85
318.983	95
319.212	98
319.441	81
319.67	85
319.9	95
320.129	83
320.358	105
320.587	112
320.816	96
321.046	86
321.275	81
321.504	73
321.733	91
321.962	91
322.191	96
322.42	83
322.649	93
322.878	94
323.108	94
323.337	81
323.566	91
323.795	84
324.024	87
324.253	84
324.482	87
324.71	93
324.939	85
325.168	91
325.397	86
325.626	96
325.855	94
326.084	99
326.313	76
326.542	84
326.77	103
326.999	88
327.228	87
327.457	94
327.686	88
327.914	82
328.143	84
328.372	73
328.6	83
328.829	90
329.058	81
329.287	92
329.515	79
329.744	84
329.972	89
330.201	83
330.43	79
330.658	99
330.887	95
331.115	93
331.344	91
331.572	82
331.801	80
332.03	90
332.258	90
332.486	94
332.715	94
332.943	86
333.172	83
333.4	96
333.629	81
333.857	97
334.085	86
334.314	90
334.542	78
334.771	80
334.999	84
335.227	75
335.455	87
335.684	69
335.912	80
336.14	81
336.369	79
336.597	96
336.825	94
337.053	82
337.281	65
337.51	88
337.738	83
337.966	83
338.194	86
338.422	83
338.65	83
338.878	93
339.106	87
339.334	84
339.562	80
339.79	87
340.018	79
340.246	94
340.474	89
340.702	91
340.93	83
341.158	85
341.386	81
341.614	79
341.842	90
342.07	88
342.298	87
342.526	88
342.754	84
342.981	89
343.209	91
343.437	88
343.665	82
343.893	101
344.12	85
344.348	103
344.576	75
344.804	100
345.031	81
345.259	96
345.487	96
345.714	87
345.942	83
346.17	81
346.397	93
346.625	74
346.853	95
347.08	83
347.308	96
347.535	86
347.763	63
347.99	106
348.218	89
348.445	83
348.673	73
348.9	94
349.128	93
349.355	81
349.583	90
349.81	77
350.037	95
350.265	85
350.492	79
350.72	75
350.947	91
351.174	74
351.402	99
351.629	75
351.856	80
352.083	82
352.311	89
352.538	93
352.765	93
352.992	95
353.22	94
353.447	83
353.674	83
353.901	88
354.128	89
354.355	77
354.583	94
354.81	77
355.037	88
355.264	89
355.491	80
355.718	79
355.945	81
356.172	87
356.399	97
356.626	96
356.853	96
357.08	74
357.307	81
357.534	86
357.761	91
357.988	96
358.215	88
358.441	96
358.668	88
358.895	82
359.122	83
359.349	83
359.576	92
359.802	71
360.029	87
360.256	91
360.483	80
360.709	79
360.936	78
361.163	79
361.39	83
361.616	91
361.843	99
362.07	94
362.296	96
362.523	89
362.749	99
362.976	91
363.203	72
363.429	93
363.656	77
363.882	89
364.109	107
364.335	89
364.562	82
364.788	89
365.015	83
365.241	96
365.468	97
365.694	83
365.92	88
366.147	99
366.373	90
366.599	93
366.826	90
367.052	80
367.278	81
367.505	83
367.731	87
367.957	75
368.184	91
368.41	79
368.636	85
368.862	96
369.089	74
369.315	88
369.541	87
369.767	73
369.993	87
370.219	81
370.445	85
370.672	78
370.898	102
371.124	88
371.35	101
371.576	87
371.802	82
372.028	81
372.254	86
372.48	79
372.706	84
372.932	85
373.158	97
373.384	90
373.61	95
373.835	94
374.061	86
374.287	81
374.513	84
374.739	85
374.965	93
375.191	84
375.416	77
375.642	85
375.868	86
376.094	95
376.319	79
376.545	91
376.771	88
376.997	72
377.222	97
377.448	89
377.674	79
377.899	97
378.125	83
378.35	88
378.576	83
378.802	73
379.027	76
379.253	91
379.478	101
379.704	78
379.929	82
380.155	110
380.38	85
380.606	73
380.831	86
381.057	103
381.282	95
381.507	95
381.733	96
381.958	82
382.184	82
382.409	84
382.634	78
382.86	87
383.085	91
383.31	96
383.535	89
383.761	98
383.986	89
384.211	97
384.436	79
384.662	95
384.887	97
385.112	91
385.337	83
385.562	89
385.787	89
386.013	92
386.238	101
386.463	92
386.688	95
386.913	112
387.138	104
387.363	77
387.588	103
387.813	92
388.038	91
388.263	96
388.488	95
388.713	79
388.938	89
389.163	90
389.387	94
389.612	86
389.837	84
390.062	83
390.287	80
390.512	87
390.736	89
390.961	69
391.186	81
391.411	75
391.636	81
391.86	96
392.085	89
392.31	84
392.534	79
392.759	89
392.984	82
393.208	77
393.433	75
393.658	84
393.882	95
394.107	103
394.331	143
394.556	153
394.78	101
395.005	102
395.229	81
395.454	82
395.678	95
395.903	114
396.127	171
396.352	170
396.576	93
396.801	81
397.025	96
397.249	83
397.474	85
397.698	92
397.922	91
398.147	77
398.371	75
398.595	88
398.82	75
399.044	79
399.268	70
399.492	83
399.717	87
399.941	88
400.165	85
400.389	86
400.613	78
400.837	82
401.062	77
401.286	79
401.51	70
401.734	72
401.958	76
402.182	71
402.406	75
402.63	81
402.854	80
403.078	97
403.302	93
403.526	89
403.75	98
403.974	77
404.198	93
404.422	91
404.645	81
404.869	94
405.093	94
405.317	88
405.541	74
405.765	86
405.988	93
406.212	87
406.436	92
406.66	101
406.883	81
407.107	96
407.331	86
407.555	78
407.778	86
408.002	81
408.226	93
408.449	76
408.673	81
408.896	76
409.12	76
409.344	91
409.567	82
409.791	79
410.014	85
410.238	74
410.461	101
410.685	91
410.908	72
411.132	82
411.355	79
411.578	97
411.802	79
412.025	80
412.249	83
412.472	86
412.695	92
412.919	96
413.142	81
413.365	83
413.589	86
413.812	86
414.035	86
414.258	79
414.482	77
414.705	89
414.928	80
415.151	89
415.374	88
415.597	87
415.821	77
416.044	66
416.267	80
416.49	79
416.713	89
416.936	78
417.159	85
417.382	81
417.605	88
417.828	75
418.051	89
418.274	76
418.497	87
418.72	94
418.943	77
419.166	97
419.389	83
419.611	79
419.834	75
420.057	79
420.28	97
420.503	96
420.726	74
420.948	84
421.171	79
421.394	88
421.617	76
421.839	84
422.062	94
422.285	87
422.507	74
422.73	92
422.953	87
423.175	100
423.398	84
423.621	90
423.843	76
424.066	62
424.288	91
424.511	81
424.733	75
424.956	78
425.178	83
425.401	85
425.623	73
425.846	98
426.068	86
426.291	83
426.513	75
426.735	90
426.958	84
427.18	89
427.402	74
427.625	88
427.847	75
428.069	73
428.292	82
428.514	93
428.736	87
428.958	99
429.181	88
429.403	84
429.625	88
429.847	78
430.069	74
430.292	91
430.514	86
430.736	94
430.958	98
431.18	85
431.402	75
431.624	80
431.846	84
432.068	84
432.29	91
432.512	65
432.734	77
432.956	82
433.178	82
433.4	84
433.622	74
433.844	79
434.066	86
434.287	88
434.509	83
434.731	82
434.953	92
435.175	91
435.397	79
435.618	92
435.84	71
436.062	92
436.284	68
436.505	88
436.727	83
436.949	87
437.17	91
437.392	74
437.614	99
437.835	85
438.057	68
438.278	75
438.5	90
438.721	87
438.943	106
439.165	93
439.386	81
439.608	95
439.829	84
440.05	70
440.272	99
440.493	98
440.715	92
440.936	87
441.158	76
441.379	69
441.6	88
441.822	89
442.043	97
442.264	84
442.486	83
442.707	80
442.928	91
443.149	93
443.371	83
443.592	90
443.813	85
444.034	82
444.255	72
444.476	89
444.698	73
444.919	84
445.14	145
445.361	101
445.582	100
445.803	89
446.024	84
446.245	101
446.466	83
446.687	101
446.908	86
447.129	86
447.35	98
447.571	81
447.792	86
448.013	85
448.234	89
448.455	91
448.675	86
448.896	78
449.117	91
449.338	90
449.559	78
449.779	87
450	82
450.221	83
450.442	89
450.662	93
450.883	84
451.104	84
451.324	79
451.545	73
451.766	82
451.986	91
452.207	83
452.428	98
452.648	88
452.869	89
453.089	88
453.31	76
453.53	86
453.751	88
453.971	78
454.192	83
454.412	89
454.633	88
454.853	83
455.073	100
455.294	95
455.514	88
455.734	73
455.955	89
456.175	97
456.395	82
456.616	85
456.836	79
457.056	88
457.276	93
457.497	76
457.717	65
457.937	89
458.157	77
458.377	78
458.598	86
458.818	85
459.038	90
459.258	84
459.478	90
459.698	95
459.918	79
460.138	100
460.358	87
460.578	68
460.798	94
461.018	90
461.238	80
461.458	84
461.678	73
461.898	80
462.118	90
462.338	86
462.558	86
462.777	77
462.997	71
463.217	85
463.437	77
463.657	90
463.876	80
464.096	84
464.316	77
464.536	82
464.755	98
464.975	92
465.195	88
465.414	77
465.634	94
465.854	94
466.073	83
466.293	89
466.512	99
466.732	83
466.951	96
467.171	76
467.391	79
467.61	87
467.829	78
468.049	91
468.268	85
468.488	74
468.707	94
468.927	97
469.146	95
469.365	90
469.585	88
469.804	87
470.023	78
470.243	67
470.462	93
470.681	87
470.901	83
471.12	85
471.339	83
471.558	86
471.777	95
471.997	98
472.216	83
472.435	87
472.654	83
472.873	101
473.092	89
473.311	89
473.53	88
473.749	95
473.968	90
474.187	94
474.406	88
474.625	80
474.844	91
475.063	98
475.282	79
475.501	87
475.72	102
475.939	86
476.158	89
476.377	103
476.596	84
476.814	107
477.033	86
477.252	97
477.471	87
477.69	101
477.908	89
478.127	89
478.346	90
478.564	83
478.783	93
479.002	93
479.22	89
479.439	88
479.658	98
479.876	81
480.095	82
480.313	92
480.532	96
480.751	96
480.969	87
481.188	86
481.406	87
481.624	82
481.843	75
482.061	81
482.28	90
482.498	75
482.717	77
482.935	97
483.153	96
483.372	97
483.59	105
483.808	91
484.027	92
484.245	97
484.463	104
484.681	109
484.9	110
485.118	104
485.336	95
485.554	96
485.772	97
485.99	97
486.209	85
486.427	87
486.645	88
486.863	89
487.081	95
487.299	85
487.517	87
487.735	92
487.953	99
488.171	103
488.389	105
488.607	117
488.825	89
489.043	91
489.261	91
489.479	89
489.696	81
489.914	85
490.132	83
490.35	95
490.568	71
490.786	104
491.003	84
491.221	95
491.439	104
491.657	79
491.874	89
492.092	98
492.31	93
492.527	83
492.745	84
492.963	89
493.18	97
493.398	89
493.615	89
493.833	90
494.05	92
494.268	94
494.485	94
494.703	94
494.92	82
495.138	72
495.355	94
495.573	87
495.79	70
496.008	82
496.225	96
496.442	89
496.66	111
496.877	97
497.094	81
497.312	91
497.529	85
497.746	91
497.963	98
498.181	76
498.398	74
498.615	109
498.832	87
499.049	82
499.267	92
499.484	89
499.701	94
499.918	90
500.135	81
500.352	87
500.569	97
500.786	83
501.003	89
501.22	81
501.437	75
501.654	82
501.871	89
502.088	83
502.305	93
502.522	92
502.739	88
502.956	85
503.172	81
503.389	78
503.606	83
503.823	81
504.04	95
504.256	80
504.473	87
504.69	74
504.907	85
505.123	81
505.34	100
505.557	98
505.773	98
505.99	87
506.207	81
506.423	76
506.64	90
506.856	90
507.073	97
507.289	63
507.506	85
507.722	92
507.939	89
508.155	84
508.372	81
508.588	85
508.805	89
509.021	90
509.238	97
509.454	101
509.67	78
509.887	75
510.103	82
510.319	95
510.536	95
510.752	100
510.968	97
511.184	78
511.401	77
511.617	78
511.833	94
512.049	95
512.265	91
512.481	86
512.698	89
512.914	93
513.13	86
513.346	93
513.562	93
513.778	83
513.994	88
514.21	86
514.426	98
514.642	83
514.858	84
515.074	83
515.29	85
515.506	105
515.721	91
515.937	105
516.153	84
516.369	102
516.585	90
516.801	92
517.016	82
517.232	85
517.448	93
517.664	88
517.879	87
518.095	93
518.311	93
518.527	96
518.742	81
518.958	90
519.173	91
519.389	93
519.605	82
519.82	85
520.036	85
520.251	87
520.467	95
520.682	80
520.898	93
521.113	96
521.329	100
521.544	86
521.76	91
521.975	93
522.19	86
522.406	89
522.621	95
522.836	78
523.052	97
523.267	73
523.482	89
523.698	98
523.913	89
524.128	79
524.343	83
524.559	92
524.774	94
524.989	92
525.204	96
525.419	91
525.634	90
525.849	97
526.064	89
526.28	85
526.495	82
526.71	77
526.925	73
527.14	75
527.355	79
527.57	89
527.785	80
527.999	69
528.214	92
528.429	71
528.644	85
528.859	95
529.074	80
529.289	82
529.503	89
529.718	92
529.933	81
530.148	96
530.363	86
530.577	85
530.792	80
531.007	67
531.221	97
531.436	90
531.651	75
531.865	73
532.08	97
532.295	101
532.509	82
532.724	87
532.938	76
533.153	88
533.367	99
533.582	88
533.796	91
534.011	99
534.225	76
534.44	78
534.654	84
534.868	87
535.083	94
535.297	96
535.511	89
535.726	94
535.94	93
536.154	81
536.369	87
536.583	81
536.797	92
537.011	87
537.225	89
537.44	99
537.654	86
537.868	95
538.082	84
538.296	86
538.51	87
538.724	94
538.938	84
539.153	87
539.367	96
539.581	83
539.795	75
540.009	76
540.222	93
540.436	86
540.65	87
540.864	73
541.078	91
541.292	106
541.506	89
541.72	79
541.934	77
542.147	90
542.361	90
542.575	105
542.789	98
543.002	91
543.216	88
543.43	93
543.644	94
543.857	94
544.071	93
544.285	76
544.498	83
544.712	84
544.925	99
545.139	91
545.352	96
545.566	92
545.779	99
545.993	88
546.206	92
546.42	90
546.633	105
546.847	82
547.06	94
547.274	84
547.487	98
547.7	96
547.914	83
548.127	95
548.34	90
548.554	85
548.767	92
548.98	86
549.193	89
549.407	89
549.62	74
549.833	98
550.046	88
550.259	103
550.473	102
550.686	86
550.899	89
551.112	85
551.325	87
551.538	93
551.751	92
551.964	86
552.177	90
552.39	81
552.603	86
552.816	79
553.029	81
553.242	89
553.455	98
553.667	90
553.88	85
554.093	87
554.306	101
554.519	93
554.732	78
554.944	98
555.157	84
555.37	83
555.583	77
555.795	97
556.008	92
556.221	93
556.433	90
556.646	75
556.859	87
557.071	90
557.284	92
557.496	84
557.709	96
557.921	89
558.134	89
558.346	82
558.559	82
558.771	78
558.984	82
559.196	93
559.409	81
559.621	92
559.833	89
560.046	84
560.258	82
560.47	75
560.683	93
560.895	83
561.107	88
561.32	95
561.532	93
561.744	92
561.956	107
562.168	89
562.381	73
562.593	84
562.805	81
563.017	101
563.229	78
563.441	88
563.653	100
563.865	86
564.077	90
564.289	90
564.501	100
564.713	83
564.925	78
565.137	92
565.349	87
565.561	80
565.773	99
565.985	88
566.197	99
566.408	90
566.62	78
566.832	102
567.044	93
567.255	77
567.467	84
567.679	83
567.891	95
568.102	87
568.314	79
568.526	83
568.737	73
568.949	91
569.161	87
569.372	89
569.584	85
569.795	88
570.007	77
570.218	86
570.43	86
570.641	85
570.853	82
571.064	71
571.276	98
571.487	87
571.698	87
571.91	77
572.121	79
572.333	79
572.544	88
572.755	84
572.966	88
573.178	95
573.389	85
573.6	86
573.811	98
574.023	86
574.234	84
574.445	89
574.656	82
574.867	90
575.078	88
575.289	97
575.501	84
575.712	89
575.923	79
576.134	87
576.345	91
576.556	94
576.767	88
576.978	84
577.188	108
577.399	81
577.61	73
577.821	81
578.032	69
578.243	88
578.454	91
578.665	78
578.875	89
579.086	77
579.297	77
579.508	95
579.718	85
579.929	92
580.14	86
580.35	82
580.561	89
580.772	88
580.982	102
581.193	72
581.403	77
581.614	90
581.825	97
582.035	75
582.246	84
582.456	90
582.667	94
582.877	94
583.087	74
583.298	95
583.508	92
583.719	90
583.929	84
584.139	98
584.35	86
584.56	81
584.77	79
584.981	95
585.191	88
585.401	89
585.611	96
585.821	88
586.032	84
586.242	78
586.452	84
586.662	89
586.872	78
587.082	73
587.292	77
587.502	94
587.713	96
587.923	102
588.133	101
588.343	86
588.553	83
588.762	99
588.972	84
589.182	95
589.392	87
