Data from Coke_Can_Bottom_HRD10591_00002.txt Node
Date: Wed Nov 05 15:46:13 EST 2025
User: Yrep
Spectrometer: HR+D1059
Trigger mode: 1
Integration Time (sec): 1.000000E-1
Scans to average: 1
Electric dark correction enabled: true
Nonlinearity correction enabled: false
Boxcar width: 0
XAxis mode: Wavelengths
Number of Pixels in Spectrum: 2048
>>>>>Begin Spectral Data<<<<<
223.165	-15.19
223.4	-15.19
223.635	-15.19
223.869	-30.19
224.104	-15.19
224.338	-15.19
224.573	-22.19
224.808	-5.19
225.042	-3.19
225.277	-15.19
225.511	-5.19
225.746	7.81
225.98	13.81
226.215	14.81
226.449	17.81
226.683	17.81
226.918	24.81
227.152	29.81
227.387	21.81
227.621	46.81
227.856	43.81
228.09	42.81
228.324	53.81
228.559	57.81
228.793	52.81
229.027	49.81
229.262	59.81
229.496	61.81
229.73	57.81
229.964	69.81
230.199	63.81
230.433	71.81
230.667	82.81
230.901	81.81
231.136	72.81
231.37	84.81
231.604	75.81
231.838	82.81
232.072	81.81
232.306	66.81
232.541	81.81
232.775	87.81
233.009	96.81
233.243	83.81
233.477	71.81
233.711	79.81
233.945	79.81
234.179	76.81
234.413	78.81
234.647	69.81
234.881	74.81
235.115	76.81
235.349	75.81
235.583	69.81
235.817	65.81
236.051	81.81
236.285	70.81
236.519	70.81
236.753	73.81
236.987	75.81
237.221	80.81
237.455	79.81
237.689	91.81
237.922	67.81
238.156	59.81
238.39	65.81
238.624	62.81
238.858	72.81
239.091	78.81
239.325	73.81
239.559	70.81
239.793	73.81
240.027	74.81
240.26	81.81
240.494	76.81
240.728	85.81
240.961	76.81
241.195	77.81
241.429	77.81
241.662	65.81
241.896	59.81
242.13	61.81
242.363	85.81
242.597	85.81
242.83	77.81
243.064	70.81
243.298	77.81
243.531	75.81
243.765	78.81
243.998	84.81
244.232	77.81
244.465	71.81
244.699	74.81
244.932	71.81
245.166	76.81
245.399	72.81
245.633	64.81
245.866	77.81
246.099	87.81
246.333	71.81
246.566	82.81
246.8	77.81
247.033	72.81
247.266	69.81
247.5	69.81
247.733	81.81
247.966	74.81
248.2	74.81
248.433	63.81
248.666	72.81
248.899	73.81
249.133	68.81
249.366	73.81
249.599	97.81
249.832	74.81
250.066	61.81
250.299	66.81
250.532	71.81
250.765	78.81
250.998	79.81
251.231	68.81
251.465	87.81
251.698	81.81
251.931	77.81
252.164	77.81
252.397	69.81
252.63	76.81
252.863	77.81
253.096	88.81
253.329	69.81
253.562	73.81
253.795	73.81
254.028	69.81
254.261	79.81
254.494	75.81
254.727	83.81
254.96	78.81
255.193	75.81
255.426	91.81
255.659	80.81
255.892	78.81
256.124	96.81
256.357	76.81
256.59	78.81
256.823	92.81
257.056	81.81
257.289	66.81
257.521	76.81
257.754	80.81
257.987	76.81
258.22	87.81
258.452	72.81
258.685	70.81
258.918	69.81
259.151	75.81
259.383	83.81
259.616	94.81
259.849	77.81
260.081	74.81
260.314	80.81
260.547	77.81
260.779	77.81
261.012	68.81
261.244	76.81
261.477	93.81
261.71	62.81
261.942	76.81
262.175	78.81
262.407	71.81
262.64	80.81
262.872	73.81
263.105	73.81
263.337	80.81
263.57	75.81
263.802	81.81
264.035	81.81
264.267	73.81
264.499	73.81
264.732	92.81
264.964	68.81
265.197	69.81
265.429	76.81
265.661	79.81
265.894	71.81
266.126	91.81
266.358	89.81
266.591	81.81
266.823	91.81
267.055	62.81
267.287	68.81
267.52	87.81
267.752	85.81
267.984	67.81
268.216	72.81
268.448	59.81
268.681	69.81
268.913	89.81
269.145	81.81
269.377	60.81
269.609	81.81
269.841	63.81
270.073	76.81
270.306	89.81
270.538	90.81
270.77	74.81
271.002	65.81
271.234	87.81
271.466	85.81
271.698	73.81
271.93	67.81
272.162	78.81
272.394	72.81
272.626	73.81
272.858	78.81
273.09	76.81
273.322	73.81
273.553	84.81
273.785	74.81
274.017	68.81
274.249	60.81
274.481	101.81
274.713	88.81
274.945	91.81
275.176	82.81
275.408	81.81
275.64	72.81
275.872	81.81
276.104	76.81
276.335	76.81
276.567	77.81
276.799	71.81
277.031	85.81
277.262	83.81
277.494	65.81
277.726	80.81
277.957	63.81
278.189	77.81
278.421	81.81
278.652	80.81
278.884	79.81
279.115	81.81
279.347	79.81
279.579	76.81
279.81	81.81
280.042	85.81
280.273	86.81
280.505	93.81
280.736	79.81
280.968	77.81
281.199	83.81
281.431	93.81
281.662	83.81
281.894	91.81
282.125	80.81
282.356	70.81
282.588	65.81
282.819	83.81
283.051	69.81
283.282	81.81
283.513	82.81
283.745	75.81
283.976	87.81
284.207	74.81
284.439	66.81
284.67	87.81
284.901	78.81
285.132	77.81
285.364	91.81
285.595	75.81
285.826	80.81
286.057	81.81
286.288	81.81
286.52	66.81
286.751	80.81
286.982	81.81
287.213	77.81
287.444	95.81
287.675	79.81
287.906	83.81
288.138	87.81
288.369	75.81
288.6	68.81
288.831	85.81
289.062	79.81
289.293	74.81
289.524	65.81
289.755	65.81
289.986	68.81
290.217	89.81
290.448	85.81
290.679	75.81
290.91	81.81
291.141	73.81
291.371	90.81
291.602	97.81
291.833	83.81
292.064	94.81
292.295	81.81
292.526	85.81
292.757	81.81
292.987	89.81
293.218	78.81
293.449	75.81
293.68	78.81
293.91	77.81
294.141	79.81
294.372	77.81
294.603	78.81
294.833	59.81
295.064	81.81
295.295	78.81
295.525	90.81
295.756	74.81
295.987	83.81
296.217	85.81
296.448	66.81
296.679	72.81
296.909	75.81
297.14	76.81
297.37	89.81
297.601	84.81
297.831	77.81
298.062	91.81
298.292	85.81
298.523	83.81
298.753	81.81
298.984	70.81
299.214	79.81
299.445	71.81
299.675	78.81
299.905	89.81
300.136	87.81
300.366	73.81
300.597	91.81
300.827	85.81
301.057	74.81
301.288	91.81
301.518	76.81
301.748	75.81
301.979	91.81
302.209	76.81
302.439	82.81
302.669	78.81
302.9	66.81
303.13	73.81
303.36	86.81
303.59	79.81
303.82	76.81
304.051	82.81
304.281	83.81
304.511	84.81
304.741	80.81
304.971	77.81
305.201	65.81
305.431	87.81
305.661	78.81
305.891	76.81
306.121	104.81
306.352	85.81
306.582	86.81
306.812	63.81
307.042	73.81
307.272	85.81
307.502	69.81
307.731	92.81
307.961	87.81
308.191	90.81
308.421	102.81
308.651	96.81
308.881	85.81
309.111	91.81
309.341	95.81
309.571	94.81
309.8	71.81
310.03	81.81
310.26	85.81
310.49	86.81
310.72	69.81
310.949	70.81
311.179	83.81
311.409	71.81
311.639	99.81
311.868	84.81
312.098	73.81
312.328	72.81
312.557	74.81
312.787	74.81
313.017	88.81
313.246	91.81
313.476	81.81
313.706	88.81
313.935	66.81
314.165	71.81
314.394	96.81
314.624	98.81
314.853	77.81
315.083	67.81
315.312	76.81
315.542	71.81
315.771	82.81
316.001	71.81
316.23	85.81
316.46	81.81
316.689	81.81
316.919	84.81
317.148	74.81
317.377	89.81
317.607	77.81
317.836	72.81
318.065	77.81
318.295	85.81
318.524	76.81
318.753	76.81
318.983	72.81
319.212	90.81
319.441	87.81
319.67	73.81
319.9	78.81
320.129	61.81
320.358	76.81
320.587	74.81
320.816	81.81
321.046	76.81
321.275	82.81
321.504	78.81
321.733	78.81
321.962	72.81
322.191	78.81
322.42	94.81
322.649	77.81
322.878	71.81
323.108	83.81
323.337	75.81
323.566	89.81
323.795	82.81
324.024	68.81
324.253	81.81
324.482	81.81
324.71	85.81
324.939	77.81
325.168	77.81
325.397	76.81
325.626	84.81
325.855	66.81
326.084	64.81
326.313	84.81
326.542	81.81
326.77	80.81
326.999	79.81
327.228	74.81
327.457	77.81
327.686	86.81
327.914	86.81
328.143	93.81
328.372	82.81
328.6	77.81
328.829	83.81
329.058	87.81
329.287	80.81
329.515	74.81
329.744	93.81
329.972	85.81
330.201	81.81
330.43	75.81
330.658	83.81
330.887	81.81
331.115	82.81
331.344	93.81
331.572	88.81
331.801	81.81
332.03	88.81
332.258	77.81
332.486	77.81
332.715	82.81
332.943	72.81
333.172	73.81
333.4	76.81
333.629	80.81
333.857	69.81
334.085	83.81
334.314	81.81
334.542	90.81
334.771	83.81
334.999	86.81
335.227	81.81
335.455	80.81
335.684	95.81
335.912	79.81
336.14	76.81
336.369	79.81
336.597	71.81
336.825	84.81
337.053	91.81
337.281	70.81
337.51	84.81
337.738	91.81
337.966	86.81
338.194	77.81
338.422	85.81
338.65	64.81
338.878	76.81
339.106	80.81
339.334	83.81
339.562	86.81
339.79	67.81
340.018	89.81
340.246	75.81
340.474	75.81
340.702	83.81
340.93	82.81
341.158	81.81
341.386	77.81
341.614	88.81
341.842	77.81
342.07	62.81
342.298	77.81
342.526	83.81
342.754	68.81
342.981	85.81
343.209	84.81
343.437	88.81
343.665	95.81
343.893	64.81
344.12	80.81
344.348	81.81
344.576	89.81
344.804	65.81
345.031	84.81
345.259	91.81
345.487	76.81
345.714	94.81
345.942	88.81
346.17	77.81
346.397	80.81
346.625	89.81
346.853	79.81
347.08	80.81
347.308	69.81
347.535	71.81
347.763	91.81
347.99	74.81
348.218	74.81
348.445	78.81
348.673	85.81
348.9	79.81
349.128	77.81
349.355	87.81
349.583	84.81
349.81	69.81
350.037	82.81
350.265	89.81
350.492	83.81
350.72	73.81
350.947	78.81
351.174	80.81
351.402	95.81
351.629	80.81
351.856	92.81
352.083	72.81
352.311	85.81
352.538	84.81
352.765	84.81
352.992	87.81
353.22	78.81
353.447	83.81
353.674	73.81
353.901	80.81
354.128	89.81
354.355	86.81
354.583	87.81
354.81	87.81
355.037	78.81
355.264	76.81
355.491	88.81
355.718	87.81
355.945	67.81
356.172	69.81
356.399	82.81
356.626	88.81
356.853	81.81
357.08	75.81
357.307	85.81
357.534	74.81
357.761	75.81
357.988	92.81
358.215	90.81
358.441	87.81
358.668	97.81
358.895	87.81
359.122	74.81
359.349	82.81
359.576	75.81
359.802	75.81
360.029	83.81
360.256	84.81
360.483	75.81
360.709	80.81
360.936	90.81
361.163	90.81
361.39	85.81
361.616	83.81
361.843	67.81
362.07	92.81
362.296	81.81
362.523	73.81
362.749	74.81
362.976	84.81
363.203	83.81
363.429	78.81
363.656	80.81
363.882	58.81
364.109	81.81
364.335	85.81
364.562	92.81
364.788	82.81
365.015	77.81
365.241	72.81
365.468	86.81
365.694	76.81
365.92	80.81
366.147	69.81
366.373	89.81
366.599	81.81
366.826	67.81
367.052	68.81
367.278	78.81
367.505	73.81
367.731	88.81
367.957	74.81
368.184	88.81
368.41	75.81
368.636	85.81
368.862	90.81
369.089	89.81
369.315	87.81
369.541	85.81
369.767	70.81
369.993	67.81
370.219	85.81
370.445	85.81
370.672	64.81
370.898	77.81
371.124	73.81
371.35	68.81
371.576	83.81
371.802	70.81
372.028	77.81
372.254	79.81
372.48	63.81
372.706	84.81
372.932	89.81
373.158	87.81
373.384	72.81
373.61	83.81
373.835	65.81
374.061	78.81
374.287	71.81
374.513	79.81
374.739	75.81
374.965	76.81
375.191	85.81
375.416	80.81
375.642	76.81
375.868	87.81
376.094	79.81
376.319	80.81
376.545	68.81
376.771	69.81
376.997	81.81
377.222	71.81
377.448	62.81
377.674	77.81
377.899	65.81
378.125	74.81
378.35	81.81
378.576	87.81
378.802	82.81
379.027	80.81
379.253	77.81
379.478	86.81
379.704	79.81
379.929	77.81
380.155	68.81
380.38	79.81
380.606	95.81
380.831	81.81
381.057	87.81
381.282	89.81
381.507	95.81
381.733	86.81
381.958	82.81
382.184	74.81
382.409	80.81
382.634	83.81
382.86	81.81
383.085	96.81
383.31	101.81
383.535	90.81
383.761	93.81
383.986	83.81
384.211	80.81
384.436	95.81
384.662	84.81
384.887	105.81
385.112	86.81
385.337	97.81
385.562	87.81
385.787	101.81
386.013	79.81
386.238	87.81
386.463	77.81
386.688	115.81
386.913	100.81
387.138	82.81
387.363	76.81
387.588	90.81
387.813	88.81
388.038	77.81
388.263	93.81
388.488	91.81
388.713	64.81
388.938	75.81
389.163	67.81
389.387	80.81
389.612	77.81
389.837	81.81
390.062	89.81
390.287	94.81
390.512	68.81
390.736	73.81
390.961	99.81
391.186	77.81
391.411	76.81
391.636	76.81
391.86	78.81
392.085	90.81
392.31	76.81
392.534	75.81
392.759	69.81
392.984	95.81
393.208	92.81
393.433	88.81
393.658	91.81
393.882	86.81
394.107	109.81
394.331	149.81
394.556	140.81
394.78	101.81
395.005	81.81
395.229	87.81
395.454	80.81
395.678	84.81
395.903	121.81
396.127	160.81
396.352	167.81
396.576	82.81
396.801	80.81
397.025	73.81
397.249	91.81
397.474	85.81
397.698	81.81
397.922	78.81
398.147	86.81
398.371	77.81
398.595	78.81
398.82	76.81
399.044	80.81
399.268	83.81
399.492	83.81
399.717	98.81
399.941	93.81
400.165	88.81
400.389	88.81
400.613	82.81
400.837	79.81
401.062	77.81
401.286	65.81
401.51	87.81
401.734	71.81
401.958	75.81
402.182	75.81
402.406	87.81
402.63	88.81
402.854	91.81
403.078	82.81
403.302	89.81
403.526	91.81
403.75	83.81
403.974	78.81
404.198	83.81
404.422	64.81
404.645	75.81
404.869	77.81
405.093	80.81
405.317	83.81
405.541	78.81
405.765	86.81
405.988	78.81
406.212	73.81
406.436	73.81
406.66	86.81
406.883	77.81
407.107	77.81
407.331	68.81
407.555	79.81
407.778	75.81
408.002	89.81
408.226	73.81
408.449	73.81
408.673	64.81
408.896	68.81
409.12	78.81
409.344	91.81
409.567	73.81
409.791	77.81
410.014	61.81
410.238	73.81
410.461	83.81
410.685	77.81
410.908	74.81
411.132	95.81
411.355	70.81
411.578	73.81
411.802	84.81
412.025	82.81
412.249	71.81
412.472	62.81
412.695	68.81
412.919	96.81
413.142	85.81
413.365	83.81
413.589	80.81
413.812	79.81
414.035	78.81
414.258	83.81
414.482	84.81
414.705	86.81
414.928	82.81
415.151	65.81
415.374	79.81
415.597	82.81
415.821	80.81
416.044	74.81
416.267	77.81
416.49	92.81
416.713	66.81
416.936	76.81
417.159	79.81
417.382	87.81
417.605	73.81
417.828	76.81
418.051	84.81
418.274	80.81
418.497	77.81
418.72	85.81
418.943	83.81
419.166	90.81
419.389	87.81
419.611	74.81
419.834	95.81
420.057	82.81
420.28	81.81
420.503	84.81
420.726	83.81
420.948	73.81
421.171	65.81
421.394	82.81
421.617	77.81
421.839	80.81
422.062	71.81
422.285	83.81
422.507	91.81
422.73	69.81
422.953	83.81
423.175	77.81
423.398	68.81
423.621	80.81
423.843	81.81
424.066	82.81
424.288	73.81
424.511	71.81
424.733	72.81
424.956	78.81
425.178	57.81
425.401	83.81
425.623	90.81
425.846	76.81
426.068	75.81
426.291	75.81
426.513	86.81
426.735	88.81
426.958	83.81
427.18	77.81
427.402	70.81
427.625	85.81
427.847	81.81
428.069	82.81
428.292	83.81
428.514	75.81
428.736	81.81
428.958	89.81
429.181	75.81
429.403	76.81
429.625	72.81
429.847	87.81
430.069	77.81
430.292	72.81
430.514	87.81
430.736	82.81
430.958	87.81
431.18	76.81
431.402	79.81
431.624	75.81
431.846	71.81
432.068	82.81
432.29	91.81
432.512	74.81
432.734	84.81
432.956	93.81
433.178	104.81
433.4	76.81
433.622	82.81
433.844	77.81
434.066	94.81
434.287	103.81
434.509	82.81
434.731	89.81
434.953	79.81
435.175	89.81
435.397	86.81
435.618	83.81
435.84	75.81
436.062	84.81
436.284	82.81
436.505	78.81
436.727	74.81
436.949	77.81
437.17	78.81
437.392	78.81
437.614	95.81
437.835	74.81
438.057	93.81
438.278	81.81
438.5	83.81
438.721	67.81
438.943	84.81
439.165	73.81
439.386	82.81
439.608	89.81
439.829	81.81
440.05	74.81
440.272	86.81
440.493	65.81
440.715	81.81
440.936	74.81
441.158	86.81
441.379	60.81
441.6	69.81
441.822	92.81
442.043	72.81
442.264	87.81
442.486	73.81
442.707	91.81
442.928	77.81
443.149	85.81
443.371	80.81
443.592	77.81
443.813	81.81
444.034	77.81
444.255	71.81
444.476	75.81
444.698	86.81
444.919	75.81
445.14	143.81
445.361	132.81
445.582	83.81
445.803	82.81
446.024	81.81
446.245	84.81
446.466	77.81
446.687	80.81
446.908	76.81
447.129	79.81
447.35	78.81
447.571	84.81
447.792	79.81
448.013	81.81
448.234	83.81
448.455	86.81
448.675	96.81
448.896	81.81
449.117	83.81
449.338	67.81
449.559	80.81
449.779	81.81
450	87.81
450.221	85.81
450.442	87.81
450.662	63.81
450.883	85.81
451.104	78.81
451.324	87.81
451.545	84.81
451.766	87.81
451.986	71.81
452.207	87.81
452.428	81.81
452.648	84.81
452.869	90.81
453.089	77.81
453.31	79.81
453.53	81.81
453.751	79.81
453.971	78.81
454.192	85.81
454.412	85.81
454.633	90.81
454.853	81.81
455.073	72.81
455.294	76.81
455.514	77.81
455.734	75.81
455.955	76.81
456.175	75.81
456.395	79.81
456.616	80.81
456.836	77.81
457.056	80.81
457.276	79.81
457.497	88.81
457.717	88.81
457.937	88.81
458.157	83.81
458.377	72.81
458.598	69.81
458.818	83.81
459.038	75.81
459.258	73.81
459.478	85.81
459.698	84.81
459.918	83.81
460.138	78.81
460.358	74.81
460.578	84.81
460.798	83.81
461.018	71.81
461.238	98.81
461.458	80.81
461.678	73.81
461.898	95.81
462.118	88.81
462.338	83.81
462.558	72.81
462.777	73.81
462.997	84.81
463.217	81.81
463.437	86.81
463.657	85.81
463.876	84.81
464.096	79.81
464.316	83.81
464.536	88.81
464.755	91.81
464.975	73.81
465.195	91.81
465.414	68.81
465.634	66.81
465.854	65.81
466.073	77.81
466.293	74.81
466.512	86.81
466.732	77.81
466.951	94.81
467.171	91.81
467.391	71.81
467.61	61.81
467.829	88.81
468.049	82.81
468.268	91.81
468.488	94.81
468.707	83.81
468.927	80.81
469.146	76.81
469.365	69.81
469.585	85.81
469.804	97.81
470.023	100.81
470.243	75.81
470.462	90.81
470.681	78.81
470.901	77.81
471.12	74.81
471.339	85.81
471.558	88.81
471.777	85.81
471.997	94.81
472.216	88.81
472.435	78.81
472.654	83.81
472.873	71.81
473.092	64.81
473.311	84.81
473.53	95.81
473.749	96.81
473.968	101.81
474.187	87.81
474.406	88.81
474.625	81.81
474.844	72.81
475.063	88.81
475.282	90.81
475.501	91.81
475.72	77.81
475.939	89.81
476.158	93.81
476.377	87.81
476.596	86.81
476.814	89.81
477.033	66.81
477.252	73.81
477.471	75.81
477.69	84.81
477.908	86.81
478.127	87.81
478.346	79.81
478.564	94.81
478.783	90.81
479.002	78.81
479.22	83.81
479.439	84.81
479.658	84.81
479.876	73.81
480.095	70.81
480.313	73.81
480.532	79.81
480.751	78.81
480.969	81.81
481.188	83.81
481.406	82.81
481.624	83.81
481.843	96.81
482.061	78.81
482.28	75.81
482.498	80.81
482.717	77.81
482.935	78.81
483.153	87.81
483.372	77.81
483.59	82.81
483.808	77.81
484.027	68.81
484.245	89.81
484.463	83.81
484.681	115.81
484.9	110.81
485.118	91.81
485.336	86.81
485.554	91.81
485.772	86.81
485.99	79.81
486.209	96.81
486.427	81.81
486.645	83.81
486.863	102.81
487.081	83.81
487.299	91.81
487.517	84.81
487.735	82.81
487.953	95.81
488.171	102.81
488.389	82.81
488.607	84.81
488.825	88.81
489.043	89.81
489.261	98.81
489.479	98.81
489.696	77.81
489.914	79.81
490.132	86.81
490.35	90.81
490.568	95.81
490.786	93.81
491.003	81.81
491.221	91.81
491.439	93.81
491.657	91.81
491.874	79.81
492.092	102.81
492.31	101.81
492.527	101.81
492.745	81.81
492.963	91.81
493.18	93.81
493.398	96.81
493.615	95.81
493.833	80.81
494.05	81.81
494.268	83.81
494.485	99.81
494.703	92.81
494.92	75.81
495.138	71.81
495.355	90.81
495.573	84.81
495.79	73.81
496.008	100.81
496.225	87.81
496.442	87.81
496.66	92.81
496.877	77.81
497.094	79.81
497.312	76.81
497.529	74.81
497.746	96.81
497.963	89.81
498.181	89.81
498.398	82.81
498.615	84.81
498.832	75.81
499.049	84.81
499.267	91.81
499.484	85.81
499.701	82.81
499.918	82.81
500.135	86.81
500.352	78.81
500.569	76.81
500.786	59.81
501.003	85.81
501.22	73.81
501.437	85.81
501.654	67.81
501.871	60.81
502.088	75.81
502.305	93.81
502.522	85.81
502.739	75.81
502.956	90.81
503.172	91.81
503.389	86.81
503.606	97.81
503.823	85.81
504.04	97.81
504.256	86.81
504.473	77.81
504.69	72.81
504.907	90.81
505.123	91.81
505.34	78.81
505.557	90.81
505.773	77.81
505.99	63.81
506.207	82.81
506.423	84.81
506.64	76.81
506.856	69.81
507.073	82.81
507.289	87.81
507.506	84.81
507.722	94.81
507.939	88.81
508.155	95.81
508.372	77.81
508.588	75.81
508.805	94.81
509.021	71.81
509.238	79.81
509.454	94.81
509.67	93.81
509.887	95.81
510.103	84.81
510.319	98.81
510.536	87.81
510.752	103.81
510.968	96.81
511.184	84.81
511.401	88.81
511.617	86.81
511.833	90.81
512.049	84.81
512.265	90.81
512.481	78.81
512.698	97.81
512.914	77.81
513.13	69.81
513.346	85.81
513.562	80.81
513.778	83.81
513.994	84.81
514.21	89.81
514.426	88.81
514.642	103.81
514.858	78.81
515.074	87.81
515.29	93.81
515.506	91.81
515.721	77.81
515.937	87.81
516.153	74.81
516.369	75.81
516.585	75.81
516.801	73.81
517.016	87.81
517.232	93.81
517.448	90.81
517.664	95.81
517.879	93.81
518.095	85.81
518.311	90.81
518.527	104.81
518.742	83.81
518.958	90.81
519.173	83.81
519.389	95.81
519.605	90.81
519.82	87.81
