Data from Coke_Can_Bottom_HRD10591_00018.txt Node
Date: Wed Nov 05 15:46:21 EST 2025
User: Yrep
Spectrometer: HR+D1059
Trigger mode: 1
Integration Time (sec): 1.000000E-1
Scans to average: 1
Electric dark correction enabled: true
Nonlinearity correction enabled: false
Boxcar width: 0
XAxis mode: Wavelengths
Number of Pixels in Spectrum: 2048
>>>>>Begin Spectral Data<<<<<
223.165	-20.12
223.4	-20.12
223.635	-20.12
223.869	-22.12
224.104	-6.12
224.338	-26.12
224.573	-19.12
224.808	-28.12
225.042	-10.12
225.277	-10.12
225.511	-0.12
225.746	2.88
225.98	14.88
226.215	21.88
226.449	18.88
226.683	22.88
226.918	40.88
227.152	19.88
227.387	24.88
227.621	48.88
227.856	45.88
228.09	44.88
228.324	51.88
228.559	54.88
228.793	58.88
229.027	60.88
229.262	58.88
229.496	70.88
229.73	75.88
229.964	62.88
230.199	67.88
230.433	75.88
230.667	70.88
230.901	79.88
231.136	70.88
231.37	70.88
231.604	79.88
231.838	80.88
232.072	86.88
232.306	95.88
232.541	78.88
232.775	66.88
233.009	85.88
233.243	84.88
233.477	76.88
233.711	76.88
233.945	87.88
234.179	68.88
234.413	87.88
234.647	84.88
234.881	69.88
235.115	91.88
235.349	68.88
235.583	84.88
235.817	78.88
236.051	62.88
236.285	60.88
236.519	72.88
236.753	72.88
236.987	75.88
237.221	84.88
237.455	69.88
237.689	80.88
237.922	66.88
238.156	85.88
238.39	66.88
238.624	75.88
238.858	75.88
239.091	71.88
239.325	79.88
239.559	79.88
239.793	63.88
240.027	83.88
240.26	76.88
240.494	67.88
240.728	58.88
240.961	72.88
241.195	64.88
241.429	64.88
241.662	83.88
241.896	87.88
242.13	65.88
242.363	66.88
242.597	71.88
242.83	94.88
243.064	79.88
243.298	80.88
243.531	85.88
243.765	84.88
243.998	65.88
244.232	92.88
244.465	86.88
244.699	64.88
244.932	66.88
245.166	76.88
245.399	79.88
245.633	71.88
245.866	81.88
246.099	74.88
246.333	78.88
246.566	91.88
246.8	71.88
247.033	77.88
247.266	79.88
247.5	71.88
247.733	74.88
247.966	78.88
248.2	68.88
248.433	72.88
248.666	70.88
248.899	79.88
249.133	70.88
249.366	81.88
249.599	62.88
249.832	89.88
250.066	96.88
250.299	66.88
250.532	73.88
250.765	74.88
250.998	68.88
251.231	86.88
251.465	93.88
251.698	79.88
251.931	86.88
252.164	81.88
252.397	70.88
252.63	82.88
252.863	69.88
253.096	82.88
253.329	78.88
253.562	74.88
253.795	73.88
254.028	94.88
254.261	74.88
254.494	82.88
254.727	74.88
254.96	69.88
255.193	85.88
255.426	74.88
255.659	79.88
255.892	79.88
256.124	87.88
256.357	81.88
256.59	80.88
256.823	80.88
257.056	84.88
257.289	61.88
257.521	82.88
257.754	78.88
257.987	69.88
258.22	78.88
258.452	94.88
258.685	74.88
258.918	79.88
259.151	79.88
259.383	76.88
259.616	90.88
259.849	70.88
260.081	93.88
260.314	80.88
260.547	84.88
260.779	61.88
261.012	86.88
261.244	80.88
261.477	82.88
261.71	94.88
261.942	90.88
262.175	86.88
262.407	75.88
262.64	94.88
262.872	77.88
263.105	89.88
263.337	78.88
263.57	78.88
263.802	75.88
264.035	79.88
264.267	73.88
264.499	86.88
264.732	73.88
264.964	83.88
265.197	89.88
265.429	88.88
265.661	77.88
265.894	79.88
266.126	85.88
266.358	79.88
266.591	79.88
266.823	92.88
267.055	71.88
267.287	78.88
267.52	81.88
267.752	81.88
267.984	90.88
268.216	62.88
268.448	81.88
268.681	85.88
268.913	81.88
269.145	71.88
269.377	95.88
269.609	63.88
269.841	76.88
270.073	88.88
270.306	109.88
270.538	78.88
270.77	79.88
271.002	95.88
271.234	86.88
271.466	83.88
271.698	62.88
271.93	92.88
272.162	63.88
272.394	80.88
272.626	66.88
272.858	96.88
273.09	76.88
273.322	98.88
273.553	106.88
273.785	76.88
274.017	90.88
274.249	81.88
274.481	82.88
274.713	79.88
274.945	86.88
275.176	79.88
275.408	78.88
275.64	88.88
275.872	84.88
276.104	78.88
276.335	101.88
276.567	76.88
276.799	74.88
277.031	74.88
277.262	77.88
277.494	79.88
277.726	76.88
277.957	88.88
278.189	70.88
278.421	90.88
278.652	88.88
278.884	93.88
279.115	80.88
279.347	92.88
279.579	71.88
279.81	90.88
280.042	75.88
280.273	76.88
280.505	78.88
280.736	76.88
280.968	77.88
281.199	86.88
281.431	68.88
281.662	80.88
281.894	84.88
282.125	76.88
282.356	77.88
282.588	83.88
282.819	78.88
283.051	81.88
283.282	88.88
283.513	80.88
283.745	92.88
283.976	78.88
284.207	66.88
284.439	71.88
284.67	88.88
284.901	88.88
285.132	86.88
285.364	87.88
285.595	95.88
285.826	84.88
286.057	89.88
286.288	85.88
286.52	81.88
286.751	70.88
286.982	78.88
287.213	80.88
287.444	72.88
287.675	79.88
287.906	84.88
288.138	82.88
288.369	83.88
288.6	88.88
288.831	79.88
289.062	76.88
289.293	75.88
289.524	85.88
289.755	88.88
289.986	81.88
290.217	96.88
290.448	90.88
290.679	77.88
290.91	75.88
291.141	78.88
291.371	88.88
291.602	93.88
291.833	78.88
292.064	85.88
292.295	76.88
292.526	74.88
292.757	77.88
292.987	85.88
293.218	87.88
293.449	89.88
293.68	80.88
293.91	88.88
294.141	88.88
294.372	79.88
294.603	89.88
294.833	79.88
295.064	83.88
295.295	63.88
295.525	76.88
295.756	82.88
295.987	79.88
296.217	86.88
296.448	79.88
296.679	70.88
296.909	93.88
297.14	77.88
297.37	72.88
297.601	74.88
297.831	70.88
298.062	75.88
298.292	99.88
298.523	82.88
298.753	72.88
298.984	88.88
299.214	99.88
299.445	80.88
299.675	96.88
299.905	84.88
300.136	76.88
300.366	78.88
300.597	84.88
300.827	76.88
301.057	90.88
301.288	77.88
301.518	78.88
301.748	88.88
301.979	104.88
302.209	99.88
302.439	93.88
302.669	81.88
302.9	85.88
303.13	92.88
303.36	91.88
303.59	82.88
303.82	86.88
304.051	92.88
304.281	75.88
304.511	94.88
304.741	91.88
304.971	80.88
305.201	83.88
305.431	86.88
305.661	82.88
305.891	96.88
306.121	67.88
306.352	85.88
306.582	90.88
306.812	78.88
307.042	77.88
307.272	87.88
307.502	91.88
307.731	88.88
307.961	89.88
308.191	109.88
308.421	93.88
308.651	96.88
308.881	90.88
309.111	89.88
309.341	97.88
309.571	105.88
309.8	86.88
310.03	90.88
310.26	88.88
310.49	75.88
310.72	86.88
310.949	97.88
311.179	77.88
311.409	94.88
311.639	87.88
311.868	83.88
312.098	93.88
312.328	81.88
312.557	78.88
312.787	72.88
313.017	80.88
313.246	75.88
313.476	87.88
313.706	80.88
313.935	87.88
314.165	77.88
314.394	86.88
314.624	86.88
314.853	84.88
315.083	91.88
315.312	99.88
315.542	86.88
315.771	79.88
316.001	87.88
316.23	82.88
316.46	83.88
316.689	87.88
316.919	81.88
317.148	75.88
317.377	95.88
317.607	83.88
317.836	86.88
318.065	88.88
318.295	79.88
318.524	94.88
318.753	81.88
318.983	102.88
319.212	80.88
319.441	86.88
319.67	80.88
319.9	86.88
320.129	92.88
320.358	94.88
320.587	79.88
320.816	78.88
321.046	87.88
321.275	90.88
321.504	76.88
321.733	86.88
321.962	71.88
322.191	70.88
322.42	73.88
322.649	90.88
322.878	84.88
323.108	83.88
323.337	78.88
323.566	88.88
323.795	90.88
324.024	85.88
324.253	94.88
324.482	82.88
324.71	80.88
324.939	92.88
325.168	83.88
325.397	77.88
325.626	86.88
325.855	66.88
326.084	87.88
326.313	92.88
326.542	78.88
326.77	85.88
326.999	92.88
327.228	92.88
327.457	88.88
327.686	80.88
327.914	88.88
328.143	78.88
328.372	95.88
328.6	79.88
328.829	88.88
329.058	92.88
329.287	80.88
329.515	90.88
329.744	87.88
329.972	75.88
330.201	92.88
330.43	83.88
330.658	83.88
330.887	84.88
331.115	71.88
331.344	75.88
331.572	87.88
331.801	77.88
332.03	75.88
332.258	79.88
332.486	79.88
332.715	81.88
332.943	84.88
333.172	84.88
333.4	93.88
333.629	84.88
333.857	76.88
334.085	86.88
334.314	90.88
334.542	75.88
334.771	85.88
334.999	70.88
335.227	82.88
335.455	81.88
335.684	73.88
335.912	84.88
336.14	81.88
336.369	80.88
336.597	82.88
336.825	74.88
337.053	76.88
337.281	73.88
337.51	81.88
337.738	74.88
337.966	80.88
338.194	88.88
338.422	102.88
338.65	74.88
338.878	92.88
339.106	74.88
339.334	71.88
339.562	92.88
339.79	86.88
340.018	75.88
340.246	70.88
340.474	73.88
340.702	86.88
340.93	73.88
341.158	74.88
341.386	90.88
341.614	83.88
341.842	77.88
342.07	80.88
342.298	92.88
342.526	80.88
342.754	90.88
342.981	89.88
343.209	69.88
343.437	73.88
343.665	85.88
343.893	84.88
344.12	97.88
344.348	86.88
344.576	88.88
344.804	103.88
345.031	90.88
345.259	73.88
345.487	84.88
345.714	96.88
345.942	73.88
346.17	90.88
346.397	75.88
346.625	74.88
346.853	89.88
347.08	70.88
347.308	94.88
347.535	75.88
347.763	74.88
347.99	86.88
348.218	88.88
348.445	96.88
348.673	90.88
348.9	90.88
349.128	81.88
349.355	88.88
349.583	82.88
349.81	76.88
350.037	80.88
350.265	97.88
350.492	81.88
350.72	91.88
350.947	84.88
351.174	88.88
351.402	63.88
351.629	83.88
351.856	70.88
352.083	74.88
352.311	82.88
352.538	89.88
352.765	76.88
352.992	81.88
353.22	82.88
353.447	80.88
353.674	81.88
353.901	74.88
354.128	84.88
354.355	81.88
354.583	89.88
354.81	88.88
355.037	88.88
355.264	79.88
355.491	74.88
355.718	86.88
355.945	71.88
356.172	93.88
356.399	101.88
356.626	78.88
356.853	88.88
357.08	86.88
357.307	86.88
357.534	73.88
357.761	85.88
357.988	82.88
358.215	90.88
358.441	87.88
358.668	65.88
358.895	85.88
359.122	86.88
359.349	81.88
359.576	85.88
359.802	85.88
360.029	84.88
360.256	76.88
360.483	86.88
360.709	73.88
360.936	92.88
361.163	80.88
361.39	69.88
361.616	80.88
361.843	79.88
362.07	69.88
362.296	78.88
362.523	78.88
362.749	72.88
362.976	86.88
363.203	93.88
363.429	70.88
363.656	86.88
363.882	94.88
364.109	80.88
364.335	87.88
364.562	86.88
364.788	76.88
365.015	86.88
365.241	76.88
365.468	94.88
365.694	84.88
365.92	84.88
366.147	72.88
366.373	80.88
366.599	77.88
366.826	82.88
367.052	95.88
367.278	82.88
367.505	80.88
367.731	87.88
367.957	73.88
368.184	84.88
368.41	95.88
368.636	87.88
368.862	77.88
369.089	72.88
369.315	96.88
369.541	83.88
369.767	69.88
369.993	72.88
370.219	82.88
370.445	91.88
370.672	70.88
370.898	80.88
371.124	84.88
371.35	77.88
371.576	81.88
371.802	80.88
372.028	82.88
372.254	75.88
372.48	96.88
372.706	90.88
372.932	74.88
373.158	75.88
373.384	81.88
373.61	101.88
373.835	82.88
374.061	81.88
374.287	92.88
374.513	74.88
374.739	77.88
374.965	78.88
375.191	83.88
375.416	77.88
375.642	78.88
375.868	78.88
376.094	83.88
376.319	86.88
376.545	86.88
376.771	76.88
376.997	78.88
377.222	89.88
377.448	85.88
377.674	96.88
377.899	81.88
378.125	82.88
378.35	64.88
378.576	75.88
378.802	78.88
379.027	71.88
379.253	98.88
379.478	82.88
379.704	81.88
379.929	94.88
380.155	90.88
380.38	71.88
380.606	90.88
380.831	86.88
381.057	84.88
381.282	80.88
381.507	88.88
381.733	86.88
381.958	92.88
382.184	84.88
382.409	79.88
382.634	93.88
382.86	92.88
383.085	91.88
383.31	81.88
383.535	79.88
383.761	96.88
383.986	104.88
384.211	73.88
384.436	84.88
384.662	94.88
384.887	98.88
385.112	94.88
385.337	89.88
385.562	100.88
385.787	82.88
386.013	86.88
386.238	92.88
386.463	74.88
386.688	95.88
386.913	89.88
387.138	99.88
387.363	81.88
387.588	98.88
387.813	81.88
388.038	93.88
388.263	84.88
388.488	86.88
388.713	83.88
388.938	87.88
389.163	63.88
389.387	73.88
389.612	78.88
389.837	87.88
390.062	83.88
390.287	93.88
390.512	84.88
390.736	75.88
390.961	89.88
391.186	93.88
391.411	70.88
391.636	86.88
391.86	78.88
392.085	81.88
392.31	80.88
392.534	86.88
392.759	81.88
392.984	93.88
393.208	70.88
393.433	76.88
393.658	84.88
393.882	86.88
394.107	103.88
394.331	137.88
394.556	136.88
394.78	98.88
395.005	76.88
395.229	79.88
395.454	87.88
395.678	88.88
395.903	118.88
396.127	159.88
396.352	170.88
396.576	113.88
396.801	86.88
397.025	76.88
397.249	64.88
397.474	82.88
397.698	87.88
397.922	79.88
398.147	77.88
398.371	94.88
398.595	75.88
398.82	89.88
399.044	80.88
399.268	78.88
399.492	83.88
399.717	92.88
399.941	79.88
400.165	84.88
400.389	84.88
400.613	74.88
400.837	78.88
401.062	72.88
401.286	84.88
401.51	85.88
401.734	76.88
401.958	84.88
402.182	87.88
402.406	80.88
402.63	68.88
402.854	82.88
403.078	85.88
403.302	90.88
403.526	82.88
403.75	89.88
403.974	75.88
404.198	79.88
404.422	74.88
404.645	72.88
404.869	71.88
405.093	79.88
405.317	80.88
405.541	74.88
405.765	79.88
405.988	71.88
406.212	86.88
406.436	74.88
406.66	76.88
406.883	61.88
407.107	66.88
407.331	63.88
407.555	74.88
407.778	72.88
408.002	69.88
408.226	87.88
408.449	79.88
408.673	62.88
408.896	96.88
409.12	86.88
409.344	82.88
409.567	71.88
409.791	90.88
410.014	80.88
410.238	78.88
410.461	85.88
410.685	87.88
410.908	76.88
411.132	82.88
411.355	79.88
411.578	84.88
411.802	75.88
412.025	73.88
412.249	81.88
412.472	81.88
412.695	74.88
412.919	74.88
413.142	65.88
413.365	84.88
413.589	74.88
413.812	74.88
414.035	87.88
414.258	82.88
414.482	83.88
414.705	81.88
414.928	81.88
415.151	76.88
415.374	81.88
415.597	81.88
415.821	75.88
416.044	90.88
416.267	80.88
416.49	76.88
416.713	92.88
416.936	87.88
417.159	71.88
417.382	80.88
417.605	73.88
417.828	77.88
418.051	75.88
418.274	79.88
418.497	82.88
418.72	79.88
418.943	74.88
419.166	85.88
419.389	95.88
419.611	80.88
419.834	78.88
420.057	84.88
420.28	78.88
420.503	84.88
420.726	68.88
420.948	86.88
421.171	77.88
421.394	75.88
421.617	71.88
421.839	68.88
422.062	70.88
422.285	73.88
422.507	81.88
422.73	88.88
422.953	71.88
423.175	74.88
423.398	79.88
423.621	69.88
423.843	82.88
424.066	78.88
424.288	86.88
424.511	74.88
424.733	74.88
424.956	70.88
425.178	74.88
425.401	78.88
425.623	71.88
425.846	75.88
426.068	84.88
426.291	80.88
426.513	73.88
426.735	97.88
426.958	72.88
427.18	74.88
427.402	75.88
427.625	81.88
427.847	81.88
428.069	98.88
428.292	86.88
428.514	82.88
428.736	80.88
428.958	82.88
429.181	80.88
429.403	75.88
429.625	65.88
429.847	82.88
430.069	75.88
430.292	78.88
430.514	84.88
430.736	85.88
430.958	93.88
431.18	77.88
431.402	83.88
431.624	78.88
431.846	72.88
432.068	74.88
432.29	83.88
432.512	77.88
432.734	74.88
432.956	86.88
433.178	84.88
433.4	76.88
433.622	75.88
433.844	74.88
434.066	77.88
434.287	76.88
434.509	89.88
434.731	79.88
434.953	80.88
435.175	80.88
435.397	85.88
435.618	78.88
435.84	72.88
436.062	78.88
436.284	85.88
436.505	80.88
436.727	74.88
436.949	82.88
437.17	73.88
437.392	77.88
437.614	81.88
437.835	93.88
438.057	84.88
438.278	79.88
438.5	82.88
438.721	75.88
438.943	100.88
439.165	86.88
439.386	90.88
439.608	87.88
439.829	92.88
440.05	92.88
440.272	72.88
440.493	86.88
440.715	99.88
440.936	68.88
441.158	89.88
441.379	72.88
441.6	72.88
441.822	78.88
442.043	84.88
442.264	80.88
442.486	73.88
442.707	86.88
442.928	81.88
443.149	77.88
443.371	87.88
443.592	87.88
443.813	73.88
444.034	62.88
444.255	79.88
444.476	82.88
444.698	86.88
444.919	72.88
445.14	132.88
445.361	121.88
445.582	66.88
445.803	82.88
446.024	82.88
446.245	83.88
446.466	84.88
446.687	77.88
446.908	84.88
447.129	93.88
447.35	86.88
447.571	69.88
447.792	95.88
448.013	78.88
448.234	90.88
448.455	83.88
448.675	93.88
448.896	78.88
449.117	91.88
449.338	87.88
449.559	89.88
449.779	84.88
450	92.88
450.221	84.88
450.442	90.88
450.662	89.88
450.883	93.88
451.104	94.88
451.324	80.88
451.545	71.88
451.766	72.88
451.986	83.88
452.207	77.88
452.428	91.88
452.648	95.88
452.869	78.88
453.089	85.88
453.31	76.88
453.53	86.88
453.751	81.88
453.971	91.88
454.192	90.88
454.412	76.88
454.633	88.88
454.853	78.88
455.073	70.88
455.294	85.88
455.514	84.88
455.734	81.88
455.955	97.88
456.175	86.88
456.395	71.88
456.616	74.88
456.836	81.88
457.056	82.88
457.276	61.88
457.497	87.88
457.717	80.88
457.937	78.88
458.157	71.88
458.377	92.88
458.598	91.88
458.818	79.88
459.038	75.88
459.258	75.88
459.478	85.88
459.698	86.88
459.918	76.88
460.138	86.88
460.358	76.88
460.578	82.88
460.798	80.88
461.018	71.88
461.238	88.88
461.458	68.88
461.678	95.88
461.898	86.88
462.118	89.88
462.338	98.88
462.558	91.88
462.777	89.88
462.997	76.88
463.217	90.88
463.437	73.88
463.657	84.88
463.876	76.88
464.096	81.88
464.316	81.88
464.536	93.88
464.755	70.88
464.975	87.88
465.195	102.88
465.414	78.88
465.634	80.88
465.854	93.88
466.073	78.88
466.293	79.88
466.512	80.88
466.732	74.88
466.951	88.88
467.171	76.88
467.391	97.88
467.61	92.88
467.829	88.88
468.049	93.88
468.268	75.88
468.488	102.88
468.707	66.88
468.927	93.88
469.146	85.88
469.365	93.88
469.585	92.88
469.804	95.88
470.023	88.88
470.243	95.88
470.462	94.88
470.681	64.88
470.901	82.88
471.12	76.88
471.339	86.88
471.558	91.88
471.777	89.88
471.997	90.88
472.216	99.88
472.435	82.88
472.654	85.88
472.873	84.88
473.092	84.88
473.311	93.88
473.53	86.88
473.749	93.88
473.968	83.88
474.187	72.88
474.406	87.88
474.625	92.88
474.844	84.88
475.063	85.88
475.282	71.88
475.501	90.88
475.72	82.88
475.939	83.88
476.158	81.88
476.377	86.88
476.596	77.88
476.814	81.88
477.033	90.88
477.252	89.88
477.471	80.88
477.69	92.88
477.908	100.88
478.127	86.88
478.346	81.88
478.564	106.88
478.783	79.88
479.002	84.88
479.22	85.88
479.439	84.88
479.658	86.88
479.876	89.88
480.095	78.88
480.313	94.88
480.532	79.88
480.751	80.88
480.969	70.88
481.188	89.88
481.406	72.88
481.624	81.88
481.843	83.88
482.061	71.88
482.28	82.88
482.498	84.88
482.717	68.88
482.935	75.88
483.153	79.88
483.372	95.88
483.59	85.88
483.808	91.88
484.027	86.88
484.245	95.88
484.463	106.88
484.681	102.88
484.9	88.88
485.118	103.88
485.336	84.88
485.554	80.88
485.772	97.88
485.99	87.88
486.209	87.88
486.427	75.88
486.645	94.88
486.863	89.88
487.081	80.88
487.299	93.88
487.517	86.88
487.735	77.88
487.953	85.88
488.171	99.88
488.389	85.88
488.607	87.88
488.825	90.88
489.043	96.88
489.261	93.88
489.479	79.88
489.696	81.88
489.914	84.88
490.132	87.88
490.35	74.88
490.568	78.88
490.786	78.88
491.003	85.88
491.221	86.88
491.439	91.88
491.657	96.88
491.874	95.88
492.092	86.88
492.31	104.88
492.527	95.88
492.745	93.88
492.963	92.88
493.18	78.88
493.398	95.88
493.615	76.88
493.833	94.88
494.05	80.88
494.268	86.88
494.485	82.88
494.703	90.88
494.92	87.88
495.138	83.88
495.355	87.88
495.573	65.88
495.79	74.88
496.008	74.88
496.225	79.88
496.442	83.88
496.66	72.88
496.877	75.88
497.094	90.88
497.312	72.88
497.529	71.88
497.746	80.88
497.963	78.88
498.181	80.88
498.398	73.88
498.615	105.88
498.832	86.88
499.049	77.88
499.267	79.88
499.484	81.88
499.701	78.88
499.918	93.88
500.135	89.88
500.352	89.88
500.569	81.88
500.786	72.88
501.003	79.88
501.22	76.88
501.437	74.88
501.654	79.88
501.871	94.88
502.088	88.88
502.305	91.88
502.522	93.88
502.739	102.88
502.956	87.88
503.172	87.88
503.389	80.88
503.606	80.88
503.823	87.88
504.04	102.88
504.256	82.88
504.473	80.88
504.69	84.88
504.907	86.88
505.123	69.88
505.34	83.88
505.557	86.88
505.773	79.88
505.99	82.88
506.207	84.88
506.423	91.88
506.64	77.88
506.856	82.88
507.073	82.88
507.289	82.88
507.506	90.88
507.722	85.88
507.939	86.88
508.155	74.88
508.372	69.88
508.588	78.88
508.805	96.88
509.021	85.88
509.238	91.88
509.454	86.88
509.67	82.88
509.887	73.88
510.103	88.88
510.319	90.88
510.536	83.88
510.752	90.88
510.968	90.88
511.184	91.88
511.401	86.88
511.617	86.88
511.833	93.88
512.049	75.88
512.265	90.88
512.481	88.88
512.698	82.88
512.914	86.88
513.13	93.88
513.346	78.88
513.562	74.88
513.778	79.88
513.994	81.88
514.21	85.88
514.426	94.88
514.642	87.88
514.858	96.88
515.074	81.88
515.29	78.88
515.506	74.88
515.721	85.88
515.937	74.88
516.153	95.88
516.369	87.88
516.585	79.88
516.801	76.88
517.016	98.88
517.232	89.88
517.448	94.88
517.664	87.88
517.879	80.88
518.095	98.88
518.311	84.88
518.527	106.88
518.742	93.88
518.958	83.88
519.173	105.88
519.389	99.88
519.605	89.88
