Data from Coke_Can_Bottom_HRD10591_00004.txt Node
Date: Wed Nov 05 15:46:14 EST 2025
User: Yrep
Spectrometer: HR+D1059
Trigger mode: 1
Integration Time (sec): 1.000000E-1
Scans to average: 1
Electric dark correction enabled: true
Nonlinearity correction enabled: false
Boxcar width: 0
XAxis mode: Wavelengths
Number of Pixels in Spectrum: 2048
>>>>>Begin Spectral Data<<<<<
223.165	-25.56
223.4	-25.56
223.635	-25.56
223.869	-23.56
224.104	-27.56
224.338	-28.56
224.573	-14.56
224.808	-1.56
225.042	-3.56
225.277	-1.56
225.511	-7.56
225.746	10.44
225.98	4.44
226.215	23.44
226.449	28.44
226.683	15.44
226.918	15.44
227.152	36.44
227.387	33.44
227.621	27.44
227.856	34.44
228.09	41.44
228.324	44.44
228.559	57.44
228.793	43.44
229.027	63.44
229.262	52.44
229.496	67.44
229.73	65.44
229.964	82.44
230.199	91.44
230.433	68.44
230.667	82.44
230.901	79.44
231.136	79.44
231.37	72.44
231.604	82.44
231.838	94.44
232.072	76.44
232.306	92.44
232.541	80.44
232.775	85.44
233.009	96.44
233.243	88.44
233.477	78.44
233.711	77.44
233.945	88.44
234.179	84.44
234.413	82.44
234.647	83.44
234.881	91.44
235.115	71.44
235.349	71.44
235.583	92.44
235.817	65.44
236.051	80.44
236.285	74.44
236.519	72.44
236.753	81.44
236.987	87.44
237.221	80.44
237.455	72.44
237.689	85.44
237.922	78.44
238.156	81.44
238.39	85.44
238.624	71.44
238.858	74.44
239.091	86.44
239.325	75.44
239.559	81.44
239.793	72.44
240.027	73.44
240.26	78.44
240.494	82.44
240.728	62.44
240.961	72.44
241.195	73.44
241.429	81.44
241.662	67.44
241.896	79.44
242.13	75.44
242.363	72.44
242.597	76.44
242.83	74.44
243.064	85.44
243.298	81.44
243.531	78.44
243.765	83.44
243.998	82.44
244.232	98.44
244.465	86.44
244.699	81.44
244.932	73.44
245.166	74.44
245.399	86.44
245.633	72.44
245.866	86.44
246.099	72.44
246.333	79.44
246.566	85.44
246.8	70.44
247.033	75.44
247.266	78.44
247.5	78.44
247.733	80.44
247.966	63.44
248.2	72.44
248.433	68.44
248.666	76.44
248.899	78.44
249.133	67.44
249.366	87.44
249.599	88.44
249.832	82.44
250.066	72.44
250.299	84.44
250.532	66.44
250.765	81.44
250.998	81.44
251.231	73.44
251.465	69.44
251.698	73.44
251.931	71.44
252.164	76.44
252.397	69.44
252.63	85.44
252.863	80.44
253.096	84.44
253.329	86.44
253.562	86.44
253.795	90.44
254.028	93.44
254.261	89.44
254.494	84.44
254.727	93.44
254.96	82.44
255.193	82.44
255.426	75.44
255.659	83.44
255.892	81.44
256.124	76.44
256.357	86.44
256.59	84.44
256.823	89.44
257.056	77.44
257.289	83.44
257.521	78.44
257.754	79.44
257.987	71.44
258.22	75.44
258.452	76.44
258.685	81.44
258.918	73.44
259.151	99.44
259.383	78.44
259.616	76.44
259.849	81.44
260.081	74.44
260.314	83.44
260.547	86.44
260.779	82.44
261.012	85.44
261.244	75.44
261.477	72.44
261.71	73.44
261.942	84.44
262.175	87.44
262.407	84.44
262.64	90.44
262.872	87.44
263.105	85.44
263.337	87.44
263.57	68.44
263.802	81.44
264.035	78.44
264.267	77.44
264.499	81.44
264.732	90.44
264.964	104.44
265.197	88.44
265.429	82.44
265.661	86.44
265.894	84.44
266.126	92.44
266.358	77.44
266.591	75.44
266.823	89.44
267.055	76.44
267.287	76.44
267.52	100.44
267.752	101.44
267.984	90.44
268.216	69.44
268.448	77.44
268.681	92.44
268.913	81.44
269.145	106.44
269.377	93.44
269.609	82.44
269.841	93.44
270.073	81.44
270.306	70.44
270.538	84.44
270.77	81.44
271.002	73.44
271.234	76.44
271.466	78.44
271.698	69.44
271.93	76.44
272.162	81.44
272.394	84.44
272.626	74.44
272.858	78.44
273.09	90.44
273.322	77.44
273.553	88.44
273.785	77.44
274.017	77.44
274.249	75.44
274.481	77.44
274.713	83.44
274.945	97.44
275.176	92.44
275.408	84.44
275.64	97.44
275.872	93.44
276.104	82.44
276.335	78.44
276.567	81.44
276.799	87.44
277.031	87.44
277.262	91.44
277.494	87.44
277.726	94.44
277.957	90.44
278.189	71.44
278.421	98.44
278.652	93.44
278.884	86.44
279.115	78.44
279.347	87.44
279.579	92.44
279.81	76.44
280.042	77.44
280.273	97.44
280.505	86.44
280.736	103.44
280.968	99.44
281.199	88.44
281.431	78.44
281.662	65.44
281.894	86.44
282.125	78.44
282.356	82.44
282.588	95.44
282.819	86.44
283.051	92.44
283.282	80.44
283.513	92.44
283.745	75.44
283.976	87.44
284.207	80.44
284.439	83.44
284.67	89.44
284.901	87.44
285.132	90.44
285.364	89.44
285.595	92.44
285.826	89.44
286.057	99.44
286.288	81.44
286.52	90.44
286.751	96.44
286.982	78.44
287.213	86.44
287.444	91.44
287.675	90.44
287.906	87.44
288.138	90.44
288.369	87.44
288.6	89.44
288.831	93.44
289.062	89.44
289.293	74.44
289.524	77.44
289.755	92.44
289.986	85.44
290.217	84.44
290.448	103.44
290.679	85.44
290.91	93.44
291.141	90.44
291.371	82.44
291.602	86.44
291.833	81.44
292.064	89.44
292.295	86.44
292.526	94.44
292.757	80.44
292.987	87.44
293.218	77.44
293.449	82.44
293.68	71.44
293.91	92.44
294.141	98.44
294.372	96.44
294.603	89.44
294.833	81.44
295.064	75.44
295.295	88.44
295.525	90.44
295.756	86.44
295.987	86.44
296.217	79.44
296.448	88.44
296.679	79.44
296.909	94.44
297.14	75.44
297.37	80.44
297.601	85.44
297.831	93.44
298.062	82.44
298.292	82.44
298.523	89.44
298.753	87.44
298.984	103.44
299.214	89.44
299.445	73.44
299.675	76.44
299.905	96.44
300.136	76.44
300.366	83.44
300.597	97.44
300.827	79.44
301.057	72.44
301.288	80.44
301.518	92.44
301.748	86.44
301.979	100.44
302.209	97.44
302.439	81.44
302.669	71.44
302.9	103.44
303.13	82.44
303.36	83.44
303.59	92.44
303.82	102.44
304.051	85.44
304.281	79.44
304.511	76.44
304.741	88.44
304.971	90.44
305.201	86.44
305.431	96.44
305.661	82.44
305.891	88.44
306.121	93.44
306.352	88.44
306.582	68.44
306.812	83.44
307.042	86.44
307.272	96.44
307.502	88.44
307.731	92.44
307.961	87.44
308.191	104.44
308.421	96.44
308.651	92.44
308.881	82.44
309.111	82.44
309.341	99.44
309.571	110.44
309.8	94.44
310.03	81.44
310.26	80.44
310.49	77.44
310.72	76.44
310.949	87.44
311.179	79.44
311.409	71.44
311.639	74.44
311.868	85.44
312.098	90.44
312.328	102.44
312.557	96.44
312.787	77.44
313.017	97.44
313.246	90.44
313.476	69.44
313.706	87.44
313.935	94.44
314.165	95.44
314.394	74.44
314.624	74.44
314.853	76.44
315.083	86.44
315.312	72.44
315.542	75.44
315.771	96.44
316.001	71.44
316.23	91.44
316.46	85.44
316.689	81.44
316.919	100.44
317.148	74.44
317.377	88.44
317.607	89.44
317.836	86.44
318.065	76.44
318.295	90.44
318.524	84.44
318.753	87.44
318.983	87.44
319.212	97.44
319.441	83.44
319.67	80.44
319.9	78.44
320.129	81.44
320.358	74.44
320.587	90.44
320.816	89.44
321.046	92.44
321.275	75.44
321.504	93.44
321.733	91.44
321.962	99.44
322.191	82.44
322.42	85.44
322.649	103.44
322.878	94.44
323.108	93.44
323.337	92.44
323.566	93.44
323.795	85.44
324.024	101.44
324.253	81.44
324.482	90.44
324.71	87.44
324.939	100.44
325.168	86.44
325.397	84.44
325.626	90.44
325.855	79.44
326.084	98.44
326.313	81.44
326.542	95.44
326.77	85.44
326.999	81.44
327.228	87.44
327.457	68.44
327.686	82.44
327.914	94.44
328.143	91.44
328.372	80.44
328.6	93.44
328.829	88.44
329.058	91.44
329.287	88.44
329.515	79.44
329.744	76.44
329.972	83.44
330.201	85.44
330.43	82.44
330.658	87.44
330.887	74.44
331.115	89.44
331.344	92.44
331.572	84.44
331.801	87.44
332.03	87.44
332.258	86.44
332.486	88.44
332.715	78.44
332.943	81.44
333.172	87.44
333.4	78.44
333.629	81.44
333.857	89.44
334.085	75.44
334.314	87.44
334.542	75.44
334.771	88.44
334.999	96.44
335.227	74.44
335.455	83.44
335.684	98.44
335.912	86.44
336.14	88.44
336.369	80.44
336.597	84.44
336.825	82.44
337.053	90.44
337.281	96.44
337.51	73.44
337.738	84.44
337.966	82.44
338.194	88.44
338.422	91.44
338.65	81.44
338.878	83.44
339.106	90.44
339.334	96.44
339.562	88.44
339.79	88.44
340.018	86.44
340.246	86.44
340.474	83.44
340.702	84.44
340.93	86.44
341.158	80.44
341.386	84.44
341.614	92.44
341.842	74.44
342.07	77.44
342.298	104.44
342.526	86.44
342.754	88.44
342.981	80.44
343.209	79.44
343.437	104.44
343.665	74.44
343.893	89.44
344.12	83.44
344.348	91.44
344.576	94.44
344.804	75.44
345.031	84.44
345.259	84.44
345.487	101.44
345.714	93.44
345.942	85.44
346.17	77.44
346.397	82.44
346.625	68.44
346.853	85.44
347.08	76.44
347.308	94.44
347.535	80.44
347.763	106.44
347.99	96.44
348.218	77.44
348.445	85.44
348.673	81.44
348.9	89.44
349.128	91.44
349.355	87.44
349.583	81.44
349.81	90.44
350.037	101.44
350.265	87.44
350.492	74.44
350.72	75.44
350.947	84.44
351.174	76.44
351.402	78.44
351.629	88.44
351.856	88.44
352.083	77.44
352.311	94.44
352.538	81.44
352.765	80.44
352.992	80.44
353.22	102.44
353.447	88.44
353.674	89.44
353.901	85.44
354.128	93.44
354.355	87.44
354.583	84.44
354.81	77.44
355.037	81.44
355.264	85.44
355.491	80.44
355.718	68.44
355.945	91.44
356.172	83.44
356.399	97.44
356.626	80.44
356.853	87.44
357.08	81.44
357.307	91.44
357.534	72.44
357.761	94.44
357.988	74.44
358.215	92.44
358.441	90.44
358.668	87.44
358.895	66.44
359.122	88.44
359.349	78.44
359.576	85.44
359.802	77.44
360.029	95.44
360.256	79.44
360.483	80.44
360.709	88.44
360.936	88.44
361.163	78.44
361.39	78.44
361.616	80.44
361.843	75.44
362.07	76.44
362.296	80.44
362.523	83.44
362.749	73.44
362.976	68.44
363.203	85.44
363.429	77.44
363.656	90.44
363.882	81.44
364.109	87.44
364.335	78.44
364.562	80.44
364.788	79.44
365.015	87.44
365.241	88.44
365.468	77.44
365.694	82.44
365.92	87.44
366.147	77.44
366.373	81.44
366.599	80.44
366.826	80.44
367.052	80.44
367.278	101.44
367.505	80.44
367.731	78.44
367.957	81.44
368.184	90.44
368.41	86.44
368.636	86.44
368.862	91.44
369.089	80.44
369.315	68.44
369.541	77.44
369.767	82.44
369.993	77.44
370.219	88.44
370.445	80.44
370.672	88.44
370.898	79.44
371.124	88.44
371.35	86.44
371.576	73.44
371.802	79.44
372.028	83.44
372.254	86.44
372.48	71.44
372.706	84.44
372.932	90.44
373.158	79.44
373.384	85.44
373.61	82.44
373.835	92.44
374.061	92.44
374.287	87.44
374.513	80.44
374.739	85.44
374.965	90.44
375.191	93.44
375.416	100.44
375.642	78.44
375.868	83.44
376.094	88.44
376.319	85.44
376.545	84.44
376.771	81.44
376.997	98.44
377.222	88.44
377.448	89.44
377.674	88.44
377.899	91.44
378.125	96.44
378.35	97.44
378.576	89.44
378.802	91.44
379.027	87.44
379.253	69.44
379.478	85.44
379.704	88.44
379.929	91.44
380.155	87.44
380.38	72.44
380.606	95.44
380.831	88.44
381.057	92.44
381.282	89.44
381.507	88.44
381.733	98.44
381.958	82.44
382.184	80.44
382.409	89.44
382.634	87.44
382.86	96.44
383.085	94.44
383.31	99.44
383.535	91.44
383.761	100.44
383.986	100.44
384.211	86.44
384.436	89.44
384.662	77.44
384.887	96.44
385.112	94.44
385.337	95.44
385.562	81.44
385.787	78.44
386.013	81.44
386.238	95.44
386.463	93.44
386.688	97.44
386.913	107.44
387.138	83.44
387.363	98.44
387.588	78.44
387.813	113.44
388.038	98.44
388.263	99.44
388.488	92.44
388.713	85.44
388.938	96.44
389.163	83.44
389.387	86.44
389.612	84.44
389.837	80.44
390.062	91.44
390.287	74.44
390.512	88.44
390.736	81.44
390.961	86.44
391.186	68.44
391.411	87.44
391.636	92.44
391.86	84.44
392.085	94.44
392.31	84.44
392.534	73.44
392.759	91.44
392.984	86.44
393.208	81.44
393.433	76.44
393.658	85.44
393.882	95.44
394.107	103.44
394.331	124.44
394.556	159.44
394.78	120.44
395.005	86.44
395.229	90.44
395.454	85.44
395.678	84.44
395.903	108.44
396.127	170.44
396.352	187.44
396.576	97.44
396.801	80.44
397.025	80.44
397.249	93.44
397.474	91.44
397.698	80.44
397.922	75.44
398.147	69.44
398.371	68.44
398.595	86.44
398.82	84.44
399.044	85.44
399.268	87.44
399.492	85.44
399.717	80.44
399.941	76.44
400.165	83.44
400.389	72.44
400.613	89.44
400.837	83.44
401.062	85.44
401.286	89.44
401.51	89.44
401.734	74.44
401.958	72.44
402.182	85.44
402.406	101.44
402.63	81.44
402.854	93.44
403.078	68.44
403.302	89.44
403.526	93.44
403.75	84.44
403.974	76.44
404.198	84.44
404.422	83.44
404.645	76.44
404.869	91.44
405.093	78.44
405.317	77.44
405.541	71.44
405.765	82.44
405.988	67.44
406.212	88.44
406.436	77.44
406.66	78.44
406.883	71.44
407.107	80.44
407.331	69.44
407.555	81.44
407.778	85.44
408.002	76.44
408.226	90.44
408.449	80.44
408.673	88.44
408.896	109.44
409.12	82.44
409.344	76.44
409.567	89.44
409.791	90.44
410.014	85.44
410.238	84.44
410.461	89.44
410.685	91.44
410.908	74.44
411.132	86.44
411.355	89.44
411.578	85.44
411.802	80.44
412.025	86.44
412.249	90.44
412.472	86.44
412.695	86.44
412.919	86.44
413.142	96.44
413.365	97.44
413.589	88.44
413.812	74.44
414.035	81.44
414.258	79.44
414.482	92.44
414.705	77.44
414.928	96.44
415.151	79.44
415.374	75.44
415.597	80.44
415.821	86.44
416.044	72.44
416.267	82.44
416.49	79.44
416.713	91.44
416.936	85.44
417.159	88.44
417.382	71.44
417.605	81.44
417.828	83.44
418.051	78.44
418.274	84.44
418.497	88.44
418.72	72.44
418.943	101.44
419.166	80.44
419.389	86.44
419.611	73.44
419.834	90.44
420.057	90.44
420.28	101.44
420.503	83.44
420.726	95.44
420.948	89.44
421.171	92.44
421.394	89.44
421.617	74.44
421.839	86.44
422.062	83.44
422.285	84.44
422.507	74.44
422.73	93.44
422.953	92.44
423.175	88.44
423.398	82.44
423.621	80.44
423.843	76.44
424.066	78.44
424.288	94.44
424.511	81.44
424.733	73.44
424.956	76.44
425.178	81.44
425.401	89.44
425.623	74.44
425.846	81.44
426.068	90.44
426.291	84.44
426.513	68.44
426.735	80.44
426.958	74.44
427.18	80.44
427.402	74.44
427.625	82.44
427.847	93.44
428.069	81.44
428.292	77.44
428.514	79.44
428.736	82.44
428.958	78.44
429.181	91.44
429.403	79.44
429.625	88.44
429.847	86.44
430.069	70.44
430.292	87.44
430.514	81.44
430.736	76.44
430.958	83.44
431.18	84.44
431.402	78.44
431.624	91.44
431.846	90.44
432.068	85.44
432.29	74.44
432.512	84.44
432.734	91.44
432.956	74.44
433.178	83.44
433.4	82.44
433.622	85.44
433.844	77.44
434.066	79.44
434.287	84.44
434.509	93.44
434.731	90.44
434.953	91.44
435.175	83.44
435.397	81.44
435.618	96.44
435.84	82.44
436.062	93.44
436.284	79.44
436.505	88.44
436.727	87.44
436.949	104.44
437.17	83.44
437.392	76.44
437.614	82.44
437.835	88.44
438.057	80.44
438.278	96.44
438.5	72.44
438.721	90.44
438.943	90.44
439.165	74.44
439.386	88.44
439.608	96.44
439.829	79.44
440.05	96.44
440.272	95.44
440.493	81.44
440.715	81.44
440.936	81.44
441.158	80.44
441.379	99.44
441.6	77.44
441.822	76.44
442.043	91.44
442.264	74.44
442.486	95.44
442.707	98.44
442.928	87.44
443.149	93.44
443.371	78.44
443.592	76.44
443.813	79.44
444.034	104.44
444.255	95.44
444.476	79.44
444.698	86.44
444.919	95.44
445.14	145.44
445.361	116.44
445.582	80.44
445.803	79.44
446.024	95.44
446.245	90.44
446.466	79.44
446.687	72.44
446.908	94.44
447.129	77.44
447.35	74.44
447.571	97.44
447.792	97.44
448.013	90.44
448.234	86.44
448.455	72.44
448.675	84.44
448.896	86.44
449.117	92.44
449.338	87.44
449.559	83.44
449.779	81.44
450	97.44
450.221	70.44
450.442	73.44
450.662	88.44
450.883	80.44
451.104	94.44
451.324	92.44
451.545	85.44
451.766	94.44
451.986	93.44
452.207	89.44
452.428	78.44
452.648	86.44
452.869	100.44
453.089	100.44
453.31	97.44
453.53	81.44
453.751	78.44
453.971	85.44
454.192	76.44
454.412	77.44
454.633	84.44
454.853	84.44
455.073	84.44
455.294	87.44
455.514	91.44
455.734	89.44
455.955	80.44
456.175	70.44
456.395	64.44
456.616	70.44
456.836	92.44
457.056	89.44
457.276	85.44
457.497	64.44
457.717	92.44
457.937	88.44
458.157	90.44
458.377	66.44
458.598	80.44
458.818	86.44
459.038	68.44
459.258	82.44
459.478	78.44
459.698	80.44
459.918	94.44
460.138	72.44
460.358	76.44
460.578	84.44
460.798	76.44
461.018	87.44
461.238	73.44
461.458	92.44
461.678	79.44
461.898	76.44
462.118	70.44
462.338	85.44
462.558	88.44
462.777	86.44
462.997	79.44
463.217	88.44
463.437	102.44
463.657	80.44
463.876	81.44
464.096	93.44
464.316	84.44
464.536	73.44
464.755	98.44
464.975	88.44
465.195	101.44
465.414	84.44
465.634	92.44
465.854	90.44
466.073	79.44
466.293	75.44
466.512	78.44
466.732	79.44
466.951	89.44
467.171	79.44
467.391	95.44
467.61	96.44
467.829	98.44
468.049	98.44
468.268	88.44
468.488	83.44
468.707	90.44
468.927	97.44
469.146	97.44
469.365	101.44
469.585	93.44
469.804	93.44
470.023	93.44
470.243	91.44
470.462	86.44
470.681	73.44
470.901	83.44
471.12	86.44
471.339	85.44
471.558	92.44
471.777	93.44
471.997	92.44
472.216	86.44
472.435	89.44
472.654	72.44
472.873	96.44
473.092	97.44
473.311	106.44
473.53	88.44
473.749	92.44
473.968	76.44
474.187	77.44
474.406	95.44
474.625	92.44
474.844	80.44
475.063	87.44
475.282	99.44
475.501	83.44
475.72	91.44
475.939	97.44
476.158	94.44
476.377	88.44
476.596	77.44
476.814	68.44
477.033	75.44
477.252	77.44
477.471	89.44
477.69	94.44
477.908	90.44
478.127	81.44
478.346	91.44
478.564	86.44
478.783	92.44
479.002	83.44
479.22	89.44
479.439	90.44
479.658	78.44
479.876	77.44
480.095	77.44
480.313	85.44
480.532	79.44
480.751	80.44
480.969	75.44
481.188	80.44
481.406	72.44
481.624	87.44
481.843	75.44
482.061	83.44
482.28	90.44
482.498	75.44
482.717	68.44
482.935	89.44
483.153	86.44
483.372	98.44
483.59	96.44
483.808	92.44
484.027	93.44
484.245	76.44
484.463	92.44
484.681	95.44
484.9	103.44
485.118	109.44
485.336	84.44
485.554	98.44
485.772	98.44
485.99	99.44
486.209	102.44
486.427	90.44
486.645	86.44
486.863	85.44
487.081	85.44
487.299	103.44
487.517	90.44
487.735	82.44
487.953	82.44
488.171	92.44
488.389	109.44
488.607	107.44
488.825	97.44
489.043	86.44
489.261	88.44
489.479	91.44
489.696	92.44
489.914	98.44
490.132	92.44
490.35	85.44
490.568	89.44
490.786	99.44
491.003	101.44
491.221	85.44
491.439	88.44
491.657	89.44
491.874	104.44
492.092	77.44
492.31	86.44
492.527	99.44
492.745	95.44
492.963	99.44
493.18	90.44
493.398	96.44
493.615	100.44
493.833	93.44
494.05	95.44
494.268	87.44
494.485	79.44
494.703	86.44
494.92	75.44
495.138	87.44
495.355	89.44
495.573	89.44
495.79	89.44
496.008	94.44
496.225	79.44
496.442	87.44
496.66	102.44
496.877	86.44
497.094	89.44
497.312	81.44
497.529	73.44
497.746	93.44
497.963	89.44
498.181	86.44
498.398	78.44
498.615	89.44
498.832	90.44
499.049	71.44
499.267	94.44
499.484	87.44
499.701	85.44
499.918	77.44
500.135	85.44
500.352	95.44
500.569	71.44
500.786	89.44
501.003	98.44
501.22	92.44
501.437	81.44
501.654	70.44
501.871	80.44
502.088	80.44
502.305	88.44
502.522	94.44
502.739	84.44
502.956	82.44
503.172	83.44
503.389	78.44
503.606	88.44
503.823	72.44
504.04	82.44
504.256	111.44
504.473	70.44
504.69	99.44
504.907	82.44
505.123	92.44
505.34	86.44
505.557	83.44
505.773	90.44
505.99	103.44
506.207	84.44
506.423	88.44
506.64	86.44
506.856	86.44
507.073	89.44
507.289	77.44
507.506	80.44
507.722	85.44
507.939	83.44
508.155	94.44
508.372	75.44
508.588	78.44
508.805	82.44
509.021	88.44
509.238	91.44
509.454	96.44
509.67	66.44
509.887	88.44
510.103	90.44
510.319	96.44
510.536	91.44
510.752	98.44
510.968	78.44
511.184	98.44
511.401	96.44
511.617	95.44
511.833	87.44
512.049	82.44
512.265	77.44
512.481	88.44
512.698	102.44
512.914	90.44
513.13	85.44
513.346	93.44
513.562	86.44
513.778	103.44
513.994	84.44
514.21	97.44
514.426	100.44
514.642	94.44
514.858	97.44
515.074	95.44
515.29	101.44
515.506	92.44
515.721	95.44
515.937	94.44
516.153	76.44
516.369	84.44
516.585	81.44
516.801	84.44
517.016	98.44
517.232	81.44
517.448	101.44
517.664	90.44
517.879	78.44
518.095	86.44
518.311	81.44
518.527	99.44
518.742	82.44
518.958	88.44
519.173	96.44
