Data from Coke_Can_Bottom_HRD10591_00015.txt Node
Date: Wed Nov 05 15:46:19 EST 2025
User: Yrep
Spectrometer: HR+D1059
Trigger mode: 1
Integration Time (sec): 1.000000E-1
Scans to average: 1
Electric dark correction enabled: true
Nonlinearity correction enabled: false
Boxcar width: 0
XAxis mode: Wavelengths
Number of Pixels in Spectrum: 2048
>>>>>Begin Spectral Data<<<<<
223.165	-4.12
223.4	-4.12
223.635	-4.12
223.869	-16.12
224.104	-15.12
224.338	-20.12
224.573	-26.12
224.808	-15.12
225.042	-10.12
225.277	-13.12
225.511	0.88
225.746	-4.12
225.98	7.88
226.215	17.88
226.449	19.88
226.683	16.88
226.918	35.88
227.152	24.88
227.387	21.88
227.621	38.88
227.856	43.88
228.09	42.88
228.324	63.88
228.559	37.88
228.793	47.88
229.027	57.88
229.262	72.88
229.496	63.88
229.73	65.88
229.964	86.88
230.199	87.88
230.433	55.88
230.667	71.88
230.901	88.88
231.136	87.88
231.37	81.88
231.604	84.88
231.838	81.88
232.072	77.88
232.306	69.88
232.541	76.88
232.775	56.88
233.009	89.88
233.243	71.88
233.477	84.88
233.711	91.88
233.945	87.88
234.179	76.88
234.413	77.88
234.647	87.88
234.881	75.88
235.115	83.88
235.349	77.88
235.583	73.88
235.817	77.88
236.051	79.88
236.285	68.88
236.519	85.88
236.753	87.88
236.987	62.88
237.221	73.88
237.455	77.88
237.689	84.88
237.922	91.88
238.156	69.88
238.39	65.88
238.624	77.88
238.858	74.88
239.091	67.88
239.325	73.88
239.559	71.88
239.793	72.88
240.027	83.88
240.26	75.88
240.494	79.88
240.728	76.88
240.961	76.88
241.195	85.88
241.429	76.88
241.662	83.88
241.896	73.88
242.13	59.88
242.363	76.88
242.597	72.88
242.83	73.88
243.064	72.88
243.298	66.88
243.531	66.88
243.765	81.88
243.998	82.88
244.232	97.88
244.465	65.88
244.699	81.88
244.932	75.88
245.166	82.88
245.399	83.88
245.633	75.88
245.866	67.88
246.099	73.88
246.333	83.88
246.566	79.88
246.8	88.88
247.033	97.88
247.266	83.88
247.5	72.88
247.733	73.88
247.966	96.88
248.2	80.88
248.433	96.88
248.666	81.88
248.899	77.88
249.133	72.88
249.366	95.88
249.599	84.88
249.832	81.88
250.066	72.88
250.299	81.88
250.532	88.88
250.765	65.88
250.998	77.88
251.231	61.88
251.465	81.88
251.698	73.88
251.931	78.88
252.164	73.88
252.397	79.88
252.63	80.88
252.863	76.88
253.096	77.88
253.329	83.88
253.562	80.88
253.795	91.88
254.028	94.88
254.261	77.88
254.494	85.88
254.727	73.88
254.96	78.88
255.193	77.88
255.426	77.88
255.659	75.88
255.892	82.88
256.124	66.88
256.357	71.88
256.59	80.88
256.823	77.88
257.056	73.88
257.289	79.88
257.521	86.88
257.754	96.88
257.987	76.88
258.22	77.88
258.452	89.88
258.685	75.88
258.918	98.88
259.151	81.88
259.383	76.88
259.616	82.88
259.849	88.88
260.081	75.88
260.314	73.88
260.547	79.88
260.779	72.88
261.012	81.88
261.244	77.88
261.477	83.88
261.71	79.88
261.942	77.88
262.175	73.88
262.407	72.88
262.64	81.88
262.872	65.88
263.105	61.88
263.337	82.88
263.57	84.88
263.802	85.88
264.035	93.88
264.267	85.88
264.499	76.88
264.732	85.88
264.964	93.88
265.197	82.88
265.429	86.88
265.661	87.88
265.894	70.88
266.126	80.88
266.358	85.88
266.591	78.88
266.823	81.88
267.055	76.88
267.287	79.88
267.52	92.88
267.752	80.88
267.984	90.88
268.216	83.88
268.448	89.88
268.681	82.88
268.913	83.88
269.145	71.88
269.377	75.88
269.609	87.88
269.841	75.88
270.073	89.88
270.306	76.88
270.538	81.88
270.77	84.88
271.002	74.88
271.234	89.88
271.466	99.88
271.698	81.88
271.93	75.88
272.162	101.88
272.394	77.88
272.626	71.88
272.858	83.88
273.09	67.88
273.322	77.88
273.553	85.88
273.785	85.88
274.017	91.88
274.249	81.88
274.481	78.88
274.713	74.88
274.945	80.88
275.176	67.88
275.408	89.88
275.64	82.88
275.872	85.88
276.104	84.88
276.335	83.88
276.567	83.88
276.799	79.88
277.031	84.88
277.262	68.88
277.494	74.88
277.726	83.88
277.957	73.88
278.189	81.88
278.421	92.88
278.652	75.88
278.884	72.88
279.115	93.88
279.347	86.88
279.579	87.88
279.81	91.88
280.042	78.88
280.273	103.88
280.505	95.88
280.736	87.88
280.968	89.88
281.199	77.88
281.431	70.88
281.662	81.88
281.894	91.88
282.125	70.88
282.356	87.88
282.588	89.88
282.819	76.88
283.051	75.88
283.282	69.88
283.513	89.88
283.745	95.88
283.976	81.88
284.207	95.88
284.439	104.88
284.67	83.88
284.901	75.88
285.132	91.88
285.364	88.88
285.595	79.88
285.826	85.88
286.057	83.88
286.288	86.88
286.52	87.88
286.751	67.88
286.982	83.88
287.213	91.88
287.444	87.88
287.675	79.88
287.906	88.88
288.138	93.88
288.369	92.88
288.6	99.88
288.831	100.88
289.062	90.88
289.293	81.88
289.524	91.88
289.755	83.88
289.986	71.88
290.217	79.88
290.448	74.88
290.679	89.88
290.91	84.88
291.141	84.88
291.371	65.88
291.602	85.88
291.833	89.88
292.064	76.88
292.295	75.88
292.526	90.88
292.757	90.88
292.987	83.88
293.218	84.88
293.449	68.88
293.68	84.88
293.91	69.88
294.141	86.88
294.372	80.88
294.603	89.88
294.833	85.88
295.064	67.88
295.295	74.88
295.525	77.88
295.756	86.88
295.987	85.88
296.217	93.88
296.448	83.88
296.679	96.88
296.909	88.88
297.14	78.88
297.37	77.88
297.601	81.88
297.831	79.88
298.062	79.88
298.292	83.88
298.523	75.88
298.753	91.88
298.984	69.88
299.214	99.88
299.445	84.88
299.675	89.88
299.905	87.88
300.136	91.88
300.366	84.88
300.597	76.88
300.827	84.88
301.057	89.88
301.288	83.88
301.518	87.88
301.748	93.88
301.979	106.88
302.209	84.88
302.439	83.88
302.669	89.88
302.9	81.88
303.13	92.88
303.36	81.88
303.59	89.88
303.82	85.88
304.051	82.88
304.281	77.88
304.511	96.88
304.741	75.88
304.971	91.88
305.201	82.88
305.431	82.88
305.661	84.88
305.891	93.88
306.121	92.88
306.352	75.88
306.582	83.88
306.812	87.88
307.042	96.88
307.272	83.88
307.502	89.88
307.731	86.88
307.961	77.88
308.191	85.88
308.421	92.88
308.651	83.88
308.881	80.88
309.111	96.88
309.341	105.88
309.571	91.88
309.8	80.88
310.03	83.88
310.26	75.88
310.49	93.88
310.72	93.88
310.949	91.88
311.179	86.88
311.409	82.88
311.639	78.88
311.868	74.88
312.098	74.88
312.328	88.88
312.557	81.88
312.787	92.88
313.017	77.88
313.246	89.88
313.476	80.88
313.706	96.88
313.935	90.88
314.165	70.88
314.394	69.88
314.624	74.88
314.853	85.88
315.083	71.88
315.312	63.88
315.542	74.88
315.771	78.88
316.001	83.88
316.23	74.88
316.46	93.88
316.689	91.88
316.919	92.88
317.148	75.88
317.377	82.88
317.607	100.88
317.836	95.88
318.065	84.88
318.295	75.88
318.524	91.88
318.753	96.88
318.983	85.88
319.212	82.88
319.441	96.88
319.67	90.88
319.9	90.88
320.129	88.88
320.358	78.88
320.587	91.88
320.816	93.88
321.046	86.88
321.275	75.88
321.504	93.88
321.733	87.88
321.962	78.88
322.191	89.88
322.42	72.88
322.649	85.88
322.878	86.88
323.108	87.88
323.337	79.88
323.566	77.88
323.795	97.88
324.024	84.88
324.253	97.88
324.482	81.88
324.71	94.88
324.939	87.88
325.168	73.88
325.397	83.88
325.626	88.88
325.855	89.88
326.084	88.88
326.313	85.88
326.542	80.88
326.77	80.88
326.999	88.88
327.228	86.88
327.457	86.88
327.686	94.88
327.914	89.88
328.143	91.88
328.372	60.88
328.6	99.88
328.829	83.88
329.058	91.88
329.287	69.88
329.515	66.88
329.744	94.88
329.972	79.88
330.201	89.88
330.43	92.88
330.658	74.88
330.887	79.88
331.115	81.88
331.344	102.88
331.572	75.88
331.801	80.88
332.03	77.88
332.258	95.88
332.486	94.88
332.715	92.88
332.943	91.88
333.172	86.88
333.4	85.88
333.629	64.88
333.857	69.88
334.085	95.88
334.314	87.88
334.542	70.88
334.771	75.88
334.999	81.88
335.227	77.88
335.455	98.88
335.684	89.88
335.912	71.88
336.14	79.88
336.369	78.88
336.597	78.88
336.825	85.88
337.053	77.88
337.281	78.88
337.51	83.88
337.738	84.88
337.966	84.88
338.194	78.88
338.422	72.88
338.65	81.88
338.878	76.88
339.106	73.88
339.334	82.88
339.562	83.88
339.79	92.88
340.018	83.88
340.246	83.88
340.474	90.88
340.702	75.88
340.93	84.88
341.158	78.88
341.386	83.88
341.614	78.88
341.842	75.88
342.07	71.88
342.298	81.88
342.526	76.88
342.754	76.88
342.981	82.88
343.209	83.88
343.437	102.88
343.665	87.88
343.893	79.88
344.12	90.88
344.348	76.88
344.576	63.88
344.804	81.88
345.031	84.88
345.259	75.88
345.487	89.88
345.714	67.88
345.942	79.88
346.17	94.88
346.397	93.88
346.625	82.88
346.853	79.88
347.08	73.88
347.308	81.88
347.535	79.88
347.763	82.88
347.99	92.88
348.218	80.88
348.445	67.88
348.673	83.88
348.9	82.88
349.128	72.88
349.355	91.88
349.583	102.88
349.81	69.88
350.037	93.88
350.265	83.88
350.492	67.88
350.72	67.88
350.947	87.88
351.174	73.88
351.402	84.88
351.629	89.88
351.856	68.88
352.083	84.88
352.311	96.88
352.538	83.88
352.765	85.88
352.992	85.88
353.22	102.88
353.447	83.88
353.674	90.88
353.901	73.88
354.128	85.88
354.355	86.88
354.583	77.88
354.81	78.88
355.037	79.88
355.264	87.88
355.491	84.88
355.718	82.88
355.945	95.88
356.172	84.88
356.399	81.88
356.626	81.88
356.853	99.88
357.08	96.88
357.307	80.88
357.534	88.88
357.761	88.88
357.988	84.88
358.215	71.88
358.441	90.88
358.668	88.88
358.895	93.88
359.122	97.88
359.349	85.88
359.576	97.88
359.802	87.88
360.029	89.88
360.256	87.88
360.483	99.88
360.709	86.88
360.936	81.88
361.163	87.88
361.39	83.88
361.616	80.88
361.843	87.88
362.07	86.88
362.296	80.88
362.523	80.88
362.749	72.88
362.976	94.88
363.203	85.88
363.429	86.88
363.656	91.88
363.882	89.88
364.109	80.88
364.335	89.88
364.562	74.88
364.788	73.88
365.015	91.88
365.241	87.88
365.468	77.88
365.694	81.88
365.92	81.88
366.147	83.88
366.373	87.88
366.599	79.88
366.826	74.88
367.052	75.88
367.278	72.88
367.505	70.88
367.731	82.88
367.957	83.88
368.184	83.88
368.41	103.88
368.636	84.88
368.862	75.88
369.089	95.88
369.315	88.88
369.541	81.88
369.767	90.88
369.993	93.88
370.219	69.88
370.445	78.88
370.672	75.88
370.898	81.88
371.124	77.88
371.35	61.88
371.576	78.88
371.802	97.88
372.028	74.88
372.254	78.88
372.48	71.88
372.706	86.88
372.932	76.88
373.158	88.88
373.384	86.88
373.61	86.88
373.835	93.88
374.061	95.88
374.287	90.88
374.513	75.88
374.739	81.88
374.965	90.88
375.191	80.88
375.416	81.88
375.642	78.88
375.868	76.88
376.094	83.88
376.319	73.88
376.545	79.88
376.771	83.88
376.997	72.88
377.222	71.88
377.448	94.88
377.674	86.88
377.899	84.88
378.125	82.88
378.35	78.88
378.576	85.88
378.802	84.88
379.027	82.88
379.253	75.88
379.478	76.88
379.704	90.88
379.929	84.88
380.155	82.88
380.38	90.88
380.606	84.88
380.831	68.88
381.057	89.88
381.282	86.88
381.507	85.88
381.733	88.88
381.958	95.88
382.184	81.88
382.409	83.88
382.634	86.88
382.86	99.88
383.085	77.88
383.31	93.88
383.535	97.88
383.761	103.88
383.986	101.88
384.211	98.88
384.436	101.88
384.662	86.88
384.887	91.88
385.112	98.88
385.337	88.88
385.562	76.88
385.787	97.88
386.013	95.88
386.238	83.88
386.463	78.88
386.688	104.88
386.913	105.88
387.138	103.88
387.363	79.88
387.588	89.88
387.813	94.88
388.038	89.88
388.263	95.88
388.488	82.88
388.713	79.88
388.938	69.88
389.163	76.88
389.387	83.88
389.612	80.88
389.837	79.88
390.062	82.88
390.287	96.88
390.512	71.88
390.736	90.88
390.961	87.88
391.186	80.88
391.411	80.88
391.636	77.88
391.86	73.88
392.085	84.88
392.31	73.88
392.534	77.88
392.759	85.88
392.984	90.88
393.208	87.88
393.433	87.88
393.658	85.88
393.882	72.88
394.107	107.88
394.331	137.88
394.556	156.88
394.78	101.88
395.005	85.88
395.229	81.88
395.454	100.88
395.678	77.88
395.903	113.88
396.127	168.88
396.352	154.88
396.576	91.88
396.801	65.88
397.025	72.88
397.249	79.88
397.474	87.88
397.698	91.88
397.922	86.88
398.147	85.88
398.371	77.88
398.595	82.88
398.82	79.88
399.044	83.88
399.268	63.88
399.492	87.88
399.717	63.88
399.941	88.88
400.165	76.88
400.389	88.88
400.613	82.88
400.837	75.88
401.062	84.88
401.286	74.88
401.51	73.88
401.734	70.88
401.958	75.88
402.182	85.88
402.406	83.88
402.63	78.88
402.854	75.88
403.078	88.88
403.302	87.88
403.526	74.88
403.75	69.88
403.974	71.88
404.198	66.88
404.422	88.88
404.645	89.88
404.869	73.88
405.093	82.88
405.317	69.88
405.541	81.88
405.765	84.88
405.988	78.88
406.212	85.88
406.436	80.88
406.66	96.88
406.883	92.88
407.107	74.88
407.331	77.88
407.555	71.88
407.778	64.88
408.002	79.88
408.226	68.88
408.449	77.88
408.673	77.88
408.896	84.88
409.12	75.88
409.344	89.88
409.567	96.88
409.791	81.88
410.014	84.88
410.238	72.88
410.461	75.88
410.685	75.88
410.908	82.88
411.132	91.88
411.355	75.88
411.578	76.88
411.802	88.88
412.025	78.88
412.249	85.88
412.472	86.88
412.695	87.88
412.919	91.88
413.142	86.88
413.365	89.88
413.589	88.88
413.812	89.88
414.035	89.88
414.258	80.88
414.482	85.88
414.705	90.88
414.928	90.88
415.151	98.88
415.374	96.88
415.597	89.88
415.821	76.88
416.044	68.88
416.267	78.88
416.49	83.88
416.713	82.88
416.936	76.88
417.159	60.88
417.382	76.88
417.605	80.88
417.828	85.88
418.051	68.88
418.274	71.88
418.497	76.88
418.72	72.88
418.943	84.88
419.166	78.88
419.389	87.88
419.611	70.88
419.834	90.88
420.057	73.88
420.28	73.88
420.503	75.88
420.726	78.88
420.948	68.88
421.171	85.88
421.394	81.88
421.617	69.88
421.839	80.88
422.062	77.88
422.285	79.88
422.507	83.88
422.73	86.88
422.953	76.88
423.175	87.88
423.398	83.88
423.621	80.88
423.843	77.88
424.066	86.88
424.288	100.88
424.511	89.88
424.733	81.88
424.956	96.88
425.178	80.88
425.401	87.88
425.623	78.88
425.846	83.88
426.068	91.88
426.291	75.88
426.513	89.88
426.735	82.88
426.958	84.88
427.18	91.88
427.402	84.88
427.625	65.88
427.847	77.88
428.069	87.88
428.292	84.88
428.514	79.88
428.736	81.88
428.958	85.88
429.181	77.88
429.403	90.88
429.625	87.88
429.847	84.88
430.069	87.88
430.292	77.88
430.514	75.88
430.736	75.88
430.958	77.88
431.18	82.88
431.402	81.88
431.624	72.88
431.846	79.88
432.068	79.88
432.29	72.88
432.512	63.88
432.734	77.88
432.956	78.88
433.178	97.88
433.4	89.88
433.622	66.88
433.844	85.88
434.066	81.88
434.287	60.88
434.509	60.88
434.731	77.88
434.953	72.88
435.175	79.88
435.397	75.88
435.618	90.88
435.84	79.88
436.062	87.88
436.284	88.88
436.505	84.88
436.727	87.88
436.949	83.88
437.17	84.88
437.392	82.88
437.614	89.88
437.835	85.88
438.057	87.88
438.278	78.88
438.5	71.88
438.721	90.88
438.943	86.88
439.165	83.88
439.386	75.88
439.608	92.88
439.829	84.88
440.05	88.88
440.272	80.88
440.493	84.88
440.715	90.88
440.936	72.88
441.158	77.88
441.379	86.88
441.6	83.88
441.822	77.88
442.043	71.88
442.264	58.88
442.486	80.88
442.707	92.88
442.928	81.88
443.149	70.88
443.371	95.88
443.592	75.88
443.813	78.88
444.034	93.88
444.255	88.88
444.476	81.88
444.698	68.88
444.919	83.88
445.14	147.88
445.361	111.88
445.582	83.88
445.803	87.88
446.024	72.88
446.245	73.88
446.466	70.88
446.687	77.88
446.908	80.88
447.129	85.88
447.35	75.88
447.571	61.88
447.792	86.88
448.013	87.88
448.234	83.88
448.455	82.88
448.675	67.88
448.896	83.88
449.117	90.88
449.338	81.88
449.559	83.88
449.779	91.88
450	76.88
450.221	87.88
450.442	85.88
450.662	83.88
450.883	95.88
451.104	89.88
451.324	77.88
451.545	61.88
451.766	85.88
451.986	80.88
452.207	93.88
452.428	78.88
452.648	67.88
452.869	80.88
453.089	71.88
453.31	71.88
453.53	75.88
453.751	92.88
453.971	71.88
454.192	79.88
454.412	76.88
454.633	68.88
454.853	81.88
455.073	68.88
455.294	88.88
455.514	83.88
455.734	67.88
455.955	78.88
456.175	92.88
456.395	77.88
456.616	77.88
456.836	77.88
457.056	71.88
457.276	72.88
457.497	98.88
457.717	82.88
457.937	84.88
458.157	80.88
458.377	75.88
458.598	73.88
458.818	73.88
459.038	70.88
459.258	80.88
459.478	73.88
459.698	67.88
459.918	71.88
460.138	78.88
460.358	71.88
460.578	87.88
460.798	93.88
461.018	83.88
461.238	73.88
461.458	99.88
461.678	87.88
461.898	81.88
462.118	84.88
462.338	77.88
462.558	78.88
462.777	73.88
462.997	95.88
463.217	80.88
463.437	70.88
463.657	83.88
463.876	84.88
464.096	80.88
464.316	84.88
464.536	74.88
464.755	84.88
464.975	76.88
465.195	89.88
465.414	91.88
465.634	61.88
465.854	76.88
466.073	72.88
466.293	85.88
466.512	68.88
466.732	95.88
466.951	81.88
467.171	90.88
467.391	92.88
467.61	87.88
467.829	94.88
468.049	82.88
468.268	81.88
468.488	65.88
468.707	90.88
468.927	75.88
469.146	88.88
469.365	85.88
469.585	94.88
469.804	87.88
470.023	79.88
470.243	89.88
470.462	88.88
470.681	91.88
470.901	92.88
471.12	82.88
471.339	68.88
471.558	89.88
471.777	90.88
471.997	92.88
472.216	86.88
472.435	83.88
472.654	79.88
472.873	81.88
473.092	85.88
473.311	87.88
473.53	67.88
473.749	74.88
473.968	74.88
474.187	77.88
474.406	87.88
474.625	63.88
474.844	87.88
475.063	77.88
475.282	73.88
475.501	74.88
475.72	85.88
475.939	94.88
476.158	85.88
476.377	70.88
476.596	70.88
476.814	85.88
477.033	79.88
477.252	95.88
477.471	91.88
477.69	89.88
477.908	91.88
478.127	89.88
478.346	79.88
478.564	89.88
478.783	78.88
479.002	82.88
479.22	77.88
479.439	77.88
479.658	75.88
479.876	82.88
480.095	81.88
480.313	68.88
480.532	76.88
480.751	72.88
480.969	65.88
481.188	70.88
481.406	79.88
481.624	73.88
481.843	83.88
482.061	67.88
482.28	84.88
482.498	78.88
482.717	84.88
482.935	83.88
483.153	87.88
483.372	84.88
483.59	82.88
483.808	79.88
484.027	82.88
484.245	81.88
484.463	88.88
484.681	83.88
484.9	103.88
485.118	90.88
485.336	78.88
485.554	73.88
485.772	91.88
485.99	83.88
486.209	82.88
486.427	87.88
486.645	78.88
486.863	95.88
487.081	91.88
487.299	94.88
487.517	93.88
487.735	87.88
487.953	95.88
488.171	98.88
488.389	87.88
488.607	96.88
488.825	77.88
489.043	77.88
489.261	95.88
489.479	88.88
489.696	81.88
489.914	86.88
490.132	83.88
490.35	83.88
490.568	78.88
490.786	92.88
491.003	84.88
491.221	88.88
491.439	91.88
491.657	85.88
491.874	99.88
492.092	105.88
492.31	89.88
492.527	73.88
492.745	76.88
492.963	73.88
493.18	76.88
493.398	74.88
493.615	79.88
493.833	86.88
494.05	81.88
494.268	83.88
494.485	81.88
494.703	99.88
494.92	95.88
495.138	91.88
495.355	83.88
495.573	85.88
495.79	84.88
496.008	77.88
496.225	87.88
496.442	90.88
496.66	85.88
496.877	69.88
497.094	72.88
497.312	85.88
497.529	86.88
497.746	84.88
497.963	98.88
498.181	74.88
498.398	62.88
498.615	73.88
498.832	77.88
499.049	92.88
499.267	88.88
499.484	94.88
499.701	76.88
499.918	82.88
500.135	90.88
500.352	82.88
500.569	71.88
500.786	85.88
501.003	69.88
501.22	81.88
501.437	97.88
501.654	64.88
501.871	63.88
502.088	84.88
502.305	91.88
502.522	96.88
502.739	69.88
502.956	70.88
503.172	79.88
503.389	85.88
503.606	91.88
503.823	92.88
504.04	79.88
504.256	59.88
504.473	79.88
504.69	88.88
504.907	92.88
505.123	85.88
505.34	75.88
505.557	83.88
505.773	78.88
505.99	77.88
506.207	66.88
506.423	83.88
506.64	78.88
506.856	82.88
507.073	88.88
507.289	94.88
507.506	74.88
507.722	91.88
507.939	83.88
508.155	83.88
508.372	87.88
508.588	82.88
508.805	76.88
509.021	93.88
509.238	68.88
509.454	75.88
509.67	91.88
509.887	77.88
510.103	78.88
510.319	71.88
510.536	81.88
510.752	87.88
510.968	85.88
511.184	74.88
511.401	67.88
511.617	90.88
511.833	76.88
512.049	82.88
512.265	87.88
512.481	96.88
512.698	101.88
512.914	93.88
513.13	94.88
513.346	89.88
513.562	83.88
513.778	81.88
513.994	73.88
514.21	85.88
514.426	84.88
514.642	74.88
514.858	92.88
515.074	75.88
515.29	87.88
515.506	89.88
515.721	84.88
515.937	76.88
516.153	84.88
516.369	96.88
516.585	83.88
516.801	95.88
517.016	82.88
517.232	90.88
517.448	93.88
517.664	98.88
517.879	98.88
518.095	88.88
518.311	93.88
518.527	90.88
518.742	92.88
518.958	84.88
519.173	81.88
519.389	81.88
519.605	94.88
519.82	84.88
