Data from Coke_Can_Bottom_HRD10591_00005.txt Node
Date: Wed Nov 05 15:46:14 EST 2025
User: Yrep
Spectrometer: HR+D1059
Trigger mode: 1
Integration Time (sec): 1.000000E-1
Scans to average: 1
Electric dark correction enabled: true
Nonlinearity correction enabled: false
Boxcar width: 0
XAxis mode: Wavelengths
Number of Pixels in Spectrum: 2048
>>>>>Begin Spectral Data<<<<<
223.165	-28.31
223.4	-28.31
223.635	-28.31
223.869	-20.31
224.104	-19.31
224.338	-21.31
224.573	-15.31
224.808	3.69
225.042	-12.31
225.277	-3.31
225.511	0.69
225.746	-7.31
225.98	21.69
226.215	18.69
226.449	17.69
226.683	18.69
226.918	23.69
227.152	22.69
227.387	39.69
227.621	46.69
227.856	38.69
228.09	47.69
228.324	67.69
228.559	53.69
228.793	56.69
229.027	64.69
229.262	69.69
229.496	75.69
229.73	64.69
229.964	80.69
230.199	78.69
230.433	77.69
230.667	83.69
230.901	87.69
231.136	77.69
231.37	73.69
231.604	65.69
231.838	74.69
232.072	75.69
232.306	80.69
232.541	75.69
232.775	77.69
233.009	95.69
233.243	87.69
233.477	87.69
233.711	81.69
233.945	73.69
234.179	96.69
234.413	78.69
234.647	80.69
234.881	95.69
235.115	88.69
235.349	89.69
235.583	85.69
235.817	85.69
236.051	63.69
236.285	77.69
236.519	65.69
236.753	73.69
236.987	62.69
237.221	65.69
237.455	73.69
237.689	78.69
237.922	76.69
238.156	94.69
238.39	85.69
238.624	79.69
238.858	73.69
239.091	88.69
239.325	68.69
239.559	77.69
239.793	82.69
240.027	88.69
240.26	83.69
240.494	81.69
240.728	78.69
240.961	83.69
241.195	85.69
241.429	86.69
241.662	70.69
241.896	63.69
242.13	67.69
242.363	64.69
242.597	69.69
242.83	67.69
243.064	74.69
243.298	78.69
243.531	81.69
243.765	80.69
243.998	84.69
244.232	66.69
244.465	76.69
244.699	65.69
244.932	69.69
245.166	62.69
245.399	85.69
245.633	81.69
245.866	81.69
246.099	70.69
246.333	82.69
246.566	87.69
246.8	72.69
247.033	80.69
247.266	77.69
247.5	69.69
247.733	84.69
247.966	75.69
248.2	81.69
248.433	89.69
248.666	80.69
248.899	84.69
249.133	83.69
249.366	82.69
249.599	73.69
249.832	85.69
250.066	87.69
250.299	78.69
250.532	84.69
250.765	72.69
250.998	72.69
251.231	84.69
251.465	72.69
251.698	72.69
251.931	72.69
252.164	88.69
252.397	79.69
252.63	90.69
252.863	94.69
253.096	77.69
253.329	95.69
253.562	87.69
253.795	81.69
254.028	86.69
254.261	85.69
254.494	75.69
254.727	72.69
254.96	92.69
255.193	78.69
255.426	84.69
255.659	91.69
255.892	78.69
256.124	79.69
256.357	89.69
256.59	68.69
256.823	82.69
257.056	89.69
257.289	84.69
257.521	84.69
257.754	71.69
257.987	79.69
258.22	94.69
258.452	87.69
258.685	84.69
258.918	90.69
259.151	81.69
259.383	78.69
259.616	80.69
259.849	90.69
260.081	69.69
260.314	83.69
260.547	85.69
260.779	80.69
261.012	86.69
261.244	88.69
261.477	72.69
261.71	79.69
261.942	78.69
262.175	88.69
262.407	65.69
262.64	77.69
262.872	72.69
263.105	83.69
263.337	71.69
263.57	77.69
263.802	81.69
264.035	93.69
264.267	84.69
264.499	71.69
264.732	71.69
264.964	87.69
265.197	88.69
265.429	83.69
265.661	80.69
265.894	81.69
266.126	90.69
266.358	88.69
266.591	82.69
266.823	80.69
267.055	83.69
267.287	77.69
267.52	75.69
267.752	80.69
267.984	80.69
268.216	70.69
268.448	84.69
268.681	84.69
268.913	87.69
269.145	82.69
269.377	102.69
269.609	76.69
269.841	99.69
270.073	91.69
270.306	76.69
270.538	73.69
270.77	67.69
271.002	83.69
271.234	73.69
271.466	79.69
271.698	72.69
271.93	87.69
272.162	91.69
272.394	75.69
272.626	99.69
272.858	77.69
273.09	89.69
273.322	75.69
273.553	71.69
273.785	85.69
274.017	88.69
274.249	79.69
274.481	84.69
274.713	99.69
274.945	93.69
275.176	85.69
275.408	84.69
275.64	74.69
275.872	67.69
276.104	73.69
276.335	85.69
276.567	66.69
276.799	93.69
277.031	94.69
277.262	87.69
277.494	96.69
277.726	95.69
277.957	91.69
278.189	82.69
278.421	71.69
278.652	81.69
278.884	86.69
279.115	91.69
279.347	103.69
279.579	87.69
279.81	95.69
280.042	84.69
280.273	99.69
280.505	96.69
280.736	87.69
280.968	99.69
281.199	88.69
281.431	81.69
281.662	85.69
281.894	89.69
282.125	87.69
282.356	77.69
282.588	78.69
282.819	99.69
283.051	84.69
283.282	79.69
283.513	85.69
283.745	85.69
283.976	97.69
284.207	89.69
284.439	77.69
284.67	92.69
284.901	99.69
285.132	92.69
285.364	77.69
285.595	90.69
285.826	79.69
286.057	91.69
286.288	77.69
286.52	83.69
286.751	89.69
286.982	72.69
287.213	84.69
287.444	82.69
287.675	78.69
287.906	85.69
288.138	96.69
288.369	82.69
288.6	78.69
288.831	76.69
289.062	95.69
289.293	80.69
289.524	81.69
289.755	79.69
289.986	90.69
290.217	79.69
290.448	88.69
290.679	93.69
290.91	87.69
291.141	75.69
291.371	98.69
291.602	77.69
291.833	83.69
292.064	87.69
292.295	77.69
292.526	87.69
292.757	76.69
292.987	78.69
293.218	80.69
293.449	81.69
293.68	88.69
293.91	70.69
294.141	87.69
294.372	91.69
294.603	80.69
294.833	87.69
295.064	88.69
295.295	75.69
295.525	75.69
295.756	78.69
295.987	88.69
296.217	96.69
296.448	87.69
296.679	88.69
296.909	99.69
297.14	83.69
297.37	81.69
297.601	91.69
297.831	73.69
298.062	91.69
298.292	71.69
298.523	95.69
298.753	80.69
298.984	82.69
299.214	83.69
299.445	87.69
299.675	86.69
299.905	74.69
300.136	97.69
300.366	81.69
300.597	81.69
300.827	84.69
301.057	81.69
301.288	86.69
301.518	85.69
301.748	82.69
301.979	99.69
302.209	74.69
302.439	81.69
302.669	88.69
302.9	83.69
303.13	79.69
303.36	77.69
303.59	78.69
303.82	91.69
304.051	85.69
304.281	78.69
304.511	78.69
304.741	74.69
304.971	84.69
305.201	81.69
305.431	82.69
305.661	89.69
305.891	82.69
306.121	81.69
306.352	89.69
306.582	87.69
306.812	87.69
307.042	85.69
307.272	92.69
307.502	88.69
307.731	89.69
307.961	94.69
308.191	80.69
308.421	89.69
308.651	101.69
308.881	85.69
309.111	97.69
309.341	101.69
309.571	91.69
309.8	96.69
310.03	93.69
310.26	84.69
310.49	74.69
310.72	83.69
310.949	86.69
311.179	78.69
311.409	69.69
311.639	87.69
311.868	86.69
312.098	90.69
312.328	81.69
312.557	98.69
312.787	86.69
313.017	95.69
313.246	80.69
313.476	95.69
313.706	79.69
313.935	80.69
314.165	93.69
314.394	94.69
314.624	84.69
314.853	90.69
315.083	81.69
315.312	93.69
315.542	81.69
315.771	92.69
316.001	93.69
316.23	91.69
316.46	80.69
316.689	87.69
316.919	99.69
317.148	95.69
317.377	81.69
317.607	80.69
317.836	79.69
318.065	91.69
318.295	82.69
318.524	79.69
318.753	78.69
318.983	80.69
319.212	86.69
319.441	82.69
319.67	76.69
319.9	86.69
320.129	90.69
320.358	73.69
320.587	83.69
320.816	77.69
321.046	94.69
321.275	93.69
321.504	102.69
321.733	79.69
321.962	82.69
322.191	90.69
322.42	92.69
322.649	85.69
322.878	77.69
323.108	82.69
323.337	90.69
323.566	92.69
323.795	94.69
324.024	78.69
324.253	84.69
324.482	77.69
324.71	80.69
324.939	95.69
325.168	92.69
325.397	91.69
325.626	86.69
325.855	78.69
326.084	86.69
326.313	93.69
326.542	88.69
326.77	99.69
326.999	93.69
327.228	81.69
327.457	93.69
327.686	93.69
327.914	87.69
328.143	87.69
328.372	88.69
328.6	93.69
328.829	89.69
329.058	95.69
329.287	80.69
329.515	84.69
329.744	76.69
329.972	78.69
330.201	88.69
330.43	85.69
330.658	85.69
330.887	83.69
331.115	85.69
331.344	87.69
331.572	81.69
331.801	91.69
332.03	77.69
332.258	91.69
332.486	92.69
332.715	87.69
332.943	85.69
333.172	96.69
333.4	81.69
333.629	92.69
333.857	88.69
334.085	93.69
334.314	95.69
334.542	85.69
334.771	86.69
334.999	72.69
335.227	78.69
335.455	75.69
335.684	92.69
335.912	95.69
336.14	70.69
336.369	99.69
336.597	88.69
336.825	95.69
337.053	99.69
337.281	85.69
337.51	84.69
337.738	88.69
337.966	91.69
338.194	92.69
338.422	67.69
338.65	100.69
338.878	88.69
339.106	82.69
339.334	91.69
339.562	89.69
339.79	73.69
340.018	96.69
340.246	73.69
340.474	86.69
340.702	88.69
340.93	86.69
341.158	77.69
341.386	81.69
341.614	72.69
341.842	85.69
342.07	83.69
342.298	74.69
342.526	66.69
342.754	92.69
342.981	81.69
343.209	81.69
343.437	94.69
343.665	80.69
343.893	99.69
344.12	93.69
344.348	86.69
344.576	88.69
344.804	78.69
345.031	91.69
345.259	90.69
345.487	94.69
345.714	77.69
345.942	76.69
346.17	87.69
346.397	80.69
346.625	73.69
346.853	84.69
347.08	82.69
347.308	67.69
347.535	78.69
347.763	71.69
347.99	81.69
348.218	81.69
348.445	98.69
348.673	79.69
348.9	84.69
349.128	87.69
349.355	80.69
349.583	76.69
349.81	80.69
350.037	86.69
350.265	82.69
350.492	89.69
350.72	89.69
350.947	89.69
351.174	69.69
351.402	80.69
351.629	88.69
351.856	73.69
352.083	69.69
352.311	76.69
352.538	76.69
352.765	87.69
352.992	94.69
353.22	93.69
353.447	87.69
353.674	86.69
353.901	88.69
354.128	82.69
354.355	70.69
354.583	88.69
354.81	78.69
355.037	92.69
355.264	87.69
355.491	99.69
355.718	97.69
355.945	95.69
356.172	87.69
356.399	79.69
356.626	74.69
356.853	90.69
357.08	100.69
357.307	85.69
357.534	74.69
357.761	100.69
357.988	81.69
358.215	83.69
358.441	99.69
358.668	97.69
358.895	89.69
359.122	90.69
359.349	71.69
359.576	86.69
359.802	77.69
360.029	78.69
360.256	80.69
360.483	74.69
360.709	72.69
360.936	82.69
361.163	83.69
361.39	93.69
361.616	68.69
361.843	87.69
362.07	82.69
362.296	99.69
362.523	92.69
362.749	79.69
362.976	89.69
363.203	79.69
363.429	77.69
363.656	88.69
363.882	79.69
364.109	77.69
364.335	83.69
364.562	79.69
364.788	80.69
365.015	96.69
365.241	75.69
365.468	89.69
365.694	80.69
365.92	72.69
366.147	79.69
366.373	81.69
366.599	84.69
366.826	84.69
367.052	107.69
367.278	93.69
367.505	78.69
367.731	88.69
367.957	82.69
368.184	87.69
368.41	85.69
368.636	77.69
368.862	75.69
369.089	92.69
369.315	87.69
369.541	79.69
369.767	82.69
369.993	95.69
370.219	85.69
370.445	84.69
370.672	91.69
370.898	81.69
371.124	90.69
371.35	75.69
371.576	87.69
371.802	73.69
372.028	72.69
372.254	68.69
372.48	73.69
372.706	88.69
372.932	84.69
373.158	82.69
373.384	84.69
373.61	89.69
373.835	92.69
374.061	95.69
374.287	90.69
374.513	99.69
374.739	71.69
374.965	82.69
375.191	94.69
375.416	91.69
375.642	89.69
375.868	75.69
376.094	93.69
376.319	87.69
376.545	88.69
376.771	85.69
376.997	90.69
377.222	95.69
377.448	79.69
377.674	86.69
377.899	81.69
378.125	90.69
378.35	88.69
378.576	77.69
378.802	75.69
379.027	92.69
379.253	88.69
379.478	88.69
379.704	84.69
379.929	81.69
380.155	75.69
380.38	93.69
380.606	82.69
380.831	88.69
381.057	85.69
381.282	101.69
381.507	79.69
381.733	81.69
381.958	90.69
382.184	91.69
382.409	95.69
382.634	91.69
382.86	68.69
383.085	97.69
383.31	89.69
383.535	88.69
383.761	86.69
383.986	93.69
384.211	83.69
384.436	87.69
384.662	90.69
384.887	97.69
385.112	92.69
385.337	100.69
385.562	83.69
385.787	85.69
386.013	99.69
386.238	91.69
386.463	101.69
386.688	117.69
386.913	83.69
387.138	85.69
387.363	78.69
387.588	91.69
387.813	78.69
388.038	105.69
388.263	104.69
388.488	88.69
388.713	81.69
388.938	75.69
389.163	82.69
389.387	90.69
389.612	81.69
389.837	78.69
390.062	68.69
390.287	78.69
390.512	88.69
390.736	69.69
390.961	86.69
391.186	69.69
391.411	80.69
391.636	79.69
391.86	76.69
392.085	72.69
392.31	82.69
392.534	85.69
392.759	92.69
392.984	81.69
393.208	85.69
393.433	92.69
393.658	87.69
393.882	87.69
394.107	97.69
394.331	122.69
394.556	143.69
394.78	102.69
395.005	88.69
395.229	96.69
395.454	80.69
395.678	98.69
395.903	125.69
396.127	164.69
396.352	160.69
396.576	99.69
396.801	88.69
397.025	81.69
397.249	77.69
397.474	85.69
397.698	73.69
397.922	95.69
398.147	73.69
398.371	79.69
398.595	79.69
398.82	76.69
399.044	77.69
399.268	78.69
399.492	67.69
399.717	81.69
399.941	72.69
400.165	71.69
400.389	71.69
400.613	87.69
400.837	77.69
401.062	84.69
401.286	102.69
401.51	87.69
401.734	78.69
401.958	68.69
402.182	73.69
402.406	83.69
402.63	96.69
402.854	80.69
403.078	93.69
403.302	104.69
403.526	94.69
403.75	77.69
403.974	88.69
404.198	84.69
404.422	78.69
404.645	83.69
404.869	78.69
405.093	78.69
405.317	86.69
405.541	74.69
405.765	74.69
405.988	84.69
406.212	83.69
406.436	69.69
406.66	87.69
406.883	91.69
407.107	84.69
407.331	79.69
407.555	87.69
407.778	78.69
408.002	92.69
408.226	76.69
408.449	84.69
408.673	91.69
408.896	81.69
409.12	79.69
409.344	79.69
409.567	69.69
409.791	91.69
410.014	81.69
410.238	88.69
410.461	88.69
410.685	98.69
410.908	72.69
411.132	85.69
411.355	79.69
411.578	76.69
411.802	73.69
412.025	79.69
412.249	76.69
412.472	64.69
412.695	89.69
412.919	87.69
413.142	83.69
413.365	77.69
413.589	89.69
413.812	76.69
414.035	77.69
414.258	91.69
414.482	67.69
414.705	82.69
414.928	78.69
415.151	71.69
415.374	81.69
415.597	87.69
415.821	75.69
416.044	84.69
416.267	72.69
416.49	78.69
416.713	77.69
416.936	82.69
417.159	85.69
417.382	74.69
417.605	73.69
417.828	89.69
418.051	97.69
418.274	79.69
418.497	79.69
418.72	67.69
418.943	88.69
419.166	87.69
419.389	86.69
419.611	88.69
419.834	100.69
420.057	89.69
420.28	67.69
420.503	87.69
420.726	86.69
420.948	78.69
421.171	73.69
421.394	88.69
421.617	77.69
421.839	81.69
422.062	83.69
422.285	72.69
422.507	95.69
422.73	88.69
422.953	89.69
423.175	90.69
423.398	79.69
423.621	70.69
423.843	71.69
424.066	76.69
424.288	78.69
424.511	78.69
424.733	76.69
424.956	94.69
425.178	77.69
425.401	81.69
425.623	67.69
425.846	68.69
426.068	78.69
426.291	77.69
426.513	69.69
426.735	83.69
426.958	71.69
427.18	66.69
427.402	77.69
427.625	76.69
427.847	86.69
428.069	88.69
428.292	79.69
428.514	80.69
428.736	90.69
428.958	86.69
429.181	78.69
429.403	91.69
429.625	88.69
429.847	77.69
430.069	91.69
430.292	89.69
430.514	89.69
430.736	79.69
430.958	79.69
431.18	63.69
431.402	91.69
431.624	72.69
431.846	77.69
432.068	80.69
432.29	77.69
432.512	93.69
432.734	96.69
432.956	86.69
433.178	73.69
433.4	76.69
433.622	79.69
433.844	77.69
434.066	82.69
434.287	87.69
434.509	72.69
434.731	77.69
434.953	71.69
435.175	86.69
435.397	73.69
435.618	87.69
435.84	80.69
436.062	80.69
436.284	71.69
436.505	69.69
436.727	84.69
436.949	70.69
437.17	77.69
437.392	64.69
437.614	79.69
437.835	82.69
438.057	78.69
438.278	86.69
438.5	65.69
438.721	74.69
438.943	82.69
439.165	95.69
439.386	91.69
439.608	83.69
439.829	74.69
440.05	88.69
440.272	90.69
440.493	92.69
440.715	77.69
440.936	86.69
441.158	78.69
441.379	79.69
441.6	89.69
441.822	90.69
442.043	92.69
442.264	81.69
442.486	78.69
442.707	96.69
442.928	83.69
443.149	87.69
443.371	76.69
443.592	87.69
443.813	75.69
444.034	85.69
444.255	88.69
444.476	91.69
444.698	88.69
444.919	79.69
445.14	128.69
445.361	101.69
445.582	75.69
445.803	87.69
446.024	80.69
446.245	94.69
446.466	88.69
446.687	95.69
446.908	75.69
447.129	99.69
447.35	100.69
447.571	78.69
447.792	77.69
448.013	69.69
448.234	87.69
448.455	85.69
448.675	69.69
448.896	75.69
449.117	84.69
449.338	73.69
449.559	89.69
449.779	83.69
450	94.69
450.221	86.69
450.442	79.69
450.662	76.69
450.883	77.69
451.104	91.69
451.324	89.69
451.545	87.69
451.766	79.69
451.986	81.69
452.207	74.69
452.428	98.69
452.648	87.69
452.869	75.69
453.089	79.69
453.31	71.69
453.53	71.69
453.751	80.69
453.971	87.69
454.192	69.69
454.412	79.69
454.633	89.69
454.853	71.69
455.073	80.69
455.294	95.69
455.514	102.69
455.734	96.69
455.955	78.69
456.175	80.69
456.395	88.69
456.616	79.69
456.836	77.69
457.056	74.69
457.276	71.69
457.497	87.69
457.717	89.69
457.937	92.69
458.157	83.69
458.377	79.69
458.598	71.69
458.818	102.69
459.038	95.69
459.258	81.69
459.478	84.69
459.698	76.69
459.918	73.69
460.138	84.69
460.358	89.69
460.578	99.69
460.798	77.69
461.018	72.69
461.238	85.69
461.458	77.69
461.678	73.69
461.898	78.69
462.118	93.69
462.338	87.69
462.558	80.69
462.777	77.69
462.997	77.69
463.217	88.69
463.437	84.69
463.657	92.69
463.876	73.69
464.096	80.69
464.316	87.69
464.536	81.69
464.755	87.69
464.975	93.69
465.195	76.69
465.414	84.69
465.634	78.69
465.854	86.69
466.073	84.69
466.293	98.69
466.512	85.69
466.732	88.69
466.951	76.69
467.171	78.69
467.391	85.69
467.61	80.69
467.829	95.69
468.049	91.69
468.268	97.69
468.488	88.69
468.707	81.69
468.927	73.69
469.146	89.69
469.365	94.69
469.585	92.69
469.804	81.69
470.023	79.69
470.243	88.69
470.462	86.69
470.681	92.69
470.901	76.69
471.12	97.69
471.339	91.69
471.558	85.69
471.777	67.69
471.997	71.69
472.216	73.69
472.435	92.69
472.654	77.69
472.873	88.69
473.092	91.69
473.311	92.69
473.53	94.69
473.749	91.69
473.968	88.69
474.187	93.69
474.406	85.69
474.625	95.69
474.844	91.69
475.063	85.69
475.282	84.69
475.501	87.69
475.72	86.69
475.939	81.69
476.158	73.69
476.377	97.69
476.596	90.69
476.814	76.69
477.033	85.69
477.252	83.69
477.471	85.69
477.69	74.69
477.908	68.69
478.127	90.69
478.346	72.69
478.564	78.69
478.783	87.69
479.002	85.69
479.22	87.69
479.439	84.69
479.658	88.69
479.876	84.69
480.095	75.69
480.313	82.69
480.532	84.69
480.751	82.69
480.969	89.69
481.188	86.69
481.406	88.69
481.624	85.69
481.843	88.69
482.061	83.69
482.28	91.69
482.498	88.69
482.717	81.69
482.935	91.69
483.153	80.69
483.372	83.69
483.59	72.69
483.808	100.69
484.027	73.69
484.245	87.69
484.463	100.69
484.681	87.69
484.9	91.69
485.118	95.69
485.336	99.69
485.554	101.69
485.772	99.69
485.99	87.69
486.209	99.69
486.427	85.69
486.645	91.69
486.863	92.69
487.081	97.69
487.299	92.69
487.517	78.69
487.735	91.69
487.953	100.69
488.171	99.69
488.389	93.69
488.607	88.69
488.825	76.69
489.043	95.69
489.261	106.69
489.479	84.69
489.696	83.69
489.914	83.69
490.132	93.69
490.35	87.69
490.568	83.69
490.786	88.69
491.003	94.69
491.221	89.69
491.439	86.69
491.657	86.69
491.874	80.69
492.092	87.69
492.31	99.69
492.527	104.69
492.745	79.69
492.963	93.69
493.18	80.69
493.398	84.69
493.615	79.69
493.833	83.69
494.05	73.69
494.268	85.69
494.485	100.69
494.703	87.69
494.92	89.69
495.138	72.69
495.355	86.69
495.573	79.69
495.79	74.69
496.008	86.69
496.225	84.69
496.442	89.69
496.66	82.69
496.877	92.69
497.094	96.69
497.312	78.69
497.529	65.69
497.746	72.69
497.963	75.69
498.181	89.69
498.398	81.69
498.615	70.69
498.832	85.69
499.049	80.69
499.267	87.69
499.484	81.69
499.701	87.69
499.918	92.69
500.135	76.69
500.352	87.69
500.569	75.69
500.786	92.69
501.003	84.69
501.22	93.69
501.437	86.69
501.654	84.69
501.871	82.69
502.088	86.69
502.305	89.69
502.522	70.69
502.739	81.69
502.956	97.69
503.172	80.69
503.389	86.69
503.606	78.69
503.823	70.69
504.04	86.69
504.256	75.69
504.473	86.69
504.69	84.69
504.907	100.69
505.123	90.69
505.34	82.69
505.557	82.69
505.773	69.69
505.99	87.69
506.207	85.69
506.423	88.69
506.64	91.69
506.856	85.69
507.073	69.69
507.289	85.69
507.506	86.69
507.722	79.69
507.939	80.69
508.155	80.69
508.372	94.69
508.588	91.69
508.805	82.69
509.021	96.69
509.238	87.69
509.454	89.69
509.67	75.69
509.887	90.69
510.103	80.69
510.319	93.69
510.536	85.69
510.752	75.69
510.968	95.69
511.184	87.69
511.401	81.69
511.617	96.69
511.833	91.69
512.049	87.69
512.265	87.69
512.481	93.69
512.698	96.69
512.914	77.69
513.13	75.69
513.346	80.69
513.562	79.69
513.778	84.69
513.994	101.69
514.21	92.69
514.426	90.69
514.642	89.69
514.858	85.69
515.074	77.69
515.29	91.69
515.506	103.69
515.721	107.69
515.937	91.69
516.153	95.69
516.369	83.69
516.585	83.69
516.801	91.69
517.016	80.69
517.232	87.69
517.448	80.69
517.664	85.69
517.879	77.69
518.095	84.69
518.311	85.69
518.527	79.69
518.742	85.69
518.958	91.69
519.173	80.69
519.389	82.69
519.605	92.69
