Data from Coke_Can_Bottom_HRD10591_00016.txt Node
Date: Wed Nov 05 15:46:20 EST 2025
User: Yrep
Spectrometer: HR+D1059
Trigger mode: 1
Integration Time (sec): 1.000000E-1
Scans to average: 1
Electric dark correction enabled: true
Nonlinearity correction enabled: false
Boxcar width: 0
XAxis mode: Wavelengths
Number of Pixels in Spectrum: 2048
>>>>>Begin Spectral Data<<<<<
223.165	-16.44
223.4	-16.44
223.635	-16.44
223.869	-21.44
224.104	-23.44
224.338	-25.44
224.573	-22.44
224.808	-7.44
225.042	2.56
225.277	3.56
225.511	-12.44
225.746	9.56
225.98	15.56
226.215	3.56
226.449	10.56
226.683	24.56
226.918	26.56
227.152	32.56
227.387	31.56
227.621	33.56
227.856	44.56
228.09	40.56
228.324	35.56
228.559	45.56
228.793	63.56
229.027	69.56
229.262	58.56
229.496	79.56
229.73	71.56
229.964	68.56
230.199	69.56
230.433	89.56
230.667	79.56
230.901	69.56
231.136	90.56
231.37	64.56
231.604	78.56
231.838	79.56
232.072	93.56
232.306	76.56
232.541	78.56
232.775	94.56
233.009	92.56
233.243	92.56
233.477	77.56
233.711	83.56
233.945	80.56
234.179	90.56
234.413	77.56
234.647	84.56
234.881	83.56
235.115	88.56
235.349	96.56
235.583	87.56
235.817	94.56
236.051	65.56
236.285	84.56
236.519	83.56
236.753	77.56
236.987	80.56
237.221	75.56
237.455	81.56
237.689	73.56
237.922	73.56
238.156	58.56
238.39	79.56
238.624	73.56
238.858	91.56
239.091	81.56
239.325	78.56
239.559	85.56
239.793	64.56
240.027	76.56
240.26	73.56
240.494	70.56
240.728	78.56
240.961	78.56
241.195	64.56
241.429	83.56
241.662	84.56
241.896	69.56
242.13	84.56
242.363	71.56
242.597	72.56
242.83	81.56
243.064	84.56
243.298	73.56
243.531	79.56
243.765	67.56
243.998	77.56
244.232	81.56
244.465	76.56
244.699	81.56
244.932	84.56
245.166	88.56
245.399	84.56
245.633	76.56
245.866	82.56
246.099	71.56
246.333	84.56
246.566	71.56
246.8	83.56
247.033	78.56
247.266	83.56
247.5	95.56
247.733	96.56
247.966	79.56
248.2	75.56
248.433	77.56
248.666	86.56
248.899	87.56
249.133	86.56
249.366	83.56
249.599	89.56
249.832	84.56
250.066	85.56
250.299	86.56
250.532	77.56
250.765	76.56
250.998	86.56
251.231	71.56
251.465	79.56
251.698	77.56
251.931	78.56
252.164	61.56
252.397	71.56
252.63	84.56
252.863	78.56
253.096	90.56
253.329	93.56
253.562	79.56
253.795	82.56
254.028	77.56
254.261	78.56
254.494	77.56
254.727	88.56
254.96	75.56
255.193	79.56
255.426	86.56
255.659	93.56
255.892	91.56
256.124	69.56
256.357	71.56
256.59	93.56
256.823	78.56
257.056	90.56
257.289	89.56
257.521	84.56
257.754	80.56
257.987	88.56
258.22	77.56
258.452	85.56
258.685	75.56
258.918	85.56
259.151	74.56
259.383	81.56
259.616	73.56
259.849	78.56
260.081	85.56
260.314	82.56
260.547	81.56
260.779	73.56
261.012	82.56
261.244	93.56
261.477	86.56
261.71	78.56
261.942	85.56
262.175	87.56
262.407	68.56
262.64	85.56
262.872	85.56
263.105	76.56
263.337	91.56
263.57	79.56
263.802	83.56
264.035	92.56
264.267	93.56
264.499	86.56
264.732	89.56
264.964	79.56
265.197	91.56
265.429	70.56
265.661	75.56
265.894	74.56
266.126	89.56
266.358	93.56
266.591	83.56
266.823	75.56
267.055	90.56
267.287	91.56
267.52	84.56
267.752	89.56
267.984	91.56
268.216	73.56
268.448	78.56
268.681	79.56
268.913	83.56
269.145	75.56
269.377	84.56
269.609	89.56
269.841	89.56
270.073	87.56
270.306	96.56
270.538	81.56
270.77	84.56
271.002	90.56
271.234	87.56
271.466	77.56
271.698	90.56
271.93	83.56
272.162	103.56
272.394	90.56
272.626	75.56
272.858	72.56
273.09	83.56
273.322	81.56
273.553	91.56
273.785	88.56
274.017	80.56
274.249	83.56
274.481	92.56
274.713	86.56
274.945	79.56
275.176	86.56
275.408	84.56
275.64	81.56
275.872	89.56
276.104	87.56
276.335	89.56
276.567	74.56
276.799	79.56
277.031	78.56
277.262	80.56
277.494	85.56
277.726	89.56
277.957	89.56
278.189	79.56
278.421	93.56
278.652	91.56
278.884	94.56
279.115	100.56
279.347	88.56
279.579	95.56
279.81	85.56
280.042	90.56
280.273	87.56
280.505	91.56
280.736	94.56
280.968	72.56
281.199	81.56
281.431	80.56
281.662	96.56
281.894	83.56
282.125	87.56
282.356	95.56
282.588	77.56
282.819	84.56
283.051	97.56
283.282	76.56
283.513	70.56
283.745	93.56
283.976	71.56
284.207	101.56
284.439	74.56
284.67	79.56
284.901	93.56
285.132	83.56
285.364	84.56
285.595	93.56
285.826	97.56
286.057	82.56
286.288	77.56
286.52	75.56
286.751	77.56
286.982	81.56
287.213	72.56
287.444	88.56
287.675	69.56
287.906	95.56
288.138	81.56
288.369	92.56
288.6	82.56
288.831	77.56
289.062	94.56
289.293	99.56
289.524	91.56
289.755	97.56
289.986	98.56
290.217	89.56
290.448	94.56
290.679	90.56
290.91	83.56
291.141	92.56
291.371	91.56
291.602	95.56
291.833	89.56
292.064	81.56
292.295	93.56
292.526	90.56
292.757	93.56
292.987	92.56
293.218	95.56
293.449	97.56
293.68	80.56
293.91	91.56
294.141	91.56
294.372	83.56
294.603	99.56
294.833	98.56
295.064	92.56
295.295	76.56
295.525	93.56
295.756	97.56
295.987	73.56
296.217	106.56
296.448	79.56
296.679	82.56
296.909	76.56
297.14	93.56
297.37	92.56
297.601	79.56
297.831	81.56
298.062	84.56
298.292	89.56
298.523	77.56
298.753	94.56
298.984	97.56
299.214	80.56
299.445	105.56
299.675	82.56
299.905	96.56
300.136	98.56
300.366	81.56
300.597	87.56
300.827	97.56
301.057	67.56
301.288	97.56
301.518	88.56
301.748	87.56
301.979	99.56
302.209	79.56
302.439	90.56
302.669	80.56
302.9	87.56
303.13	89.56
303.36	86.56
303.59	97.56
303.82	99.56
304.051	80.56
304.281	99.56
304.511	71.56
304.741	91.56
304.971	87.56
305.201	89.56
305.431	92.56
305.661	90.56
305.891	101.56
306.121	89.56
306.352	92.56
306.582	83.56
306.812	78.56
307.042	82.56
307.272	94.56
307.502	89.56
307.731	81.56
307.961	92.56
308.191	97.56
308.421	106.56
308.651	91.56
308.881	87.56
309.111	107.56
309.341	99.56
309.571	102.56
309.8	96.56
310.03	72.56
310.26	81.56
310.49	87.56
310.72	105.56
310.949	94.56
311.179	77.56
311.409	106.56
311.639	89.56
311.868	85.56
312.098	90.56
312.328	102.56
312.557	89.56
312.787	77.56
313.017	90.56
313.246	69.56
313.476	75.56
313.706	90.56
313.935	78.56
314.165	81.56
314.394	103.56
314.624	97.56
314.853	92.56
315.083	84.56
315.312	87.56
315.542	82.56
315.771	99.56
316.001	91.56
316.23	96.56
316.46	96.56
316.689	102.56
316.919	82.56
317.148	96.56
317.377	91.56
317.607	95.56
317.836	104.56
318.065	103.56
318.295	89.56
318.524	90.56
318.753	88.56
318.983	86.56
319.212	94.56
319.441	77.56
319.67	87.56
319.9	65.56
320.129	89.56
320.358	101.56
320.587	96.56
320.816	81.56
321.046	84.56
321.275	89.56
321.504	72.56
321.733	81.56
321.962	84.56
322.191	82.56
322.42	89.56
322.649	96.56
322.878	70.56
323.108	79.56
323.337	90.56
323.566	91.56
323.795	89.56
324.024	83.56
324.253	78.56
324.482	82.56
324.71	87.56
324.939	87.56
325.168	75.56
325.397	94.56
325.626	84.56
325.855	88.56
326.084	74.56
326.313	99.56
326.542	85.56
326.77	85.56
326.999	73.56
327.228	92.56
327.457	90.56
327.686	95.56
327.914	63.56
328.143	97.56
328.372	79.56
328.6	94.56
328.829	74.56
329.058	87.56
329.287	89.56
329.515	69.56
329.744	91.56
329.972	90.56
330.201	96.56
330.43	83.56
330.658	99.56
330.887	87.56
331.115	89.56
331.344	96.56
331.572	96.56
331.801	89.56
332.03	73.56
332.258	82.56
332.486	81.56
332.715	92.56
332.943	96.56
333.172	88.56
333.4	90.56
333.629	81.56
333.857	71.56
334.085	80.56
334.314	83.56
334.542	81.56
334.771	87.56
334.999	71.56
335.227	66.56
335.455	83.56
335.684	88.56
335.912	97.56
336.14	72.56
336.369	70.56
336.597	79.56
336.825	86.56
337.053	88.56
337.281	100.56
337.51	82.56
337.738	101.56
337.966	89.56
338.194	79.56
338.422	83.56
338.65	86.56
338.878	82.56
339.106	73.56
339.334	84.56
339.562	91.56
339.79	89.56
340.018	82.56
340.246	87.56
340.474	81.56
340.702	93.56
340.93	83.56
341.158	81.56
341.386	83.56
341.614	78.56
341.842	95.56
342.07	71.56
342.298	99.56
342.526	87.56
342.754	86.56
342.981	82.56
343.209	75.56
343.437	104.56
343.665	84.56
343.893	80.56
344.12	81.56
344.348	74.56
344.576	98.56
344.804	85.56
345.031	81.56
345.259	86.56
345.487	90.56
345.714	94.56
345.942	93.56
346.17	75.56
346.397	69.56
346.625	87.56
346.853	89.56
347.08	93.56
347.308	87.56
347.535	89.56
347.763	82.56
347.99	89.56
348.218	102.56
348.445	83.56
348.673	87.56
348.9	85.56
349.128	92.56
349.355	89.56
349.583	79.56
349.81	72.56
350.037	92.56
350.265	80.56
350.492	87.56
350.72	87.56
350.947	95.56
351.174	94.56
351.402	91.56
351.629	82.56
351.856	73.56
352.083	81.56
352.311	94.56
352.538	93.56
352.765	84.56
352.992	98.56
353.22	97.56
353.447	90.56
353.674	81.56
353.901	75.56
354.128	87.56
354.355	94.56
354.583	90.56
354.81	95.56
355.037	89.56
355.264	89.56
355.491	78.56
355.718	96.56
355.945	86.56
356.172	82.56
356.399	94.56
356.626	81.56
356.853	78.56
357.08	82.56
357.307	87.56
357.534	80.56
357.761	93.56
357.988	105.56
358.215	93.56
358.441	87.56
358.668	87.56
358.895	74.56
359.122	89.56
359.349	75.56
359.576	78.56
359.802	81.56
360.029	82.56
360.256	77.56
360.483	93.56
360.709	90.56
360.936	85.56
361.163	83.56
361.39	87.56
361.616	83.56
361.843	78.56
362.07	86.56
362.296	87.56
362.523	87.56
362.749	95.56
362.976	81.56
363.203	87.56
363.429	81.56
363.656	83.56
363.882	75.56
364.109	101.56
364.335	79.56
364.562	79.56
364.788	82.56
365.015	92.56
365.241	88.56
365.468	90.56
365.694	79.56
365.92	86.56
366.147	76.56
366.373	90.56
366.599	83.56
366.826	87.56
367.052	89.56
367.278	81.56
367.505	98.56
367.731	91.56
367.957	81.56
368.184	85.56
368.41	89.56
368.636	78.56
368.862	90.56
369.089	78.56
369.315	89.56
369.541	81.56
369.767	95.56
369.993	83.56
370.219	97.56
370.445	84.56
370.672	73.56
370.898	88.56
371.124	92.56
371.35	93.56
371.576	81.56
371.802	91.56
372.028	94.56
372.254	88.56
372.48	87.56
372.706	76.56
372.932	80.56
373.158	87.56
373.384	93.56
373.61	90.56
373.835	88.56
374.061	87.56
374.287	84.56
374.513	83.56
374.739	84.56
374.965	84.56
375.191	86.56
375.416	96.56
375.642	80.56
375.868	80.56
376.094	78.56
376.319	94.56
376.545	100.56
376.771	79.56
376.997	76.56
377.222	75.56
377.448	101.56
377.674	99.56
377.899	78.56
378.125	83.56
378.35	84.56
378.576	82.56
378.802	65.56
379.027	89.56
379.253	104.56
379.478	98.56
379.704	76.56
379.929	80.56
380.155	92.56
380.38	88.56
380.606	77.56
380.831	70.56
381.057	80.56
381.282	72.56
381.507	89.56
381.733	86.56
381.958	84.56
382.184	84.56
382.409	97.56
382.634	94.56
382.86	84.56
383.085	94.56
383.31	95.56
383.535	92.56
383.761	99.56
383.986	103.56
384.211	86.56
384.436	76.56
384.662	93.56
384.887	82.56
385.112	110.56
385.337	88.56
385.562	94.56
385.787	103.56
386.013	107.56
386.238	90.56
386.463	91.56
386.688	99.56
386.913	107.56
387.138	99.56
387.363	101.56
387.588	93.56
387.813	98.56
388.038	105.56
388.263	105.56
388.488	94.56
388.713	87.56
388.938	93.56
389.163	99.56
389.387	73.56
389.612	80.56
389.837	86.56
390.062	89.56
390.287	96.56
390.512	95.56
390.736	86.56
390.961	77.56
391.186	82.56
391.411	83.56
391.636	96.56
391.86	91.56
392.085	91.56
392.31	76.56
392.534	93.56
392.759	94.56
392.984	71.56
393.208	85.56
393.433	85.56
393.658	78.56
393.882	92.56
394.107	99.56
394.331	119.56
394.556	146.56
394.78	111.56
395.005	98.56
395.229	87.56
395.454	98.56
395.678	84.56
395.903	113.56
396.127	167.56
396.352	169.56
396.576	103.56
396.801	85.56
397.025	90.56
397.249	90.56
397.474	89.56
397.698	84.56
397.922	75.56
398.147	76.56
398.371	90.56
398.595	87.56
398.82	84.56
399.044	77.56
399.268	77.56
399.492	75.56
399.717	89.56
399.941	69.56
400.165	87.56
400.389	81.56
400.613	84.56
400.837	88.56
401.062	79.56
401.286	97.56
401.51	97.56
401.734	94.56
401.958	108.56
402.182	66.56
402.406	77.56
402.63	72.56
402.854	85.56
403.078	86.56
403.302	78.56
403.526	83.56
403.75	83.56
403.974	90.56
404.198	73.56
404.422	84.56
404.645	79.56
404.869	90.56
405.093	82.56
405.317	103.56
405.541	89.56
405.765	88.56
405.988	69.56
406.212	78.56
406.436	88.56
406.66	96.56
406.883	82.56
407.107	74.56
407.331	94.56
407.555	85.56
407.778	87.56
408.002	77.56
408.226	78.56
408.449	83.56
408.673	89.56
408.896	101.56
409.12	89.56
409.344	87.56
409.567	87.56
409.791	83.56
410.014	78.56
410.238	91.56
410.461	61.56
410.685	79.56
410.908	81.56
411.132	85.56
411.355	93.56
411.578	79.56
411.802	77.56
412.025	80.56
412.249	67.56
412.472	82.56
412.695	89.56
412.919	94.56
413.142	86.56
413.365	79.56
413.589	79.56
413.812	80.56
414.035	88.56
414.258	88.56
414.482	82.56
414.705	89.56
414.928	98.56
415.151	91.56
415.374	93.56
415.597	78.56
415.821	77.56
416.044	87.56
416.267	76.56
416.49	86.56
416.713	95.56
416.936	85.56
417.159	80.56
417.382	91.56
417.605	83.56
417.828	77.56
418.051	90.56
418.274	68.56
418.497	80.56
418.72	89.56
418.943	90.56
419.166	93.56
419.389	95.56
419.611	77.56
419.834	81.56
420.057	84.56
420.28	74.56
420.503	75.56
420.726	89.56
420.948	77.56
421.171	65.56
421.394	80.56
421.617	91.56
421.839	77.56
422.062	91.56
422.285	71.56
422.507	95.56
422.73	90.56
422.953	80.56
423.175	74.56
423.398	88.56
423.621	73.56
423.843	88.56
424.066	87.56
424.288	82.56
424.511	83.56
424.733	72.56
424.956	82.56
425.178	81.56
425.401	83.56
425.623	81.56
425.846	81.56
426.068	85.56
426.291	93.56
426.513	89.56
426.735	82.56
426.958	88.56
427.18	95.56
427.402	93.56
427.625	88.56
427.847	83.56
428.069	97.56
428.292	87.56
428.514	91.56
428.736	96.56
428.958	84.56
429.181	100.56
429.403	89.56
429.625	84.56
429.847	91.56
430.069	87.56
430.292	82.56
430.514	83.56
430.736	76.56
430.958	81.56
431.18	89.56
431.402	79.56
431.624	81.56
431.846	84.56
432.068	87.56
432.29	77.56
432.512	93.56
432.734	76.56
432.956	81.56
433.178	100.56
433.4	79.56
433.622	95.56
433.844	87.56
434.066	88.56
434.287	68.56
434.509	77.56
434.731	84.56
434.953	86.56
435.175	91.56
435.397	103.56
435.618	66.56
435.84	91.56
436.062	83.56
436.284	81.56
436.505	80.56
436.727	81.56
436.949	72.56
437.17	93.56
437.392	74.56
437.614	84.56
437.835	105.56
438.057	84.56
438.278	85.56
438.5	78.56
438.721	83.56
438.943	81.56
439.165	74.56
439.386	95.56
439.608	87.56
439.829	88.56
440.05	95.56
440.272	93.56
440.493	98.56
440.715	76.56
440.936	82.56
441.158	80.56
441.379	90.56
441.6	84.56
441.822	91.56
442.043	91.56
442.264	88.56
442.486	73.56
442.707	75.56
442.928	90.56
443.149	81.56
443.371	88.56
443.592	74.56
443.813	79.56
444.034	78.56
444.255	94.56
444.476	93.56
444.698	87.56
444.919	95.56
445.14	149.56
445.361	127.56
445.582	87.56
445.803	88.56
446.024	82.56
446.245	73.56
446.466	89.56
446.687	100.56
446.908	89.56
447.129	91.56
447.35	87.56
447.571	83.56
447.792	101.56
448.013	79.56
448.234	98.56
448.455	75.56
448.675	73.56
448.896	84.56
449.117	90.56
449.338	89.56
449.559	88.56
449.779	76.56
450	62.56
450.221	80.56
450.442	84.56
450.662	92.56
450.883	89.56
451.104	91.56
451.324	91.56
451.545	88.56
451.766	89.56
451.986	91.56
452.207	73.56
452.428	83.56
452.648	87.56
452.869	90.56
453.089	81.56
453.31	90.56
453.53	98.56
453.751	84.56
453.971	69.56
454.192	97.56
454.412	89.56
454.633	84.56
454.853	85.56
455.073	84.56
455.294	86.56
455.514	84.56
455.734	80.56
455.955	85.56
456.175	87.56
456.395	94.56
456.616	82.56
456.836	90.56
457.056	87.56
457.276	88.56
457.497	80.56
457.717	91.56
457.937	79.56
458.157	83.56
458.377	74.56
458.598	73.56
458.818	106.56
459.038	96.56
459.258	86.56
459.478	81.56
459.698	93.56
459.918	81.56
460.138	83.56
460.358	96.56
460.578	67.56
460.798	83.56
461.018	77.56
461.238	84.56
461.458	90.56
461.678	90.56
461.898	82.56
462.118	92.56
462.338	92.56
462.558	84.56
462.777	83.56
462.997	77.56
463.217	57.56
463.437	87.56
463.657	76.56
463.876	79.56
464.096	101.56
464.316	84.56
464.536	85.56
464.755	94.56
464.975	92.56
465.195	86.56
465.414	93.56
465.634	80.56
465.854	89.56
466.073	97.56
466.293	102.56
466.512	89.56
466.732	81.56
466.951	84.56
467.171	83.56
467.391	98.56
467.61	93.56
467.829	85.56
468.049	86.56
468.268	90.56
468.488	85.56
468.707	82.56
468.927	87.56
469.146	78.56
469.365	103.56
469.585	95.56
469.804	97.56
470.023	89.56
470.243	81.56
470.462	87.56
470.681	87.56
470.901	75.56
471.12	94.56
471.339	90.56
471.558	87.56
471.777	87.56
471.997	82.56
472.216	81.56
472.435	93.56
472.654	80.56
472.873	94.56
473.092	77.56
473.311	78.56
473.53	84.56
473.749	102.56
473.968	89.56
474.187	91.56
474.406	76.56
474.625	93.56
474.844	88.56
475.063	78.56
475.282	96.56
475.501	70.56
475.72	100.56
475.939	97.56
476.158	86.56
476.377	81.56
476.596	97.56
476.814	93.56
477.033	89.56
477.252	81.56
477.471	90.56
477.69	89.56
477.908	88.56
478.127	101.56
478.346	82.56
478.564	95.56
478.783	89.56
479.002	89.56
479.22	90.56
479.439	94.56
479.658	87.56
479.876	88.56
480.095	98.56
480.313	75.56
480.532	77.56
480.751	91.56
480.969	93.56
481.188	73.56
481.406	90.56
481.624	82.56
481.843	73.56
482.061	93.56
482.28	67.56
482.498	91.56
482.717	65.56
482.935	78.56
483.153	90.56
483.372	82.56
483.59	91.56
483.808	84.56
484.027	86.56
484.245	82.56
484.463	93.56
484.681	88.56
484.9	94.56
485.118	97.56
485.336	88.56
485.554	85.56
485.772	91.56
485.99	115.56
486.209	94.56
486.427	99.56
486.645	104.56
486.863	95.56
487.081	101.56
487.299	91.56
487.517	97.56
487.735	96.56
487.953	101.56
488.171	98.56
488.389	90.56
488.607	78.56
488.825	102.56
489.043	90.56
489.261	99.56
489.479	91.56
489.696	82.56
489.914	80.56
490.132	101.56
490.35	102.56
490.568	82.56
490.786	90.56
491.003	87.56
491.221	95.56
491.439	91.56
491.657	104.56
491.874	87.56
492.092	82.56
492.31	93.56
492.527	93.56
492.745	89.56
492.963	95.56
493.18	83.56
493.398	68.56
493.615	100.56
493.833	79.56
494.05	94.56
494.268	96.56
494.485	101.56
494.703	92.56
494.92	91.56
495.138	95.56
495.355	96.56
495.573	98.56
495.79	83.56
496.008	96.56
496.225	98.56
496.442	87.56
496.66	88.56
496.877	92.56
497.094	105.56
497.312	96.56
497.529	92.56
497.746	86.56
497.963	69.56
498.181	83.56
498.398	87.56
498.615	110.56
498.832	70.56
499.049	89.56
499.267	89.56
499.484	84.56
499.701	91.56
499.918	69.56
500.135	96.56
500.352	78.56
500.569	89.56
500.786	85.56
501.003	82.56
501.22	87.56
501.437	88.56
501.654	83.56
501.871	85.56
502.088	75.56
502.305	73.56
502.522	101.56
502.739	82.56
502.956	95.56
503.172	85.56
503.389	93.56
503.606	70.56
503.823	85.56
504.04	107.56
504.256	79.56
504.473	87.56
504.69	98.56
504.907	91.56
505.123	90.56
505.34	86.56
505.557	79.56
505.773	81.56
505.99	77.56
506.207	64.56
506.423	91.56
506.64	80.56
506.856	83.56
507.073	81.56
507.289	92.56
507.506	83.56
507.722	83.56
507.939	86.56
508.155	85.56
508.372	86.56
508.588	101.56
508.805	87.56
509.021	69.56
509.238	93.56
509.454	104.56
509.67	88.56
509.887	93.56
510.103	89.56
510.319	82.56
510.536	85.56
510.752	95.56
510.968	94.56
511.184	85.56
511.401	79.56
511.617	103.56
511.833	103.56
512.049	98.56
512.265	79.56
512.481	93.56
512.698	86.56
512.914	92.56
513.13	91.56
513.346	83.56
513.562	81.56
513.778	103.56
513.994	87.56
514.21	91.56
514.426	91.56
514.642	87.56
514.858	72.56
515.074	80.56
515.29	96.56
515.506	79.56
515.721	97.56
515.937	103.56
516.153	90.56
516.369	67.56
516.585	80.56
516.801	94.56
517.016	84.56
517.232	101.56
517.448	97.56
517.664	85.56
517.879	77.56
518.095	97.56
518.311	87.56
518.527	97.56
518.742	90.56
518.958	80.56
