Data from 15780_2_HRD10591_00012.txt Node
Date: Mon Jan 19 14:19:09 EST 2026
User: Yrep
Spectrometer: HR+D1059
Trigger mode: 1
Integration Time (sec): 1.000000E-1
Scans to average: 1
Electric dark correction enabled: true
Nonlinearity correction enabled: false
Boxcar width: 0
XAxis mode: Wavelengths
Number of Pixels in Spectrum: 2048
>>>>>Begin Spectral Data<<<<<
223.165	-16.38
223.4	-16.38
223.635	-16.38
223.869	-10.38
224.104	-13.38
224.338	-18.38
224.573	-8.38
224.808	-11.38
225.042	-8.38
225.277	-12.38
225.511	2.62
225.746	0.62
225.98	3.62
226.215	15.62
226.449	8.62
226.683	19.62
226.918	15.62
227.152	32.62
227.387	26.62
227.621	26.62
227.856	40.62
228.09	51.62
228.324	67.62
228.559	57.62
228.793	61.62
229.027	74.62
229.262	70.62
229.496	77.62
229.73	84.62
229.964	77.62
230.199	68.62
230.433	73.62
230.667	83.62
230.901	84.62
231.136	81.62
231.37	75.62
231.604	75.62
231.838	75.62
232.072	65.62
232.306	81.62
232.541	63.62
232.775	85.62
233.009	85.62
233.243	74.62
233.477	73.62
233.711	88.62
233.945	75.62
234.179	95.62
234.413	88.62
234.647	72.62
234.881	96.62
235.115	82.62
235.349	65.62
235.583	81.62
235.817	91.62
236.051	75.62
236.285	68.62
236.519	69.62
236.753	84.62
236.987	91.62
237.221	74.62
237.455	76.62
237.689	81.62
237.922	77.62
238.156	76.62
238.39	80.62
238.624	78.62
238.858	74.62
239.091	72.62
239.325	87.62
239.559	71.62
239.793	65.62
240.027	94.62
240.26	74.62
240.494	71.62
240.728	76.62
240.961	95.62
241.195	76.62
241.429	86.62
241.662	76.62
241.896	86.62
242.13	66.62
242.363	80.62
242.597	85.62
242.83	82.62
243.064	75.62
243.298	81.62
243.531	74.62
243.765	73.62
243.998	78.62
244.232	68.62
244.465	69.62
244.699	75.62
244.932	77.62
245.166	68.62
245.399	75.62
245.633	75.62
245.866	76.62
246.099	87.62
246.333	78.62
246.566	71.62
246.8	77.62
247.033	60.62
247.266	66.62
247.5	82.62
247.733	82.62
247.966	69.62
248.2	63.62
248.433	97.62
248.666	84.62
248.899	87.62
249.133	82.62
249.366	78.62
249.599	85.62
249.832	83.62
250.066	84.62
250.299	88.62
250.532	87.62
250.765	74.62
250.998	79.62
251.231	76.62
251.465	92.62
251.698	88.62
251.931	81.62
252.164	75.62
252.397	84.62
252.63	81.62
252.863	64.62
253.096	89.62
253.329	91.62
253.562	77.62
253.795	92.62
254.028	73.62
254.261	83.62
254.494	82.62
254.727	75.62
254.96	78.62
255.193	86.62
255.426	81.62
255.659	87.62
255.892	92.62
256.124	67.62
256.357	87.62
256.59	76.62
256.823	77.62
257.056	91.62
257.289	75.62
257.521	76.62
257.754	70.62
257.987	81.62
258.22	77.62
258.452	89.62
258.685	83.62
258.918	87.62
259.151	61.62
259.383	82.62
259.616	72.62
259.849	84.62
260.081	84.62
260.314	106.62
260.547	78.62
260.779	73.62
261.012	89.62
261.244	78.62
261.477	91.62
261.71	87.62
261.942	82.62
262.175	71.62
262.407	69.62
262.64	72.62
262.872	86.62
263.105	77.62
263.337	84.62
263.57	72.62
263.802	90.62
264.035	86.62
264.267	75.62
264.499	82.62
264.732	74.62
264.964	75.62
265.197	78.62
265.429	78.62
265.661	85.62
265.894	77.62
266.126	90.62
266.358	98.62
266.591	95.62
266.823	80.62
267.055	86.62
267.287	86.62
267.52	82.62
267.752	76.62
267.984	78.62
268.216	78.62
268.448	85.62
268.681	83.62
268.913	96.62
269.145	91.62
269.377	89.62
269.609	83.62
269.841	89.62
270.073	87.62
270.306	72.62
270.538	70.62
270.77	83.62
271.002	81.62
271.234	87.62
271.466	83.62
271.698	92.62
271.93	69.62
272.162	96.62
272.394	93.62
272.626	85.62
272.858	89.62
273.09	83.62
273.322	82.62
273.553	91.62
273.785	86.62
274.017	82.62
274.249	80.62
274.481	74.62
274.713	83.62
274.945	91.62
275.176	79.62
275.408	80.62
275.64	95.62
275.872	83.62
276.104	80.62
276.335	78.62
276.567	78.62
276.799	86.62
277.031	87.62
277.262	95.62
277.494	82.62
277.726	107.62
277.957	85.62
278.189	91.62
278.421	85.62
278.652	82.62
278.884	88.62
279.115	90.62
279.347	85.62
279.579	90.62
279.81	83.62
280.042	87.62
280.273	97.62
280.505	77.62
280.736	96.62
280.968	84.62
281.199	88.62
281.431	73.62
281.662	81.62
281.894	73.62
282.125	77.62
282.356	90.62
282.588	70.62
282.819	80.62
283.051	89.62
283.282	91.62
283.513	96.62
283.745	70.62
283.976	83.62
284.207	85.62
284.439	86.62
284.67	89.62
284.901	88.62
285.132	79.62
285.364	93.62
285.595	84.62
285.826	89.62
286.057	85.62
286.288	92.62
286.52	84.62
286.751	83.62
286.982	80.62
287.213	95.62
287.444	95.62
287.675	98.62
287.906	86.62
288.138	79.62
288.369	89.62
288.6	85.62
288.831	70.62
289.062	84.62
289.293	83.62
289.524	74.62
289.755	95.62
289.986	76.62
290.217	73.62
290.448	79.62
290.679	76.62
290.91	89.62
291.141	84.62
291.371	78.62
291.602	80.62
291.833	91.62
292.064	94.62
292.295	91.62
292.526	104.62
292.757	79.62
292.987	88.62
293.218	83.62
293.449	68.62
293.68	82.62
293.91	76.62
294.141	92.62
294.372	91.62
294.603	88.62
294.833	90.62
295.064	94.62
295.295	83.62
295.525	91.62
295.756	86.62
295.987	80.62
296.217	86.62
296.448	98.62
296.679	76.62
296.909	98.62
297.14	83.62
297.37	88.62
297.601	75.62
297.831	87.62
298.062	91.62
298.292	88.62
298.523	88.62
298.753	102.62
298.984	76.62
299.214	90.62
299.445	94.62
299.675	89.62
299.905	98.62
300.136	93.62
300.366	99.62
300.597	101.62
300.827	98.62
301.057	104.62
301.288	86.62
301.518	90.62
301.748	87.62
301.979	100.62
302.209	81.62
302.439	100.62
302.669	86.62
302.9	80.62
303.13	82.62
303.36	93.62
303.59	101.62
303.82	96.62
304.051	91.62
304.281	97.62
304.511	101.62
304.741	84.62
304.971	100.62
305.201	85.62
305.431	89.62
305.661	76.62
305.891	84.62
306.121	100.62
306.352	77.62
306.582	98.62
306.812	99.62
307.042	88.62
307.272	80.62
307.502	83.62
307.731	89.62
307.961	109.62
308.191	102.62
308.421	105.62
308.651	97.62
308.881	115.62
309.111	113.62
309.341	116.62
309.571	117.62
309.8	81.62
310.03	86.62
310.26	75.62
310.49	95.62
310.72	77.62
310.949	83.62
311.179	77.62
311.409	70.62
311.639	93.62
311.868	78.62
312.098	92.62
312.328	96.62
312.557	76.62
312.787	73.62
313.017	88.62
313.246	76.62
313.476	81.62
313.706	80.62
313.935	97.62
314.165	89.62
314.394	76.62
314.624	89.62
314.853	81.62
315.083	89.62
315.312	87.62
315.542	80.62
315.771	91.62
316.001	104.62
316.23	94.62
316.46	82.62
316.689	66.62
316.919	102.62
317.148	90.62
317.377	92.62
317.607	88.62
317.836	85.62
318.065	117.62
318.295	113.62
318.524	96.62
318.753	84.62
318.983	102.62
319.212	96.62
319.441	90.62
319.67	95.62
319.9	92.62
320.129	87.62
320.358	103.62
320.587	90.62
320.816	84.62
321.046	93.62
321.275	84.62
321.504	95.62
321.733	85.62
321.962	97.62
322.191	93.62
322.42	91.62
322.649	93.62
322.878	101.62
323.108	86.62
323.337	99.62
323.566	92.62
323.795	78.62
324.024	96.62
324.253	99.62
324.482	87.62
324.71	88.62
324.939	86.62
325.168	84.62
325.397	89.62
325.626	79.62
325.855	87.62
326.084	75.62
326.313	83.62
326.542	68.62
326.77	69.62
326.999	91.62
327.228	96.62
327.457	101.62
327.686	91.62
327.914	91.62
328.143	80.62
328.372	84.62
328.6	88.62
328.829	90.62
329.058	85.62
329.287	99.62
329.515	85.62
329.744	95.62
329.972	103.62
330.201	103.62
330.43	72.62
330.658	77.62
330.887	88.62
331.115	89.62
331.344	82.62
331.572	83.62
331.801	88.62
332.03	95.62
332.258	92.62
332.486	86.62
332.715	99.62
332.943	95.62
333.172	101.62
333.4	98.62
333.629	96.62
333.857	99.62
334.085	97.62
334.314	97.62
334.542	115.62
334.771	105.62
334.999	99.62
335.227	117.62
335.455	117.62
335.684	97.62
335.912	108.62
336.14	117.62
336.369	122.62
336.597	101.62
336.825	99.62
337.053	96.62
337.281	105.62
337.51	105.62
337.738	99.62
337.966	104.62
338.194	92.62
338.422	95.62
338.65	95.62
338.878	104.62
339.106	103.62
339.334	88.62
339.562	91.62
339.79	82.62
340.018	90.62
340.246	84.62
340.474	93.62
340.702	91.62
340.93	83.62
341.158	81.62
341.386	75.62
341.614	83.62
341.842	83.62
342.07	88.62
342.298	95.62
342.526	95.62
342.754	83.62
342.981	92.62
343.209	88.62
343.437	102.62
343.665	95.62
343.893	85.62
344.12	104.62
344.348	107.62
344.576	99.62
344.804	89.62
345.031	90.62
345.259	91.62
345.487	83.62
345.714	69.62
345.942	73.62
346.17	82.62
346.397	85.62
346.625	96.62
346.853	88.62
347.08	99.62
347.308	115.62
347.535	94.62
347.763	96.62
347.99	90.62
348.218	79.62
348.445	101.62
348.673	102.62
348.9	101.62
349.128	84.62
349.355	95.62
349.583	87.62
349.81	98.62
350.037	108.62
350.265	101.62
350.492	83.62
350.72	76.62
350.947	82.62
351.174	79.62
351.402	76.62
351.629	91.62
351.856	99.62
352.083	86.62
352.311	90.62
352.538	91.62
352.765	93.62
352.992	121.62
353.22	85.62
353.447	91.62
353.674	91.62
353.901	100.62
354.128	80.62
354.355	78.62
354.583	89.62
354.81	84.62
355.037	92.62
355.264	98.62
355.491	99.62
355.718	93.62
355.945	87.62
356.172	90.62
356.399	95.62
356.626	98.62
356.853	112.62
357.08	115.62
357.307	91.62
357.534	89.62
357.761	113.62
357.988	122.62
358.215	127.62
358.441	111.62
358.668	101.62
358.895	97.62
359.122	96.62
359.349	107.62
359.576	99.62
359.802	87.62
360.029	83.62
360.256	93.62
360.483	89.62
360.709	99.62
360.936	116.62
361.163	104.62
361.39	111.62
361.616	91.62
361.843	93.62
362.07	107.62
362.296	118.62
362.523	141.62
362.749	140.62
362.976	156.62
363.203	196.62
363.429	157.62
363.656	119.62
363.882	130.62
364.109	157.62
364.335	205.62
364.562	238.62
364.788	169.62
365.015	128.62
365.241	105.62
365.468	121.62
365.694	99.62
365.92	96.62
366.147	99.62
366.373	95.62
366.599	93.62
366.826	95.62
367.052	83.62
367.278	84.62
367.505	90.62
367.731	104.62
367.957	98.62
368.184	119.62
368.41	92.62
368.636	93.62
368.862	105.62
369.089	90.62
369.315	92.62
369.541	92.62
369.767	92.62
369.993	95.62
370.219	104.62
370.445	95.62
370.672	120.62
370.898	103.62
371.124	100.62
371.35	98.62
371.576	105.62
371.802	108.62
372.028	109.62
372.254	114.62
372.48	113.62
372.706	100.62
372.932	102.62
373.158	115.62
373.384	135.62
373.61	157.62
373.835	155.62
374.061	106.62
374.287	113.62
374.513	140.62
374.739	140.62
374.965	130.62
375.191	121.62
375.416	108.62
375.642	115.62
375.868	108.62
376.094	120.62
376.319	101.62
376.545	105.62
376.771	98.62
376.997	95.62
377.222	90.62
377.448	100.62
377.674	89.62
377.899	104.62
378.125	95.62
378.35	95.62
378.576	100.62
378.802	81.62
379.027	81.62
379.253	96.62
379.478	109.62
379.704	92.62
379.929	107.62
380.155	106.62
380.38	96.62
380.606	92.62
380.831	96.62
381.057	103.62
381.282	97.62
381.507	102.62
381.733	127.62
381.958	113.62
382.184	132.62
382.409	132.62
382.634	143.62
382.86	133.62
383.085	117.62
383.31	131.62
383.535	128.62
383.761	125.62
383.986	139.62
384.211	127.62
384.436	98.62
384.662	91.62
384.887	115.62
385.112	113.62
385.337	115.62
385.562	123.62
385.787	139.62
386.013	145.62
386.238	141.62
386.463	112.62
386.688	125.62
386.913	111.62
387.138	111.62
387.363	125.62
387.588	134.62
387.813	132.62
388.038	138.62
388.263	134.62
388.488	125.62
388.713	121.62
388.938	103.62
389.163	90.62
389.387	89.62
389.612	103.62
389.837	109.62
390.062	95.62
390.287	111.62
390.512	105.62
390.736	108.62
390.961	96.62
391.186	87.62
391.411	96.62
391.636	86.62
391.86	102.62
392.085	118.62
392.31	116.62
392.534	129.62
392.759	168.62
392.984	260.62
393.208	455.62
393.433	663.62
393.658	548.62
393.882	221.62
394.107	155.62
394.331	179.62
394.556	211.62
394.78	169.62
395.005	126.62
395.229	111.62
395.454	120.62
395.678	137.62
395.903	194.62
396.127	242.62
396.352	280.62
396.576	275.62
396.801	445.62
397.025	549.62
397.249	289.62
397.474	184.62
397.698	139.62
397.922	105.62
398.147	110.62
398.371	101.62
398.595	83.62
398.82	100.62
399.044	107.62
399.268	92.62
399.492	94.62
399.717	95.62
399.941	111.62
400.165	103.62
400.389	84.62
400.613	88.62
400.837	90.62
401.062	99.62
401.286	89.62
401.51	87.62
401.734	99.62
401.958	88.62
402.182	89.62
402.406	103.62
402.63	95.62
402.854	86.62
403.078	93.62
403.302	91.62
403.526	102.62
403.75	101.62
403.974	84.62
404.198	98.62
404.422	116.62
404.645	109.62
404.869	121.62
405.093	93.62
405.317	87.62
405.541	94.62
405.765	93.62
405.988	95.62
406.212	85.62
406.436	103.62
406.66	85.62
406.883	104.62
407.107	95.62
407.331	121.62
407.555	116.62
407.778	149.62
408.002	152.62
408.226	99.62
408.449	93.62
408.673	98.62
408.896	91.62
409.12	102.62
409.344	117.62
409.567	128.62
409.791	135.62
410.014	133.62
410.238	132.62
410.461	105.62
410.685	104.62
410.908	90.62
411.132	88.62
411.355	85.62
411.578	81.62
411.802	95.62
412.025	99.62
412.249	81.62
412.472	88.62
412.695	72.62
412.919	99.62
413.142	87.62
413.365	94.62
413.589	81.62
413.812	71.62
414.035	99.62
414.258	104.62
414.482	95.62
414.705	77.62
414.928	89.62
415.151	89.62
415.374	92.62
415.597	79.62
415.821	86.62
416.044	87.62
416.267	88.62
416.49	89.62
416.713	88.62
416.936	85.62
417.159	88.62
417.382	103.62
417.605	79.62
417.828	77.62
418.051	76.62
418.274	102.62
418.497	99.62
418.72	100.62
418.943	107.62
419.166	68.62
419.389	87.62
419.611	97.62
419.834	97.62
420.057	108.62
420.28	103.62
420.503	93.62
420.726	108.62
420.948	112.62
421.171	109.62
421.394	130.62
421.617	172.62
421.839	183.62
422.062	200.62
422.285	292.62
422.507	569.62
422.73	869.62
422.953	806.62
423.175	401.62
423.398	230.62
423.621	170.62
423.843	138.62
424.066	132.62
424.288	132.62
424.511	99.62
424.733	105.62
424.956	89.62
425.178	104.62
425.401	95.62
425.623	111.62
425.846	95.62
426.068	104.62
426.291	99.62
426.513	91.62
426.735	109.62
426.958	100.62
427.18	102.62
427.402	108.62
427.625	118.62
427.847	99.62
428.069	122.62
428.292	167.62
428.514	216.62
428.736	169.62
428.958	197.62
429.181	211.62
429.403	133.62
429.625	129.62
429.847	191.62
430.069	304.62
430.292	341.62
430.514	307.62
430.736	224.62
430.958	247.62
431.18	125.62
431.402	101.62
431.624	126.62
431.846	173.62
432.068	210.62
432.29	113.62
432.512	102.62
432.734	100.62
432.956	83.62
433.178	103.62
433.4	100.62
433.622	84.62
433.844	80.62
434.066	87.62
434.287	85.62
434.509	83.62
434.731	86.62
434.953	89.62
435.175	86.62
435.397	111.62
435.618	111.62
435.84	120.62
436.062	112.62
436.284	84.62
436.505	66.62
436.727	93.62
436.949	91.62
437.17	87.62
437.392	89.62
437.614	81.62
437.835	108.62
438.057	105.62
438.278	101.62
438.5	112.62
438.721	98.62
438.943	98.62
439.165	86.62
439.386	87.62
439.608	99.62
439.829	81.62
440.05	93.62
440.272	90.62
440.493	111.62
440.715	99.62
440.936	98.62
441.158	95.62
441.379	105.62
441.6	113.62
441.822	114.62
442.043	100.62
442.264	125.62
442.486	205.62
442.707	311.62
442.928	198.62
443.149	163.62
443.371	273.62
443.592	512.62
443.813	416.62
444.034	145.62
444.255	99.62
444.476	92.62
444.698	98.62
444.919	118.62
445.14	239.62
445.361	340.62
445.582	645.62
445.803	529.62
446.024	204.62
446.245	113.62
446.466	105.62
446.687	93.62
446.908	106.62
447.129	99.62
447.35	90.62
447.571	95.62
447.792	80.62
448.013	77.62
448.234	76.62
448.455	90.62
448.675	93.62
448.896	87.62
449.117	85.62
449.338	103.62
449.559	96.62
449.779	93.62
450	89.62
450.221	93.62
450.442	91.62
450.662	88.62
450.883	87.62
451.104	108.62
451.324	119.62
451.545	100.62
451.766	96.62
451.986	86.62
452.207	91.62
452.428	100.62
452.648	104.62
452.869	141.62
453.089	115.62
453.31	101.62
453.53	110.62
453.751	113.62
453.971	91.62
454.192	102.62
454.412	85.62
454.633	76.62
454.853	97.62
455.073	100.62
455.294	99.62
455.514	108.62
455.734	106.62
455.955	88.62
456.175	85.62
456.395	87.62
456.616	73.62
456.836	77.62
457.056	95.62
457.276	98.62
457.497	98.62
457.717	129.62
457.937	162.62
458.157	195.62
458.377	199.62
458.598	182.62
458.818	233.62
459.038	119.62
459.258	95.62
459.478	84.62
459.698	84.62
459.918	84.62
460.138	87.62
460.358	100.62
460.578	109.62
460.798	177.62
461.018	192.62
461.238	111.62
461.458	106.62
461.678	93.62
461.898	99.62
462.118	80.62
462.338	79.62
462.558	77.62
462.777	92.62
462.997	89.62
463.217	95.62
463.437	90.62
463.657	86.62
463.876	96.62
464.096	90.62
464.316	92.62
464.536	83.62
464.755	75.62
464.975	86.62
465.195	98.62
465.414	92.62
465.634	101.62
465.854	90.62
466.073	75.62
466.293	77.62
466.512	92.62
466.732	103.62
466.951	90.62
467.171	88.62
467.391	96.62
467.61	83.62
467.829	83.62
468.049	87.62
468.268	89.62
468.488	100.62
468.707	95.62
468.927	94.62
469.146	96.62
469.365	82.62
469.585	83.62
469.804	86.62
470.023	91.62
470.243	93.62
470.462	79.62
470.681	91.62
470.901	92.62
471.12	92.62
471.339	90.62
471.558	81.62
471.777	87.62
471.997	86.62
472.216	88.62
472.435	89.62
472.654	84.62
472.873	105.62
473.092	99.62
473.311	78.62
473.53	74.62
473.749	101.62
473.968	95.62
474.187	92.62
474.406	77.62
474.625	77.62
474.844	74.62
475.063	92.62
475.282	89.62
475.501	92.62
475.72	78.62
475.939	95.62
476.158	94.62
476.377	93.62
476.596	87.62
476.814	95.62
477.033	96.62
477.252	97.62
477.471	96.62
477.69	88.62
477.908	105.62
478.127	92.62
478.346	85.62
478.564	99.62
478.783	98.62
479.002	91.62
479.22	103.62
479.439	113.62
479.658	94.62
479.876	93.62
480.095	93.62
480.313	93.62
480.532	95.62
480.751	87.62
480.969	99.62
481.188	109.62
481.406	108.62
481.624	107.62
481.843	114.62
482.061	95.62
482.28	97.62
482.498	89.62
482.717	85.62
482.935	95.62
483.153	112.62
483.372	111.62
483.59	87.62
483.808	91.62
484.027	86.62
484.245	89.62
484.463	93.62
484.681	90.62
484.9	102.62
485.118	106.62
485.336	97.62
485.554	96.62
485.772	116.62
485.99	91.62
486.209	97.62
486.427	98.62
486.645	92.62
486.863	87.62
487.081	101.62
487.299	116.62
487.517	129.62
487.735	171.62
487.953	350.62
488.171	263.62
488.389	119.62
488.607	97.62
488.825	108.62
489.043	95.62
489.261	89.62
489.479	102.62
489.696	108.62
489.914	89.62
490.132	99.62
490.35	99.62
490.568	97.62
490.786	93.62
491.003	81.62
491.221	95.62
491.439	102.62
491.657	98.62
491.874	97.62
492.092	111.62
492.31	112.62
492.527	94.62
492.745	92.62
492.963	86.62
493.18	115.62
493.398	113.62
493.615	108.62
493.833	81.62
494.05	84.62
494.268	87.62
494.485	97.62
494.703	105.62
494.92	84.62
495.138	101.62
495.355	107.62
495.573	108.62
495.79	107.62
496.008	92.62
496.225	99.62
496.442	100.62
496.66	97.62
496.877	101.62
497.094	114.62
497.312	98.62
497.529	98.62
497.746	92.62
497.963	108.62
498.181	127.62
498.398	153.62
498.615	115.62
498.832	99.62
499.049	107.62
499.267	162.62
499.484	125.62
499.701	102.62
499.918	113.62
500.135	137.62
500.352	99.62
500.569	103.62
500.786	120.62
501.003	105.62
501.22	114.62
501.437	120.62
501.654	122.62
501.871	130.62
502.088	109.62
502.305	111.62
502.522	111.62
502.739	115.62
502.956	88.62
503.172	105.62
503.389	99.62
503.606	110.62
503.823	118.62
504.04	140.62
504.256	225.62
504.473	238.62
504.69	121.62
504.907	107.62
505.123	89.62
505.34	112.62
505.557	91.62
505.773	111.62
505.99	105.62
506.207	94.62
506.423	108.62
506.64	111.62
506.856	99.62
507.073	107.62
507.289	90.62
507.506	96.62
507.722	101.62
507.939	82.62
508.155	101.62
508.372	94.62
508.588	87.62
508.805	97.62
509.021	101.62
509.238	96.62
509.454	91.62
509.67	94.62
509.887	88.62
510.103	89.62
510.319	110.62
510.536	100.62
510.752	97.62
510.968	101.62
511.184	96.62
511.401	97.62
511.617	102.62
511.833	99.62
512.049	92.62
512.265	92.62
512.481	82.62
512.698	99.62
512.914	103.62
513.13	110.62
513.346	91.62
513.562	96.62
513.778	100.62
513.994	106.62
514.21	98.62
514.426	103.62
