Data from 15780_2_HRD10591_00017.txt Node
Date: Mon Jan 19 14:19:12 EST 2026
User: Yrep
Spectrometer: HR+D1059
Trigger mode: 1
Integration Time (sec): 1.000000E-1
Scans to average: 1
Electric dark correction enabled: true
Nonlinearity correction enabled: false
Boxcar width: 0
XAxis mode: Wavelengths
Number of Pixels in Spectrum: 2048
>>>>>Begin Spectral Data<<<<<
223.165	-33.81
223.4	-33.81
223.635	-33.81
223.869	-21.81
224.104	-20.81
224.338	-8.81
224.573	-5.81
224.808	-5.81
225.042	-12.81
225.277	-4.81
225.511	-4.81
225.746	4.19
225.98	2.19
226.215	13.19
226.449	16.19
226.683	14.19
226.918	33.19
227.152	36.19
227.387	35.19
227.621	49.19
227.856	44.19
228.09	50.19
228.324	35.19
228.559	53.19
228.793	66.19
229.027	71.19
229.262	59.19
229.496	65.19
229.73	70.19
229.964	59.19
230.199	77.19
230.433	54.19
230.667	61.19
230.901	63.19
231.136	91.19
231.37	76.19
231.604	85.19
231.838	75.19
232.072	72.19
232.306	84.19
232.541	89.19
232.775	75.19
233.009	79.19
233.243	66.19
233.477	69.19
233.711	90.19
233.945	71.19
234.179	85.19
234.413	69.19
234.647	86.19
234.881	91.19
235.115	95.19
235.349	97.19
235.583	79.19
235.817	78.19
236.051	65.19
236.285	73.19
236.519	73.19
236.753	68.19
236.987	89.19
237.221	76.19
237.455	66.19
237.689	75.19
237.922	85.19
238.156	71.19
238.39	79.19
238.624	74.19
238.858	84.19
239.091	79.19
239.325	84.19
239.559	67.19
239.793	70.19
240.027	87.19
240.26	84.19
240.494	80.19
240.728	68.19
240.961	76.19
241.195	77.19
241.429	68.19
241.662	87.19
241.896	72.19
242.13	69.19
242.363	77.19
242.597	91.19
242.83	81.19
243.064	73.19
243.298	74.19
243.531	83.19
243.765	76.19
243.998	85.19
244.232	81.19
244.465	77.19
244.699	78.19
244.932	84.19
245.166	66.19
245.399	79.19
245.633	91.19
245.866	75.19
246.099	72.19
246.333	75.19
246.566	81.19
246.8	83.19
247.033	79.19
247.266	75.19
247.5	85.19
247.733	84.19
247.966	83.19
248.2	70.19
248.433	90.19
248.666	68.19
248.899	79.19
249.133	86.19
249.366	80.19
249.599	89.19
249.832	85.19
250.066	84.19
250.299	84.19
250.532	73.19
250.765	83.19
250.998	74.19
251.231	85.19
251.465	79.19
251.698	91.19
251.931	69.19
252.164	90.19
252.397	78.19
252.63	77.19
252.863	75.19
253.096	82.19
253.329	73.19
253.562	93.19
253.795	63.19
254.028	93.19
254.261	87.19
254.494	82.19
254.727	80.19
254.96	77.19
255.193	71.19
255.426	74.19
255.659	86.19
255.892	76.19
256.124	79.19
256.357	80.19
256.59	79.19
256.823	70.19
257.056	75.19
257.289	92.19
257.521	82.19
257.754	73.19
257.987	82.19
258.22	90.19
258.452	79.19
258.685	83.19
258.918	85.19
259.151	79.19
259.383	85.19
259.616	76.19
259.849	73.19
260.081	86.19
260.314	81.19
260.547	83.19
260.779	84.19
261.012	88.19
261.244	70.19
261.477	104.19
261.71	87.19
261.942	71.19
262.175	81.19
262.407	69.19
262.64	90.19
262.872	85.19
263.105	85.19
263.337	94.19
263.57	80.19
263.802	89.19
264.035	73.19
264.267	82.19
264.499	72.19
264.732	95.19
264.964	86.19
265.197	91.19
265.429	90.19
265.661	77.19
265.894	69.19
266.126	79.19
266.358	79.19
266.591	73.19
266.823	82.19
267.055	76.19
267.287	71.19
267.52	76.19
267.752	94.19
267.984	80.19
268.216	87.19
268.448	68.19
268.681	78.19
268.913	80.19
269.145	87.19
269.377	81.19
269.609	73.19
269.841	90.19
270.073	89.19
270.306	80.19
270.538	87.19
270.77	75.19
271.002	97.19
271.234	79.19
271.466	95.19
271.698	70.19
271.93	76.19
272.162	90.19
272.394	74.19
272.626	83.19
272.858	67.19
273.09	72.19
273.322	69.19
273.553	88.19
273.785	78.19
274.017	73.19
274.249	76.19
274.481	87.19
274.713	85.19
274.945	79.19
275.176	91.19
275.408	78.19
275.64	91.19
275.872	77.19
276.104	82.19
276.335	80.19
276.567	78.19
276.799	80.19
277.031	81.19
277.262	78.19
277.494	84.19
277.726	93.19
277.957	90.19
278.189	91.19
278.421	101.19
278.652	89.19
278.884	79.19
279.115	84.19
279.347	92.19
279.579	98.19
279.81	100.19
280.042	97.19
280.273	83.19
280.505	82.19
280.736	83.19
280.968	82.19
281.199	73.19
281.431	87.19
281.662	87.19
281.894	90.19
282.125	80.19
282.356	90.19
282.588	77.19
282.819	82.19
283.051	97.19
283.282	87.19
283.513	86.19
283.745	85.19
283.976	73.19
284.207	91.19
284.439	85.19
284.67	88.19
284.901	88.19
285.132	80.19
285.364	74.19
285.595	85.19
285.826	77.19
286.057	86.19
286.288	85.19
286.52	93.19
286.751	83.19
286.982	90.19
287.213	87.19
287.444	79.19
287.675	77.19
287.906	72.19
288.138	87.19
288.369	79.19
288.6	79.19
288.831	85.19
289.062	91.19
289.293	89.19
289.524	93.19
289.755	86.19
289.986	76.19
290.217	81.19
290.448	70.19
290.679	84.19
290.91	85.19
291.141	88.19
291.371	94.19
291.602	83.19
291.833	82.19
292.064	86.19
292.295	89.19
292.526	96.19
292.757	91.19
292.987	101.19
293.218	86.19
293.449	83.19
293.68	88.19
293.91	83.19
294.141	80.19
294.372	86.19
294.603	91.19
294.833	93.19
295.064	93.19
295.295	101.19
295.525	93.19
295.756	97.19
295.987	99.19
296.217	85.19
296.448	88.19
296.679	88.19
296.909	92.19
297.14	87.19
297.37	96.19
297.601	93.19
297.831	78.19
298.062	88.19
298.292	95.19
298.523	92.19
298.753	87.19
298.984	89.19
299.214	97.19
299.445	103.19
299.675	118.19
299.905	101.19
300.136	97.19
300.366	70.19
300.597	96.19
300.827	110.19
301.057	102.19
301.288	96.19
301.518	97.19
301.748	85.19
301.979	110.19
302.209	85.19
302.439	86.19
302.669	85.19
302.9	90.19
303.13	99.19
303.36	91.19
303.59	85.19
303.82	89.19
304.051	80.19
304.281	91.19
304.511	79.19
304.741	85.19
304.971	91.19
305.201	92.19
305.431	91.19
305.661	75.19
305.891	90.19
306.121	94.19
306.352	85.19
306.582	95.19
306.812	86.19
307.042	83.19
307.272	83.19
307.502	74.19
307.731	88.19
307.961	91.19
308.191	102.19
308.421	110.19
308.651	77.19
308.881	103.19
309.111	94.19
309.341	129.19
309.571	122.19
309.8	95.19
310.03	87.19
310.26	85.19
310.49	86.19
310.72	91.19
310.949	83.19
311.179	94.19
311.409	85.19
311.639	84.19
311.868	95.19
312.098	82.19
312.328	83.19
312.557	76.19
312.787	62.19
313.017	79.19
313.246	87.19
313.476	85.19
313.706	83.19
313.935	87.19
314.165	84.19
314.394	84.19
314.624	87.19
314.853	88.19
315.083	96.19
315.312	78.19
315.542	89.19
315.771	104.19
316.001	98.19
316.23	90.19
316.46	89.19
316.689	90.19
316.919	94.19
317.148	98.19
317.377	78.19
317.607	98.19
317.836	105.19
318.065	91.19
318.295	102.19
318.524	99.19
318.753	86.19
318.983	97.19
319.212	98.19
319.441	91.19
319.67	91.19
319.9	94.19
320.129	88.19
320.358	86.19
320.587	90.19
320.816	91.19
321.046	74.19
321.275	86.19
321.504	104.19
321.733	87.19
321.962	81.19
322.191	88.19
322.42	92.19
322.649	103.19
322.878	90.19
323.108	89.19
323.337	82.19
323.566	93.19
323.795	87.19
324.024	89.19
324.253	89.19
324.482	82.19
324.71	95.19
324.939	85.19
325.168	84.19
325.397	83.19
325.626	92.19
325.855	87.19
326.084	86.19
326.313	79.19
326.542	91.19
326.77	87.19
326.999	84.19
327.228	84.19
327.457	94.19
327.686	89.19
327.914	94.19
328.143	90.19
328.372	88.19
328.6	86.19
328.829	77.19
329.058	84.19
329.287	73.19
329.515	86.19
329.744	79.19
329.972	91.19
330.201	95.19
330.43	97.19
330.658	68.19
330.887	100.19
331.115	94.19
331.344	80.19
331.572	94.19
331.801	79.19
332.03	95.19
332.258	93.19
332.486	92.19
332.715	83.19
332.943	88.19
333.172	94.19
333.4	83.19
333.629	83.19
333.857	88.19
334.085	94.19
334.314	95.19
334.542	98.19
334.771	93.19
334.999	103.19
335.227	107.19
335.455	92.19
335.684	107.19
335.912	92.19
336.14	116.19
336.369	109.19
336.597	100.19
336.825	95.19
337.053	92.19
337.281	99.19
337.51	94.19
337.738	105.19
337.966	67.19
338.194	87.19
338.422	90.19
338.65	97.19
338.878	102.19
339.106	87.19
339.334	89.19
339.562	89.19
339.79	104.19
340.018	67.19
340.246	85.19
340.474	93.19
340.702	78.19
340.93	83.19
341.158	85.19
341.386	70.19
341.614	87.19
341.842	83.19
342.07	87.19
342.298	83.19
342.526	84.19
342.754	86.19
342.981	85.19
343.209	91.19
343.437	102.19
343.665	96.19
343.893	101.19
344.12	101.19
344.348	89.19
344.576	91.19
344.804	82.19
345.031	85.19
345.259	99.19
345.487	92.19
345.714	79.19
345.942	91.19
346.17	71.19
346.397	89.19
346.625	90.19
346.853	101.19
347.08	98.19
347.308	95.19
347.535	84.19
347.763	99.19
347.99	73.19
348.218	93.19
348.445	98.19
348.673	89.19
348.9	94.19
349.128	102.19
349.355	92.19
349.583	94.19
349.81	100.19
350.037	87.19
350.265	98.19
350.492	95.19
350.72	89.19
350.947	70.19
351.174	80.19
351.402	93.19
351.629	99.19
351.856	84.19
352.083	77.19
352.311	77.19
352.538	85.19
352.765	97.19
352.992	94.19
353.22	97.19
353.447	80.19
353.674	79.19
353.901	78.19
354.128	91.19
354.355	94.19
354.583	84.19
354.81	79.19
355.037	98.19
355.264	106.19
355.491	78.19
355.718	84.19
355.945	110.19
356.172	105.19
356.399	93.19
356.626	93.19
356.853	105.19
357.08	87.19
357.307	94.19
357.534	83.19
357.761	86.19
357.988	109.19
358.215	113.19
358.441	105.19
358.668	95.19
358.895	90.19
359.122	89.19
359.349	96.19
359.576	103.19
359.802	102.19
360.029	89.19
360.256	83.19
360.483	91.19
360.709	105.19
360.936	104.19
361.163	90.19
361.39	93.19
361.616	94.19
361.843	98.19
362.07	122.19
362.296	121.19
362.523	119.19
362.749	116.19
362.976	138.19
363.203	144.19
363.429	135.19
363.656	115.19
363.882	107.19
364.109	133.19
364.335	161.19
364.562	184.19
364.788	138.19
365.015	104.19
365.241	103.19
365.468	96.19
365.694	95.19
365.92	88.19
366.147	92.19
366.373	87.19
366.599	88.19
366.826	74.19
367.052	79.19
367.278	94.19
367.505	91.19
367.731	101.19
367.957	101.19
368.184	108.19
368.41	86.19
368.636	83.19
368.862	87.19
369.089	97.19
369.315	102.19
369.541	106.19
369.767	78.19
369.993	96.19
370.219	93.19
370.445	119.19
370.672	105.19
370.898	112.19
371.124	96.19
371.35	104.19
371.576	92.19
371.802	88.19
372.028	107.19
372.254	121.19
372.48	90.19
372.706	88.19
372.932	91.19
373.158	110.19
373.384	136.19
373.61	135.19
373.835	135.19
374.061	109.19
374.287	124.19
374.513	110.19
374.739	121.19
374.965	141.19
375.191	109.19
375.416	105.19
375.642	94.19
375.868	97.19
376.094	93.19
376.319	116.19
376.545	94.19
376.771	100.19
376.997	105.19
377.222	95.19
377.448	108.19
377.674	93.19
377.899	79.19
378.125	99.19
378.35	80.19
378.576	97.19
378.802	92.19
379.027	86.19
379.253	101.19
379.478	89.19
379.704	92.19
379.929	106.19
380.155	88.19
380.38	101.19
380.606	87.19
380.831	96.19
381.057	97.19
381.282	104.19
381.507	104.19
381.733	91.19
381.958	97.19
382.184	103.19
382.409	109.19
382.634	113.19
382.86	110.19
383.085	115.19
383.31	110.19
383.535	110.19
383.761	114.19
383.986	105.19
384.211	109.19
384.436	102.19
384.662	101.19
384.887	92.19
385.112	115.19
385.337	97.19
385.562	118.19
385.787	123.19
386.013	122.19
386.238	120.19
386.463	109.19
386.688	122.19
386.913	93.19
387.138	93.19
387.363	101.19
387.588	99.19
387.813	113.19
388.038	108.19
388.263	113.19
388.488	105.19
388.713	117.19
388.938	91.19
389.163	106.19
389.387	94.19
389.612	89.19
389.837	91.19
390.062	102.19
390.287	99.19
390.512	94.19
390.736	91.19
390.961	93.19
391.186	97.19
391.411	84.19
391.636	100.19
391.86	105.19
392.085	105.19
392.31	109.19
392.534	125.19
392.759	151.19
392.984	210.19
393.208	425.19
393.433	639.19
393.658	485.19
393.882	193.19
394.107	146.19
394.331	168.19
394.556	163.19
394.78	147.19
395.005	122.19
395.229	98.19
395.454	121.19
395.678	127.19
395.903	167.19
396.127	229.19
396.352	259.19
396.576	274.19
396.801	422.19
397.025	494.19
397.249	261.19
397.474	155.19
397.698	121.19
397.922	95.19
398.147	91.19
398.371	106.19
398.595	100.19
398.82	106.19
399.044	105.19
399.268	93.19
399.492	91.19
399.717	102.19
399.941	94.19
400.165	100.19
400.389	93.19
400.613	73.19
400.837	106.19
401.062	102.19
401.286	98.19
401.51	105.19
401.734	93.19
401.958	105.19
402.182	100.19
402.406	92.19
402.63	93.19
402.854	94.19
403.078	93.19
403.302	88.19
403.526	104.19
403.75	104.19
403.974	99.19
404.198	104.19
404.422	95.19
404.645	117.19
404.869	113.19
405.093	97.19
405.317	90.19
405.541	93.19
405.765	110.19
405.988	89.19
406.212	83.19
406.436	101.19
406.66	104.19
406.883	99.19
407.107	85.19
407.331	109.19
407.555	105.19
407.778	144.19
408.002	148.19
408.226	99.19
408.449	103.19
408.673	91.19
408.896	105.19
409.12	96.19
409.344	106.19
409.567	101.19
409.791	110.19
410.014	107.19
410.238	92.19
410.461	84.19
410.685	98.19
410.908	94.19
411.132	96.19
411.355	102.19
411.578	115.19
411.802	89.19
412.025	87.19
412.249	94.19
412.472	96.19
412.695	87.19
412.919	95.19
413.142	99.19
413.365	78.19
413.589	85.19
413.812	87.19
414.035	93.19
414.258	101.19
414.482	113.19
414.705	91.19
414.928	98.19
415.151	100.19
415.374	86.19
415.597	90.19
415.821	105.19
416.044	83.19
416.267	100.19
416.49	79.19
416.713	77.19
416.936	92.19
417.159	105.19
417.382	81.19
417.605	92.19
417.828	98.19
418.051	96.19
418.274	78.19
418.497	85.19
418.72	99.19
418.943	96.19
419.166	85.19
419.389	98.19
419.611	96.19
419.834	108.19
420.057	98.19
420.28	73.19
420.503	100.19
420.726	99.19
420.948	101.19
421.171	109.19
421.394	126.19
421.617	150.19
421.839	156.19
422.062	157.19
422.285	223.19
422.507	433.19
422.73	760.19
422.953	664.19
423.175	305.19
423.398	166.19
423.621	121.19
423.843	117.19
424.066	110.19
424.288	105.19
424.511	89.19
424.733	98.19
424.956	104.19
425.178	99.19
425.401	94.19
425.623	89.19
425.846	93.19
426.068	95.19
426.291	101.19
426.513	94.19
426.735	95.19
426.958	92.19
427.18	96.19
427.402	119.19
427.625	104.19
427.847	113.19
428.069	121.19
428.292	157.19
428.514	177.19
428.736	133.19
428.958	171.19
429.181	182.19
429.403	116.19
429.625	110.19
429.847	152.19
430.069	246.19
430.292	286.19
430.514	263.19
430.736	183.19
430.958	205.19
431.18	106.19
431.402	105.19
431.624	121.19
431.846	157.19
432.068	191.19
432.29	111.19
432.512	82.19
432.734	111.19
432.956	101.19
433.178	86.19
433.4	84.19
433.622	94.19
433.844	93.19
434.066	98.19
434.287	90.19
434.509	92.19
434.731	75.19
434.953	95.19
435.175	91.19
435.397	97.19
435.618	98.19
435.84	108.19
436.062	108.19
436.284	89.19
436.505	76.19
436.727	84.19
436.949	87.19
437.17	93.19
437.392	99.19
437.614	95.19
437.835	91.19
438.057	80.19
438.278	87.19
438.5	105.19
438.721	95.19
438.943	82.19
439.165	89.19
439.386	79.19
439.608	92.19
439.829	87.19
440.05	87.19
440.272	92.19
440.493	96.19
440.715	101.19
440.936	91.19
441.158	95.19
441.379	99.19
441.6	86.19
441.822	105.19
442.043	106.19
442.264	115.19
442.486	152.19
442.707	237.19
442.928	157.19
443.149	118.19
443.371	229.19
443.592	400.19
443.813	345.19
444.034	152.19
444.255	103.19
444.476	106.19
444.698	101.19
444.919	99.19
445.14	204.19
445.361	286.19
445.582	466.19
445.803	408.19
446.024	173.19
446.245	106.19
446.466	84.19
446.687	87.19
446.908	92.19
447.129	83.19
447.35	89.19
447.571	76.19
447.792	99.19
448.013	65.19
448.234	82.19
448.455	98.19
448.675	91.19
448.896	87.19
449.117	91.19
449.338	88.19
449.559	91.19
449.779	100.19
450	101.19
450.221	84.19
450.442	89.19
450.662	101.19
450.883	76.19
451.104	77.19
451.324	107.19
451.545	85.19
451.766	94.19
451.986	93.19
452.207	82.19
452.428	111.19
452.648	98.19
452.869	129.19
453.089	96.19
453.31	72.19
453.53	116.19
453.751	97.19
453.971	98.19
454.192	105.19
454.412	93.19
454.633	90.19
454.853	85.19
455.073	94.19
455.294	76.19
455.514	102.19
455.734	92.19
455.955	88.19
456.175	76.19
456.395	99.19
456.616	83.19
456.836	94.19
457.056	91.19
457.276	82.19
457.497	90.19
457.717	92.19
457.937	140.19
458.157	148.19
458.377	134.19
458.598	149.19
458.818	158.19
459.038	106.19
459.258	80.19
459.478	91.19
459.698	82.19
459.918	88.19
460.138	83.19
460.358	101.19
460.578	124.19
460.798	151.19
461.018	145.19
461.238	101.19
461.458	98.19
461.678	97.19
461.898	97.19
462.118	93.19
462.338	97.19
462.558	94.19
462.777	75.19
462.997	82.19
463.217	81.19
463.437	78.19
463.657	87.19
463.876	90.19
464.096	98.19
464.316	83.19
464.536	88.19
464.755	95.19
464.975	88.19
465.195	88.19
465.414	78.19
465.634	83.19
465.854	85.19
466.073	87.19
466.293	96.19
466.512	91.19
466.732	100.19
466.951	74.19
467.171	88.19
467.391	100.19
467.61	86.19
467.829	85.19
468.049	91.19
468.268	86.19
468.488	98.19
468.707	86.19
468.927	95.19
469.146	97.19
469.365	88.19
469.585	92.19
469.804	85.19
470.023	81.19
470.243	92.19
470.462	87.19
470.681	78.19
470.901	93.19
471.12	95.19
471.339	85.19
471.558	81.19
471.777	88.19
471.997	90.19
472.216	96.19
472.435	88.19
472.654	88.19
472.873	83.19
473.092	95.19
473.311	97.19
473.53	78.19
473.749	99.19
473.968	95.19
474.187	87.19
474.406	94.19
474.625	93.19
474.844	95.19
475.063	94.19
475.282	98.19
475.501	88.19
475.72	105.19
475.939	92.19
476.158	95.19
476.377	101.19
476.596	72.19
476.814	92.19
477.033	86.19
477.252	79.19
477.471	89.19
477.69	94.19
477.908	81.19
478.127	103.19
478.346	93.19
478.564	88.19
478.783	86.19
479.002	91.19
479.22	93.19
479.439	98.19
479.658	86.19
479.876	92.19
480.095	105.19
480.313	101.19
480.532	88.19
480.751	88.19
480.969	99.19
481.188	92.19
481.406	100.19
481.624	94.19
481.843	96.19
482.061	100.19
482.28	94.19
482.498	93.19
482.717	95.19
482.935	92.19
483.153	90.19
483.372	111.19
483.59	101.19
483.808	98.19
484.027	92.19
484.245	111.19
484.463	92.19
484.681	106.19
484.9	83.19
485.118	93.19
485.336	77.19
485.554	94.19
485.772	104.19
485.99	92.19
486.209	87.19
486.427	97.19
486.645	93.19
486.863	85.19
487.081	98.19
487.299	101.19
487.517	106.19
487.735	137.19
487.953	234.19
488.171	177.19
488.389	119.19
488.607	91.19
488.825	98.19
489.043	99.19
489.261	88.19
489.479	100.19
489.696	90.19
489.914	90.19
490.132	86.19
490.35	108.19
490.568	89.19
490.786	106.19
491.003	93.19
491.221	97.19
491.439	100.19
491.657	111.19
491.874	95.19
492.092	82.19
492.31	114.19
492.527	103.19
492.745	93.19
492.963	105.19
493.18	89.19
493.398	102.19
493.615	93.19
493.833	87.19
494.05	86.19
494.268	89.19
494.485	91.19
494.703	97.19
494.92	98.19
495.138	99.19
495.355	80.19
495.573	96.19
495.79	109.19
496.008	107.19
496.225	99.19
496.442	79.19
496.66	103.19
496.877	104.19
497.094	85.19
497.312	99.19
497.529	98.19
497.746	84.19
497.963	92.19
498.181	110.19
498.398	140.19
498.615	84.19
498.832	88.19
499.049	94.19
499.267	129.19
499.484	86.19
499.701	96.19
499.918	110.19
500.135	116.19
500.352	97.19
500.569	84.19
500.786	108.19
501.003	111.19
501.22	95.19
501.437	94.19
501.654	127.19
501.871	95.19
502.088	92.19
502.305	97.19
502.522	103.19
502.739	89.19
502.956	94.19
503.172	99.19
503.389	89.19
503.606	89.19
503.823	118.19
504.04	118.19
504.256	158.19
504.473	160.19
504.69	94.19
504.907	103.19
505.123	93.19
505.34	87.19
505.557	86.19
505.773	95.19
505.99	90.19
506.207	94.19
506.423	84.19
506.64	104.19
506.856	98.19
507.073	89.19
507.289	85.19
507.506	92.19
507.722	97.19
507.939	91.19
508.155	88.19
508.372	98.19
508.588	77.19
508.805	89.19
509.021	99.19
509.238	99.19
509.454	94.19
509.67	86.19
509.887	92.19
510.103	107.19
510.319	94.19
510.536	94.19
510.752	88.19
510.968	94.19
511.184	82.19
511.401	94.19
511.617	105.19
511.833	77.19
512.049	100.19
512.265	94.19
512.481	86.19
512.698	95.19
512.914	102.19
513.13	92.19
513.346	96.19
513.562	101.19
513.778	104.19
513.994	95.19
514.21	111.19
514.426	102.19
514.642	98.19
514.858	101.19
515.074	93.19
515.29	89.19
515.506	96.19
