Data from 15780_2_HRD10591_00043.txt Node
Date: Mon Jan 19 14:19:25 EST 2026
User: Yrep
Spectrometer: HR+D1059
Trigger mode: 1
Integration Time (sec): 1.000000E-1
Scans to average: 1
Electric dark correction enabled: true
Nonlinearity correction enabled: false
Boxcar width: 0
XAxis mode: Wavelengths
Number of Pixels in Spectrum: 2048
>>>>>Begin Spectral Data<<<<<
223.165	-11.25
223.4	-11.25
223.635	-11.25
223.869	-21.25
224.104	-22.25
224.338	-10.25
224.573	-15.25
224.808	0.75
225.042	-9.25
225.277	-10.25
225.511	-5.25
225.746	-10.25
225.98	11.75
226.215	14.75
226.449	11.75
226.683	22.75
226.918	14.75
227.152	38.75
227.387	41.75
227.621	35.75
227.856	55.75
228.09	54.75
228.324	39.75
228.559	60.75
228.793	58.75
229.027	49.75
229.262	63.75
229.496	59.75
229.73	78.75
229.964	64.75
230.199	60.75
230.433	67.75
230.667	80.75
230.901	62.75
231.136	69.75
231.37	79.75
231.604	82.75
231.838	81.75
232.072	73.75
232.306	73.75
232.541	86.75
232.775	80.75
233.009	76.75
233.243	78.75
233.477	67.75
233.711	84.75
233.945	74.75
234.179	80.75
234.413	74.75
234.647	77.75
234.881	81.75
235.115	69.75
235.349	93.75
235.583	75.75
235.817	72.75
236.051	84.75
236.285	73.75
236.519	89.75
236.753	73.75
236.987	78.75
237.221	68.75
237.455	83.75
237.689	60.75
237.922	67.75
238.156	65.75
238.39	90.75
238.624	78.75
238.858	83.75
239.091	76.75
239.325	70.75
239.559	70.75
239.793	77.75
240.027	82.75
240.26	70.75
240.494	64.75
240.728	64.75
240.961	65.75
241.195	87.75
241.429	64.75
241.662	78.75
241.896	71.75
242.13	82.75
242.363	60.75
242.597	71.75
242.83	81.75
243.064	68.75
243.298	69.75
243.531	66.75
243.765	82.75
243.998	75.75
244.232	74.75
244.465	84.75
244.699	84.75
244.932	82.75
245.166	67.75
245.399	73.75
245.633	80.75
245.866	77.75
246.099	80.75
246.333	80.75
246.566	69.75
246.8	75.75
247.033	65.75
247.266	83.75
247.5	76.75
247.733	90.75
247.966	82.75
248.2	83.75
248.433	73.75
248.666	75.75
248.899	84.75
249.133	72.75
249.366	75.75
249.599	84.75
249.832	80.75
250.066	70.75
250.299	75.75
250.532	66.75
250.765	83.75
250.998	92.75
251.231	82.75
251.465	72.75
251.698	93.75
251.931	81.75
252.164	72.75
252.397	81.75
252.63	69.75
252.863	84.75
253.096	74.75
253.329	77.75
253.562	75.75
253.795	86.75
254.028	77.75
254.261	70.75
254.494	62.75
254.727	77.75
254.96	80.75
255.193	74.75
255.426	69.75
255.659	89.75
255.892	78.75
256.124	68.75
256.357	67.75
256.59	59.75
256.823	76.75
257.056	73.75
257.289	65.75
257.521	79.75
257.754	78.75
257.987	82.75
258.22	88.75
258.452	87.75
258.685	82.75
258.918	63.75
259.151	77.75
259.383	76.75
259.616	74.75
259.849	75.75
260.081	82.75
260.314	71.75
260.547	80.75
260.779	78.75
261.012	80.75
261.244	66.75
261.477	74.75
261.71	70.75
261.942	72.75
262.175	83.75
262.407	78.75
262.64	71.75
262.872	74.75
263.105	73.75
263.337	97.75
263.57	76.75
263.802	90.75
264.035	81.75
264.267	79.75
264.499	88.75
264.732	88.75
264.964	77.75
265.197	70.75
265.429	90.75
265.661	80.75
265.894	79.75
266.126	85.75
266.358	78.75
266.591	69.75
266.823	80.75
267.055	78.75
267.287	81.75
267.52	84.75
267.752	77.75
267.984	86.75
268.216	86.75
268.448	69.75
268.681	72.75
268.913	90.75
269.145	62.75
269.377	86.75
269.609	78.75
269.841	105.75
270.073	85.75
270.306	84.75
270.538	81.75
270.77	73.75
271.002	80.75
271.234	82.75
271.466	72.75
271.698	73.75
271.93	84.75
272.162	76.75
272.394	85.75
272.626	78.75
272.858	90.75
273.09	82.75
273.322	70.75
273.553	75.75
273.785	90.75
274.017	66.75
274.249	87.75
274.481	84.75
274.713	64.75
274.945	79.75
275.176	79.75
275.408	74.75
275.64	86.75
275.872	80.75
276.104	73.75
276.335	91.75
276.567	70.75
276.799	85.75
277.031	84.75
277.262	94.75
277.494	66.75
277.726	79.75
277.957	88.75
278.189	78.75
278.421	88.75
278.652	75.75
278.884	72.75
279.115	75.75
279.347	84.75
279.579	76.75
279.81	85.75
280.042	84.75
280.273	84.75
280.505	90.75
280.736	87.75
280.968	93.75
281.199	81.75
281.431	86.75
281.662	84.75
281.894	78.75
282.125	69.75
282.356	70.75
282.588	77.75
282.819	76.75
283.051	96.75
283.282	87.75
283.513	88.75
283.745	80.75
283.976	72.75
284.207	80.75
284.439	94.75
284.67	79.75
284.901	96.75
285.132	87.75
285.364	80.75
285.595	70.75
285.826	85.75
286.057	75.75
286.288	90.75
286.52	74.75
286.751	82.75
286.982	80.75
287.213	78.75
287.444	75.75
287.675	89.75
287.906	99.75
288.138	80.75
288.369	81.75
288.6	70.75
288.831	65.75
289.062	88.75
289.293	85.75
289.524	83.75
289.755	76.75
289.986	86.75
290.217	73.75
290.448	81.75
290.679	90.75
290.91	84.75
291.141	60.75
291.371	82.75
291.602	82.75
291.833	84.75
292.064	73.75
292.295	74.75
292.526	79.75
292.757	88.75
292.987	86.75
293.218	77.75
293.449	75.75
293.68	75.75
293.91	68.75
294.141	101.75
294.372	93.75
294.603	66.75
294.833	80.75
295.064	79.75
295.295	85.75
295.525	77.75
295.756	90.75
295.987	90.75
296.217	88.75
296.448	104.75
296.679	73.75
296.909	88.75
297.14	73.75
297.37	92.75
297.601	76.75
297.831	79.75
298.062	80.75
298.292	85.75
298.523	86.75
298.753	65.75
298.984	72.75
299.214	80.75
299.445	90.75
299.675	99.75
299.905	88.75
300.136	82.75
300.366	66.75
300.597	80.75
300.827	86.75
301.057	79.75
301.288	86.75
301.518	83.75
301.748	87.75
301.979	89.75
302.209	89.75
302.439	92.75
302.669	88.75
302.9	68.75
303.13	83.75
303.36	76.75
303.59	80.75
303.82	85.75
304.051	94.75
304.281	73.75
304.511	96.75
304.741	86.75
304.971	76.75
305.201	84.75
305.431	79.75
305.661	83.75
305.891	80.75
306.121	67.75
306.352	72.75
306.582	84.75
306.812	82.75
307.042	80.75
307.272	73.75
307.502	89.75
307.731	74.75
307.961	87.75
308.191	82.75
308.421	86.75
308.651	96.75
308.881	79.75
309.111	79.75
309.341	87.75
309.571	74.75
309.8	78.75
310.03	82.75
310.26	77.75
310.49	87.75
310.72	76.75
310.949	84.75
311.179	75.75
311.409	62.75
311.639	77.75
311.868	78.75
312.098	93.75
312.328	84.75
312.557	94.75
312.787	84.75
313.017	82.75
313.246	78.75
313.476	76.75
313.706	78.75
313.935	84.75
314.165	77.75
314.394	78.75
314.624	72.75
314.853	95.75
315.083	80.75
315.312	72.75
315.542	83.75
315.771	84.75
316.001	75.75
316.23	84.75
316.46	85.75
316.689	74.75
316.919	74.75
317.148	86.75
317.377	88.75
317.607	94.75
317.836	87.75
318.065	68.75
318.295	90.75
318.524	80.75
318.753	80.75
318.983	84.75
319.212	82.75
319.441	81.75
319.67	76.75
319.9	90.75
320.129	82.75
320.358	73.75
320.587	88.75
320.816	80.75
321.046	82.75
321.275	79.75
321.504	97.75
321.733	84.75
321.962	84.75
322.191	68.75
322.42	90.75
322.649	81.75
322.878	85.75
323.108	83.75
323.337	86.75
323.566	86.75
323.795	71.75
324.024	80.75
324.253	82.75
324.482	76.75
324.71	82.75
324.939	81.75
325.168	84.75
325.397	62.75
325.626	85.75
325.855	88.75
326.084	94.75
326.313	79.75
326.542	86.75
326.77	86.75
326.999	70.75
327.228	73.75
327.457	79.75
327.686	87.75
327.914	85.75
328.143	66.75
328.372	83.75
328.6	87.75
328.829	86.75
329.058	82.75
329.287	71.75
329.515	78.75
329.744	76.75
329.972	75.75
330.201	83.75
330.43	70.75
330.658	84.75
330.887	76.75
331.115	84.75
331.344	93.75
331.572	92.75
331.801	88.75
332.03	57.75
332.258	78.75
332.486	86.75
332.715	73.75
332.943	89.75
333.172	77.75
333.4	84.75
333.629	84.75
333.857	81.75
334.085	80.75
334.314	68.75
334.542	81.75
334.771	92.75
334.999	69.75
335.227	75.75
335.455	73.75
335.684	82.75
335.912	86.75
336.14	79.75
336.369	78.75
336.597	66.75
336.825	83.75
337.053	89.75
337.281	96.75
337.51	76.75
337.738	85.75
337.966	77.75
338.194	77.75
338.422	87.75
338.65	86.75
338.878	77.75
339.106	81.75
339.334	82.75
339.562	77.75
339.79	75.75
340.018	86.75
340.246	74.75
340.474	83.75
340.702	74.75
340.93	80.75
341.158	86.75
341.386	89.75
341.614	86.75
341.842	85.75
342.07	66.75
342.298	76.75
342.526	87.75
342.754	71.75
342.981	86.75
343.209	74.75
343.437	86.75
343.665	72.75
343.893	82.75
344.12	90.75
344.348	81.75
344.576	73.75
344.804	63.75
345.031	93.75
345.259	83.75
345.487	89.75
345.714	67.75
345.942	86.75
346.17	82.75
346.397	75.75
346.625	75.75
346.853	73.75
347.08	68.75
347.308	83.75
347.535	78.75
347.763	68.75
347.99	68.75
348.218	76.75
348.445	80.75
348.673	72.75
348.9	71.75
349.128	75.75
349.355	80.75
349.583	74.75
349.81	86.75
350.037	84.75
350.265	84.75
350.492	96.75
350.72	68.75
350.947	81.75
351.174	70.75
351.402	71.75
351.629	78.75
351.856	84.75
352.083	80.75
352.311	78.75
352.538	82.75
352.765	81.75
352.992	85.75
353.22	80.75
353.447	89.75
353.674	83.75
353.901	100.75
354.128	75.75
354.355	81.75
354.583	85.75
354.81	78.75
355.037	91.75
355.264	62.75
355.491	84.75
355.718	81.75
355.945	92.75
356.172	83.75
356.399	79.75
356.626	85.75
356.853	78.75
357.08	93.75
357.307	94.75
357.534	77.75
357.761	82.75
357.988	89.75
358.215	80.75
358.441	78.75
358.668	82.75
358.895	73.75
359.122	82.75
359.349	68.75
359.576	90.75
359.802	94.75
360.029	93.75
360.256	78.75
360.483	72.75
360.709	80.75
360.936	99.75
361.163	80.75
361.39	74.75
361.616	80.75
361.843	81.75
362.07	86.75
362.296	80.75
362.523	80.75
362.749	89.75
362.976	66.75
363.203	88.75
363.429	67.75
363.656	77.75
363.882	75.75
364.109	86.75
364.335	96.75
364.562	99.75
364.788	93.75
365.015	92.75
365.241	77.75
365.468	79.75
365.694	66.75
365.92	79.75
366.147	81.75
366.373	95.75
366.599	83.75
366.826	88.75
367.052	84.75
367.278	93.75
367.505	68.75
367.731	78.75
367.957	85.75
368.184	87.75
368.41	75.75
368.636	85.75
368.862	74.75
369.089	86.75
369.315	82.75
369.541	90.75
369.767	83.75
369.993	69.75
370.219	76.75
370.445	86.75
370.672	83.75
370.898	86.75
371.124	86.75
371.35	76.75
371.576	71.75
371.802	64.75
372.028	95.75
372.254	77.75
372.48	86.75
372.706	81.75
372.932	71.75
373.158	68.75
373.384	78.75
373.61	76.75
373.835	84.75
374.061	73.75
374.287	74.75
374.513	80.75
374.739	84.75
374.965	90.75
375.191	87.75
375.416	80.75
375.642	73.75
375.868	75.75
376.094	88.75
376.319	79.75
376.545	103.75
376.771	79.75
376.997	70.75
377.222	86.75
377.448	69.75
377.674	79.75
377.899	82.75
378.125	74.75
378.35	95.75
378.576	86.75
378.802	64.75
379.027	78.75
379.253	78.75
379.478	80.75
379.704	88.75
379.929	78.75
380.155	84.75
380.38	69.75
380.606	84.75
380.831	65.75
381.057	85.75
381.282	74.75
381.507	89.75
381.733	85.75
381.958	88.75
382.184	76.75
382.409	79.75
382.634	84.75
382.86	82.75
383.085	101.75
383.31	84.75
383.535	89.75
383.761	84.75
383.986	77.75
384.211	80.75
384.436	60.75
384.662	91.75
384.887	80.75
385.112	72.75
385.337	74.75
385.562	65.75
385.787	66.75
386.013	73.75
386.238	68.75
386.463	78.75
386.688	88.75
386.913	88.75
387.138	79.75
387.363	92.75
387.588	94.75
387.813	81.75
388.038	86.75
388.263	74.75
388.488	85.75
388.713	93.75
388.938	91.75
389.163	73.75
389.387	68.75
389.612	72.75
389.837	80.75
390.062	69.75
390.287	55.75
390.512	84.75
390.736	86.75
390.961	80.75
391.186	100.75
391.411	73.75
391.636	82.75
391.86	79.75
392.085	88.75
392.31	83.75
392.534	80.75
392.759	89.75
392.984	95.75
393.208	159.75
393.433	195.75
393.658	167.75
393.882	96.75
394.107	85.75
394.331	86.75
394.556	102.75
394.78	85.75
395.005	74.75
395.229	91.75
395.454	83.75
395.678	87.75
395.903	87.75
396.127	93.75
396.352	116.75
396.576	105.75
396.801	174.75
397.025	192.75
397.249	124.75
397.474	102.75
397.698	100.75
397.922	82.75
398.147	80.75
398.371	83.75
398.595	70.75
398.82	76.75
399.044	95.75
399.268	85.75
399.492	78.75
399.717	79.75
399.941	78.75
400.165	68.75
400.389	78.75
400.613	60.75
400.837	84.75
401.062	83.75
401.286	71.75
401.51	78.75
401.734	74.75
401.958	82.75
402.182	77.75
402.406	58.75
402.63	74.75
402.854	85.75
403.078	74.75
403.302	75.75
403.526	70.75
403.75	86.75
403.974	81.75
404.198	78.75
404.422	83.75
404.645	94.75
404.869	88.75
405.093	76.75
405.317	74.75
405.541	84.75
405.765	73.75
405.988	83.75
406.212	86.75
406.436	69.75
406.66	86.75
406.883	79.75
407.107	60.75
407.331	86.75
407.555	95.75
407.778	84.75
408.002	84.75
408.226	89.75
408.449	68.75
408.673	76.75
408.896	79.75
409.12	92.75
409.344	82.75
409.567	73.75
409.791	68.75
410.014	92.75
410.238	84.75
410.461	80.75
410.685	97.75
410.908	80.75
411.132	82.75
411.355	79.75
411.578	89.75
411.802	65.75
412.025	74.75
412.249	82.75
412.472	65.75
412.695	68.75
412.919	68.75
413.142	70.75
413.365	86.75
413.589	71.75
413.812	76.75
414.035	63.75
414.258	54.75
414.482	67.75
414.705	68.75
414.928	70.75
415.151	73.75
415.374	84.75
415.597	83.75
415.821	78.75
416.044	81.75
416.267	72.75
416.49	81.75
416.713	78.75
416.936	72.75
417.159	86.75
417.382	70.75
417.605	77.75
417.828	86.75
418.051	70.75
418.274	73.75
418.497	83.75
418.72	68.75
418.943	82.75
419.166	89.75
419.389	81.75
419.611	83.75
419.834	66.75
420.057	75.75
420.28	88.75
420.503	87.75
420.726	90.75
420.948	64.75
421.171	74.75
421.394	87.75
421.617	100.75
421.839	72.75
422.062	84.75
422.285	99.75
422.507	157.75
422.73	227.75
422.953	203.75
423.175	98.75
423.398	91.75
423.621	84.75
423.843	78.75
424.066	74.75
424.288	80.75
424.511	82.75
424.733	84.75
424.956	84.75
425.178	83.75
425.401	86.75
425.623	81.75
425.846	86.75
426.068	81.75
426.291	80.75
426.513	72.75
426.735	71.75
426.958	77.75
427.18	81.75
427.402	81.75
427.625	82.75
427.847	77.75
428.069	80.75
428.292	96.75
428.514	81.75
428.736	84.75
428.958	89.75
429.181	97.75
429.403	76.75
429.625	74.75
429.847	96.75
430.069	105.75
430.292	109.75
430.514	102.75
430.736	88.75
430.958	81.75
431.18	84.75
431.402	92.75
431.624	88.75
431.846	93.75
432.068	82.75
432.29	89.75
432.512	88.75
432.734	92.75
432.956	78.75
433.178	79.75
433.4	91.75
433.622	70.75
433.844	85.75
434.066	81.75
434.287	72.75
434.509	84.75
434.731	72.75
434.953	96.75
435.175	82.75
435.397	78.75
435.618	70.75
435.84	86.75
436.062	73.75
436.284	80.75
436.505	72.75
436.727	83.75
436.949	75.75
437.17	61.75
437.392	86.75
437.614	78.75
437.835	84.75
438.057	82.75
438.278	81.75
438.5	87.75
438.721	80.75
438.943	80.75
439.165	68.75
439.386	73.75
439.608	83.75
439.829	79.75
440.05	88.75
440.272	93.75
440.493	74.75
440.715	77.75
440.936	86.75
441.158	86.75
441.379	71.75
441.6	88.75
441.822	71.75
442.043	74.75
442.264	87.75
442.486	78.75
442.707	90.75
442.928	95.75
443.149	88.75
443.371	108.75
443.592	118.75
443.813	99.75
444.034	88.75
444.255	78.75
444.476	92.75
444.698	72.75
444.919	84.75
445.14	184.75
445.361	133.75
445.582	128.75
445.803	112.75
446.024	89.75
446.245	82.75
446.466	84.75
446.687	90.75
446.908	90.75
447.129	90.75
447.35	73.75
447.571	74.75
447.792	82.75
448.013	71.75
448.234	78.75
448.455	79.75
448.675	64.75
448.896	74.75
449.117	73.75
449.338	63.75
449.559	68.75
449.779	62.75
450	69.75
450.221	80.75
450.442	75.75
450.662	82.75
450.883	89.75
451.104	78.75
451.324	78.75
451.545	77.75
451.766	86.75
451.986	60.75
452.207	73.75
452.428	84.75
452.648	85.75
452.869	72.75
453.089	94.75
453.31	81.75
453.53	89.75
453.751	71.75
453.971	76.75
454.192	77.75
454.412	82.75
454.633	70.75
454.853	74.75
455.073	76.75
455.294	83.75
455.514	78.75
455.734	73.75
455.955	86.75
456.175	73.75
456.395	75.75
456.616	78.75
456.836	85.75
457.056	84.75
457.276	71.75
457.497	86.75
457.717	72.75
457.937	81.75
458.157	81.75
458.377	74.75
458.598	77.75
458.818	84.75
459.038	106.75
459.258	80.75
459.478	84.75
459.698	72.75
459.918	89.75
460.138	81.75
460.358	76.75
460.578	80.75
460.798	88.75
461.018	94.75
461.238	84.75
461.458	84.75
461.678	59.75
461.898	84.75
462.118	78.75
462.338	77.75
462.558	79.75
462.777	78.75
462.997	71.75
463.217	70.75
463.437	82.75
463.657	80.75
463.876	89.75
464.096	71.75
464.316	82.75
464.536	80.75
464.755	84.75
464.975	74.75
465.195	70.75
465.414	83.75
465.634	74.75
465.854	84.75
466.073	85.75
466.293	70.75
466.512	75.75
466.732	87.75
466.951	79.75
467.171	85.75
467.391	80.75
467.61	89.75
467.829	84.75
468.049	77.75
468.268	78.75
468.488	87.75
468.707	84.75
468.927	81.75
469.146	78.75
469.365	69.75
469.585	80.75
469.804	94.75
470.023	66.75
470.243	82.75
470.462	68.75
470.681	87.75
470.901	76.75
471.12	77.75
471.339	94.75
471.558	82.75
471.777	74.75
471.997	82.75
472.216	72.75
472.435	90.75
472.654	66.75
472.873	80.75
473.092	64.75
473.311	94.75
473.53	72.75
473.749	76.75
473.968	80.75
474.187	75.75
474.406	78.75
474.625	90.75
474.844	78.75
475.063	78.75
475.282	74.75
475.501	70.75
475.72	82.75
475.939	81.75
476.158	78.75
476.377	72.75
476.596	83.75
476.814	58.75
477.033	68.75
477.252	71.75
477.471	75.75
477.69	81.75
477.908	76.75
478.127	74.75
478.346	92.75
478.564	86.75
478.783	72.75
479.002	84.75
479.22	80.75
479.439	78.75
479.658	67.75
479.876	72.75
480.095	75.75
480.313	86.75
480.532	92.75
480.751	76.75
480.969	77.75
481.188	72.75
481.406	72.75
481.624	87.75
481.843	68.75
482.061	78.75
482.28	91.75
482.498	72.75
482.717	80.75
482.935	85.75
483.153	90.75
483.372	79.75
483.59	80.75
483.808	72.75
484.027	92.75
484.245	67.75
484.463	86.75
484.681	88.75
484.9	80.75
485.118	75.75
485.336	76.75
485.554	83.75
485.772	94.75
485.99	88.75
486.209	90.75
486.427	78.75
486.645	70.75
486.863	88.75
487.081	93.75
487.299	82.75
487.517	83.75
487.735	86.75
487.953	95.75
488.171	84.75
488.389	82.75
488.607	78.75
488.825	73.75
489.043	78.75
489.261	78.75
489.479	88.75
489.696	78.75
489.914	80.75
490.132	66.75
490.35	72.75
490.568	82.75
490.786	82.75
491.003	83.75
491.221	84.75
491.439	75.75
491.657	81.75
491.874	71.75
492.092	82.75
492.31	73.75
492.527	93.75
492.745	81.75
492.963	89.75
493.18	72.75
493.398	55.75
493.615	78.75
493.833	82.75
494.05	79.75
494.268	78.75
494.485	72.75
494.703	80.75
494.92	73.75
495.138	84.75
495.355	91.75
495.573	78.75
495.79	74.75
496.008	75.75
496.225	80.75
496.442	74.75
496.66	74.75
496.877	93.75
497.094	84.75
497.312	86.75
497.529	84.75
497.746	74.75
497.963	76.75
498.181	88.75
498.398	90.75
498.615	80.75
498.832	77.75
499.049	71.75
499.267	78.75
499.484	67.75
499.701	72.75
499.918	67.75
500.135	90.75
500.352	86.75
500.569	79.75
500.786	80.75
501.003	78.75
501.22	85.75
501.437	86.75
501.654	76.75
501.871	74.75
502.088	85.75
502.305	82.75
502.522	74.75
502.739	84.75
502.956	80.75
503.172	80.75
503.389	82.75
503.606	78.75
503.823	72.75
504.04	87.75
504.256	91.75
504.473	99.75
504.69	75.75
504.907	82.75
505.123	97.75
505.34	78.75
505.557	84.75
505.773	78.75
505.99	72.75
506.207	80.75
506.423	81.75
506.64	81.75
506.856	85.75
507.073	80.75
507.289	73.75
507.506	80.75
507.722	70.75
507.939	78.75
508.155	86.75
508.372	66.75
508.588	76.75
508.805	74.75
509.021	84.75
509.238	88.75
509.454	79.75
509.67	87.75
509.887	87.75
510.103	79.75
510.319	86.75
510.536	88.75
510.752	82.75
510.968	77.75
511.184	62.75
511.401	76.75
511.617	78.75
511.833	86.75
512.049	77.75
512.265	83.75
512.481	77.75
512.698	81.75
512.914	84.75
513.13	84.75
513.346	86.75
513.562	88.75
513.778	78.75
513.994	78.75
514.21	85.75
514.426	77.75
514.642	88.75
514.858	94.75
515.074	72.75
515.29	93.75
515.506	78.75
515.721	78.75
515.937	86.75
516.153	84.75
516.369	85.75
516.585	87.75
516.801	75.75
517.016	88.75
517.232	74.75
517.448	92.75
517.664	82.75
517.879	82.75
518.095	88.75
518.311	94.75
518.527	87.75
518.742	79.75
518.958	99.75
519.173	105.75
519.389	79.75
519.605	88.75
519.82	83.75
