Data from 15780_2_HRD10591_00004.txt Node
Date: Mon Jan 19 14:19:05 EST 2026
User: Yrep
Spectrometer: HR+D1059
Trigger mode: 1
Integration Time (sec): 1.000000E-1
Scans to average: 1
Electric dark correction enabled: true
Nonlinearity correction enabled: false
Boxcar width: 0
XAxis mode: Wavelengths
Number of Pixels in Spectrum: 2048
>>>>>Begin Spectral Data<<<<<
223.165	-23.75
223.4	-23.75
223.635	-23.75
223.869	-20.75
224.104	-16.75
224.338	-14.75
224.573	-18.75
224.808	-12.75
225.042	-3.75
225.277	-4.75
225.511	-3.75
225.746	7.25
225.98	10.25
226.215	1.25
226.449	19.25
226.683	31.25
226.918	27.25
227.152	23.25
227.387	30.25
227.621	46.25
227.856	40.25
228.09	39.25
228.324	51.25
228.559	58.25
228.793	62.25
229.027	61.25
229.262	65.25
229.496	68.25
229.73	68.25
229.964	72.25
230.199	59.25
230.433	77.25
230.667	81.25
230.901	85.25
231.136	65.25
231.37	64.25
231.604	90.25
231.838	77.25
232.072	78.25
232.306	67.25
232.541	89.25
232.775	75.25
233.009	78.25
233.243	87.25
233.477	100.25
233.711	64.25
233.945	76.25
234.179	93.25
234.413	86.25
234.647	83.25
234.881	77.25
235.115	75.25
235.349	84.25
235.583	82.25
235.817	86.25
236.051	79.25
236.285	72.25
236.519	71.25
236.753	87.25
236.987	81.25
237.221	78.25
237.455	85.25
237.689	82.25
237.922	84.25
238.156	71.25
238.39	76.25
238.624	76.25
238.858	84.25
239.091	70.25
239.325	70.25
239.559	78.25
239.793	68.25
240.027	79.25
240.26	77.25
240.494	72.25
240.728	71.25
240.961	80.25
241.195	79.25
241.429	71.25
241.662	74.25
241.896	76.25
242.13	69.25
242.363	77.25
242.597	90.25
242.83	71.25
243.064	65.25
243.298	84.25
243.531	65.25
243.765	72.25
243.998	83.25
244.232	76.25
244.465	72.25
244.699	70.25
244.932	88.25
245.166	66.25
245.399	76.25
245.633	73.25
245.866	60.25
246.099	79.25
246.333	84.25
246.566	70.25
246.8	83.25
247.033	79.25
247.266	78.25
247.5	89.25
247.733	79.25
247.966	76.25
248.2	78.25
248.433	68.25
248.666	70.25
248.899	90.25
249.133	83.25
249.366	72.25
249.599	73.25
249.832	76.25
250.066	78.25
250.299	90.25
250.532	76.25
250.765	87.25
250.998	76.25
251.231	77.25
251.465	76.25
251.698	78.25
251.931	90.25
252.164	77.25
252.397	90.25
252.63	86.25
252.863	87.25
253.096	73.25
253.329	91.25
253.562	69.25
253.795	67.25
254.028	88.25
254.261	71.25
254.494	79.25
254.727	90.25
254.96	73.25
255.193	67.25
255.426	73.25
255.659	68.25
255.892	75.25
256.124	79.25
256.357	94.25
256.59	65.25
256.823	86.25
257.056	81.25
257.289	71.25
257.521	89.25
257.754	68.25
257.987	85.25
258.22	79.25
258.452	83.25
258.685	75.25
258.918	95.25
259.151	85.25
259.383	90.25
259.616	86.25
259.849	80.25
260.081	82.25
260.314	81.25
260.547	73.25
260.779	74.25
261.012	92.25
261.244	84.25
261.477	84.25
261.71	90.25
261.942	75.25
262.175	81.25
262.407	73.25
262.64	88.25
262.872	78.25
263.105	79.25
263.337	77.25
263.57	88.25
263.802	92.25
264.035	88.25
264.267	80.25
264.499	87.25
264.732	83.25
264.964	77.25
265.197	80.25
265.429	77.25
265.661	76.25
265.894	77.25
266.126	83.25
266.358	76.25
266.591	89.25
266.823	80.25
267.055	73.25
267.287	90.25
267.52	93.25
267.752	90.25
267.984	90.25
268.216	83.25
268.448	85.25
268.681	82.25
268.913	70.25
269.145	73.25
269.377	75.25
269.609	75.25
269.841	75.25
270.073	89.25
270.306	76.25
270.538	84.25
270.77	71.25
271.002	90.25
271.234	75.25
271.466	73.25
271.698	76.25
271.93	88.25
272.162	84.25
272.394	91.25
272.626	76.25
272.858	77.25
273.09	90.25
273.322	87.25
273.553	83.25
273.785	82.25
274.017	72.25
274.249	82.25
274.481	85.25
274.713	76.25
274.945	87.25
275.176	90.25
275.408	97.25
275.64	79.25
275.872	78.25
276.104	85.25
276.335	81.25
276.567	77.25
276.799	62.25
277.031	80.25
277.262	77.25
277.494	97.25
277.726	101.25
277.957	79.25
278.189	92.25
278.421	76.25
278.652	68.25
278.884	81.25
279.115	95.25
279.347	80.25
279.579	86.25
279.81	102.25
280.042	75.25
280.273	80.25
280.505	79.25
280.736	91.25
280.968	78.25
281.199	88.25
281.431	89.25
281.662	87.25
281.894	102.25
282.125	86.25
282.356	82.25
282.588	78.25
282.819	75.25
283.051	87.25
283.282	78.25
283.513	85.25
283.745	88.25
283.976	90.25
284.207	79.25
284.439	79.25
284.67	89.25
284.901	89.25
285.132	89.25
285.364	102.25
285.595	89.25
285.826	99.25
286.057	81.25
286.288	93.25
286.52	88.25
286.751	76.25
286.982	70.25
287.213	77.25
287.444	68.25
287.675	89.25
287.906	93.25
288.138	86.25
288.369	83.25
288.6	102.25
288.831	77.25
289.062	86.25
289.293	85.25
289.524	99.25
289.755	91.25
289.986	75.25
290.217	80.25
290.448	84.25
290.679	90.25
290.91	91.25
291.141	89.25
291.371	97.25
291.602	92.25
291.833	82.25
292.064	99.25
292.295	98.25
292.526	84.25
292.757	88.25
292.987	84.25
293.218	79.25
293.449	82.25
293.68	73.25
293.91	81.25
294.141	89.25
294.372	95.25
294.603	88.25
294.833	100.25
295.064	84.25
295.295	72.25
295.525	78.25
295.756	90.25
295.987	98.25
296.217	83.25
296.448	83.25
296.679	79.25
296.909	77.25
297.14	86.25
297.37	98.25
297.601	90.25
297.831	80.25
298.062	94.25
298.292	84.25
298.523	95.25
298.753	92.25
298.984	94.25
299.214	78.25
299.445	85.25
299.675	74.25
299.905	93.25
300.136	80.25
300.366	81.25
300.597	100.25
300.827	95.25
301.057	82.25
301.288	96.25
301.518	76.25
301.748	88.25
301.979	102.25
302.209	85.25
302.439	91.25
302.669	93.25
302.9	80.25
303.13	87.25
303.36	87.25
303.59	77.25
303.82	82.25
304.051	97.25
304.281	84.25
304.511	104.25
304.741	86.25
304.971	85.25
305.201	85.25
305.431	88.25
305.661	84.25
305.891	89.25
306.121	78.25
306.352	88.25
306.582	84.25
306.812	89.25
307.042	87.25
307.272	99.25
307.502	86.25
307.731	90.25
307.961	89.25
308.191	98.25
308.421	87.25
308.651	90.25
308.881	93.25
309.111	82.25
309.341	91.25
309.571	101.25
309.8	88.25
310.03	88.25
310.26	86.25
310.49	86.25
310.72	81.25
310.949	80.25
311.179	82.25
311.409	80.25
311.639	83.25
311.868	86.25
312.098	95.25
312.328	88.25
312.557	103.25
312.787	103.25
313.017	100.25
313.246	92.25
313.476	96.25
313.706	96.25
313.935	85.25
314.165	91.25
314.394	88.25
314.624	89.25
314.853	80.25
315.083	89.25
315.312	83.25
315.542	85.25
315.771	83.25
316.001	77.25
316.23	82.25
316.46	78.25
316.689	77.25
316.919	98.25
317.148	96.25
317.377	98.25
317.607	101.25
317.836	97.25
318.065	102.25
318.295	99.25
318.524	77.25
318.753	88.25
318.983	76.25
319.212	83.25
319.441	87.25
319.67	92.25
319.9	82.25
320.129	92.25
320.358	81.25
320.587	79.25
320.816	88.25
321.046	89.25
321.275	90.25
321.504	95.25
321.733	83.25
321.962	86.25
322.191	98.25
322.42	89.25
322.649	98.25
322.878	91.25
323.108	93.25
323.337	94.25
323.566	85.25
323.795	85.25
324.024	92.25
324.253	93.25
324.482	89.25
324.71	93.25
324.939	74.25
325.168	86.25
325.397	85.25
325.626	89.25
325.855	76.25
326.084	81.25
326.313	97.25
326.542	87.25
326.77	95.25
326.999	89.25
327.228	83.25
327.457	88.25
327.686	89.25
327.914	88.25
328.143	78.25
328.372	83.25
328.6	86.25
328.829	88.25
329.058	92.25
329.287	75.25
329.515	86.25
329.744	91.25
329.972	84.25
330.201	74.25
330.43	79.25
330.658	93.25
330.887	87.25
331.115	79.25
331.344	89.25
331.572	94.25
331.801	99.25
332.03	89.25
332.258	85.25
332.486	87.25
332.715	95.25
332.943	77.25
333.172	78.25
333.4	87.25
333.629	91.25
333.857	74.25
334.085	83.25
334.314	97.25
334.542	94.25
334.771	93.25
334.999	87.25
335.227	83.25
335.455	90.25
335.684	90.25
335.912	91.25
336.14	90.25
336.369	101.25
336.597	79.25
336.825	95.25
337.053	100.25
337.281	104.25
337.51	86.25
337.738	76.25
337.966	86.25
338.194	102.25
338.422	82.25
338.65	94.25
338.878	97.25
339.106	90.25
339.334	84.25
339.562	71.25
339.79	78.25
340.018	81.25
340.246	92.25
340.474	68.25
340.702	86.25
340.93	102.25
341.158	93.25
341.386	78.25
341.614	83.25
341.842	81.25
342.07	74.25
342.298	97.25
342.526	91.25
342.754	100.25
342.981	88.25
343.209	95.25
343.437	104.25
343.665	98.25
343.893	86.25
344.12	100.25
344.348	85.25
344.576	87.25
344.804	88.25
345.031	82.25
345.259	72.25
345.487	71.25
345.714	86.25
345.942	95.25
346.17	78.25
346.397	83.25
346.625	93.25
346.853	87.25
347.08	79.25
347.308	86.25
347.535	101.25
347.763	77.25
347.99	94.25
348.218	99.25
348.445	85.25
348.673	83.25
348.9	98.25
349.128	98.25
349.355	98.25
349.583	86.25
349.81	77.25
350.037	85.25
350.265	88.25
350.492	79.25
350.72	87.25
350.947	82.25
351.174	84.25
351.402	96.25
351.629	77.25
351.856	88.25
352.083	83.25
352.311	97.25
352.538	90.25
352.765	93.25
352.992	81.25
353.22	97.25
353.447	101.25
353.674	90.25
353.901	85.25
354.128	91.25
354.355	91.25
354.583	87.25
354.81	89.25
355.037	100.25
355.264	87.25
355.491	82.25
355.718	83.25
355.945	86.25
356.172	83.25
356.399	98.25
356.626	100.25
356.853	94.25
357.08	93.25
357.307	98.25
357.534	89.25
357.761	87.25
357.988	99.25
358.215	87.25
358.441	79.25
358.668	84.25
358.895	96.25
359.122	87.25
359.349	88.25
359.576	93.25
359.802	81.25
360.029	85.25
360.256	106.25
360.483	93.25
360.709	85.25
360.936	96.25
361.163	85.25
361.39	85.25
361.616	87.25
361.843	72.25
362.07	92.25
362.296	94.25
362.523	99.25
362.749	90.25
362.976	107.25
363.203	102.25
363.429	110.25
363.656	98.25
363.882	98.25
364.109	104.25
364.335	107.25
364.562	126.25
364.788	102.25
365.015	89.25
365.241	89.25
365.468	89.25
365.694	81.25
365.92	83.25
366.147	73.25
366.373	81.25
366.599	81.25
366.826	90.25
367.052	86.25
367.278	89.25
367.505	81.25
367.731	92.25
367.957	82.25
368.184	101.25
368.41	101.25
368.636	82.25
368.862	78.25
369.089	85.25
369.315	89.25
369.541	93.25
369.767	88.25
369.993	78.25
370.219	86.25
370.445	77.25
370.672	78.25
370.898	79.25
371.124	82.25
371.35	60.25
371.576	83.25
371.802	79.25
372.028	89.25
372.254	108.25
372.48	94.25
372.706	96.25
372.932	98.25
373.158	78.25
373.384	114.25
373.61	106.25
373.835	121.25
374.061	87.25
374.287	97.25
374.513	106.25
374.739	89.25
374.965	101.25
375.191	99.25
375.416	93.25
375.642	81.25
375.868	103.25
376.094	93.25
376.319	94.25
376.545	97.25
376.771	69.25
376.997	76.25
377.222	82.25
377.448	89.25
377.674	81.25
377.899	74.25
378.125	77.25
378.35	87.25
378.576	65.25
378.802	73.25
379.027	81.25
379.253	99.25
379.478	85.25
379.704	86.25
379.929	77.25
380.155	86.25
380.38	72.25
380.606	90.25
380.831	86.25
381.057	101.25
381.282	81.25
381.507	87.25
381.733	92.25
381.958	105.25
382.184	90.25
382.409	96.25
382.634	86.25
382.86	89.25
383.085	92.25
383.31	104.25
383.535	103.25
383.761	87.25
383.986	93.25
384.211	94.25
384.436	90.25
384.662	97.25
384.887	97.25
385.112	82.25
385.337	91.25
385.562	96.25
385.787	94.25
386.013	95.25
386.238	89.25
386.463	100.25
386.688	104.25
386.913	92.25
387.138	83.25
387.363	93.25
387.588	93.25
387.813	98.25
388.038	101.25
388.263	102.25
388.488	108.25
388.713	81.25
388.938	85.25
389.163	91.25
389.387	97.25
389.612	90.25
389.837	86.25
390.062	89.25
390.287	81.25
390.512	91.25
390.736	104.25
390.961	87.25
391.186	97.25
391.411	90.25
391.636	85.25
391.86	94.25
392.085	97.25
392.31	90.25
392.534	107.25
392.759	108.25
392.984	132.25
393.208	195.25
393.433	284.25
393.658	208.25
393.882	114.25
394.107	108.25
394.331	111.25
394.556	118.25
394.78	107.25
395.005	103.25
395.229	87.25
395.454	95.25
395.678	98.25
395.903	101.25
396.127	133.25
396.352	138.25
396.576	149.25
396.801	209.25
397.025	226.25
397.249	158.25
397.474	108.25
397.698	78.25
397.922	107.25
398.147	85.25
398.371	97.25
398.595	89.25
398.82	95.25
399.044	79.25
399.268	80.25
399.492	86.25
399.717	89.25
399.941	88.25
400.165	95.25
400.389	81.25
400.613	83.25
400.837	78.25
401.062	94.25
401.286	95.25
401.51	91.25
401.734	89.25
401.958	93.25
402.182	88.25
402.406	76.25
402.63	94.25
402.854	82.25
403.078	94.25
403.302	80.25
403.526	76.25
403.75	89.25
403.974	79.25
404.198	100.25
404.422	101.25
404.645	90.25
404.869	84.25
405.093	81.25
405.317	81.25
405.541	80.25
405.765	84.25
405.988	94.25
406.212	90.25
406.436	96.25
406.66	85.25
406.883	89.25
407.107	85.25
407.331	77.25
407.555	91.25
407.778	131.25
408.002	101.25
408.226	90.25
408.449	78.25
408.673	91.25
408.896	90.25
409.12	88.25
409.344	96.25
409.567	85.25
409.791	94.25
410.014	97.25
410.238	89.25
410.461	81.25
410.685	87.25
410.908	88.25
411.132	93.25
411.355	78.25
411.578	84.25
411.802	87.25
412.025	92.25
412.249	90.25
412.472	92.25
412.695	88.25
412.919	77.25
413.142	91.25
413.365	90.25
413.589	86.25
413.812	82.25
414.035	84.25
414.258	82.25
414.482	89.25
414.705	95.25
414.928	89.25
415.151	80.25
415.374	102.25
415.597	69.25
415.821	79.25
416.044	98.25
416.267	86.25
416.49	97.25
416.713	81.25
416.936	97.25
417.159	96.25
417.382	77.25
417.605	81.25
417.828	103.25
418.051	83.25
418.274	85.25
418.497	86.25
418.72	81.25
418.943	86.25
419.166	90.25
419.389	75.25
419.611	85.25
419.834	105.25
420.057	90.25
420.28	76.25
420.503	73.25
420.726	86.25
420.948	91.25
421.171	94.25
421.394	95.25
421.617	100.25
421.839	106.25
422.062	105.25
422.285	121.25
422.507	200.25
422.73	297.25
422.953	247.25
423.175	171.25
423.398	119.25
423.621	90.25
423.843	99.25
424.066	79.25
424.288	78.25
424.511	96.25
424.733	96.25
424.956	91.25
425.178	89.25
425.401	104.25
425.623	94.25
425.846	93.25
426.068	89.25
426.291	95.25
426.513	76.25
426.735	92.25
426.958	102.25
427.18	82.25
427.402	98.25
427.625	95.25
427.847	90.25
428.069	94.25
428.292	108.25
428.514	122.25
428.736	110.25
428.958	111.25
429.181	124.25
429.403	95.25
429.625	91.25
429.847	110.25
430.069	139.25
430.292	152.25
430.514	139.25
430.736	129.25
430.958	118.25
431.18	89.25
431.402	88.25
431.624	95.25
431.846	109.25
432.068	122.25
432.29	83.25
432.512	95.25
432.734	83.25
432.956	91.25
433.178	86.25
433.4	94.25
433.622	81.25
433.844	82.25
434.066	61.25
434.287	74.25
434.509	76.25
434.731	94.25
434.953	74.25
435.175	94.25
435.397	82.25
435.618	78.25
435.84	82.25
436.062	72.25
436.284	83.25
436.505	79.25
436.727	81.25
436.949	81.25
437.17	88.25
437.392	98.25
437.614	88.25
437.835	88.25
438.057	70.25
438.278	100.25
438.5	81.25
438.721	85.25
438.943	89.25
439.165	90.25
439.386	87.25
439.608	85.25
439.829	65.25
440.05	78.25
440.272	85.25
440.493	90.25
440.715	100.25
440.936	91.25
441.158	93.25
441.379	87.25
441.6	93.25
441.822	85.25
442.043	83.25
442.264	84.25
442.486	108.25
442.707	143.25
442.928	110.25
443.149	99.25
443.371	132.25
443.592	197.25
443.813	178.25
444.034	89.25
444.255	99.25
444.476	89.25
444.698	92.25
444.919	93.25
445.14	157.25
445.361	172.25
445.582	221.25
445.803	191.25
446.024	114.25
446.245	89.25
446.466	79.25
446.687	69.25
446.908	102.25
447.129	86.25
447.35	83.25
447.571	81.25
447.792	90.25
448.013	100.25
448.234	79.25
448.455	75.25
448.675	91.25
448.896	77.25
449.117	80.25
449.338	97.25
449.559	88.25
449.779	79.25
450	85.25
450.221	73.25
450.442	88.25
450.662	73.25
450.883	80.25
451.104	79.25
451.324	80.25
451.545	86.25
451.766	95.25
451.986	81.25
452.207	81.25
452.428	90.25
452.648	93.25
452.869	88.25
453.089	82.25
453.31	89.25
453.53	97.25
453.751	100.25
453.971	85.25
454.192	72.25
454.412	97.25
454.633	94.25
454.853	91.25
455.073	88.25
455.294	90.25
455.514	90.25
455.734	90.25
455.955	99.25
456.175	90.25
456.395	88.25
456.616	84.25
456.836	90.25
457.056	97.25
457.276	97.25
457.497	89.25
457.717	82.25
457.937	89.25
458.157	86.25
458.377	106.25
458.598	109.25
458.818	117.25
459.038	87.25
459.258	86.25
459.478	93.25
459.698	62.25
459.918	76.25
460.138	88.25
460.358	77.25
460.578	88.25
460.798	90.25
461.018	109.25
461.238	83.25
461.458	73.25
461.678	84.25
461.898	85.25
462.118	93.25
462.338	85.25
462.558	69.25
462.777	94.25
462.997	101.25
463.217	83.25
463.437	86.25
463.657	87.25
463.876	106.25
464.096	79.25
464.316	87.25
464.536	75.25
464.755	99.25
464.975	71.25
465.195	85.25
465.414	94.25
465.634	88.25
465.854	84.25
466.073	92.25
466.293	80.25
466.512	89.25
466.732	83.25
466.951	83.25
467.171	107.25
467.391	78.25
467.61	95.25
467.829	75.25
468.049	93.25
468.268	85.25
468.488	103.25
468.707	91.25
468.927	90.25
469.146	91.25
469.365	83.25
469.585	99.25
469.804	87.25
470.023	101.25
470.243	95.25
470.462	81.25
470.681	87.25
470.901	71.25
471.12	89.25
471.339	84.25
471.558	83.25
471.777	85.25
471.997	82.25
472.216	94.25
472.435	87.25
472.654	90.25
472.873	95.25
473.092	93.25
473.311	93.25
473.53	94.25
473.749	87.25
473.968	92.25
474.187	88.25
474.406	87.25
474.625	94.25
474.844	78.25
475.063	85.25
475.282	90.25
475.501	86.25
475.72	84.25
475.939	105.25
476.158	77.25
476.377	96.25
476.596	82.25
476.814	76.25
477.033	91.25
477.252	97.25
477.471	81.25
477.69	80.25
477.908	87.25
478.127	89.25
478.346	75.25
478.564	79.25
478.783	84.25
479.002	84.25
479.22	81.25
479.439	61.25
479.658	83.25
479.876	79.25
480.095	77.25
480.313	99.25
480.532	89.25
480.751	79.25
480.969	80.25
481.188	94.25
481.406	74.25
481.624	86.25
481.843	93.25
482.061	91.25
482.28	90.25
482.498	86.25
482.717	98.25
482.935	93.25
483.153	89.25
483.372	90.25
483.59	88.25
483.808	75.25
484.027	87.25
484.245	106.25
484.463	79.25
484.681	93.25
484.9	80.25
485.118	93.25
485.336	85.25
485.554	99.25
485.772	89.25
485.99	82.25
486.209	83.25
486.427	87.25
486.645	84.25
486.863	102.25
487.081	91.25
487.299	97.25
487.517	98.25
487.735	98.25
487.953	149.25
488.171	115.25
488.389	79.25
488.607	78.25
488.825	93.25
489.043	77.25
489.261	83.25
489.479	93.25
489.696	91.25
489.914	90.25
490.132	86.25
490.35	86.25
490.568	82.25
490.786	80.25
491.003	73.25
491.221	100.25
491.439	98.25
491.657	84.25
491.874	94.25
492.092	100.25
492.31	92.25
492.527	92.25
492.745	85.25
492.963	91.25
493.18	84.25
493.398	95.25
493.615	90.25
493.833	92.25
494.05	91.25
494.268	84.25
494.485	85.25
494.703	90.25
494.92	95.25
495.138	85.25
495.355	80.25
495.573	103.25
495.79	93.25
496.008	89.25
496.225	88.25
496.442	81.25
496.66	87.25
496.877	83.25
497.094	98.25
497.312	85.25
497.529	86.25
497.746	98.25
497.963	108.25
498.181	100.25
498.398	90.25
498.615	89.25
498.832	90.25
499.049	76.25
499.267	85.25
499.484	77.25
499.701	84.25
499.918	87.25
500.135	91.25
500.352	104.25
500.569	85.25
500.786	86.25
501.003	88.25
501.22	79.25
501.437	92.25
501.654	80.25
501.871	94.25
502.088	101.25
502.305	85.25
502.522	89.25
502.739	93.25
502.956	79.25
503.172	108.25
503.389	81.25
503.606	91.25
503.823	109.25
504.04	106.25
504.256	126.25
504.473	118.25
504.69	89.25
504.907	105.25
505.123	83.25
505.34	91.25
505.557	98.25
505.773	86.25
505.99	92.25
506.207	84.25
506.423	76.25
506.64	84.25
506.856	93.25
507.073	89.25
507.289	99.25
507.506	97.25
507.722	73.25
507.939	104.25
508.155	98.25
508.372	90.25
508.588	99.25
508.805	101.25
509.021	87.25
509.238	99.25
509.454	84.25
509.67	85.25
509.887	84.25
510.103	95.25
510.319	90.25
510.536	103.25
510.752	98.25
510.968	78.25
511.184	82.25
511.401	105.25
511.617	89.25
511.833	79.25
512.049	73.25
512.265	89.25
512.481	81.25
512.698	77.25
512.914	85.25
513.13	89.25
513.346	91.25
513.562	84.25
513.778	90.25
513.994	90.25
514.21	86.25
514.426	82.25
514.642	84.25
514.858	78.25
515.074	79.25
515.29	96.25
515.506	103.25
515.721	104.25
515.937	99.25
516.153	76.25
516.369	77.25
516.585	93.25
516.801	94.25
517.016	83.25
517.232	85.25
517.448	113.25
517.664	94.25
517.879	83.25
518.095	82.25
