Data from 15780_2_HRD10591_00042.txt Node
Date: Mon Jan 19 14:19:24 EST 2026
User: Yrep
Spectrometer: HR+D1059
Trigger mode: 1
Integration Time (sec): 1.000000E-1
Scans to average: 1
Electric dark correction enabled: true
Nonlinearity correction enabled: false
Boxcar width: 0
XAxis mode: Wavelengths
Number of Pixels in Spectrum: 2048
>>>>>Begin Spectral Data<<<<<
223.165	-21.44
223.4	-21.44
223.635	-21.44
223.869	-22.44
224.104	-30.44
224.338	-9.44
224.573	-3.44
224.808	0.56
225.042	-18.44
225.277	-10.44
225.511	-9.44
225.746	10.56
225.98	13.56
226.215	7.56
226.449	21.56
226.683	11.56
226.918	15.56
227.152	44.56
227.387	37.56
227.621	35.56
227.856	58.56
228.09	53.56
228.324	42.56
228.559	68.56
228.793	56.56
229.027	55.56
229.262	67.56
229.496	76.56
229.73	61.56
229.964	85.56
230.199	78.56
230.433	84.56
230.667	83.56
230.901	76.56
231.136	73.56
231.37	84.56
231.604	78.56
231.838	90.56
232.072	82.56
232.306	79.56
232.541	81.56
232.775	86.56
233.009	83.56
233.243	98.56
233.477	85.56
233.711	90.56
233.945	89.56
234.179	78.56
234.413	76.56
234.647	82.56
234.881	72.56
235.115	58.56
235.349	75.56
235.583	80.56
235.817	83.56
236.051	68.56
236.285	91.56
236.519	69.56
236.753	84.56
236.987	89.56
237.221	69.56
237.455	68.56
237.689	83.56
237.922	77.56
238.156	81.56
238.39	72.56
238.624	82.56
238.858	71.56
239.091	88.56
239.325	81.56
239.559	86.56
239.793	89.56
240.027	82.56
240.26	63.56
240.494	72.56
240.728	81.56
240.961	86.56
241.195	77.56
241.429	76.56
241.662	82.56
241.896	77.56
242.13	77.56
242.363	77.56
242.597	71.56
242.83	90.56
243.064	74.56
243.298	75.56
243.531	91.56
243.765	77.56
243.998	87.56
244.232	89.56
244.465	77.56
244.699	84.56
244.932	76.56
245.166	68.56
245.399	74.56
245.633	87.56
245.866	77.56
246.099	88.56
246.333	82.56
246.566	76.56
246.8	80.56
247.033	92.56
247.266	79.56
247.5	79.56
247.733	90.56
247.966	81.56
248.2	82.56
248.433	74.56
248.666	74.56
248.899	78.56
249.133	90.56
249.366	82.56
249.599	78.56
249.832	69.56
250.066	82.56
250.299	78.56
250.532	93.56
250.765	80.56
250.998	62.56
251.231	64.56
251.465	73.56
251.698	84.56
251.931	63.56
252.164	83.56
252.397	79.56
252.63	66.56
252.863	70.56
253.096	94.56
253.329	90.56
253.562	73.56
253.795	80.56
254.028	57.56
254.261	75.56
254.494	89.56
254.727	75.56
254.96	72.56
255.193	85.56
255.426	77.56
255.659	72.56
255.892	91.56
256.124	85.56
256.357	75.56
256.59	97.56
256.823	88.56
257.056	84.56
257.289	87.56
257.521	85.56
257.754	75.56
257.987	72.56
258.22	66.56
258.452	72.56
258.685	74.56
258.918	88.56
259.151	73.56
259.383	69.56
259.616	86.56
259.849	78.56
260.081	71.56
260.314	89.56
260.547	91.56
260.779	83.56
261.012	83.56
261.244	91.56
261.477	97.56
261.71	96.56
261.942	84.56
262.175	72.56
262.407	87.56
262.64	58.56
262.872	87.56
263.105	78.56
263.337	77.56
263.57	92.56
263.802	69.56
264.035	76.56
264.267	75.56
264.499	83.56
264.732	80.56
264.964	74.56
265.197	83.56
265.429	78.56
265.661	77.56
265.894	78.56
266.126	90.56
266.358	85.56
266.591	91.56
266.823	82.56
267.055	80.56
267.287	93.56
267.52	77.56
267.752	90.56
267.984	84.56
268.216	85.56
268.448	84.56
268.681	78.56
268.913	89.56
269.145	86.56
269.377	82.56
269.609	89.56
269.841	93.56
270.073	86.56
270.306	78.56
270.538	86.56
270.77	72.56
271.002	70.56
271.234	85.56
271.466	83.56
271.698	92.56
271.93	94.56
272.162	85.56
272.394	89.56
272.626	94.56
272.858	77.56
273.09	90.56
273.322	80.56
273.553	78.56
273.785	96.56
274.017	78.56
274.249	73.56
274.481	76.56
274.713	79.56
274.945	81.56
275.176	81.56
275.408	78.56
275.64	86.56
275.872	84.56
276.104	90.56
276.335	76.56
276.567	92.56
276.799	90.56
277.031	89.56
277.262	88.56
277.494	90.56
277.726	96.56
277.957	78.56
278.189	94.56
278.421	85.56
278.652	73.56
278.884	83.56
279.115	84.56
279.347	85.56
279.579	75.56
279.81	82.56
280.042	84.56
280.273	78.56
280.505	85.56
280.736	83.56
280.968	85.56
281.199	73.56
281.431	82.56
281.662	86.56
281.894	72.56
282.125	81.56
282.356	84.56
282.588	79.56
282.819	75.56
283.051	87.56
283.282	96.56
283.513	96.56
283.745	73.56
283.976	82.56
284.207	79.56
284.439	83.56
284.67	81.56
284.901	91.56
285.132	74.56
285.364	76.56
285.595	75.56
285.826	80.56
286.057	90.56
286.288	66.56
286.52	87.56
286.751	74.56
286.982	82.56
287.213	72.56
287.444	73.56
287.675	74.56
287.906	67.56
288.138	79.56
288.369	93.56
288.6	94.56
288.831	76.56
289.062	78.56
289.293	82.56
289.524	82.56
289.755	93.56
289.986	69.56
290.217	95.56
290.448	83.56
290.679	89.56
290.91	86.56
291.141	90.56
291.371	86.56
291.602	84.56
291.833	96.56
292.064	84.56
292.295	96.56
292.526	91.56
292.757	97.56
292.987	74.56
293.218	86.56
293.449	83.56
293.68	77.56
293.91	90.56
294.141	81.56
294.372	66.56
294.603	80.56
294.833	92.56
295.064	91.56
295.295	86.56
295.525	72.56
295.756	82.56
295.987	88.56
296.217	70.56
296.448	96.56
296.679	74.56
296.909	81.56
297.14	88.56
297.37	79.56
297.601	85.56
297.831	88.56
298.062	90.56
298.292	97.56
298.523	88.56
298.753	91.56
298.984	81.56
299.214	84.56
299.445	80.56
299.675	74.56
299.905	90.56
300.136	83.56
300.366	76.56
300.597	78.56
300.827	68.56
301.057	93.56
301.288	81.56
301.518	85.56
301.748	81.56
301.979	88.56
302.209	79.56
302.439	83.56
302.669	80.56
302.9	82.56
303.13	77.56
303.36	88.56
303.59	88.56
303.82	85.56
304.051	102.56
304.281	92.56
304.511	91.56
304.741	79.56
304.971	80.56
305.201	77.56
305.431	86.56
305.661	74.56
305.891	89.56
306.121	94.56
306.352	73.56
306.582	79.56
306.812	91.56
307.042	87.56
307.272	85.56
307.502	75.56
307.731	78.56
307.961	73.56
308.191	86.56
308.421	88.56
308.651	81.56
308.881	98.56
309.111	86.56
309.341	95.56
309.571	88.56
309.8	77.56
310.03	82.56
310.26	81.56
310.49	90.56
310.72	85.56
310.949	83.56
311.179	96.56
311.409	82.56
311.639	78.56
311.868	75.56
312.098	90.56
312.328	82.56
312.557	94.56
312.787	80.56
313.017	90.56
313.246	82.56
313.476	85.56
313.706	80.56
313.935	79.56
314.165	79.56
314.394	83.56
314.624	98.56
314.853	83.56
315.083	101.56
315.312	86.56
315.542	85.56
315.771	92.56
316.001	80.56
316.23	94.56
316.46	87.56
316.689	76.56
316.919	83.56
317.148	78.56
317.377	68.56
317.607	86.56
317.836	87.56
318.065	70.56
318.295	80.56
318.524	92.56
318.753	81.56
318.983	92.56
319.212	84.56
319.441	87.56
319.67	79.56
319.9	83.56
320.129	74.56
320.358	89.56
320.587	85.56
320.816	67.56
321.046	92.56
321.275	92.56
321.504	71.56
321.733	90.56
321.962	84.56
322.191	80.56
322.42	71.56
322.649	91.56
322.878	85.56
323.108	79.56
323.337	83.56
323.566	92.56
323.795	76.56
324.024	90.56
324.253	69.56
324.482	86.56
324.71	87.56
324.939	83.56
325.168	89.56
325.397	84.56
325.626	78.56
325.855	90.56
326.084	72.56
326.313	86.56
326.542	78.56
326.77	98.56
326.999	90.56
327.228	85.56
327.457	90.56
327.686	76.56
327.914	71.56
328.143	78.56
328.372	89.56
328.6	78.56
328.829	80.56
329.058	97.56
329.287	94.56
329.515	76.56
329.744	77.56
329.972	82.56
330.201	86.56
330.43	89.56
330.658	96.56
330.887	78.56
331.115	85.56
331.344	77.56
331.572	82.56
331.801	90.56
332.03	89.56
332.258	81.56
332.486	65.56
332.715	78.56
332.943	83.56
333.172	87.56
333.4	76.56
333.629	76.56
333.857	88.56
334.085	88.56
334.314	81.56
334.542	89.56
334.771	91.56
334.999	98.56
335.227	88.56
335.455	88.56
335.684	87.56
335.912	84.56
336.14	89.56
336.369	70.56
336.597	84.56
336.825	88.56
337.053	65.56
337.281	88.56
337.51	73.56
337.738	82.56
337.966	78.56
338.194	77.56
338.422	86.56
338.65	82.56
338.878	90.56
339.106	79.56
339.334	94.56
339.562	77.56
339.79	79.56
340.018	83.56
340.246	88.56
340.474	89.56
340.702	71.56
340.93	81.56
341.158	70.56
341.386	73.56
341.614	78.56
341.842	78.56
342.07	89.56
342.298	74.56
342.526	74.56
342.754	57.56
342.981	85.56
343.209	80.56
343.437	93.56
343.665	93.56
343.893	84.56
344.12	94.56
344.348	84.56
344.576	72.56
344.804	66.56
345.031	74.56
345.259	80.56
345.487	87.56
345.714	77.56
345.942	83.56
346.17	75.56
346.397	83.56
346.625	81.56
346.853	71.56
347.08	82.56
347.308	94.56
347.535	83.56
347.763	87.56
347.99	85.56
348.218	87.56
348.445	77.56
348.673	72.56
348.9	81.56
349.128	84.56
349.355	88.56
349.583	83.56
349.81	98.56
350.037	85.56
350.265	92.56
350.492	92.56
350.72	93.56
350.947	89.56
351.174	87.56
351.402	96.56
351.629	75.56
351.856	88.56
352.083	76.56
352.311	93.56
352.538	68.56
352.765	85.56
352.992	83.56
353.22	78.56
353.447	76.56
353.674	91.56
353.901	82.56
354.128	88.56
354.355	78.56
354.583	90.56
354.81	91.56
355.037	97.56
355.264	76.56
355.491	75.56
355.718	81.56
355.945	70.56
356.172	91.56
356.399	84.56
356.626	73.56
356.853	87.56
357.08	95.56
357.307	74.56
357.534	86.56
357.761	93.56
357.988	77.56
358.215	92.56
358.441	83.56
358.668	88.56
358.895	91.56
359.122	90.56
359.349	93.56
359.576	70.56
359.802	76.56
360.029	93.56
360.256	82.56
360.483	77.56
360.709	70.56
360.936	88.56
361.163	76.56
361.39	89.56
361.616	75.56
361.843	74.56
362.07	75.56
362.296	74.56
362.523	83.56
362.749	76.56
362.976	77.56
363.203	92.56
363.429	85.56
363.656	76.56
363.882	86.56
364.109	72.56
364.335	92.56
364.562	98.56
364.788	72.56
365.015	92.56
365.241	87.56
365.468	96.56
365.694	78.56
365.92	82.56
366.147	92.56
366.373	72.56
366.599	82.56
366.826	90.56
367.052	76.56
367.278	90.56
367.505	92.56
367.731	87.56
367.957	85.56
368.184	81.56
368.41	79.56
368.636	85.56
368.862	82.56
369.089	75.56
369.315	87.56
369.541	73.56
369.767	89.56
369.993	91.56
370.219	82.56
370.445	84.56
370.672	83.56
370.898	90.56
371.124	72.56
371.35	86.56
371.576	79.56
371.802	65.56
372.028	78.56
372.254	88.56
372.48	65.56
372.706	86.56
372.932	88.56
373.158	91.56
373.384	82.56
373.61	78.56
373.835	89.56
374.061	80.56
374.287	82.56
374.513	74.56
374.739	86.56
374.965	92.56
375.191	77.56
375.416	81.56
375.642	81.56
375.868	75.56
376.094	86.56
376.319	83.56
376.545	78.56
376.771	82.56
376.997	76.56
377.222	85.56
377.448	94.56
377.674	82.56
377.899	90.56
378.125	75.56
378.35	73.56
378.576	79.56
378.802	82.56
379.027	73.56
379.253	69.56
379.478	68.56
379.704	79.56
379.929	84.56
380.155	67.56
380.38	85.56
380.606	70.56
380.831	75.56
381.057	87.56
381.282	91.56
381.507	72.56
381.733	82.56
381.958	92.56
382.184	77.56
382.409	85.56
382.634	88.56
382.86	92.56
383.085	86.56
383.31	100.56
383.535	85.56
383.761	77.56
383.986	80.56
384.211	84.56
384.436	79.56
384.662	78.56
384.887	70.56
385.112	76.56
385.337	83.56
385.562	82.56
385.787	90.56
386.013	94.56
386.238	92.56
386.463	92.56
386.688	98.56
386.913	86.56
387.138	79.56
387.363	90.56
387.588	71.56
387.813	80.56
388.038	90.56
388.263	85.56
388.488	89.56
388.713	81.56
388.938	85.56
389.163	72.56
389.387	88.56
389.612	86.56
389.837	91.56
390.062	95.56
390.287	79.56
390.512	78.56
390.736	73.56
390.961	71.56
391.186	88.56
391.411	93.56
391.636	89.56
391.86	81.56
392.085	72.56
392.31	73.56
392.534	90.56
392.759	78.56
392.984	89.56
393.208	103.56
393.433	109.56
393.658	100.56
393.882	87.56
394.107	82.56
394.331	88.56
394.556	92.56
394.78	83.56
395.005	91.56
395.229	73.56
395.454	73.56
395.678	88.56
395.903	88.56
396.127	85.56
396.352	90.56
396.576	90.56
396.801	90.56
397.025	80.56
397.249	86.56
397.474	72.56
397.698	93.56
397.922	82.56
398.147	79.56
398.371	69.56
398.595	84.56
398.82	90.56
399.044	86.56
399.268	78.56
399.492	88.56
399.717	73.56
399.941	76.56
400.165	71.56
400.389	77.56
400.613	73.56
400.837	60.56
401.062	85.56
401.286	83.56
401.51	79.56
401.734	89.56
401.958	86.56
402.182	81.56
402.406	75.56
402.63	68.56
402.854	75.56
403.078	90.56
403.302	82.56
403.526	89.56
403.75	75.56
403.974	99.56
404.198	74.56
404.422	87.56
404.645	72.56
404.869	76.56
405.093	78.56
405.317	90.56
405.541	92.56
405.765	84.56
405.988	73.56
406.212	77.56
406.436	70.56
406.66	83.56
406.883	86.56
407.107	82.56
407.331	78.56
407.555	80.56
407.778	75.56
408.002	92.56
408.226	85.56
408.449	72.56
408.673	85.56
408.896	92.56
409.12	77.56
409.344	89.56
409.567	74.56
409.791	74.56
410.014	86.56
410.238	78.56
410.461	68.56
410.685	66.56
410.908	63.56
411.132	88.56
411.355	76.56
411.578	74.56
411.802	74.56
412.025	81.56
412.249	89.56
412.472	71.56
412.695	88.56
412.919	92.56
413.142	81.56
413.365	90.56
413.589	76.56
413.812	73.56
414.035	81.56
414.258	73.56
414.482	69.56
414.705	74.56
414.928	80.56
415.151	87.56
415.374	76.56
415.597	67.56
415.821	85.56
416.044	83.56
416.267	84.56
416.49	68.56
416.713	88.56
416.936	92.56
417.159	81.56
417.382	78.56
417.605	80.56
417.828	84.56
418.051	74.56
418.274	78.56
418.497	82.56
418.72	79.56
418.943	84.56
419.166	79.56
419.389	84.56
419.611	93.56
419.834	86.56
420.057	74.56
420.28	93.56
420.503	88.56
420.726	83.56
420.948	89.56
421.171	78.56
421.394	77.56
421.617	88.56
421.839	82.56
422.062	78.56
422.285	79.56
422.507	105.56
422.73	123.56
422.953	112.56
423.175	88.56
423.398	81.56
423.621	82.56
423.843	66.56
424.066	99.56
424.288	74.56
424.511	80.56
424.733	79.56
424.956	75.56
425.178	106.56
425.401	92.56
425.623	80.56
425.846	76.56
426.068	80.56
426.291	84.56
426.513	86.56
426.735	76.56
426.958	92.56
427.18	94.56
427.402	86.56
427.625	84.56
427.847	89.56
428.069	90.56
428.292	96.56
428.514	78.56
428.736	91.56
428.958	77.56
429.181	89.56
429.403	77.56
429.625	94.56
429.847	97.56
430.069	90.56
430.292	107.56
430.514	90.56
430.736	86.56
430.958	88.56
431.18	67.56
431.402	70.56
431.624	71.56
431.846	78.56
432.068	80.56
432.29	96.56
432.512	84.56
432.734	97.56
432.956	62.56
433.178	69.56
433.4	74.56
433.622	91.56
433.844	89.56
434.066	87.56
434.287	89.56
434.509	68.56
434.731	86.56
434.953	84.56
435.175	72.56
435.397	89.56
435.618	77.56
435.84	73.56
436.062	75.56
436.284	94.56
436.505	89.56
436.727	83.56
436.949	78.56
437.17	76.56
437.392	87.56
437.614	78.56
437.835	85.56
438.057	90.56
438.278	84.56
438.5	85.56
438.721	86.56
438.943	79.56
439.165	85.56
439.386	69.56
439.608	86.56
439.829	92.56
440.05	92.56
440.272	76.56
440.493	79.56
440.715	93.56
440.936	87.56
441.158	76.56
441.379	82.56
441.6	78.56
441.822	79.56
442.043	88.56
442.264	79.56
442.486	97.56
442.707	83.56
442.928	88.56
443.149	102.56
443.371	76.56
443.592	98.56
443.813	101.56
444.034	86.56
444.255	81.56
444.476	97.56
444.698	89.56
444.919	77.56
445.14	173.56
445.361	140.56
445.582	108.56
445.803	98.56
446.024	87.56
446.245	86.56
446.466	93.56
446.687	77.56
446.908	73.56
447.129	86.56
447.35	89.56
447.571	76.56
447.792	82.56
448.013	84.56
448.234	85.56
448.455	75.56
448.675	89.56
448.896	84.56
449.117	77.56
449.338	80.56
449.559	77.56
449.779	72.56
450	85.56
450.221	69.56
450.442	85.56
450.662	78.56
450.883	85.56
451.104	89.56
451.324	83.56
451.545	78.56
451.766	67.56
451.986	85.56
452.207	92.56
452.428	80.56
452.648	76.56
452.869	88.56
453.089	84.56
453.31	76.56
453.53	99.56
453.751	91.56
453.971	71.56
454.192	82.56
454.412	60.56
454.633	77.56
454.853	88.56
455.073	68.56
455.294	83.56
455.514	76.56
455.734	80.56
455.955	81.56
456.175	82.56
456.395	65.56
456.616	75.56
456.836	81.56
457.056	84.56
457.276	77.56
457.497	88.56
457.717	89.56
457.937	88.56
458.157	85.56
458.377	98.56
458.598	78.56
458.818	96.56
459.038	84.56
459.258	78.56
459.478	89.56
459.698	74.56
459.918	68.56
460.138	82.56
460.358	79.56
460.578	70.56
460.798	84.56
461.018	92.56
461.238	70.56
461.458	89.56
461.678	76.56
461.898	81.56
462.118	78.56
462.338	86.56
462.558	96.56
462.777	83.56
462.997	87.56
463.217	64.56
463.437	82.56
463.657	66.56
463.876	92.56
464.096	78.56
464.316	78.56
464.536	70.56
464.755	89.56
464.975	81.56
465.195	75.56
465.414	66.56
465.634	77.56
465.854	89.56
466.073	73.56
466.293	76.56
466.512	84.56
466.732	86.56
466.951	79.56
467.171	89.56
467.391	88.56
467.61	74.56
467.829	73.56
468.049	68.56
468.268	79.56
468.488	73.56
468.707	84.56
468.927	79.56
469.146	82.56
469.365	78.56
469.585	81.56
469.804	69.56
470.023	83.56
470.243	78.56
470.462	70.56
470.681	81.56
470.901	67.56
471.12	90.56
471.339	88.56
471.558	75.56
471.777	78.56
471.997	87.56
472.216	93.56
472.435	81.56
472.654	90.56
472.873	88.56
473.092	82.56
473.311	83.56
473.53	79.56
473.749	89.56
473.968	96.56
474.187	81.56
474.406	98.56
474.625	71.56
474.844	80.56
475.063	77.56
475.282	74.56
475.501	77.56
475.72	89.56
475.939	75.56
476.158	73.56
476.377	79.56
476.596	74.56
476.814	78.56
477.033	85.56
477.252	88.56
477.471	80.56
477.69	76.56
477.908	78.56
478.127	81.56
478.346	66.56
478.564	76.56
478.783	88.56
479.002	77.56
479.22	82.56
479.439	80.56
479.658	83.56
479.876	85.56
480.095	91.56
480.313	79.56
480.532	81.56
480.751	73.56
480.969	80.56
481.188	70.56
481.406	92.56
481.624	84.56
481.843	82.56
482.061	78.56
482.28	76.56
482.498	82.56
482.717	79.56
482.935	84.56
483.153	90.56
483.372	89.56
483.59	88.56
483.808	84.56
484.027	88.56
484.245	83.56
484.463	86.56
484.681	82.56
484.9	84.56
485.118	93.56
485.336	75.56
485.554	73.56
485.772	77.56
485.99	78.56
486.209	78.56
486.427	81.56
486.645	63.56
486.863	82.56
487.081	85.56
487.299	84.56
487.517	93.56
487.735	83.56
487.953	90.56
488.171	95.56
488.389	87.56
488.607	61.56
488.825	74.56
489.043	89.56
489.261	72.56
489.479	76.56
489.696	78.56
489.914	96.56
490.132	79.56
490.35	86.56
490.568	81.56
490.786	73.56
491.003	81.56
491.221	77.56
491.439	81.56
491.657	88.56
491.874	84.56
492.092	87.56
492.31	84.56
492.527	78.56
492.745	81.56
492.963	69.56
493.18	81.56
493.398	88.56
493.615	76.56
493.833	94.56
494.05	76.56
494.268	70.56
494.485	79.56
494.703	90.56
494.92	78.56
495.138	85.56
495.355	84.56
495.573	84.56
495.79	84.56
496.008	85.56
496.225	84.56
496.442	85.56
496.66	75.56
496.877	78.56
497.094	82.56
497.312	91.56
497.529	88.56
497.746	89.56
497.963	92.56
498.181	98.56
498.398	82.56
498.615	91.56
498.832	78.56
499.049	79.56
499.267	79.56
499.484	77.56
499.701	90.56
499.918	86.56
500.135	86.56
500.352	78.56
500.569	82.56
500.786	84.56
501.003	89.56
501.22	93.56
501.437	87.56
501.654	86.56
501.871	85.56
502.088	82.56
502.305	77.56
502.522	96.56
502.739	81.56
502.956	82.56
503.172	79.56
503.389	88.56
503.606	74.56
503.823	75.56
504.04	83.56
504.256	90.56
504.473	86.56
504.69	86.56
504.907	85.56
505.123	81.56
505.34	81.56
505.557	73.56
505.773	84.56
505.99	87.56
506.207	74.56
506.423	102.56
506.64	88.56
506.856	80.56
507.073	81.56
507.289	84.56
507.506	78.56
507.722	68.56
507.939	87.56
508.155	84.56
508.372	88.56
508.588	75.56
508.805	80.56
509.021	85.56
509.238	95.56
509.454	92.56
509.67	65.56
509.887	74.56
510.103	96.56
510.319	93.56
510.536	88.56
510.752	78.56
510.968	85.56
511.184	85.56
511.401	82.56
511.617	75.56
511.833	88.56
512.049	75.56
512.265	82.56
512.481	72.56
512.698	77.56
512.914	75.56
513.13	86.56
513.346	92.56
513.562	79.56
513.778	94.56
513.994	83.56
514.21	81.56
514.426	92.56
514.642	91.56
514.858	83.56
515.074	79.56
515.29	87.56
515.506	81.56
515.721	64.56
515.937	84.56
516.153	82.56
516.369	94.56
516.585	92.56
516.801	82.56
517.016	97.56
517.232	82.56
517.448	81.56
517.664	85.56
517.879	79.56
518.095	92.56
518.311	74.56
518.527	92.56
518.742	94.56
518.958	75.56
519.173	82.56
519.389	82.56
519.605	92.56
519.82	82.56
520.036	79.56
