Data from 15780_2_HRD10591_00020.txt Node
Date: Mon Jan 19 14:19:13 EST 2026
User: Yrep
Spectrometer: HR+D1059
Trigger mode: 1
Integration Time (sec): 1.000000E-1
Scans to average: 1
Electric dark correction enabled: true
Nonlinearity correction enabled: false
Boxcar width: 0
XAxis mode: Wavelengths
Number of Pixels in Spectrum: 2048
>>>>>Begin Spectral Data<<<<<
223.165	-22
223.4	-22
223.635	-22
223.869	-7
224.104	-18
224.338	-18
224.573	-9
224.808	-26
225.042	-4
225.277	4
225.511	-3
225.746	9
225.98	14
226.215	3
226.449	9
226.683	20
226.918	21
227.152	27
227.387	42
227.621	27
227.856	49
228.09	48
228.324	52
228.559	56
228.793	54
229.027	60
229.262	67
229.496	79
229.73	63
229.964	69
230.199	77
230.433	63
230.667	78
230.901	81
231.136	73
231.37	81
231.604	73
231.838	80
232.072	81
232.306	79
232.541	90
232.775	91
233.009	94
233.243	74
233.477	85
233.711	75
233.945	94
234.179	86
234.413	83
234.647	95
234.881	103
235.115	72
235.349	68
235.583	73
235.817	76
236.051	67
236.285	95
236.519	88
236.753	83
236.987	85
237.221	95
237.455	85
237.689	73
237.922	83
238.156	87
238.39	84
238.624	73
238.858	69
239.091	82
239.325	77
239.559	68
239.793	83
240.027	92
240.26	87
240.494	83
240.728	91
240.961	79
241.195	76
241.429	83
241.662	77
241.896	71
242.13	72
242.363	67
242.597	91
242.83	87
243.064	72
243.298	87
243.531	88
243.765	84
243.998	92
244.232	70
244.465	77
244.699	77
244.932	89
245.166	64
245.399	93
245.633	77
245.866	75
246.099	72
246.333	77
246.566	81
246.8	78
247.033	76
247.266	70
247.5	91
247.733	94
247.966	79
248.2	77
248.433	78
248.666	79
248.899	79
249.133	77
249.366	82
249.599	79
249.832	83
250.066	86
250.299	79
250.532	96
250.765	81
250.998	83
251.231	87
251.465	79
251.698	83
251.931	89
252.164	83
252.397	90
252.63	95
252.863	82
253.096	91
253.329	77
253.562	75
253.795	81
254.028	82
254.261	79
254.494	87
254.727	75
254.96	73
255.193	86
255.426	75
255.659	80
255.892	81
256.124	75
256.357	69
256.59	88
256.823	89
257.056	76
257.289	79
257.521	77
257.754	71
257.987	89
258.22	95
258.452	75
258.685	86
258.918	71
259.151	89
259.383	82
259.616	90
259.849	86
260.081	94
260.314	101
260.547	77
260.779	90
261.012	69
261.244	83
261.477	93
261.71	92
261.942	93
262.175	79
262.407	75
262.64	92
262.872	87
263.105	77
263.337	92
263.57	95
263.802	67
264.035	82
264.267	79
264.499	96
264.732	83
264.964	92
265.197	78
265.429	89
265.661	89
265.894	98
266.126	81
266.358	91
266.591	90
266.823	86
267.055	96
267.287	67
267.52	95
267.752	94
267.984	87
268.216	80
268.448	98
268.681	84
268.913	89
269.145	92
269.377	91
269.609	73
269.841	81
270.073	94
270.306	93
270.538	83
270.77	85
271.002	94
271.234	100
271.466	88
271.698	87
271.93	74
272.162	103
272.394	90
272.626	99
272.858	80
273.09	95
273.322	77
273.553	71
273.785	88
274.017	80
274.249	81
274.481	89
274.713	97
274.945	98
275.176	83
275.408	86
275.64	92
275.872	88
276.104	81
276.335	78
276.567	92
276.799	83
277.031	72
277.262	72
277.494	94
277.726	82
277.957	87
278.189	85
278.421	88
278.652	87
278.884	80
279.115	67
279.347	93
279.579	97
279.81	89
280.042	85
280.273	102
280.505	84
280.736	92
280.968	82
281.199	81
281.431	89
281.662	88
281.894	96
282.125	93
282.356	76
282.588	96
282.819	73
283.051	81
283.282	92
283.513	104
283.745	75
283.976	105
284.207	82
284.439	96
284.67	87
284.901	94
285.132	95
285.364	80
285.595	101
285.826	91
286.057	103
286.288	90
286.52	91
286.751	92
286.982	88
287.213	87
287.444	90
287.675	94
287.906	90
288.138	83
288.369	79
288.6	80
288.831	78
289.062	85
289.293	86
289.524	80
289.755	79
289.986	100
290.217	95
290.448	95
290.679	79
290.91	90
291.141	78
291.371	98
291.602	101
291.833	90
292.064	86
292.295	85
292.526	85
292.757	87
292.987	85
293.218	87
293.449	89
293.68	77
293.91	105
294.141	93
294.372	86
294.603	79
294.833	80
295.064	79
295.295	84
295.525	93
295.756	96
295.987	102
296.217	98
296.448	86
296.679	73
296.909	81
297.14	93
297.37	94
297.601	79
297.831	90
298.062	88
298.292	94
298.523	79
298.753	98
298.984	80
299.214	87
299.445	75
299.675	80
299.905	95
300.136	89
300.366	90
300.597	91
300.827	85
301.057	92
301.288	93
301.518	93
301.748	89
301.979	112
302.209	108
302.439	89
302.669	82
302.9	87
303.13	87
303.36	92
303.59	80
303.82	98
304.051	88
304.281	92
304.511	76
304.741	93
304.971	87
305.201	89
305.431	90
305.661	99
305.891	107
306.121	94
306.352	91
306.582	85
306.812	95
307.042	74
307.272	94
307.502	95
307.731	96
307.961	97
308.191	78
308.421	89
308.651	79
308.881	102
309.111	91
309.341	88
309.571	103
309.8	80
310.03	95
310.26	78
310.49	88
310.72	83
310.949	88
311.179	73
311.409	84
311.639	85
311.868	89
312.098	93
312.328	93
312.557	96
312.787	76
313.017	94
313.246	96
313.476	88
313.706	80
313.935	92
314.165	73
314.394	86
314.624	77
314.853	81
315.083	95
315.312	97
315.542	87
315.771	85
316.001	80
316.23	103
316.46	92
316.689	103
316.919	92
317.148	81
317.377	89
317.607	87
317.836	97
318.065	111
318.295	107
318.524	100
318.753	84
318.983	90
319.212	99
319.441	83
319.67	91
319.9	85
320.129	101
320.358	89
320.587	81
320.816	93
321.046	89
321.275	100
321.504	106
321.733	89
321.962	85
322.191	81
322.42	85
322.649	86
322.878	85
323.108	85
323.337	83
323.566	96
323.795	87
324.024	73
324.253	85
324.482	84
324.71	84
324.939	95
325.168	75
325.397	93
325.626	95
325.855	94
326.084	71
326.313	80
326.542	78
326.77	86
326.999	82
327.228	91
327.457	92
327.686	88
327.914	94
328.143	87
328.372	75
328.6	92
328.829	81
329.058	94
329.287	90
329.515	87
329.744	91
329.972	95
330.201	96
330.43	71
330.658	81
330.887	76
331.115	83
331.344	91
331.572	90
331.801	88
332.03	101
332.258	92
332.486	80
332.715	80
332.943	95
333.172	92
333.4	98
333.629	93
333.857	83
334.085	88
334.314	93
334.542	80
334.771	87
334.999	89
335.227	101
335.455	81
335.684	89
335.912	86
336.14	95
336.369	95
336.597	86
336.825	91
337.053	78
337.281	93
337.51	82
337.738	84
337.966	89
338.194	81
338.422	75
338.65	99
338.878	99
339.106	85
339.334	81
339.562	77
339.79	88
340.018	75
340.246	89
340.474	94
340.702	81
340.93	73
341.158	85
341.386	93
341.614	93
341.842	91
342.07	96
342.298	105
342.526	88
342.754	80
342.981	102
343.209	95
343.437	93
343.665	87
343.893	91
344.12	79
344.348	89
344.576	96
344.804	80
345.031	89
345.259	82
345.487	89
345.714	87
345.942	82
346.17	94
346.397	87
346.625	98
346.853	87
347.08	82
347.308	91
347.535	91
347.763	95
347.99	78
348.218	77
348.445	77
348.673	85
348.9	90
349.128	91
349.355	77
349.583	92
349.81	96
350.037	95
350.265	88
350.492	95
350.72	100
350.947	79
351.174	89
351.402	84
351.629	72
351.856	83
352.083	91
352.311	91
352.538	80
352.765	82
352.992	108
353.22	100
353.447	81
353.674	85
353.901	87
354.128	91
354.355	100
354.583	94
354.81	85
355.037	93
355.264	81
355.491	78
355.718	89
355.945	101
356.172	90
356.399	83
356.626	84
356.853	91
357.08	92
357.307	96
357.534	86
357.761	104
357.988	109
358.215	110
358.441	79
358.668	95
358.895	102
359.122	81
359.349	77
359.576	87
359.802	85
360.029	75
360.256	84
360.483	88
360.709	89
360.936	92
361.163	104
361.39	81
361.616	75
361.843	100
362.07	72
362.296	88
362.523	91
362.749	104
362.976	96
363.203	116
363.429	101
363.656	107
363.882	92
364.109	94
364.335	95
364.562	91
364.788	99
365.015	88
365.241	87
365.468	92
365.694	83
365.92	84
366.147	76
366.373	91
366.599	92
366.826	87
367.052	93
367.278	84
367.505	87
367.731	74
367.957	87
368.184	87
368.41	88
368.636	75
368.862	89
369.089	89
369.315	90
369.541	85
369.767	104
369.993	80
370.219	76
370.445	82
370.672	89
370.898	94
371.124	89
371.35	105
371.576	102
371.802	87
372.028	91
372.254	106
372.48	84
372.706	91
372.932	99
373.158	102
373.384	100
373.61	111
373.835	101
374.061	111
374.287	85
374.513	95
374.739	99
374.965	95
375.191	95
375.416	95
375.642	88
375.868	82
376.094	87
376.319	89
376.545	91
376.771	91
376.997	104
377.222	89
377.448	75
377.674	79
377.899	82
378.125	90
378.35	93
378.576	86
378.802	92
379.027	88
379.253	94
379.478	83
379.704	75
379.929	87
380.155	79
380.38	76
380.606	81
380.831	69
381.057	85
381.282	93
381.507	89
381.733	95
381.958	104
382.184	89
382.409	81
382.634	92
382.86	97
383.085	87
383.31	84
383.535	99
383.761	89
383.986	85
384.211	84
384.436	80
384.662	91
384.887	84
385.112	95
385.337	71
385.562	90
385.787	82
386.013	94
386.238	80
386.463	85
386.688	95
386.913	86
387.138	97
387.363	93
387.588	93
387.813	89
388.038	100
388.263	86
388.488	96
388.713	103
388.938	78
389.163	97
389.387	89
389.612	90
389.837	92
390.062	83
390.287	90
390.512	90
390.736	81
390.961	91
391.186	88
391.411	87
391.636	94
391.86	96
392.085	91
392.31	91
392.534	109
392.759	119
392.984	127
393.208	217
393.433	314
393.658	252
393.882	114
394.107	114
394.331	124
394.556	103
394.78	97
395.005	87
395.229	81
395.454	84
395.678	89
395.903	89
396.127	111
396.352	127
396.576	132
396.801	213
397.025	247
397.249	157
397.474	109
397.698	87
397.922	89
398.147	99
398.371	90
398.595	97
398.82	86
399.044	73
399.268	80
399.492	88
399.717	97
399.941	91
400.165	99
400.389	81
400.613	75
400.837	79
401.062	94
401.286	90
401.51	89
401.734	96
401.958	85
402.182	87
402.406	100
402.63	91
402.854	81
403.078	75
403.302	86
403.526	79
403.75	85
403.974	95
404.198	87
404.422	77
404.645	100
404.869	90
405.093	80
405.317	91
405.541	80
405.765	82
405.988	85
406.212	91
406.436	88
406.66	80
406.883	87
407.107	78
407.331	87
407.555	103
407.778	94
408.002	107
408.226	89
408.449	91
408.673	80
408.896	93
409.12	86
409.344	99
409.567	88
409.791	91
410.014	101
410.238	86
410.461	75
410.685	90
410.908	82
411.132	83
411.355	94
411.578	79
411.802	90
412.025	94
412.249	80
412.472	97
412.695	94
412.919	78
413.142	93
413.365	87
413.589	89
413.812	77
414.035	105
414.258	91
414.482	77
414.705	75
414.928	95
415.151	81
415.374	87
415.597	81
415.821	81
416.044	86
416.267	90
416.49	83
416.713	87
416.936	78
417.159	81
417.382	86
417.605	85
417.828	80
418.051	77
418.274	88
418.497	91
418.72	85
418.943	86
419.166	69
419.389	83
419.611	95
419.834	92
420.057	97
420.28	96
420.503	79
420.726	95
420.948	95
421.171	87
421.394	94
421.617	108
421.839	95
422.062	95
422.285	117
422.507	173
422.73	271
422.953	231
423.175	117
423.398	104
423.621	104
423.843	94
424.066	86
424.288	79
424.511	80
424.733	82
424.956	101
425.178	96
425.401	91
425.623	81
425.846	89
426.068	82
426.291	87
426.513	91
426.735	91
426.958	81
427.18	93
427.402	106
427.625	93
427.847	80
428.069	83
428.292	107
428.514	109
428.736	99
428.958	104
429.181	95
429.403	95
429.625	90
429.847	90
430.069	110
430.292	123
430.514	116
430.736	111
430.958	121
431.18	86
431.402	82
431.624	87
431.846	102
432.068	95
432.29	103
432.512	93
432.734	99
432.956	93
433.178	91
433.4	81
433.622	89
433.844	91
434.066	68
434.287	79
434.509	93
434.731	93
434.953	73
435.175	93
435.397	94
435.618	85
435.84	93
436.062	93
436.284	84
436.505	86
436.727	80
436.949	80
437.17	89
437.392	81
437.614	81
437.835	71
438.057	95
438.278	86
438.5	78
438.721	79
438.943	91
439.165	89
439.386	92
439.608	90
439.829	85
440.05	94
440.272	87
440.493	99
440.715	83
440.936	99
441.158	91
441.379	88
441.6	81
441.822	87
442.043	89
442.264	85
442.486	110
442.707	121
442.928	109
443.149	86
443.371	111
443.592	155
443.813	138
444.034	94
444.255	82
444.476	99
444.698	92
444.919	101
445.14	168
445.361	152
445.582	171
445.803	147
446.024	100
446.245	91
446.466	98
446.687	92
446.908	80
447.129	89
447.35	84
447.571	88
447.792	95
448.013	73
448.234	88
448.455	93
448.675	84
448.896	102
449.117	83
449.338	97
449.559	88
449.779	81
450	88
450.221	84
450.442	85
450.662	94
450.883	89
451.104	86
451.324	89
451.545	78
451.766	88
451.986	104
452.207	99
452.428	71
452.648	91
452.869	86
453.089	88
453.31	80
453.53	77
453.751	101
453.971	86
454.192	84
454.412	81
454.633	87
454.853	91
455.073	79
455.294	89
455.514	79
455.734	89
455.955	87
456.175	94
456.395	85
456.616	79
456.836	95
457.056	81
457.276	69
457.497	94
457.717	95
457.937	92
458.157	88
458.377	100
458.598	87
458.818	84
459.038	77
459.258	90
459.478	76
459.698	87
459.918	75
460.138	87
460.358	82
460.578	89
460.798	103
461.018	108
461.238	100
461.458	91
461.678	105
461.898	94
462.118	102
462.338	89
462.558	87
462.777	71
462.997	87
463.217	70
463.437	94
463.657	85
463.876	79
464.096	88
464.316	75
464.536	85
464.755	83
464.975	101
465.195	81
465.414	85
465.634	77
465.854	70
466.073	80
466.293	81
466.512	64
466.732	90
466.951	71
467.171	85
467.391	78
467.61	83
467.829	79
468.049	85
468.268	85
468.488	82
468.707	85
468.927	85
469.146	71
469.365	87
469.585	93
469.804	81
470.023	83
470.243	84
470.462	86
470.681	85
470.901	76
471.12	91
471.339	73
471.558	87
471.777	81
471.997	85
472.216	93
472.435	99
472.654	83
472.873	80
473.092	86
473.311	92
473.53	99
473.749	94
473.968	94
474.187	77
474.406	81
474.625	86
474.844	89
475.063	77
475.282	83
475.501	91
475.72	95
475.939	88
476.158	103
476.377	88
476.596	74
476.814	82
477.033	84
477.252	86
477.471	92
477.69	78
477.908	90
478.127	87
478.346	77
478.564	96
478.783	92
479.002	84
479.22	82
479.439	82
479.658	101
479.876	75
480.095	91
480.313	90
480.532	86
480.751	81
480.969	76
481.188	85
481.406	88
481.624	88
481.843	95
482.061	87
482.28	89
482.498	88
482.717	88
482.935	101
483.153	79
483.372	90
483.59	102
483.808	81
484.027	87
484.245	86
484.463	81
484.681	98
484.9	87
485.118	96
485.336	82
485.554	77
485.772	101
485.99	95
486.209	79
486.427	81
486.645	90
486.863	82
487.081	97
487.299	96
487.517	101
487.735	84
487.953	108
488.171	109
488.389	91
488.607	77
488.825	80
489.043	87
489.261	96
489.479	82
489.696	80
489.914	91
490.132	93
490.35	100
490.568	82
490.786	87
491.003	81
491.221	78
491.439	78
491.657	92
491.874	92
492.092	86
492.31	87
492.527	97
492.745	93
492.963	90
493.18	88
493.398	85
493.615	65
493.833	80
494.05	85
494.268	90
494.485	90
494.703	99
494.92	97
495.138	89
495.355	86
495.573	96
495.79	91
496.008	92
496.225	91
496.442	90
496.66	89
496.877	96
497.094	90
497.312	91
497.529	94
497.746	87
497.963	92
498.181	92
498.398	96
498.615	94
498.832	92
499.049	87
499.267	96
499.484	75
499.701	93
499.918	89
500.135	91
500.352	95
500.569	80
500.786	103
501.003	97
501.22	78
501.437	81
501.654	87
501.871	89
502.088	72
502.305	84
502.522	86
502.739	96
502.956	94
503.172	91
503.389	82
503.606	86
503.823	96
504.04	99
504.256	104
504.473	88
504.69	77
504.907	91
505.123	75
505.34	91
505.557	81
505.773	99
505.99	77
506.207	79
506.423	104
506.64	95
506.856	87
507.073	87
507.289	79
507.506	91
507.722	81
507.939	92
508.155	91
508.372	91
508.588	103
508.805	93
509.021	82
509.238	90
509.454	76
509.67	73
509.887	87
510.103	89
510.319	85
510.536	80
510.752	78
510.968	80
511.184	72
511.401	89
511.617	81
511.833	95
512.049	91
512.265	94
512.481	85
512.698	87
512.914	82
513.13	89
513.346	96
513.562	73
513.778	75
513.994	78
514.21	94
514.426	84
514.642	81
514.858	96
515.074	75
515.29	101
515.506	81
515.721	77
515.937	76
516.153	86
516.369	78
516.585	89
516.801	97
517.016	84
517.232	82
517.448	94
517.664	87
517.879	94
518.095	86
518.311	110
518.527	96
518.742	95
518.958	116
519.173	107
519.389	93
519.605	89
519.82	83
520.036	87
520.251	77
520.467	80
520.682	86
520.898	90
521.113	80
521.329	91
521.544	87
521.76	94
521.975	105
522.19	91
522.406	78
522.621	74
522.836	79
523.052	76
523.267	104
523.482	79
523.698	85
523.913	93
524.128	95
524.343	88
524.559	91
524.774	82
524.989	94
525.204	93
525.419	87
525.634	91
525.849	98
526.064	81
526.28	124
526.495	144
526.71	163
526.925	126
527.14	157
527.355	134
527.57	88
527.785	85
527.999	98
528.214	83
528.429	70
528.644	83
528.859	73
529.074	95
529.289	87
529.503	93
529.718	81
529.933	77
530.148	75
530.363	91
530.577	95
530.792	87
531.007	95
531.221	94
531.436	84
531.651	93
531.865	87
532.08	68
532.295	79
532.509	88
532.724	89
532.938	94
533.153	90
533.367	89
533.582	74
533.796	79
534.011	80
534.225	92
534.44	93
534.654	89
534.868	96
535.083	94
535.297	99
535.511	93
535.726	87
535.94	79
536.154	87
536.369	81
536.583	92
536.797	79
537.011	99
537.225	93
537.44	87
537.654	89
537.868	93
538.082	83
538.296	88
538.51	82
538.724	84
538.938	80
539.153	104
539.367	95
539.581	98
539.795	89
540.009	95
540.222	67
540.436	87
540.65	83
540.864	92
541.078	87
541.292	87
541.506	89
541.72	85
541.934	94
542.147	94
542.361	88
542.575	92
542.789	89
543.002	105
543.216	93
543.43	96
543.644	109
543.857	89
544.071	88
544.285	96
544.498	99
544.712	90
544.925	99
545.139	96
545.352	93
545.566	99
545.779	93
545.993	107
546.206	100
546.42	89
546.633	92
546.847	117
547.06	92
547.274	103
547.487	112
547.7	115
547.914	111
548.127	124
548.34	117
548.554	125
548.767	109
548.98	119
549.193	125
549.407	112
549.62	129
549.833	121
550.046	139
550.259	138
550.473	149
550.686	151
550.899	163
551.112	160
551.325	151
551.538	169
551.751	168
551.964	160
552.177	151
552.39	149
552.603	161
552.816	149
553.029	158
553.242	141
553.455	145
553.667	164
553.88	166
554.093	160
554.306	149
554.519	143
554.732	160
554.944	155
555.157	164
555.37	151
555.583	137
555.795	141
556.008	131
556.221	142
556.433	128
556.646	112
556.859	110
557.071	124
557.284	133
557.496	119
557.709	106
557.921	98
558.134	122
558.346	121
558.559	110
558.771	126
558.984	173
559.196	193
559.409	128
559.621	172
559.833	145
560.046	162
560.258	128
560.47	133
560.683	106
560.895	87
561.107	96
561.32	95
561.532	88
561.744	81
561.956	95
562.168	91
562.381	96
562.593	89
562.805	91
563.017	92
563.229	89
563.441	94
563.653	87
563.865	79
564.077	89
564.289	100
564.501	94
564.713	93
564.925	90
565.137	76
565.349	99
565.561	88
565.773	97
565.985	101
566.197	94
566.408	99
566.62	92
566.832	87
567.044	92
567.255	89
567.467	99
567.679	95
567.891	85
568.102	95
568.314	84
568.526	96
568.737	99
568.949	101
569.161	98
569.372	99
569.584	91
569.795	96
570.007	74
570.218	94
570.43	76
570.641	96
570.853	88
571.064	89
571.276	96
571.487	113
571.698	90
571.91	100
572.121	85
572.333	85
572.544	100
572.755	94
572.966	87
573.178	75
573.389	81
573.6	75
573.811	91
574.023	88
574.234	92
574.445	87
574.656	90
574.867	85
575.078	102
575.289	99
575.501	99
575.712	87
575.923	87
576.134	83
576.345	90
576.556	95
576.767	91
576.978	89
577.188	90
577.399	103
577.61	81
577.821	87
578.032	93
578.243	87
578.454	95
578.665	97
578.875	94
579.086	87
579.297	92
579.508	87
579.718	98
579.929	93
580.14	93
580.35	96
580.561	85
580.772	99
580.982	86
581.193	88
581.403	89
581.614	93
581.825	82
582.035	81
582.246	86
582.456	91
582.667	100
582.877	95
583.087	105
583.298	87
583.508	108
583.719	95
583.929	93
584.139	100
584.35	91
584.56	89
584.77	85
584.981	76
585.191	91
585.401	82
585.611	91
585.821	104
586.032	133
586.242	95
586.452	97
586.662	102
586.872	98
587.082	91
