Data from 15780_2_HRD10591_00016.txt Node
Date: Mon Jan 19 14:19:11 EST 2026
User: Yrep
Spectrometer: HR+D1059
Trigger mode: 1
Integration Time (sec): 1.000000E-1
Scans to average: 1
Electric dark correction enabled: true
Nonlinearity correction enabled: false
Boxcar width: 0
XAxis mode: Wavelengths
Number of Pixels in Spectrum: 2048
>>>>>Begin Spectral Data<<<<<
223.165	-13.81
223.4	-13.81
223.635	-13.81
223.869	-14.81
224.104	-32.81
224.338	-7.81
224.573	-0.81
224.808	-8.81
225.042	-1.81
225.277	-27.81
225.511	4.19
225.746	5.19
225.98	11.19
226.215	11.19
226.449	15.19
226.683	31.19
226.918	11.19
227.152	19.19
227.387	31.19
227.621	38.19
227.856	53.19
228.09	47.19
228.324	46.19
228.559	58.19
228.793	60.19
229.027	71.19
229.262	65.19
229.496	60.19
229.73	71.19
229.964	63.19
230.199	61.19
230.433	83.19
230.667	88.19
230.901	68.19
231.136	93.19
231.37	72.19
231.604	76.19
231.838	84.19
232.072	73.19
232.306	72.19
232.541	94.19
232.775	91.19
233.009	80.19
233.243	79.19
233.477	78.19
233.711	92.19
233.945	72.19
234.179	88.19
234.413	87.19
234.647	84.19
234.881	82.19
235.115	88.19
235.349	91.19
235.583	83.19
235.817	78.19
236.051	79.19
236.285	73.19
236.519	75.19
236.753	80.19
236.987	71.19
237.221	87.19
237.455	77.19
237.689	71.19
237.922	68.19
238.156	90.19
238.39	69.19
238.624	85.19
238.858	75.19
239.091	72.19
239.325	84.19
239.559	72.19
239.793	76.19
240.027	79.19
240.26	75.19
240.494	86.19
240.728	79.19
240.961	74.19
241.195	85.19
241.429	73.19
241.662	85.19
241.896	67.19
242.13	74.19
242.363	91.19
242.597	81.19
242.83	68.19
243.064	75.19
243.298	80.19
243.531	90.19
243.765	76.19
243.998	65.19
244.232	80.19
244.465	83.19
244.699	77.19
244.932	79.19
245.166	85.19
245.399	78.19
245.633	75.19
245.866	67.19
246.099	83.19
246.333	75.19
246.566	76.19
246.8	92.19
247.033	75.19
247.266	83.19
247.5	74.19
247.733	60.19
247.966	75.19
248.2	89.19
248.433	69.19
248.666	80.19
248.899	59.19
249.133	82.19
249.366	87.19
249.599	83.19
249.832	83.19
250.066	71.19
250.299	68.19
250.532	87.19
250.765	92.19
250.998	78.19
251.231	64.19
251.465	71.19
251.698	62.19
251.931	67.19
252.164	67.19
252.397	68.19
252.63	91.19
252.863	76.19
253.096	72.19
253.329	77.19
253.562	67.19
253.795	86.19
254.028	78.19
254.261	94.19
254.494	82.19
254.727	75.19
254.96	74.19
255.193	84.19
255.426	78.19
255.659	80.19
255.892	74.19
256.124	71.19
256.357	76.19
256.59	85.19
256.823	91.19
257.056	90.19
257.289	58.19
257.521	61.19
257.754	72.19
257.987	77.19
258.22	95.19
258.452	81.19
258.685	72.19
258.918	74.19
259.151	79.19
259.383	77.19
259.616	93.19
259.849	71.19
260.081	79.19
260.314	70.19
260.547	81.19
260.779	79.19
261.012	87.19
261.244	70.19
261.477	84.19
261.71	89.19
261.942	82.19
262.175	92.19
262.407	82.19
262.64	92.19
262.872	80.19
263.105	72.19
263.337	77.19
263.57	92.19
263.802	77.19
264.035	83.19
264.267	75.19
264.499	95.19
264.732	87.19
264.964	84.19
265.197	88.19
265.429	79.19
265.661	92.19
265.894	84.19
266.126	76.19
266.358	86.19
266.591	84.19
266.823	85.19
267.055	90.19
267.287	71.19
267.52	82.19
267.752	83.19
267.984	107.19
268.216	85.19
268.448	89.19
268.681	86.19
268.913	96.19
269.145	87.19
269.377	76.19
269.609	91.19
269.841	79.19
270.073	92.19
270.306	76.19
270.538	84.19
270.77	76.19
271.002	82.19
271.234	77.19
271.466	99.19
271.698	83.19
271.93	68.19
272.162	93.19
272.394	87.19
272.626	89.19
272.858	76.19
273.09	81.19
273.322	79.19
273.553	89.19
273.785	88.19
274.017	81.19
274.249	83.19
274.481	73.19
274.713	90.19
274.945	97.19
275.176	77.19
275.408	66.19
275.64	92.19
275.872	75.19
276.104	85.19
276.335	99.19
276.567	88.19
276.799	68.19
277.031	81.19
277.262	92.19
277.494	77.19
277.726	76.19
277.957	78.19
278.189	69.19
278.421	82.19
278.652	90.19
278.884	89.19
279.115	77.19
279.347	69.19
279.579	93.19
279.81	94.19
280.042	89.19
280.273	76.19
280.505	84.19
280.736	89.19
280.968	97.19
281.199	92.19
281.431	73.19
281.662	93.19
281.894	88.19
282.125	83.19
282.356	92.19
282.588	88.19
282.819	93.19
283.051	84.19
283.282	91.19
283.513	90.19
283.745	80.19
283.976	85.19
284.207	76.19
284.439	87.19
284.67	92.19
284.901	70.19
285.132	83.19
285.364	89.19
285.595	71.19
285.826	80.19
286.057	93.19
286.288	87.19
286.52	96.19
286.751	74.19
286.982	83.19
287.213	85.19
287.444	78.19
287.675	74.19
287.906	90.19
288.138	72.19
288.369	77.19
288.6	90.19
288.831	92.19
289.062	68.19
289.293	95.19
289.524	76.19
289.755	79.19
289.986	95.19
290.217	92.19
290.448	93.19
290.679	78.19
290.91	109.19
291.141	79.19
291.371	89.19
291.602	87.19
291.833	69.19
292.064	84.19
292.295	87.19
292.526	77.19
292.757	78.19
292.987	91.19
293.218	81.19
293.449	92.19
293.68	93.19
293.91	92.19
294.141	84.19
294.372	87.19
294.603	67.19
294.833	81.19
295.064	89.19
295.295	73.19
295.525	91.19
295.756	73.19
295.987	106.19
296.217	87.19
296.448	94.19
296.679	77.19
296.909	90.19
297.14	95.19
297.37	97.19
297.601	77.19
297.831	80.19
298.062	96.19
298.292	73.19
298.523	81.19
298.753	75.19
298.984	85.19
299.214	95.19
299.445	87.19
299.675	97.19
299.905	99.19
300.136	91.19
300.366	91.19
300.597	95.19
300.827	99.19
301.057	78.19
301.288	80.19
301.518	92.19
301.748	81.19
301.979	103.19
302.209	88.19
302.439	92.19
302.669	92.19
302.9	102.19
303.13	89.19
303.36	91.19
303.59	80.19
303.82	80.19
304.051	75.19
304.281	75.19
304.511	88.19
304.741	92.19
304.971	89.19
305.201	84.19
305.431	79.19
305.661	89.19
305.891	81.19
306.121	75.19
306.352	83.19
306.582	98.19
306.812	77.19
307.042	91.19
307.272	86.19
307.502	84.19
307.731	94.19
307.961	84.19
308.191	96.19
308.421	83.19
308.651	79.19
308.881	94.19
309.111	88.19
309.341	90.19
309.571	88.19
309.8	67.19
310.03	85.19
310.26	89.19
310.49	92.19
310.72	85.19
310.949	88.19
311.179	82.19
311.409	89.19
311.639	75.19
311.868	94.19
312.098	96.19
312.328	71.19
312.557	88.19
312.787	81.19
313.017	93.19
313.246	85.19
313.476	91.19
313.706	92.19
313.935	87.19
314.165	76.19
314.394	78.19
314.624	76.19
314.853	90.19
315.083	76.19
315.312	90.19
315.542	95.19
315.771	81.19
316.001	88.19
316.23	86.19
316.46	79.19
316.689	87.19
316.919	93.19
317.148	84.19
317.377	85.19
317.607	99.19
317.836	78.19
318.065	90.19
318.295	84.19
318.524	77.19
318.753	102.19
318.983	81.19
319.212	80.19
319.441	79.19
319.67	73.19
319.9	91.19
320.129	77.19
320.358	90.19
320.587	83.19
320.816	86.19
321.046	85.19
321.275	88.19
321.504	71.19
321.733	91.19
321.962	83.19
322.191	90.19
322.42	75.19
322.649	91.19
322.878	84.19
323.108	87.19
323.337	101.19
323.566	96.19
323.795	96.19
324.024	89.19
324.253	92.19
324.482	86.19
324.71	78.19
324.939	102.19
325.168	96.19
325.397	79.19
325.626	86.19
325.855	78.19
326.084	77.19
326.313	99.19
326.542	88.19
326.77	91.19
326.999	81.19
327.228	79.19
327.457	82.19
327.686	84.19
327.914	83.19
328.143	81.19
328.372	90.19
328.6	92.19
328.829	85.19
329.058	92.19
329.287	89.19
329.515	85.19
329.744	87.19
329.972	82.19
330.201	89.19
330.43	84.19
330.658	88.19
330.887	87.19
331.115	75.19
331.344	92.19
331.572	101.19
331.801	88.19
332.03	76.19
332.258	78.19
332.486	87.19
332.715	84.19
332.943	68.19
333.172	99.19
333.4	78.19
333.629	85.19
333.857	85.19
334.085	78.19
334.314	93.19
334.542	87.19
334.771	73.19
334.999	99.19
335.227	79.19
335.455	95.19
335.684	85.19
335.912	94.19
336.14	92.19
336.369	87.19
336.597	87.19
336.825	69.19
337.053	95.19
337.281	71.19
337.51	90.19
337.738	92.19
337.966	89.19
338.194	76.19
338.422	79.19
338.65	89.19
338.878	88.19
339.106	74.19
339.334	91.19
339.562	83.19
339.79	90.19
340.018	98.19
340.246	96.19
340.474	86.19
340.702	79.19
340.93	96.19
341.158	82.19
341.386	76.19
341.614	86.19
341.842	83.19
342.07	81.19
342.298	80.19
342.526	89.19
342.754	90.19
342.981	83.19
343.209	92.19
343.437	92.19
343.665	61.19
343.893	86.19
344.12	84.19
344.348	86.19
344.576	87.19
344.804	83.19
345.031	83.19
345.259	93.19
345.487	73.19
345.714	82.19
345.942	73.19
346.17	87.19
346.397	91.19
346.625	89.19
346.853	74.19
347.08	74.19
347.308	87.19
347.535	81.19
347.763	69.19
347.99	96.19
348.218	82.19
348.445	79.19
348.673	94.19
348.9	89.19
349.128	84.19
349.355	95.19
349.583	77.19
349.81	80.19
350.037	87.19
350.265	91.19
350.492	77.19
350.72	91.19
350.947	78.19
351.174	91.19
351.402	88.19
351.629	78.19
351.856	78.19
352.083	91.19
352.311	78.19
352.538	79.19
352.765	92.19
352.992	88.19
353.22	77.19
353.447	81.19
353.674	95.19
353.901	77.19
354.128	95.19
354.355	86.19
354.583	82.19
354.81	74.19
355.037	81.19
355.264	90.19
355.491	100.19
355.718	89.19
355.945	83.19
356.172	90.19
356.399	82.19
356.626	87.19
356.853	88.19
357.08	88.19
357.307	93.19
357.534	79.19
357.761	73.19
357.988	95.19
358.215	81.19
358.441	85.19
358.668	92.19
358.895	94.19
359.122	75.19
359.349	86.19
359.576	80.19
359.802	69.19
360.029	93.19
360.256	85.19
360.483	74.19
360.709	71.19
360.936	96.19
361.163	85.19
361.39	95.19
361.616	106.19
361.843	77.19
362.07	78.19
362.296	95.19
362.523	89.19
362.749	91.19
362.976	92.19
363.203	101.19
363.429	97.19
363.656	92.19
363.882	87.19
364.109	103.19
364.335	101.19
364.562	112.19
364.788	83.19
365.015	97.19
365.241	104.19
365.468	101.19
365.694	84.19
365.92	91.19
366.147	89.19
366.373	81.19
366.599	79.19
366.826	99.19
367.052	85.19
367.278	83.19
367.505	90.19
367.731	83.19
367.957	85.19
368.184	89.19
368.41	76.19
368.636	72.19
368.862	96.19
369.089	89.19
369.315	87.19
369.541	80.19
369.767	81.19
369.993	78.19
370.219	93.19
370.445	84.19
370.672	80.19
370.898	76.19
371.124	81.19
371.35	67.19
371.576	81.19
371.802	89.19
372.028	92.19
372.254	85.19
372.48	100.19
372.706	85.19
372.932	89.19
373.158	69.19
373.384	78.19
373.61	84.19
373.835	92.19
374.061	83.19
374.287	88.19
374.513	83.19
374.739	89.19
374.965	88.19
375.191	88.19
375.416	78.19
375.642	95.19
375.868	83.19
376.094	86.19
376.319	87.19
376.545	78.19
376.771	93.19
376.997	87.19
377.222	85.19
377.448	79.19
377.674	83.19
377.899	92.19
378.125	78.19
378.35	93.19
378.576	89.19
378.802	67.19
379.027	87.19
379.253	83.19
379.478	91.19
379.704	83.19
379.929	76.19
380.155	89.19
380.38	86.19
380.606	88.19
380.831	90.19
381.057	90.19
381.282	91.19
381.507	87.19
381.733	98.19
381.958	109.19
382.184	89.19
382.409	89.19
382.634	92.19
382.86	92.19
383.085	87.19
383.31	91.19
383.535	100.19
383.761	90.19
383.986	91.19
384.211	107.19
384.436	84.19
384.662	77.19
384.887	93.19
385.112	84.19
385.337	80.19
385.562	89.19
385.787	87.19
386.013	95.19
386.238	90.19
386.463	93.19
386.688	99.19
386.913	85.19
387.138	99.19
387.363	81.19
387.588	95.19
387.813	84.19
388.038	87.19
388.263	102.19
388.488	92.19
388.713	94.19
388.938	76.19
389.163	81.19
389.387	76.19
389.612	75.19
389.837	79.19
390.062	85.19
390.287	88.19
390.512	79.19
390.736	86.19
390.961	88.19
391.186	75.19
391.411	85.19
391.636	77.19
391.86	77.19
392.085	75.19
392.31	75.19
392.534	83.19
392.759	101.19
392.984	106.19
393.208	136.19
393.433	195.19
393.658	157.19
393.882	112.19
394.107	94.19
394.331	101.19
394.556	102.19
394.78	106.19
395.005	81.19
395.229	86.19
395.454	79.19
395.678	95.19
395.903	111.19
396.127	106.19
396.352	119.19
396.576	119.19
396.801	155.19
397.025	168.19
397.249	137.19
397.474	90.19
397.698	99.19
397.922	96.19
398.147	82.19
398.371	95.19
398.595	99.19
398.82	81.19
399.044	88.19
399.268	81.19
399.492	83.19
399.717	63.19
399.941	87.19
400.165	86.19
400.389	93.19
400.613	95.19
400.837	87.19
401.062	78.19
401.286	89.19
401.51	81.19
401.734	88.19
401.958	77.19
402.182	87.19
402.406	87.19
402.63	83.19
402.854	92.19
403.078	73.19
403.302	99.19
403.526	71.19
403.75	77.19
403.974	76.19
404.198	81.19
404.422	87.19
404.645	98.19
404.869	91.19
405.093	80.19
405.317	83.19
405.541	77.19
405.765	89.19
405.988	96.19
406.212	71.19
406.436	75.19
406.66	88.19
406.883	89.19
407.107	80.19
407.331	80.19
407.555	85.19
407.778	106.19
408.002	100.19
408.226	83.19
408.449	90.19
408.673	89.19
408.896	83.19
409.12	81.19
409.344	79.19
409.567	77.19
409.791	76.19
410.014	95.19
410.238	83.19
410.461	78.19
410.685	93.19
410.908	88.19
411.132	68.19
411.355	71.19
411.578	83.19
411.802	69.19
412.025	76.19
412.249	86.19
412.472	75.19
412.695	88.19
412.919	77.19
413.142	78.19
413.365	94.19
413.589	75.19
413.812	90.19
414.035	96.19
414.258	86.19
414.482	87.19
414.705	96.19
414.928	69.19
415.151	82.19
415.374	87.19
415.597	81.19
415.821	81.19
416.044	89.19
416.267	83.19
416.49	83.19
416.713	95.19
416.936	89.19
417.159	64.19
417.382	76.19
417.605	86.19
417.828	89.19
418.051	75.19
418.274	79.19
418.497	75.19
418.72	70.19
418.943	89.19
419.166	95.19
419.389	100.19
419.611	65.19
419.834	89.19
420.057	88.19
420.28	88.19
420.503	85.19
420.726	80.19
420.948	81.19
421.171	98.19
421.394	91.19
421.617	100.19
421.839	91.19
422.062	109.19
422.285	133.19
422.507	185.19
422.73	255.19
422.953	245.19
423.175	139.19
423.398	125.19
423.621	108.19
423.843	91.19
424.066	87.19
424.288	72.19
424.511	89.19
424.733	87.19
424.956	74.19
425.178	93.19
425.401	87.19
425.623	79.19
425.846	78.19
426.068	94.19
426.291	88.19
426.513	92.19
426.735	99.19
426.958	93.19
427.18	92.19
427.402	81.19
427.625	78.19
427.847	92.19
428.069	93.19
428.292	106.19
428.514	107.19
428.736	103.19
428.958	106.19
429.181	95.19
429.403	77.19
429.625	83.19
429.847	85.19
430.069	112.19
430.292	123.19
430.514	121.19
430.736	103.19
430.958	110.19
431.18	91.19
431.402	100.19
431.624	77.19
431.846	111.19
432.068	104.19
432.29	99.19
432.512	87.19
432.734	86.19
432.956	87.19
433.178	98.19
433.4	88.19
433.622	75.19
433.844	91.19
434.066	78.19
434.287	94.19
434.509	71.19
434.731	91.19
434.953	71.19
435.175	85.19
435.397	98.19
435.618	96.19
435.84	81.19
436.062	74.19
436.284	78.19
436.505	92.19
436.727	81.19
436.949	87.19
437.17	81.19
437.392	91.19
437.614	89.19
437.835	77.19
438.057	84.19
438.278	89.19
438.5	95.19
438.721	82.19
438.943	80.19
439.165	80.19
439.386	95.19
439.608	74.19
439.829	76.19
440.05	76.19
440.272	74.19
440.493	81.19
440.715	91.19
440.936	81.19
441.158	89.19
441.379	70.19
441.6	90.19
441.822	87.19
442.043	81.19
442.264	82.19
442.486	106.19
442.707	126.19
442.928	99.19
443.149	94.19
443.371	128.19
443.592	162.19
443.813	135.19
444.034	92.19
444.255	91.19
444.476	72.19
444.698	89.19
444.919	80.19
445.14	169.19
445.361	129.19
445.582	177.19
445.803	144.19
446.024	95.19
446.245	77.19
446.466	69.19
446.687	85.19
446.908	86.19
447.129	85.19
447.35	89.19
447.571	73.19
447.792	93.19
448.013	82.19
448.234	84.19
448.455	82.19
448.675	90.19
448.896	89.19
449.117	79.19
449.338	96.19
449.559	91.19
449.779	81.19
450	97.19
450.221	82.19
450.442	85.19
450.662	76.19
450.883	85.19
451.104	90.19
451.324	84.19
451.545	77.19
451.766	66.19
451.986	81.19
452.207	91.19
452.428	81.19
452.648	89.19
452.869	97.19
453.089	75.19
453.31	85.19
453.53	86.19
453.751	107.19
453.971	91.19
454.192	82.19
454.412	76.19
454.633	86.19
454.853	75.19
455.073	68.19
455.294	88.19
455.514	72.19
455.734	91.19
455.955	81.19
456.175	87.19
456.395	73.19
456.616	85.19
456.836	76.19
457.056	79.19
457.276	81.19
457.497	84.19
457.717	101.19
457.937	91.19
458.157	98.19
458.377	98.19
458.598	86.19
458.818	102.19
459.038	91.19
459.258	75.19
459.478	86.19
459.698	87.19
459.918	85.19
460.138	93.19
460.358	90.19
460.578	95.19
460.798	113.19
461.018	108.19
461.238	90.19
461.458	96.19
461.678	71.19
461.898	75.19
462.118	91.19
462.338	86.19
462.558	85.19
462.777	77.19
462.997	89.19
463.217	86.19
463.437	81.19
463.657	63.19
463.876	80.19
464.096	73.19
464.316	69.19
464.536	96.19
464.755	98.19
464.975	85.19
465.195	91.19
465.414	85.19
465.634	77.19
465.854	83.19
466.073	72.19
466.293	59.19
466.512	85.19
466.732	79.19
466.951	74.19
467.171	87.19
467.391	84.19
467.61	90.19
467.829	87.19
468.049	80.19
468.268	69.19
468.488	85.19
468.707	74.19
468.927	83.19
469.146	75.19
469.365	92.19
469.585	92.19
469.804	80.19
470.023	92.19
470.243	85.19
470.462	79.19
470.681	92.19
470.901	98.19
471.12	97.19
471.339	88.19
471.558	88.19
471.777	97.19
471.997	89.19
472.216	79.19
472.435	87.19
472.654	94.19
472.873	87.19
473.092	92.19
473.311	86.19
473.53	72.19
473.749	85.19
473.968	87.19
474.187	72.19
474.406	76.19
474.625	85.19
474.844	77.19
475.063	86.19
475.282	81.19
475.501	81.19
475.72	107.19
475.939	89.19
476.158	96.19
476.377	91.19
476.596	89.19
476.814	84.19
477.033	87.19
477.252	95.19
477.471	84.19
477.69	92.19
477.908	84.19
478.127	89.19
478.346	92.19
478.564	95.19
478.783	78.19
479.002	81.19
479.22	89.19
479.439	74.19
479.658	93.19
479.876	74.19
480.095	80.19
480.313	92.19
480.532	87.19
480.751	83.19
480.969	89.19
481.188	76.19
481.406	101.19
481.624	100.19
481.843	104.19
482.061	87.19
482.28	84.19
482.498	85.19
482.717	83.19
482.935	91.19
483.153	88.19
483.372	88.19
483.59	83.19
483.808	86.19
484.027	95.19
484.245	87.19
484.463	77.19
484.681	79.19
484.9	95.19
485.118	84.19
485.336	100.19
485.554	101.19
485.772	77.19
485.99	88.19
486.209	81.19
486.427	75.19
486.645	73.19
486.863	95.19
487.081	95.19
487.299	102.19
487.517	92.19
487.735	99.19
487.953	129.19
488.171	92.19
488.389	69.19
488.607	83.19
488.825	90.19
489.043	83.19
489.261	91.19
489.479	89.19
489.696	82.19
489.914	84.19
490.132	80.19
490.35	89.19
490.568	91.19
490.786	93.19
491.003	72.19
491.221	97.19
491.439	89.19
491.657	94.19
491.874	87.19
492.092	94.19
492.31	82.19
492.527	73.19
492.745	90.19
492.963	88.19
493.18	81.19
493.398	90.19
493.615	95.19
493.833	89.19
494.05	83.19
494.268	83.19
494.485	91.19
494.703	91.19
494.92	69.19
495.138	87.19
495.355	93.19
495.573	73.19
495.79	89.19
496.008	70.19
496.225	98.19
496.442	87.19
496.66	88.19
496.877	83.19
497.094	83.19
497.312	91.19
497.529	98.19
497.746	84.19
497.963	83.19
498.181	92.19
498.398	103.19
498.615	97.19
498.832	95.19
499.049	89.19
499.267	92.19
499.484	86.19
499.701	93.19
499.918	83.19
500.135	91.19
500.352	90.19
500.569	83.19
500.786	106.19
501.003	99.19
501.22	78.19
501.437	89.19
501.654	112.19
501.871	90.19
502.088	88.19
502.305	102.19
502.522	103.19
502.739	86.19
502.956	96.19
503.172	82.19
503.389	91.19
503.606	90.19
503.823	85.19
504.04	91.19
504.256	112.19
504.473	98.19
504.69	91.19
504.907	88.19
505.123	77.19
505.34	110.19
505.557	84.19
505.773	91.19
505.99	83.19
506.207	93.19
506.423	91.19
506.64	92.19
506.856	89.19
507.073	90.19
507.289	93.19
507.506	89.19
507.722	86.19
507.939	72.19
508.155	87.19
508.372	72.19
508.588	92.19
508.805	89.19
509.021	91.19
509.238	95.19
509.454	88.19
509.67	85.19
509.887	96.19
510.103	87.19
510.319	84.19
510.536	93.19
510.752	87.19
510.968	83.19
511.184	98.19
511.401	92.19
511.617	90.19
511.833	81.19
512.049	80.19
512.265	88.19
512.481	94.19
512.698	87.19
512.914	81.19
513.13	78.19
513.346	87.19
513.562	96.19
513.778	91.19
513.994	96.19
514.21	93.19
514.426	97.19
514.642	85.19
514.858	90.19
515.074	82.19
515.29	89.19
515.506	83.19
515.721	66.19
515.937	81.19
516.153	95.19
516.369	87.19
516.585	96.19
516.801	100.19
517.016	100.19
517.232	97.19
517.448	95.19
517.664	99.19
517.879	91.19
518.095	89.19
518.311	86.19
518.527	99.19
518.742	108.19
518.958	114.19
