Data from 15780_2_HRD10591_00002.txt Node
Date: Mon Jan 19 14:19:04 EST 2026
User: Yrep
Spectrometer: HR+D1059
Trigger mode: 1
Integration Time (sec): 1.000000E-1
Scans to average: 1
Electric dark correction enabled: true
Nonlinearity correction enabled: false
Boxcar width: 0
XAxis mode: Wavelengths
Number of Pixels in Spectrum: 2048
>>>>>Begin Spectral Data<<<<<
223.165	-16.94
223.4	-16.94
223.635	-16.94
223.869	-17.94
224.104	-18.94
224.338	-27.94
224.573	-30.94
224.808	-6.94
225.042	-15.94
225.277	2.06
225.511	6.06
225.746	6.06
225.98	2.06
226.215	12.06
226.449	25.06
226.683	28.06
226.918	16.06
227.152	38.06
227.387	34.06
227.621	34.06
227.856	50.06
228.09	47.06
228.324	46.06
228.559	51.06
228.793	48.06
229.027	67.06
229.262	72.06
229.496	62.06
229.73	61.06
229.964	80.06
230.199	63.06
230.433	65.06
230.667	81.06
230.901	81.06
231.136	76.06
231.37	69.06
231.604	72.06
231.838	76.06
232.072	75.06
232.306	83.06
232.541	89.06
232.775	76.06
233.009	72.06
233.243	81.06
233.477	72.06
233.711	68.06
233.945	64.06
234.179	82.06
234.413	93.06
234.647	74.06
234.881	81.06
235.115	66.06
235.349	65.06
235.583	87.06
235.817	78.06
236.051	74.06
236.285	87.06
236.519	73.06
236.753	75.06
236.987	77.06
237.221	66.06
237.455	84.06
237.689	75.06
237.922	65.06
238.156	68.06
238.39	75.06
238.624	78.06
238.858	71.06
239.091	56.06
239.325	77.06
239.559	83.06
239.793	74.06
240.027	75.06
240.26	71.06
240.494	91.06
240.728	62.06
240.961	73.06
241.195	64.06
241.429	77.06
241.662	66.06
241.896	78.06
242.13	88.06
242.363	85.06
242.597	70.06
242.83	65.06
243.064	61.06
243.298	73.06
243.531	78.06
243.765	67.06
243.998	75.06
244.232	73.06
244.465	76.06
244.699	61.06
244.932	76.06
245.166	73.06
245.399	73.06
245.633	74.06
245.866	75.06
246.099	70.06
246.333	70.06
246.566	78.06
246.8	65.06
247.033	73.06
247.266	67.06
247.5	75.06
247.733	80.06
247.966	81.06
248.2	59.06
248.433	68.06
248.666	69.06
248.899	82.06
249.133	82.06
249.366	64.06
249.599	70.06
249.832	85.06
250.066	86.06
250.299	84.06
250.532	86.06
250.765	74.06
250.998	67.06
251.231	83.06
251.465	83.06
251.698	76.06
251.931	73.06
252.164	84.06
252.397	88.06
252.63	75.06
252.863	81.06
253.096	73.06
253.329	69.06
253.562	78.06
253.795	79.06
254.028	67.06
254.261	73.06
254.494	79.06
254.727	84.06
254.96	86.06
255.193	79.06
255.426	72.06
255.659	82.06
255.892	77.06
256.124	67.06
256.357	74.06
256.59	94.06
256.823	89.06
257.056	93.06
257.289	81.06
257.521	74.06
257.754	61.06
257.987	60.06
258.22	83.06
258.452	82.06
258.685	72.06
258.918	95.06
259.151	88.06
259.383	49.06
259.616	65.06
259.849	72.06
260.081	76.06
260.314	83.06
260.547	83.06
260.779	74.06
261.012	77.06
261.244	71.06
261.477	90.06
261.71	73.06
261.942	68.06
262.175	83.06
262.407	75.06
262.64	81.06
262.872	69.06
263.105	67.06
263.337	89.06
263.57	73.06
263.802	81.06
264.035	82.06
264.267	85.06
264.499	75.06
264.732	75.06
264.964	69.06
265.197	76.06
265.429	74.06
265.661	61.06
265.894	81.06
266.126	87.06
266.358	78.06
266.591	89.06
266.823	80.06
267.055	93.06
267.287	71.06
267.52	82.06
267.752	81.06
267.984	74.06
268.216	71.06
268.448	88.06
268.681	90.06
268.913	78.06
269.145	75.06
269.377	74.06
269.609	73.06
269.841	75.06
270.073	74.06
270.306	70.06
270.538	81.06
270.77	85.06
271.002	80.06
271.234	86.06
271.466	85.06
271.698	88.06
271.93	88.06
272.162	83.06
272.394	78.06
272.626	65.06
272.858	73.06
273.09	89.06
273.322	87.06
273.553	82.06
273.785	87.06
274.017	72.06
274.249	102.06
274.481	70.06
274.713	62.06
274.945	78.06
275.176	64.06
275.408	83.06
275.64	87.06
275.872	83.06
276.104	72.06
276.335	83.06
276.567	77.06
276.799	81.06
277.031	81.06
277.262	68.06
277.494	90.06
277.726	93.06
277.957	74.06
278.189	88.06
278.421	102.06
278.652	79.06
278.884	74.06
279.115	85.06
279.347	88.06
279.579	77.06
279.81	71.06
280.042	81.06
280.273	89.06
280.505	81.06
280.736	89.06
280.968	88.06
281.199	86.06
281.431	75.06
281.662	87.06
281.894	73.06
282.125	74.06
282.356	84.06
282.588	83.06
282.819	67.06
283.051	81.06
283.282	77.06
283.513	81.06
283.745	90.06
283.976	81.06
284.207	90.06
284.439	86.06
284.67	78.06
284.901	76.06
285.132	99.06
285.364	76.06
285.595	82.06
285.826	83.06
286.057	95.06
286.288	86.06
286.52	88.06
286.751	76.06
286.982	79.06
287.213	82.06
287.444	91.06
287.675	97.06
287.906	98.06
288.138	82.06
288.369	78.06
288.6	81.06
288.831	76.06
289.062	75.06
289.293	80.06
289.524	76.06
289.755	84.06
289.986	71.06
290.217	81.06
290.448	99.06
290.679	84.06
290.91	91.06
291.141	81.06
291.371	80.06
291.602	70.06
291.833	85.06
292.064	89.06
292.295	86.06
292.526	83.06
292.757	83.06
292.987	68.06
293.218	73.06
293.449	72.06
293.68	79.06
293.91	86.06
294.141	81.06
294.372	72.06
294.603	84.06
294.833	83.06
295.064	66.06
295.295	85.06
295.525	86.06
295.756	74.06
295.987	95.06
296.217	83.06
296.448	87.06
296.679	91.06
296.909	72.06
297.14	85.06
297.37	76.06
297.601	74.06
297.831	82.06
298.062	86.06
298.292	71.06
298.523	74.06
298.753	74.06
298.984	80.06
299.214	74.06
299.445	76.06
299.675	73.06
299.905	83.06
300.136	74.06
300.366	87.06
300.597	83.06
300.827	69.06
301.057	85.06
301.288	82.06
301.518	84.06
301.748	84.06
301.979	84.06
302.209	79.06
302.439	83.06
302.669	84.06
302.9	78.06
303.13	88.06
303.36	89.06
303.59	83.06
303.82	82.06
304.051	95.06
304.281	90.06
304.511	95.06
304.741	89.06
304.971	82.06
305.201	78.06
305.431	84.06
305.661	100.06
305.891	89.06
306.121	76.06
306.352	83.06
306.582	83.06
306.812	91.06
307.042	77.06
307.272	90.06
307.502	84.06
307.731	73.06
307.961	97.06
308.191	89.06
308.421	81.06
308.651	84.06
308.881	79.06
309.111	76.06
309.341	80.06
309.571	95.06
309.8	93.06
310.03	80.06
310.26	91.06
310.49	91.06
310.72	82.06
310.949	93.06
311.179	88.06
311.409	88.06
311.639	84.06
311.868	90.06
312.098	85.06
312.328	74.06
312.557	72.06
312.787	85.06
313.017	79.06
313.246	89.06
313.476	81.06
313.706	73.06
313.935	81.06
314.165	97.06
314.394	79.06
314.624	89.06
314.853	81.06
315.083	85.06
315.312	75.06
315.542	79.06
315.771	88.06
316.001	88.06
316.23	86.06
316.46	73.06
316.689	79.06
316.919	86.06
317.148	63.06
317.377	82.06
317.607	67.06
317.836	96.06
318.065	87.06
318.295	87.06
318.524	76.06
318.753	73.06
318.983	70.06
319.212	81.06
319.441	81.06
319.67	91.06
319.9	88.06
320.129	96.06
320.358	89.06
320.587	74.06
320.816	81.06
321.046	73.06
321.275	74.06
321.504	86.06
321.733	89.06
321.962	93.06
322.191	88.06
322.42	85.06
322.649	75.06
322.878	87.06
323.108	83.06
323.337	67.06
323.566	88.06
323.795	81.06
324.024	73.06
324.253	84.06
324.482	83.06
324.71	89.06
324.939	80.06
325.168	89.06
325.397	69.06
325.626	85.06
325.855	81.06
326.084	69.06
326.313	75.06
326.542	86.06
326.77	75.06
326.999	81.06
327.228	86.06
327.457	74.06
327.686	97.06
327.914	83.06
328.143	76.06
328.372	85.06
328.6	84.06
328.829	92.06
329.058	82.06
329.287	70.06
329.515	70.06
329.744	76.06
329.972	69.06
330.201	80.06
330.43	82.06
330.658	71.06
330.887	79.06
331.115	75.06
331.344	80.06
331.572	82.06
331.801	84.06
332.03	83.06
332.258	81.06
332.486	85.06
332.715	81.06
332.943	85.06
333.172	87.06
333.4	82.06
333.629	84.06
333.857	81.06
334.085	102.06
334.314	87.06
334.542	78.06
334.771	92.06
334.999	88.06
335.227	91.06
335.455	90.06
335.684	88.06
335.912	79.06
336.14	71.06
336.369	89.06
336.597	92.06
336.825	94.06
337.053	102.06
337.281	91.06
337.51	88.06
337.738	91.06
337.966	87.06
338.194	90.06
338.422	81.06
338.65	81.06
338.878	83.06
339.106	90.06
339.334	70.06
339.562	91.06
339.79	85.06
340.018	69.06
340.246	76.06
340.474	89.06
340.702	73.06
340.93	86.06
341.158	52.06
341.386	69.06
341.614	72.06
341.842	67.06
342.07	81.06
342.298	75.06
342.526	88.06
342.754	90.06
342.981	76.06
343.209	82.06
343.437	88.06
343.665	79.06
343.893	87.06
344.12	91.06
344.348	85.06
344.576	81.06
344.804	80.06
345.031	71.06
345.259	93.06
345.487	85.06
345.714	87.06
345.942	82.06
346.17	80.06
346.397	80.06
346.625	89.06
346.853	89.06
347.08	72.06
347.308	88.06
347.535	99.06
347.763	74.06
347.99	85.06
348.218	85.06
348.445	72.06
348.673	88.06
348.9	82.06
349.128	82.06
349.355	80.06
349.583	73.06
349.81	79.06
350.037	73.06
350.265	84.06
350.492	81.06
350.72	83.06
350.947	87.06
351.174	73.06
351.402	75.06
351.629	81.06
351.856	83.06
352.083	85.06
352.311	79.06
352.538	74.06
352.765	85.06
352.992	95.06
353.22	87.06
353.447	88.06
353.674	102.06
353.901	81.06
354.128	95.06
354.355	79.06
354.583	75.06
354.81	85.06
355.037	76.06
355.264	83.06
355.491	86.06
355.718	78.06
355.945	79.06
356.172	84.06
356.399	76.06
356.626	74.06
356.853	74.06
357.08	83.06
357.307	91.06
357.534	78.06
357.761	82.06
357.988	95.06
358.215	91.06
358.441	87.06
358.668	76.06
358.895	81.06
359.122	85.06
359.349	70.06
359.576	82.06
359.802	77.06
360.029	88.06
360.256	82.06
360.483	73.06
360.709	77.06
360.936	99.06
361.163	87.06
361.39	69.06
361.616	66.06
361.843	88.06
362.07	97.06
362.296	96.06
362.523	90.06
362.749	91.06
362.976	121.06
363.203	104.06
363.429	91.06
363.656	85.06
363.882	90.06
364.109	93.06
364.335	113.06
364.562	114.06
364.788	82.06
365.015	93.06
365.241	85.06
365.468	98.06
365.694	97.06
365.92	79.06
366.147	78.06
366.373	83.06
366.599	75.06
366.826	71.06
367.052	90.06
367.278	93.06
367.505	87.06
367.731	79.06
367.957	71.06
368.184	66.06
368.41	78.06
368.636	76.06
368.862	89.06
369.089	91.06
369.315	79.06
369.541	81.06
369.767	84.06
369.993	71.06
370.219	59.06
370.445	84.06
370.672	99.06
370.898	74.06
371.124	93.06
371.35	77.06
371.576	89.06
371.802	80.06
372.028	93.06
372.254	85.06
372.48	76.06
372.706	98.06
372.932	98.06
373.158	87.06
373.384	103.06
373.61	111.06
373.835	91.06
374.061	101.06
374.287	87.06
374.513	93.06
374.739	85.06
374.965	96.06
375.191	86.06
375.416	93.06
375.642	80.06
375.868	88.06
376.094	98.06
376.319	96.06
376.545	79.06
376.771	76.06
376.997	75.06
377.222	77.06
377.448	80.06
377.674	90.06
377.899	80.06
378.125	69.06
378.35	91.06
378.576	95.06
378.802	90.06
379.027	80.06
379.253	83.06
379.478	83.06
379.704	86.06
379.929	89.06
380.155	88.06
380.38	90.06
380.606	90.06
380.831	82.06
381.057	95.06
381.282	94.06
381.507	81.06
381.733	81.06
381.958	96.06
382.184	85.06
382.409	74.06
382.634	85.06
382.86	74.06
383.085	80.06
383.31	89.06
383.535	106.06
383.761	92.06
383.986	87.06
384.211	81.06
384.436	81.06
384.662	96.06
384.887	84.06
385.112	81.06
385.337	97.06
385.562	88.06
385.787	103.06
386.013	87.06
386.238	83.06
386.463	81.06
386.688	95.06
386.913	72.06
387.138	91.06
387.363	97.06
387.588	92.06
387.813	85.06
388.038	82.06
388.263	87.06
388.488	88.06
388.713	87.06
388.938	79.06
389.163	80.06
389.387	75.06
389.612	73.06
389.837	82.06
390.062	85.06
390.287	85.06
390.512	82.06
390.736	100.06
390.961	88.06
391.186	95.06
391.411	81.06
391.636	83.06
391.86	86.06
392.085	83.06
392.31	98.06
392.534	84.06
392.759	109.06
392.984	129.06
393.208	203.06
393.433	245.06
393.658	182.06
393.882	124.06
394.107	101.06
394.331	109.06
394.556	117.06
394.78	98.06
395.005	81.06
395.229	64.06
395.454	84.06
395.678	98.06
395.903	101.06
396.127	118.06
396.352	134.06
396.576	124.06
396.801	184.06
397.025	188.06
397.249	135.06
397.474	115.06
397.698	93.06
397.922	74.06
398.147	89.06
398.371	91.06
398.595	89.06
398.82	70.06
399.044	91.06
399.268	78.06
399.492	70.06
399.717	90.06
399.941	97.06
400.165	81.06
400.389	80.06
400.613	90.06
400.837	86.06
401.062	86.06
401.286	92.06
401.51	86.06
401.734	72.06
401.958	75.06
402.182	68.06
402.406	88.06
402.63	84.06
402.854	73.06
403.078	85.06
403.302	84.06
403.526	71.06
403.75	82.06
403.974	66.06
404.198	73.06
404.422	93.06
404.645	98.06
404.869	97.06
405.093	89.06
405.317	83.06
405.541	76.06
405.765	83.06
405.988	65.06
406.212	77.06
406.436	97.06
406.66	81.06
406.883	95.06
407.107	89.06
407.331	85.06
407.555	85.06
407.778	107.06
408.002	107.06
408.226	89.06
408.449	63.06
408.673	85.06
408.896	74.06
409.12	85.06
409.344	93.06
409.567	92.06
409.791	89.06
410.014	111.06
410.238	97.06
410.461	91.06
410.685	83.06
410.908	79.06
411.132	93.06
411.355	88.06
411.578	86.06
411.802	67.06
412.025	79.06
412.249	82.06
412.472	73.06
412.695	94.06
412.919	89.06
413.142	79.06
413.365	72.06
413.589	77.06
413.812	96.06
414.035	70.06
414.258	82.06
414.482	84.06
414.705	70.06
414.928	73.06
415.151	89.06
415.374	89.06
415.597	80.06
415.821	87.06
416.044	74.06
416.267	86.06
416.49	69.06
416.713	68.06
416.936	71.06
417.159	82.06
417.382	84.06
417.605	77.06
417.828	71.06
418.051	89.06
418.274	84.06
418.497	72.06
418.72	81.06
418.943	80.06
419.166	90.06
419.389	87.06
419.611	80.06
419.834	74.06
420.057	84.06
420.28	67.06
420.503	72.06
420.726	80.06
420.948	86.06
421.171	93.06
421.394	90.06
421.617	115.06
421.839	97.06
422.062	114.06
422.285	139.06
422.507	180.06
422.73	239.06
422.953	215.06
423.175	173.06
423.398	118.06
423.621	104.06
423.843	100.06
424.066	95.06
424.288	91.06
424.511	78.06
424.733	90.06
424.956	93.06
425.178	82.06
425.401	77.06
425.623	84.06
425.846	89.06
426.068	88.06
426.291	70.06
426.513	90.06
426.735	80.06
426.958	90.06
427.18	93.06
427.402	90.06
427.625	94.06
427.847	72.06
428.069	93.06
428.292	96.06
428.514	101.06
428.736	100.06
428.958	114.06
429.181	111.06
429.403	83.06
429.625	90.06
429.847	107.06
430.069	139.06
430.292	132.06
430.514	138.06
430.736	106.06
430.958	119.06
431.18	104.06
431.402	67.06
431.624	100.06
431.846	102.06
432.068	113.06
432.29	91.06
432.512	85.06
432.734	79.06
432.956	77.06
433.178	81.06
433.4	72.06
433.622	86.06
433.844	72.06
434.066	89.06
434.287	87.06
434.509	93.06
434.731	71.06
434.953	70.06
435.175	100.06
435.397	86.06
435.618	91.06
435.84	86.06
436.062	81.06
436.284	73.06
436.505	94.06
436.727	87.06
436.949	86.06
437.17	79.06
437.392	77.06
437.614	84.06
437.835	78.06
438.057	69.06
438.278	78.06
438.5	88.06
438.721	84.06
438.943	91.06
439.165	85.06
439.386	83.06
439.608	89.06
439.829	78.06
440.05	91.06
440.272	81.06
440.493	92.06
440.715	76.06
440.936	78.06
441.158	82.06
441.379	78.06
441.6	94.06
441.822	82.06
442.043	85.06
442.264	101.06
442.486	121.06
442.707	131.06
442.928	99.06
443.149	102.06
443.371	123.06
443.592	173.06
443.813	175.06
444.034	108.06
444.255	95.06
444.476	96.06
444.698	99.06
444.919	94.06
445.14	167.06
445.361	173.06
445.582	207.06
445.803	176.06
446.024	119.06
446.245	98.06
446.466	87.06
446.687	86.06
446.908	76.06
447.129	85.06
447.35	71.06
447.571	99.06
447.792	82.06
448.013	81.06
448.234	77.06
448.455	75.06
448.675	83.06
448.896	83.06
449.117	70.06
449.338	70.06
449.559	82.06
449.779	83.06
450	79.06
450.221	87.06
450.442	80.06
450.662	76.06
450.883	95.06
451.104	86.06
451.324	81.06
451.545	87.06
451.766	86.06
451.986	79.06
452.207	86.06
452.428	93.06
452.648	79.06
452.869	92.06
453.089	106.06
453.31	90.06
453.53	105.06
453.751	89.06
453.971	86.06
454.192	78.06
454.412	85.06
454.633	64.06
454.853	75.06
455.073	67.06
455.294	82.06
455.514	86.06
455.734	76.06
455.955	79.06
456.175	83.06
456.395	77.06
456.616	74.06
456.836	96.06
457.056	82.06
457.276	94.06
457.497	85.06
457.717	86.06
457.937	94.06
458.157	110.06
458.377	119.06
458.598	113.06
458.818	105.06
459.038	69.06
459.258	74.06
459.478	82.06
459.698	80.06
459.918	84.06
460.138	82.06
460.358	81.06
460.578	92.06
460.798	95.06
461.018	104.06
461.238	81.06
461.458	96.06
461.678	85.06
461.898	89.06
462.118	91.06
462.338	69.06
462.558	83.06
462.777	89.06
462.997	71.06
463.217	81.06
463.437	79.06
463.657	72.06
463.876	81.06
464.096	93.06
464.316	62.06
464.536	83.06
464.755	80.06
464.975	74.06
465.195	84.06
465.414	72.06
465.634	86.06
465.854	75.06
466.073	76.06
466.293	79.06
466.512	87.06
466.732	78.06
466.951	67.06
467.171	82.06
467.391	94.06
467.61	72.06
467.829	90.06
468.049	76.06
468.268	89.06
468.488	89.06
468.707	90.06
468.927	80.06
469.146	99.06
469.365	95.06
469.585	76.06
469.804	75.06
470.023	79.06
470.243	70.06
470.462	74.06
470.681	84.06
470.901	77.06
471.12	82.06
471.339	74.06
471.558	70.06
471.777	99.06
471.997	86.06
472.216	82.06
472.435	83.06
472.654	80.06
472.873	89.06
473.092	95.06
473.311	100.06
473.53	83.06
473.749	83.06
473.968	88.06
474.187	101.06
474.406	91.06
474.625	77.06
474.844	66.06
475.063	90.06
475.282	94.06
475.501	89.06
475.72	101.06
475.939	78.06
476.158	81.06
476.377	83.06
476.596	75.06
476.814	75.06
477.033	70.06
477.252	83.06
477.471	76.06
477.69	79.06
477.908	106.06
478.127	83.06
478.346	74.06
478.564	88.06
478.783	87.06
479.002	84.06
479.22	80.06
479.439	86.06
479.658	88.06
479.876	90.06
480.095	67.06
480.313	82.06
480.532	73.06
480.751	94.06
480.969	95.06
481.188	84.06
481.406	89.06
481.624	88.06
481.843	84.06
482.061	90.06
482.28	82.06
482.498	97.06
482.717	89.06
482.935	75.06
483.153	84.06
483.372	94.06
483.59	79.06
483.808	89.06
484.027	104.06
484.245	81.06
484.463	73.06
484.681	81.06
484.9	95.06
485.118	85.06
485.336	82.06
485.554	71.06
485.772	84.06
485.99	83.06
486.209	77.06
486.427	76.06
486.645	88.06
486.863	83.06
487.081	87.06
487.299	94.06
487.517	106.06
487.735	109.06
487.953	147.06
488.171	127.06
488.389	99.06
488.607	92.06
488.825	88.06
489.043	82.06
489.261	105.06
489.479	84.06
489.696	82.06
489.914	96.06
490.132	83.06
490.35	92.06
490.568	89.06
490.786	96.06
491.003	88.06
491.221	90.06
491.439	82.06
491.657	92.06
491.874	88.06
492.092	89.06
492.31	93.06
492.527	89.06
492.745	78.06
492.963	73.06
493.18	87.06
493.398	77.06
493.615	102.06
493.833	87.06
494.05	84.06
494.268	97.06
494.485	88.06
494.703	85.06
494.92	81.06
495.138	81.06
495.355	86.06
495.573	85.06
495.79	94.06
496.008	76.06
496.225	102.06
496.442	98.06
496.66	85.06
496.877	88.06
497.094	95.06
497.312	92.06
497.529	100.06
497.746	89.06
497.963	96.06
498.181	94.06
498.398	111.06
498.615	115.06
498.832	93.06
499.049	95.06
499.267	95.06
499.484	100.06
499.701	90.06
499.918	91.06
500.135	89.06
500.352	111.06
500.569	100.06
500.786	93.06
501.003	99.06
501.22	85.06
501.437	89.06
501.654	105.06
501.871	92.06
502.088	86.06
502.305	101.06
502.522	103.06
502.739	95.06
502.956	95.06
503.172	94.06
503.389	99.06
503.606	89.06
503.823	100.06
504.04	104.06
504.256	138.06
504.473	119.06
504.69	86.06
504.907	89.06
505.123	72.06
505.34	79.06
505.557	87.06
505.773	74.06
505.99	82.06
506.207	87.06
506.423	79.06
506.64	96.06
506.856	93.06
507.073	90.06
507.289	85.06
507.506	80.06
507.722	84.06
507.939	87.06
508.155	91.06
508.372	87.06
508.588	85.06
508.805	81.06
509.021	83.06
509.238	84.06
509.454	90.06
509.67	86.06
509.887	89.06
510.103	89.06
510.319	95.06
510.536	88.06
510.752	95.06
510.968	94.06
511.184	82.06
511.401	81.06
511.617	82.06
511.833	77.06
512.049	93.06
512.265	78.06
512.481	93.06
512.698	90.06
512.914	70.06
513.13	86.06
513.346	85.06
513.562	85.06
513.778	89.06
513.994	95.06
514.21	96.06
514.426	98.06
514.642	86.06
514.858	100.06
515.074	74.06
515.29	104.06
515.506	85.06
515.721	97.06
515.937	99.06
516.153	81.06
516.369	84.06
516.585	79.06
516.801	85.06
517.016	87.06
517.232	97.06
517.448	105.06
517.664	80.06
517.879	104.06
518.095	83.06
518.311	85.06
518.527	104.06
518.742	75.06
