Data from 15780_2_HRD10591_00010.txt Node
Date: Mon Jan 19 14:19:08 EST 2026
User: Yrep
Spectrometer: HR+D1059
Trigger mode: 1
Integration Time (sec): 1.000000E-1
Scans to average: 1
Electric dark correction enabled: true
Nonlinearity correction enabled: false
Boxcar width: 0
XAxis mode: Wavelengths
Number of Pixels in Spectrum: 2048
>>>>>Begin Spectral Data<<<<<
223.165	-15.62
223.4	-15.62
223.635	-15.62
223.869	-22.62
224.104	-16.62
224.338	-27.62
224.573	-25.62
224.808	-5.62
225.042	0.38
225.277	-16.62
225.511	2.38
225.746	10.38
225.98	9.38
226.215	23.38
226.449	29.38
226.683	21.38
226.918	11.38
227.152	22.38
227.387	22.38
227.621	18.38
227.856	38.38
228.09	45.38
228.324	52.38
228.559	37.38
228.793	53.38
229.027	58.38
229.262	64.38
229.496	53.38
229.73	71.38
229.964	68.38
230.199	77.38
230.433	73.38
230.667	71.38
230.901	75.38
231.136	88.38
231.37	71.38
231.604	75.38
231.838	71.38
232.072	69.38
232.306	86.38
232.541	83.38
232.775	77.38
233.009	78.38
233.243	79.38
233.477	79.38
233.711	82.38
233.945	67.38
234.179	81.38
234.413	76.38
234.647	71.38
234.881	85.38
235.115	75.38
235.349	75.38
235.583	63.38
235.817	93.38
236.051	75.38
236.285	86.38
236.519	94.38
236.753	73.38
236.987	63.38
237.221	74.38
237.455	78.38
237.689	75.38
237.922	76.38
238.156	62.38
238.39	61.38
238.624	78.38
238.858	68.38
239.091	75.38
239.325	63.38
239.559	60.38
239.793	69.38
240.027	65.38
240.26	65.38
240.494	84.38
240.728	67.38
240.961	66.38
241.195	65.38
241.429	59.38
241.662	67.38
241.896	74.38
242.13	66.38
242.363	73.38
242.597	67.38
242.83	83.38
243.064	67.38
243.298	77.38
243.531	75.38
243.765	76.38
243.998	86.38
244.232	70.38
244.465	73.38
244.699	79.38
244.932	66.38
245.166	70.38
245.399	70.38
245.633	78.38
245.866	74.38
246.099	75.38
246.333	78.38
246.566	72.38
246.8	66.38
247.033	91.38
247.266	59.38
247.5	66.38
247.733	79.38
247.966	78.38
248.2	65.38
248.433	70.38
248.666	75.38
248.899	88.38
249.133	74.38
249.366	83.38
249.599	77.38
249.832	68.38
250.066	90.38
250.299	80.38
250.532	82.38
250.765	62.38
250.998	59.38
251.231	82.38
251.465	76.38
251.698	84.38
251.931	82.38
252.164	64.38
252.397	72.38
252.63	75.38
252.863	70.38
253.096	70.38
253.329	64.38
253.562	84.38
253.795	81.38
254.028	73.38
254.261	89.38
254.494	78.38
254.727	87.38
254.96	73.38
255.193	69.38
255.426	78.38
255.659	77.38
255.892	87.38
256.124	68.38
256.357	67.38
256.59	78.38
256.823	87.38
257.056	87.38
257.289	74.38
257.521	63.38
257.754	81.38
257.987	87.38
258.22	62.38
258.452	69.38
258.685	74.38
258.918	73.38
259.151	59.38
259.383	92.38
259.616	76.38
259.849	77.38
260.081	90.38
260.314	77.38
260.547	76.38
260.779	81.38
261.012	85.38
261.244	78.38
261.477	79.38
261.71	88.38
261.942	76.38
262.175	78.38
262.407	81.38
262.64	79.38
262.872	68.38
263.105	72.38
263.337	86.38
263.57	85.38
263.802	79.38
264.035	77.38
264.267	90.38
264.499	100.38
264.732	73.38
264.964	77.38
265.197	85.38
265.429	85.38
265.661	80.38
265.894	85.38
266.126	81.38
266.358	92.38
266.591	76.38
266.823	83.38
267.055	68.38
267.287	73.38
267.52	88.38
267.752	87.38
267.984	92.38
268.216	81.38
268.448	77.38
268.681	78.38
268.913	79.38
269.145	89.38
269.377	84.38
269.609	80.38
269.841	64.38
270.073	72.38
270.306	75.38
270.538	82.38
270.77	65.38
271.002	82.38
271.234	84.38
271.466	83.38
271.698	76.38
271.93	73.38
272.162	91.38
272.394	88.38
272.626	73.38
272.858	69.38
273.09	70.38
273.322	75.38
273.553	72.38
273.785	99.38
274.017	91.38
274.249	75.38
274.481	80.38
274.713	85.38
274.945	93.38
275.176	83.38
275.408	76.38
275.64	76.38
275.872	75.38
276.104	84.38
276.335	86.38
276.567	74.38
276.799	74.38
277.031	87.38
277.262	85.38
277.494	78.38
277.726	71.38
277.957	78.38
278.189	70.38
278.421	68.38
278.652	93.38
278.884	83.38
279.115	92.38
279.347	94.38
279.579	97.38
279.81	87.38
280.042	79.38
280.273	86.38
280.505	76.38
280.736	85.38
280.968	79.38
281.199	78.38
281.431	84.38
281.662	75.38
281.894	71.38
282.125	73.38
282.356	82.38
282.588	82.38
282.819	62.38
283.051	76.38
283.282	77.38
283.513	90.38
283.745	75.38
283.976	76.38
284.207	76.38
284.439	81.38
284.67	96.38
284.901	78.38
285.132	76.38
285.364	85.38
285.595	87.38
285.826	84.38
286.057	69.38
286.288	75.38
286.52	76.38
286.751	86.38
286.982	81.38
287.213	91.38
287.444	86.38
287.675	84.38
287.906	83.38
288.138	72.38
288.369	87.38
288.6	81.38
288.831	83.38
289.062	79.38
289.293	71.38
289.524	77.38
289.755	72.38
289.986	77.38
290.217	85.38
290.448	75.38
290.679	71.38
290.91	83.38
291.141	90.38
291.371	80.38
291.602	82.38
291.833	67.38
292.064	68.38
292.295	60.38
292.526	77.38
292.757	96.38
292.987	80.38
293.218	73.38
293.449	85.38
293.68	72.38
293.91	75.38
294.141	88.38
294.372	80.38
294.603	78.38
294.833	78.38
295.064	80.38
295.295	82.38
295.525	89.38
295.756	81.38
295.987	74.38
296.217	85.38
296.448	67.38
296.679	77.38
296.909	75.38
297.14	94.38
297.37	80.38
297.601	95.38
297.831	81.38
298.062	85.38
298.292	79.38
298.523	90.38
298.753	81.38
298.984	77.38
299.214	95.38
299.445	88.38
299.675	95.38
299.905	93.38
300.136	68.38
300.366	80.38
300.597	77.38
300.827	73.38
301.057	94.38
301.288	80.38
301.518	93.38
301.748	73.38
301.979	94.38
302.209	86.38
302.439	83.38
302.669	90.38
302.9	71.38
303.13	87.38
303.36	87.38
303.59	78.38
303.82	83.38
304.051	83.38
304.281	96.38
304.511	94.38
304.741	93.38
304.971	88.38
305.201	85.38
305.431	91.38
305.661	73.38
305.891	81.38
306.121	82.38
306.352	85.38
306.582	91.38
306.812	72.38
307.042	72.38
307.272	75.38
307.502	93.38
307.731	86.38
307.961	88.38
308.191	88.38
308.421	83.38
308.651	79.38
308.881	92.38
309.111	81.38
309.341	77.38
309.571	84.38
309.8	73.38
310.03	73.38
310.26	84.38
310.49	88.38
310.72	73.38
310.949	70.38
311.179	65.38
311.409	79.38
311.639	81.38
311.868	84.38
312.098	94.38
312.328	67.38
312.557	79.38
312.787	89.38
313.017	78.38
313.246	76.38
313.476	85.38
313.706	71.38
313.935	91.38
314.165	70.38
314.394	81.38
314.624	79.38
314.853	90.38
315.083	103.38
315.312	82.38
315.542	73.38
315.771	83.38
316.001	81.38
316.23	82.38
316.46	95.38
316.689	92.38
316.919	85.38
317.148	93.38
317.377	87.38
317.607	85.38
317.836	72.38
318.065	75.38
318.295	91.38
318.524	88.38
318.753	86.38
318.983	90.38
319.212	75.38
319.441	81.38
319.67	78.38
319.9	73.38
320.129	76.38
320.358	69.38
320.587	88.38
320.816	81.38
321.046	81.38
321.275	90.38
321.504	81.38
321.733	80.38
321.962	86.38
322.191	87.38
322.42	73.38
322.649	82.38
322.878	70.38
323.108	87.38
323.337	73.38
323.566	63.38
323.795	81.38
324.024	93.38
324.253	76.38
324.482	76.38
324.71	88.38
324.939	88.38
325.168	80.38
325.397	70.38
325.626	70.38
325.855	82.38
326.084	73.38
326.313	89.38
326.542	73.38
326.77	86.38
326.999	100.38
327.228	88.38
327.457	88.38
327.686	82.38
327.914	83.38
328.143	87.38
328.372	84.38
328.6	81.38
328.829	93.38
329.058	89.38
329.287	80.38
329.515	90.38
329.744	83.38
329.972	86.38
330.201	100.38
330.43	94.38
330.658	80.38
330.887	84.38
331.115	78.38
331.344	91.38
331.572	62.38
331.801	88.38
332.03	89.38
332.258	86.38
332.486	72.38
332.715	69.38
332.943	73.38
333.172	79.38
333.4	85.38
333.629	74.38
333.857	77.38
334.085	82.38
334.314	83.38
334.542	89.38
334.771	83.38
334.999	80.38
335.227	79.38
335.455	81.38
335.684	92.38
335.912	91.38
336.14	90.38
336.369	66.38
336.597	78.38
336.825	59.38
337.053	79.38
337.281	83.38
337.51	81.38
337.738	100.38
337.966	90.38
338.194	79.38
338.422	83.38
338.65	69.38
338.878	80.38
339.106	79.38
339.334	89.38
339.562	76.38
339.79	76.38
340.018	67.38
340.246	79.38
340.474	70.38
340.702	67.38
340.93	71.38
341.158	84.38
341.386	88.38
341.614	85.38
341.842	84.38
342.07	100.38
342.298	81.38
342.526	75.38
342.754	83.38
342.981	85.38
343.209	86.38
343.437	98.38
343.665	89.38
343.893	85.38
344.12	96.38
344.348	87.38
344.576	69.38
344.804	74.38
345.031	83.38
345.259	85.38
345.487	67.38
345.714	82.38
345.942	77.38
346.17	83.38
346.397	81.38
346.625	88.38
346.853	84.38
347.08	89.38
347.308	88.38
347.535	64.38
347.763	72.38
347.99	81.38
348.218	83.38
348.445	67.38
348.673	79.38
348.9	76.38
349.128	90.38
349.355	74.38
349.583	76.38
349.81	97.38
350.037	80.38
350.265	84.38
350.492	76.38
350.72	75.38
350.947	74.38
351.174	70.38
351.402	74.38
351.629	56.38
351.856	82.38
352.083	76.38
352.311	71.38
352.538	79.38
352.765	85.38
352.992	84.38
353.22	84.38
353.447	81.38
353.674	84.38
353.901	94.38
354.128	89.38
354.355	91.38
354.583	73.38
354.81	74.38
355.037	76.38
355.264	83.38
355.491	65.38
355.718	83.38
355.945	80.38
356.172	79.38
356.399	66.38
356.626	79.38
356.853	79.38
357.08	88.38
357.307	83.38
357.534	86.38
357.761	75.38
357.988	82.38
358.215	89.38
358.441	63.38
358.668	85.38
358.895	79.38
359.122	97.38
359.349	96.38
359.576	73.38
359.802	75.38
360.029	71.38
360.256	106.38
360.483	74.38
360.709	82.38
360.936	91.38
361.163	75.38
361.39	78.38
361.616	86.38
361.843	80.38
362.07	76.38
362.296	69.38
362.523	77.38
362.749	83.38
362.976	79.38
363.203	89.38
363.429	81.38
363.656	65.38
363.882	69.38
364.109	89.38
364.335	85.38
364.562	86.38
364.788	73.38
365.015	76.38
365.241	84.38
365.468	82.38
365.694	76.38
365.92	76.38
366.147	82.38
366.373	66.38
366.599	96.38
366.826	82.38
367.052	98.38
367.278	82.38
367.505	66.38
367.731	78.38
367.957	88.38
368.184	87.38
368.41	77.38
368.636	65.38
368.862	79.38
369.089	85.38
369.315	88.38
369.541	82.38
369.767	84.38
369.993	88.38
370.219	77.38
370.445	69.38
370.672	87.38
370.898	85.38
371.124	78.38
371.35	76.38
371.576	84.38
371.802	76.38
372.028	71.38
372.254	86.38
372.48	79.38
372.706	86.38
372.932	73.38
373.158	96.38
373.384	102.38
373.61	84.38
373.835	87.38
374.061	68.38
374.287	71.38
374.513	72.38
374.739	90.38
374.965	94.38
375.191	90.38
375.416	74.38
375.642	85.38
375.868	84.38
376.094	96.38
376.319	79.38
376.545	73.38
376.771	84.38
376.997	83.38
377.222	96.38
377.448	78.38
377.674	93.38
377.899	73.38
378.125	70.38
378.35	76.38
378.576	75.38
378.802	93.38
379.027	78.38
379.253	78.38
379.478	81.38
379.704	81.38
379.929	74.38
380.155	79.38
380.38	81.38
380.606	64.38
380.831	80.38
381.057	82.38
381.282	89.38
381.507	87.38
381.733	73.38
381.958	75.38
382.184	94.38
382.409	83.38
382.634	79.38
382.86	72.38
383.085	85.38
383.31	81.38
383.535	88.38
383.761	96.38
383.986	100.38
384.211	84.38
384.436	85.38
384.662	80.38
384.887	82.38
385.112	84.38
385.337	76.38
385.562	85.38
385.787	67.38
386.013	90.38
386.238	99.38
386.463	80.38
386.688	93.38
386.913	75.38
387.138	89.38
387.363	77.38
387.588	99.38
387.813	93.38
388.038	85.38
388.263	80.38
388.488	84.38
388.713	77.38
388.938	93.38
389.163	94.38
389.387	70.38
389.612	87.38
389.837	75.38
390.062	77.38
390.287	63.38
390.512	81.38
390.736	85.38
390.961	74.38
391.186	85.38
391.411	72.38
391.636	75.38
391.86	84.38
392.085	87.38
392.31	81.38
392.534	95.38
392.759	86.38
392.984	104.38
393.208	113.38
393.433	125.38
393.658	117.38
393.882	93.38
394.107	98.38
394.331	87.38
394.556	76.38
394.78	85.38
395.005	81.38
395.229	98.38
395.454	72.38
395.678	77.38
395.903	92.38
396.127	97.38
396.352	81.38
396.576	83.38
396.801	110.38
397.025	99.38
397.249	86.38
397.474	91.38
397.698	83.38
397.922	85.38
398.147	70.38
398.371	79.38
398.595	83.38
398.82	92.38
399.044	74.38
399.268	85.38
399.492	80.38
399.717	86.38
399.941	90.38
400.165	75.38
400.389	86.38
400.613	81.38
400.837	77.38
401.062	75.38
401.286	69.38
401.51	85.38
401.734	79.38
401.958	78.38
402.182	68.38
402.406	79.38
402.63	82.38
402.854	89.38
403.078	74.38
403.302	82.38
403.526	75.38
403.75	67.38
403.974	90.38
404.198	78.38
404.422	82.38
404.645	84.38
404.869	75.38
405.093	67.38
405.317	68.38
405.541	71.38
405.765	70.38
405.988	79.38
406.212	101.38
406.436	88.38
406.66	77.38
406.883	75.38
407.107	78.38
407.331	84.38
407.555	73.38
407.778	72.38
408.002	93.38
408.226	91.38
408.449	99.38
408.673	78.38
408.896	69.38
409.12	74.38
409.344	69.38
409.567	86.38
409.791	65.38
410.014	77.38
410.238	81.38
410.461	85.38
410.685	74.38
410.908	89.38
411.132	95.38
411.355	75.38
411.578	89.38
411.802	82.38
412.025	74.38
412.249	82.38
412.472	71.38
412.695	91.38
412.919	81.38
413.142	75.38
413.365	81.38
413.589	75.38
413.812	91.38
414.035	75.38
414.258	74.38
414.482	81.38
414.705	75.38
414.928	82.38
415.151	86.38
415.374	77.38
415.597	86.38
415.821	97.38
416.044	79.38
416.267	85.38
416.49	72.38
416.713	72.38
416.936	76.38
417.159	72.38
417.382	81.38
417.605	85.38
417.828	73.38
418.051	74.38
418.274	78.38
418.497	76.38
418.72	74.38
418.943	76.38
419.166	86.38
419.389	83.38
419.611	84.38
419.834	90.38
420.057	86.38
420.28	81.38
420.503	66.38
420.726	89.38
420.948	79.38
421.171	77.38
421.394	82.38
421.617	78.38
421.839	88.38
422.062	82.38
422.285	83.38
422.507	100.38
422.73	130.38
422.953	129.38
423.175	105.38
423.398	70.38
423.621	87.38
423.843	87.38
424.066	93.38
424.288	78.38
424.511	95.38
424.733	75.38
424.956	75.38
425.178	78.38
425.401	77.38
425.623	76.38
425.846	74.38
426.068	69.38
426.291	94.38
426.513	83.38
426.735	81.38
426.958	88.38
427.18	65.38
427.402	79.38
427.625	66.38
427.847	87.38
428.069	82.38
428.292	81.38
428.514	84.38
428.736	75.38
428.958	86.38
429.181	78.38
429.403	80.38
429.625	96.38
429.847	83.38
430.069	106.38
430.292	90.38
430.514	103.38
430.736	87.38
430.958	81.38
431.18	80.38
431.402	73.38
431.624	81.38
431.846	91.38
432.068	82.38
432.29	89.38
432.512	81.38
432.734	82.38
432.956	82.38
433.178	76.38
433.4	80.38
433.622	84.38
433.844	86.38
434.066	83.38
434.287	87.38
434.509	74.38
434.731	77.38
434.953	79.38
435.175	81.38
435.397	81.38
435.618	73.38
435.84	72.38
436.062	75.38
436.284	88.38
436.505	81.38
436.727	89.38
436.949	83.38
437.17	76.38
437.392	99.38
437.614	62.38
437.835	65.38
438.057	79.38
438.278	90.38
438.5	73.38
438.721	62.38
438.943	73.38
439.165	73.38
439.386	70.38
439.608	79.38
439.829	74.38
440.05	73.38
440.272	74.38
440.493	80.38
440.715	66.38
440.936	75.38
441.158	75.38
441.379	81.38
441.6	89.38
441.822	83.38
442.043	82.38
442.264	98.38
442.486	78.38
442.707	76.38
442.928	81.38
443.149	87.38
443.371	87.38
443.592	96.38
443.813	86.38
444.034	91.38
444.255	82.38
444.476	63.38
444.698	76.38
444.919	87.38
445.14	150.38
445.361	123.38
445.582	119.38
445.803	94.38
446.024	94.38
446.245	84.38
446.466	82.38
446.687	89.38
446.908	73.38
447.129	73.38
447.35	81.38
447.571	73.38
447.792	77.38
448.013	79.38
448.234	87.38
448.455	75.38
448.675	83.38
448.896	74.38
449.117	81.38
449.338	71.38
449.559	71.38
449.779	79.38
450	87.38
450.221	75.38
450.442	69.38
450.662	88.38
450.883	82.38
451.104	79.38
451.324	92.38
451.545	90.38
451.766	83.38
451.986	76.38
452.207	75.38
452.428	74.38
452.648	75.38
452.869	82.38
453.089	85.38
453.31	83.38
453.53	76.38
453.751	86.38
453.971	81.38
454.192	61.38
454.412	95.38
454.633	75.38
454.853	72.38
455.073	72.38
455.294	79.38
455.514	76.38
455.734	85.38
455.955	81.38
456.175	90.38
456.395	75.38
456.616	90.38
456.836	76.38
457.056	92.38
457.276	88.38
457.497	79.38
457.717	76.38
457.937	76.38
458.157	78.38
458.377	83.38
458.598	93.38
458.818	86.38
459.038	87.38
459.258	110.38
459.478	77.38
459.698	72.38
459.918	87.38
460.138	86.38
460.358	88.38
460.578	79.38
460.798	102.38
461.018	76.38
461.238	78.38
461.458	73.38
461.678	88.38
461.898	76.38
462.118	98.38
462.338	85.38
462.558	71.38
462.777	82.38
462.997	84.38
463.217	69.38
463.437	75.38
463.657	82.38
463.876	66.38
464.096	82.38
464.316	89.38
464.536	81.38
464.755	91.38
464.975	96.38
465.195	82.38
465.414	75.38
465.634	87.38
465.854	83.38
466.073	80.38
466.293	63.38
466.512	81.38
466.732	80.38
466.951	85.38
467.171	93.38
467.391	78.38
467.61	89.38
467.829	74.38
468.049	85.38
468.268	84.38
468.488	83.38
468.707	81.38
468.927	90.38
469.146	85.38
469.365	85.38
469.585	77.38
469.804	83.38
470.023	89.38
470.243	82.38
470.462	79.38
470.681	71.38
470.901	79.38
471.12	80.38
471.339	79.38
471.558	80.38
471.777	85.38
471.997	74.38
472.216	93.38
472.435	89.38
472.654	81.38
472.873	95.38
473.092	75.38
473.311	84.38
473.53	90.38
473.749	60.38
473.968	69.38
474.187	75.38
474.406	92.38
474.625	83.38
474.844	73.38
475.063	76.38
475.282	86.38
475.501	83.38
475.72	86.38
475.939	81.38
476.158	84.38
476.377	75.38
476.596	85.38
476.814	79.38
477.033	74.38
477.252	78.38
477.471	80.38
477.69	87.38
477.908	106.38
478.127	83.38
478.346	77.38
478.564	80.38
478.783	79.38
479.002	77.38
479.22	71.38
479.439	78.38
479.658	84.38
479.876	82.38
480.095	85.38
480.313	102.38
480.532	91.38
480.751	85.38
480.969	80.38
481.188	81.38
481.406	98.38
481.624	79.38
481.843	74.38
482.061	92.38
482.28	86.38
482.498	88.38
482.717	83.38
482.935	85.38
483.153	68.38
483.372	89.38
483.59	70.38
483.808	65.38
484.027	90.38
484.245	89.38
484.463	76.38
484.681	93.38
484.9	86.38
485.118	76.38
485.336	79.38
485.554	79.38
485.772	71.38
485.99	65.38
486.209	79.38
486.427	86.38
486.645	96.38
486.863	87.38
487.081	81.38
487.299	96.38
487.517	84.38
487.735	83.38
487.953	79.38
488.171	91.38
488.389	88.38
488.607	79.38
488.825	78.38
489.043	85.38
489.261	65.38
489.479	90.38
489.696	80.38
489.914	92.38
490.132	73.38
490.35	87.38
490.568	84.38
490.786	69.38
491.003	81.38
491.221	81.38
491.439	79.38
491.657	86.38
491.874	83.38
492.092	82.38
492.31	76.38
492.527	72.38
492.745	74.38
492.963	88.38
493.18	93.38
493.398	71.38
493.615	81.38
493.833	83.38
494.05	73.38
494.268	84.38
494.485	81.38
494.703	81.38
494.92	75.38
495.138	70.38
495.355	91.38
495.573	94.38
495.79	93.38
496.008	90.38
496.225	85.38
496.442	92.38
496.66	99.38
496.877	79.38
497.094	103.38
497.312	72.38
497.529	90.38
497.746	95.38
497.963	86.38
498.181	94.38
498.398	75.38
498.615	87.38
498.832	84.38
499.049	74.38
499.267	91.38
499.484	89.38
499.701	93.38
499.918	89.38
500.135	93.38
500.352	76.38
500.569	81.38
500.786	79.38
501.003	74.38
501.22	87.38
501.437	91.38
501.654	78.38
501.871	79.38
502.088	80.38
502.305	80.38
502.522	89.38
502.739	97.38
502.956	85.38
503.172	83.38
503.389	75.38
503.606	73.38
503.823	88.38
504.04	86.38
504.256	99.38
504.473	94.38
504.69	85.38
504.907	93.38
505.123	85.38
505.34	89.38
505.557	83.38
505.773	78.38
505.99	89.38
506.207	106.38
506.423	83.38
506.64	86.38
506.856	83.38
507.073	79.38
507.289	80.38
507.506	91.38
507.722	77.38
507.939	86.38
508.155	101.38
508.372	83.38
508.588	83.38
508.805	82.38
509.021	75.38
509.238	96.38
509.454	91.38
509.67	75.38
509.887	88.38
510.103	88.38
510.319	88.38
510.536	85.38
510.752	83.38
510.968	88.38
511.184	79.38
511.401	95.38
511.617	85.38
511.833	84.38
512.049	82.38
512.265	89.38
512.481	79.38
512.698	85.38
512.914	71.38
513.13	88.38
513.346	86.38
513.562	87.38
513.778	76.38
513.994	88.38
514.21	80.38
514.426	84.38
514.642	70.38
514.858	91.38
515.074	84.38
515.29	96.38
515.506	89.38
515.721	87.38
515.937	85.38
516.153	80.38
516.369	93.38
516.585	81.38
516.801	85.38
517.016	80.38
517.232	74.38
517.448	94.38
517.664	93.38
517.879	90.38
518.095	89.38
518.311	86.38
518.527	82.38
518.742	90.38
518.958	85.38
519.173	84.38
519.389	78.38
519.605	85.38
519.82	86.38
