Data from 15780_2_HRD10591_00045.txt Node
Date: Mon Jan 19 14:19:26 EST 2026
User: Yrep
Spectrometer: HR+D1059
Trigger mode: 1
Integration Time (sec): 1.000000E-1
Scans to average: 1
Electric dark correction enabled: true
Nonlinearity correction enabled: false
Boxcar width: 0
XAxis mode: Wavelengths
Number of Pixels in Spectrum: 2048
>>>>>Begin Spectral Data<<<<<
223.165	-20.69
223.4	-20.69
223.635	-20.69
223.869	-22.69
224.104	-16.69
224.338	-13.69
224.573	-26.69
224.808	-11.69
225.042	-1.69
225.277	-6.69
225.511	6.31
225.746	4.31
225.98	-5.69
226.215	10.31
226.449	18.31
226.683	25.31
226.918	30.31
227.152	31.31
227.387	39.31
227.621	51.31
227.856	54.31
228.09	42.31
228.324	47.31
228.559	66.31
228.793	57.31
229.027	53.31
229.262	62.31
229.496	62.31
229.73	75.31
229.964	74.31
230.199	76.31
230.433	71.31
230.667	67.31
230.901	79.31
231.136	84.31
231.37	97.31
231.604	79.31
231.838	74.31
232.072	89.31
232.306	84.31
232.541	84.31
232.775	91.31
233.009	73.31
233.243	66.31
233.477	79.31
233.711	90.31
233.945	80.31
234.179	81.31
234.413	90.31
234.647	82.31
234.881	81.31
235.115	71.31
235.349	73.31
235.583	79.31
235.817	74.31
236.051	64.31
236.285	60.31
236.519	91.31
236.753	78.31
236.987	96.31
237.221	70.31
237.455	78.31
237.689	84.31
237.922	76.31
238.156	89.31
238.39	84.31
238.624	83.31
238.858	84.31
239.091	70.31
239.325	77.31
239.559	84.31
239.793	86.31
240.027	75.31
240.26	66.31
240.494	82.31
240.728	77.31
240.961	62.31
241.195	81.31
241.429	87.31
241.662	90.31
241.896	80.31
242.13	78.31
242.363	82.31
242.597	66.31
242.83	68.31
243.064	76.31
243.298	83.31
243.531	77.31
243.765	86.31
243.998	87.31
244.232	82.31
244.465	77.31
244.699	86.31
244.932	90.31
245.166	77.31
245.399	69.31
245.633	63.31
245.866	85.31
246.099	78.31
246.333	74.31
246.566	78.31
246.8	86.31
247.033	61.31
247.266	79.31
247.5	74.31
247.733	83.31
247.966	74.31
248.2	91.31
248.433	67.31
248.666	70.31
248.899	80.31
249.133	84.31
249.366	75.31
249.599	98.31
249.832	72.31
250.066	91.31
250.299	83.31
250.532	82.31
250.765	76.31
250.998	73.31
251.231	70.31
251.465	77.31
251.698	71.31
251.931	83.31
252.164	82.31
252.397	66.31
252.63	76.31
252.863	86.31
253.096	79.31
253.329	75.31
253.562	87.31
253.795	62.31
254.028	82.31
254.261	94.31
254.494	86.31
254.727	76.31
254.96	77.31
255.193	66.31
255.426	75.31
255.659	75.31
255.892	90.31
256.124	70.31
256.357	96.31
256.59	84.31
256.823	90.31
257.056	87.31
257.289	86.31
257.521	70.31
257.754	82.31
257.987	84.31
258.22	95.31
258.452	92.31
258.685	94.31
258.918	94.31
259.151	95.31
259.383	84.31
259.616	71.31
259.849	70.31
260.081	76.31
260.314	77.31
260.547	86.31
260.779	91.31
261.012	82.31
261.244	78.31
261.477	77.31
261.71	86.31
261.942	77.31
262.175	80.31
262.407	75.31
262.64	92.31
262.872	83.31
263.105	80.31
263.337	78.31
263.57	82.31
263.802	94.31
264.035	81.31
264.267	69.31
264.499	75.31
264.732	83.31
264.964	89.31
265.197	67.31
265.429	80.31
265.661	86.31
265.894	83.31
266.126	88.31
266.358	92.31
266.591	71.31
266.823	84.31
267.055	69.31
267.287	103.31
267.52	91.31
267.752	80.31
267.984	74.31
268.216	91.31
268.448	90.31
268.681	75.31
268.913	86.31
269.145	91.31
269.377	74.31
269.609	76.31
269.841	85.31
270.073	87.31
270.306	89.31
270.538	65.31
270.77	76.31
271.002	67.31
271.234	82.31
271.466	82.31
271.698	85.31
271.93	98.31
272.162	95.31
272.394	95.31
272.626	83.31
272.858	87.31
273.09	98.31
273.322	95.31
273.553	83.31
273.785	74.31
274.017	70.31
274.249	68.31
274.481	86.31
274.713	76.31
274.945	76.31
275.176	88.31
275.408	93.31
275.64	90.31
275.872	82.31
276.104	77.31
276.335	71.31
276.567	91.31
276.799	68.31
277.031	77.31
277.262	90.31
277.494	87.31
277.726	78.31
277.957	70.31
278.189	83.31
278.421	80.31
278.652	87.31
278.884	78.31
279.115	86.31
279.347	77.31
279.579	81.31
279.81	78.31
280.042	88.31
280.273	67.31
280.505	82.31
280.736	82.31
280.968	85.31
281.199	89.31
281.431	98.31
281.662	82.31
281.894	87.31
282.125	66.31
282.356	86.31
282.588	80.31
282.819	83.31
283.051	78.31
283.282	76.31
283.513	77.31
283.745	88.31
283.976	76.31
284.207	76.31
284.439	78.31
284.67	83.31
284.901	82.31
285.132	100.31
285.364	80.31
285.595	86.31
285.826	78.31
286.057	91.31
286.288	73.31
286.52	87.31
286.751	79.31
286.982	81.31
287.213	76.31
287.444	91.31
287.675	80.31
287.906	83.31
288.138	100.31
288.369	79.31
288.6	89.31
288.831	84.31
289.062	91.31
289.293	89.31
289.524	74.31
289.755	74.31
289.986	82.31
290.217	84.31
290.448	80.31
290.679	91.31
290.91	94.31
291.141	82.31
291.371	86.31
291.602	80.31
291.833	78.31
292.064	94.31
292.295	91.31
292.526	94.31
292.757	92.31
292.987	91.31
293.218	84.31
293.449	83.31
293.68	78.31
293.91	86.31
294.141	82.31
294.372	84.31
294.603	90.31
294.833	84.31
295.064	87.31
295.295	72.31
295.525	82.31
295.756	80.31
295.987	91.31
296.217	84.31
296.448	94.31
296.679	76.31
296.909	79.31
297.14	88.31
297.37	88.31
297.601	96.31
297.831	88.31
298.062	62.31
298.292	81.31
298.523	78.31
298.753	91.31
298.984	84.31
299.214	74.31
299.445	82.31
299.675	87.31
299.905	78.31
300.136	78.31
300.366	86.31
300.597	84.31
300.827	75.31
301.057	80.31
301.288	83.31
301.518	90.31
301.748	97.31
301.979	99.31
302.209	74.31
302.439	76.31
302.669	88.31
302.9	84.31
303.13	85.31
303.36	88.31
303.59	87.31
303.82	86.31
304.051	86.31
304.281	92.31
304.511	89.31
304.741	70.31
304.971	70.31
305.201	77.31
305.431	101.31
305.661	88.31
305.891	60.31
306.121	76.31
306.352	69.31
306.582	87.31
306.812	95.31
307.042	79.31
307.272	84.31
307.502	75.31
307.731	80.31
307.961	80.31
308.191	90.31
308.421	85.31
308.651	107.31
308.881	82.31
309.111	92.31
309.341	94.31
309.571	95.31
309.8	99.31
310.03	93.31
310.26	71.31
310.49	72.31
310.72	95.31
310.949	82.31
311.179	91.31
311.409	86.31
311.639	82.31
311.868	91.31
312.098	83.31
312.328	90.31
312.557	74.31
312.787	90.31
313.017	74.31
313.246	83.31
313.476	85.31
313.706	85.31
313.935	90.31
314.165	92.31
314.394	74.31
314.624	76.31
314.853	91.31
315.083	91.31
315.312	76.31
315.542	84.31
315.771	79.31
316.001	103.31
316.23	88.31
316.46	97.31
316.689	68.31
316.919	91.31
317.148	82.31
317.377	81.31
317.607	83.31
317.836	91.31
318.065	80.31
318.295	91.31
318.524	83.31
318.753	88.31
318.983	82.31
319.212	91.31
319.441	99.31
319.67	88.31
319.9	70.31
320.129	87.31
320.358	85.31
320.587	81.31
320.816	81.31
321.046	75.31
321.275	78.31
321.504	89.31
321.733	70.31
321.962	82.31
322.191	80.31
322.42	98.31
322.649	102.31
322.878	98.31
323.108	85.31
323.337	66.31
323.566	72.31
323.795	88.31
324.024	80.31
324.253	91.31
324.482	78.31
324.71	104.31
324.939	92.31
325.168	81.31
325.397	80.31
325.626	79.31
325.855	75.31
326.084	90.31
326.313	94.31
326.542	78.31
326.77	95.31
326.999	76.31
327.228	79.31
327.457	92.31
327.686	87.31
327.914	99.31
328.143	94.31
328.372	96.31
328.6	87.31
328.829	76.31
329.058	80.31
329.287	82.31
329.515	85.31
329.744	102.31
329.972	77.31
330.201	82.31
330.43	88.31
330.658	82.31
330.887	69.31
331.115	85.31
331.344	88.31
331.572	85.31
331.801	84.31
332.03	82.31
332.258	75.31
332.486	98.31
332.715	90.31
332.943	88.31
333.172	89.31
333.4	94.31
333.629	80.31
333.857	90.31
334.085	82.31
334.314	78.31
334.542	94.31
334.771	82.31
334.999	72.31
335.227	77.31
335.455	80.31
335.684	84.31
335.912	94.31
336.14	79.31
336.369	83.31
336.597	76.31
336.825	84.31
337.053	92.31
337.281	83.31
337.51	80.31
337.738	86.31
337.966	88.31
338.194	76.31
338.422	93.31
338.65	86.31
338.878	96.31
339.106	74.31
339.334	92.31
339.562	88.31
339.79	78.31
340.018	90.31
340.246	88.31
340.474	74.31
340.702	84.31
340.93	84.31
341.158	87.31
341.386	78.31
341.614	80.31
341.842	68.31
342.07	90.31
342.298	83.31
342.526	101.31
342.754	88.31
342.981	90.31
343.209	83.31
343.437	94.31
343.665	91.31
343.893	96.31
344.12	89.31
344.348	94.31
344.576	84.31
344.804	72.31
345.031	99.31
345.259	76.31
345.487	73.31
345.714	80.31
345.942	84.31
346.17	87.31
346.397	91.31
346.625	88.31
346.853	86.31
347.08	72.31
347.308	82.31
347.535	82.31
347.763	83.31
347.99	71.31
348.218	96.31
348.445	90.31
348.673	81.31
348.9	80.31
349.128	85.31
349.355	78.31
349.583	89.31
349.81	78.31
350.037	84.31
350.265	91.31
350.492	89.31
350.72	74.31
350.947	89.31
351.174	90.31
351.402	87.31
351.629	86.31
351.856	84.31
352.083	92.31
352.311	84.31
352.538	68.31
352.765	77.31
352.992	94.31
353.22	86.31
353.447	90.31
353.674	81.31
353.901	84.31
354.128	91.31
354.355	87.31
354.583	83.31
354.81	94.31
355.037	91.31
355.264	81.31
355.491	90.31
355.718	75.31
355.945	80.31
356.172	97.31
356.399	89.31
356.626	74.31
356.853	90.31
357.08	73.31
357.307	83.31
357.534	88.31
357.761	100.31
357.988	86.31
358.215	97.31
358.441	89.31
358.668	94.31
358.895	90.31
359.122	78.31
359.349	87.31
359.576	89.31
359.802	89.31
360.029	87.31
360.256	67.31
360.483	83.31
360.709	75.31
360.936	85.31
361.163	86.31
361.39	81.31
361.616	78.31
361.843	90.31
362.07	100.31
362.296	90.31
362.523	83.31
362.749	88.31
362.976	83.31
363.203	96.31
363.429	96.31
363.656	85.31
363.882	85.31
364.109	97.31
364.335	93.31
364.562	105.31
364.788	99.31
365.015	87.31
365.241	71.31
365.468	102.31
365.694	95.31
365.92	81.31
366.147	80.31
366.373	80.31
366.599	82.31
366.826	84.31
367.052	81.31
367.278	92.31
367.505	83.31
367.731	106.31
367.957	90.31
368.184	82.31
368.41	77.31
368.636	84.31
368.862	67.31
369.089	85.31
369.315	82.31
369.541	82.31
369.767	75.31
369.993	86.31
370.219	78.31
370.445	83.31
370.672	73.31
370.898	91.31
371.124	82.31
371.35	92.31
371.576	87.31
371.802	100.31
372.028	84.31
372.254	74.31
372.48	90.31
372.706	95.31
372.932	79.31
373.158	84.31
373.384	86.31
373.61	100.31
373.835	96.31
374.061	96.31
374.287	81.31
374.513	81.31
374.739	75.31
374.965	71.31
375.191	80.31
375.416	80.31
375.642	94.31
375.868	96.31
376.094	81.31
376.319	80.31
376.545	66.31
376.771	81.31
376.997	95.31
377.222	85.31
377.448	70.31
377.674	83.31
377.899	86.31
378.125	68.31
378.35	65.31
378.576	75.31
378.802	84.31
379.027	75.31
379.253	65.31
379.478	63.31
379.704	82.31
379.929	89.31
380.155	100.31
380.38	82.31
380.606	83.31
380.831	78.31
381.057	72.31
381.282	83.31
381.507	97.31
381.733	74.31
381.958	95.31
382.184	104.31
382.409	87.31
382.634	89.31
382.86	90.31
383.085	82.31
383.31	88.31
383.535	80.31
383.761	88.31
383.986	82.31
384.211	95.31
384.436	91.31
384.662	105.31
384.887	89.31
385.112	86.31
385.337	83.31
385.562	97.31
385.787	84.31
386.013	91.31
386.238	95.31
386.463	72.31
386.688	115.31
386.913	92.31
387.138	82.31
387.363	88.31
387.588	76.31
387.813	83.31
388.038	102.31
388.263	100.31
388.488	86.31
388.713	89.31
388.938	80.31
389.163	81.31
389.387	74.31
389.612	79.31
389.837	92.31
390.062	88.31
390.287	84.31
390.512	76.31
390.736	76.31
390.961	83.31
391.186	80.31
391.411	86.31
391.636	77.31
391.86	83.31
392.085	88.31
392.31	89.31
392.534	91.31
392.759	102.31
392.984	118.31
393.208	192.31
393.433	258.31
393.658	210.31
393.882	119.31
394.107	106.31
394.331	107.31
394.556	109.31
394.78	89.31
395.005	80.31
395.229	97.31
395.454	92.31
395.678	83.31
395.903	105.31
396.127	131.31
396.352	131.31
396.576	148.31
396.801	207.31
397.025	213.31
397.249	134.31
397.474	87.31
397.698	76.31
397.922	86.31
398.147	86.31
398.371	79.31
398.595	87.31
398.82	80.31
399.044	82.31
399.268	69.31
399.492	80.31
399.717	76.31
399.941	86.31
400.165	75.31
400.389	78.31
400.613	76.31
400.837	97.31
401.062	91.31
401.286	86.31
401.51	78.31
401.734	71.31
401.958	86.31
402.182	93.31
402.406	89.31
402.63	87.31
402.854	75.31
403.078	87.31
403.302	72.31
403.526	82.31
403.75	78.31
403.974	72.31
404.198	100.31
404.422	104.31
404.645	126.31
404.869	110.31
405.093	88.31
405.317	87.31
405.541	84.31
405.765	87.31
405.988	71.31
406.212	80.31
406.436	92.31
406.66	84.31
406.883	83.31
407.107	86.31
407.331	88.31
407.555	103.31
407.778	96.31
408.002	104.31
408.226	94.31
408.449	72.31
408.673	78.31
408.896	69.31
409.12	79.31
409.344	85.31
409.567	80.31
409.791	74.31
410.014	96.31
410.238	77.31
410.461	81.31
410.685	80.31
410.908	87.31
411.132	87.31
411.355	85.31
411.578	92.31
411.802	75.31
412.025	76.31
412.249	92.31
412.472	78.31
412.695	78.31
412.919	71.31
413.142	75.31
413.365	70.31
413.589	72.31
413.812	79.31
414.035	92.31
414.258	82.31
414.482	71.31
414.705	86.31
414.928	94.31
415.151	92.31
415.374	75.31
415.597	75.31
415.821	72.31
416.044	81.31
416.267	87.31
416.49	74.31
416.713	90.31
416.936	91.31
417.159	66.31
417.382	79.31
417.605	84.31
417.828	90.31
418.051	86.31
418.274	76.31
418.497	67.31
418.72	75.31
418.943	97.31
419.166	92.31
419.389	99.31
419.611	88.31
419.834	84.31
420.057	72.31
420.28	94.31
420.503	86.31
420.726	67.31
420.948	71.31
421.171	81.31
421.394	86.31
421.617	88.31
421.839	91.31
422.062	107.31
422.285	117.31
422.507	206.31
422.73	304.31
422.953	274.31
423.175	131.31
423.398	99.31
423.621	88.31
423.843	82.31
424.066	80.31
424.288	86.31
424.511	99.31
424.733	94.31
424.956	76.31
425.178	81.31
425.401	86.31
425.623	85.31
425.846	81.31
426.068	86.31
426.291	88.31
426.513	91.31
426.735	77.31
426.958	78.31
427.18	93.31
427.402	100.31
427.625	82.31
427.847	88.31
428.069	97.31
428.292	97.31
428.514	123.31
428.736	97.31
428.958	102.31
429.181	105.31
429.403	80.31
429.625	97.31
429.847	106.31
430.069	138.31
430.292	137.31
430.514	128.31
430.736	118.31
430.958	114.31
431.18	91.31
431.402	91.31
431.624	102.31
431.846	98.31
432.068	96.31
432.29	98.31
432.512	98.31
432.734	73.31
432.956	75.31
433.178	80.31
433.4	89.31
433.622	84.31
433.844	90.31
434.066	95.31
434.287	70.31
434.509	63.31
434.731	86.31
434.953	83.31
435.175	77.31
435.397	85.31
435.618	91.31
435.84	77.31
436.062	74.31
436.284	76.31
436.505	83.31
436.727	85.31
436.949	80.31
437.17	83.31
437.392	78.31
437.614	88.31
437.835	85.31
438.057	93.31
438.278	61.31
438.5	86.31
438.721	82.31
438.943	82.31
439.165	79.31
439.386	81.31
439.608	65.31
439.829	78.31
440.05	83.31
440.272	92.31
440.493	89.31
440.715	87.31
440.936	84.31
441.158	92.31
441.379	86.31
441.6	82.31
441.822	85.31
442.043	89.31
442.264	78.31
442.486	97.31
442.707	126.31
442.928	102.31
443.149	84.31
443.371	111.31
443.592	146.31
443.813	143.31
444.034	79.31
444.255	94.31
444.476	99.31
444.698	80.31
444.919	93.31
445.14	161.31
445.361	161.31
445.582	211.31
445.803	166.31
446.024	89.31
446.245	75.31
446.466	62.31
446.687	79.31
446.908	71.31
447.129	91.31
447.35	85.31
447.571	71.31
447.792	83.31
448.013	79.31
448.234	90.31
448.455	81.31
448.675	70.31
448.896	72.31
449.117	98.31
449.338	84.31
449.559	80.31
449.779	99.31
450	75.31
450.221	85.31
450.442	84.31
450.662	85.31
450.883	86.31
451.104	98.31
451.324	76.31
451.545	88.31
451.766	81.31
451.986	84.31
452.207	72.31
452.428	67.31
452.648	72.31
452.869	88.31
453.089	106.31
453.31	86.31
453.53	90.31
453.751	96.31
453.971	82.31
454.192	84.31
454.412	80.31
454.633	88.31
454.853	78.31
455.073	94.31
455.294	88.31
455.514	82.31
455.734	74.31
455.955	83.31
456.175	80.31
456.395	79.31
456.616	88.31
456.836	88.31
457.056	83.31
457.276	73.31
457.497	76.31
457.717	86.31
457.937	82.31
458.157	87.31
458.377	98.31
458.598	104.31
458.818	94.31
459.038	85.31
459.258	83.31
459.478	87.31
459.698	82.31
459.918	90.31
460.138	80.31
460.358	78.31
460.578	102.31
460.798	99.31
461.018	100.31
461.238	90.31
461.458	87.31
461.678	73.31
461.898	78.31
462.118	84.31
462.338	91.31
462.558	88.31
462.777	73.31
462.997	66.31
463.217	73.31
463.437	64.31
463.657	71.31
463.876	96.31
464.096	80.31
464.316	90.31
464.536	89.31
464.755	94.31
464.975	91.31
465.195	78.31
465.414	74.31
465.634	99.31
465.854	82.31
466.073	89.31
466.293	83.31
466.512	87.31
466.732	81.31
466.951	92.31
467.171	82.31
467.391	74.31
467.61	83.31
467.829	81.31
468.049	88.31
468.268	81.31
468.488	66.31
468.707	83.31
468.927	82.31
469.146	73.31
469.365	81.31
469.585	75.31
469.804	86.31
470.023	90.31
470.243	86.31
470.462	85.31
470.681	66.31
470.901	80.31
471.12	66.31
471.339	98.31
471.558	96.31
471.777	77.31
471.997	86.31
472.216	92.31
472.435	68.31
472.654	99.31
472.873	82.31
473.092	83.31
473.311	70.31
473.53	79.31
473.749	80.31
473.968	84.31
474.187	80.31
474.406	99.31
474.625	82.31
474.844	78.31
475.063	77.31
475.282	67.31
475.501	91.31
475.72	88.31
475.939	85.31
476.158	89.31
476.377	76.31
476.596	88.31
476.814	74.31
477.033	92.31
477.252	68.31
477.471	82.31
477.69	84.31
477.908	89.31
478.127	92.31
478.346	86.31
478.564	85.31
478.783	80.31
479.002	82.31
479.22	93.31
479.439	104.31
479.658	82.31
479.876	72.31
480.095	83.31
480.313	80.31
480.532	75.31
480.751	83.31
480.969	92.31
481.188	90.31
481.406	79.31
481.624	79.31
481.843	83.31
482.061	81.31
482.28	82.31
482.498	89.31
482.717	88.31
482.935	82.31
483.153	87.31
483.372	75.31
483.59	77.31
483.808	74.31
484.027	80.31
484.245	94.31
484.463	96.31
484.681	86.31
484.9	83.31
485.118	90.31
485.336	79.31
485.554	91.31
485.772	91.31
485.99	89.31
486.209	88.31
486.427	71.31
486.645	87.31
486.863	89.31
487.081	82.31
487.299	97.31
487.517	90.31
487.735	90.31
487.953	98.31
488.171	115.31
488.389	78.31
488.607	86.31
488.825	84.31
489.043	73.31
489.261	86.31
489.479	91.31
489.696	96.31
489.914	80.31
490.132	75.31
490.35	92.31
490.568	82.31
490.786	89.31
491.003	75.31
491.221	78.31
491.439	86.31
491.657	88.31
491.874	74.31
492.092	93.31
492.31	89.31
492.527	76.31
492.745	92.31
492.963	89.31
493.18	98.31
493.398	82.31
493.615	91.31
493.833	77.31
494.05	82.31
494.268	81.31
494.485	66.31
494.703	87.31
494.92	72.31
495.138	90.31
495.355	89.31
495.573	76.31
495.79	82.31
496.008	78.31
496.225	78.31
496.442	86.31
496.66	80.31
496.877	79.31
497.094	87.31
497.312	67.31
497.529	95.31
497.746	82.31
497.963	84.31
498.181	86.31
498.398	90.31
498.615	81.31
498.832	87.31
499.049	80.31
499.267	94.31
499.484	79.31
499.701	82.31
499.918	87.31
500.135	96.31
500.352	79.31
500.569	86.31
500.786	90.31
501.003	90.31
501.22	87.31
501.437	90.31
501.654	93.31
501.871	86.31
502.088	79.31
502.305	81.31
502.522	91.31
502.739	90.31
502.956	81.31
503.172	86.31
503.389	80.31
503.606	70.31
503.823	96.31
504.04	94.31
504.256	102.31
504.473	102.31
504.69	94.31
504.907	89.31
505.123	94.31
505.34	96.31
505.557	83.31
505.773	94.31
505.99	82.31
506.207	83.31
506.423	81.31
506.64	79.31
506.856	73.31
507.073	74.31
507.289	78.31
507.506	86.31
507.722	94.31
507.939	78.31
508.155	85.31
508.372	83.31
508.588	95.31
508.805	87.31
509.021	93.31
509.238	85.31
509.454	80.31
509.67	87.31
509.887	75.31
510.103	96.31
510.319	93.31
510.536	76.31
510.752	94.31
510.968	82.31
511.184	77.31
511.401	92.31
511.617	103.31
511.833	76.31
512.049	77.31
512.265	77.31
512.481	78.31
512.698	75.31
512.914	85.31
513.13	75.31
513.346	77.31
513.562	86.31
513.778	85.31
513.994	86.31
514.21	91.31
514.426	95.31
514.642	80.31
514.858	85.31
515.074	70.31
515.29	97.31
515.506	87.31
515.721	76.31
515.937	83.31
516.153	91.31
516.369	75.31
516.585	89.31
516.801	89.31
517.016	87.31
517.232	76.31
517.448	105.31
517.664	82.31
517.879	55.31
518.095	88.31
518.311	89.31
518.527	100.31
518.742	81.31
518.958	101.31
519.173	112.31
