Data from 15780_2_HRD10591_00022.txt Node
Date: Mon Jan 19 14:19:14 EST 2026
User: Yrep
Spectrometer: HR+D1059
Trigger mode: 1
Integration Time (sec): 1.000000E-1
Scans to average: 1
Electric dark correction enabled: true
Nonlinearity correction enabled: false
Boxcar width: 0
XAxis mode: Wavelengths
Number of Pixels in Spectrum: 2048
>>>>>Begin Spectral Data<<<<<
223.165	-10.88
223.4	-10.88
223.635	-10.88
223.869	-15.88
224.104	-17.88
224.338	-16.88
224.573	-9.88
224.808	-20.88
225.042	-8.88
225.277	-5.88
225.511	-4.88
225.746	6.12
225.98	1.12
226.215	13.12
226.449	11.12
226.683	13.12
226.918	30.12
227.152	37.12
227.387	37.12
227.621	44.12
227.856	52.12
228.09	44.12
228.324	56.12
228.559	67.12
228.793	58.12
229.027	70.12
229.262	53.12
229.496	71.12
229.73	69.12
229.964	79.12
230.199	57.12
230.433	82.12
230.667	86.12
230.901	85.12
231.136	64.12
231.37	77.12
231.604	80.12
231.838	77.12
232.072	79.12
232.306	85.12
232.541	69.12
232.775	62.12
233.009	84.12
233.243	99.12
233.477	75.12
233.711	67.12
233.945	74.12
234.179	68.12
234.413	83.12
234.647	75.12
234.881	84.12
235.115	83.12
235.349	80.12
235.583	80.12
235.817	73.12
236.051	72.12
236.285	78.12
236.519	70.12
236.753	65.12
236.987	75.12
237.221	76.12
237.455	64.12
237.689	74.12
237.922	67.12
238.156	83.12
238.39	70.12
238.624	68.12
238.858	83.12
239.091	71.12
239.325	74.12
239.559	78.12
239.793	67.12
240.027	57.12
240.26	61.12
240.494	75.12
240.728	82.12
240.961	70.12
241.195	84.12
241.429	78.12
241.662	84.12
241.896	67.12
242.13	65.12
242.363	67.12
242.597	82.12
242.83	76.12
243.064	64.12
243.298	68.12
243.531	74.12
243.765	86.12
243.998	76.12
244.232	78.12
244.465	81.12
244.699	66.12
244.932	79.12
245.166	83.12
245.399	73.12
245.633	75.12
245.866	89.12
246.099	67.12
246.333	69.12
246.566	77.12
246.8	74.12
247.033	67.12
247.266	71.12
247.5	79.12
247.733	65.12
247.966	76.12
248.2	76.12
248.433	72.12
248.666	75.12
248.899	70.12
249.133	75.12
249.366	83.12
249.599	67.12
249.832	92.12
250.066	81.12
250.299	79.12
250.532	69.12
250.765	85.12
250.998	65.12
251.231	71.12
251.465	72.12
251.698	78.12
251.931	71.12
252.164	78.12
252.397	92.12
252.63	85.12
252.863	76.12
253.096	88.12
253.329	83.12
253.562	75.12
253.795	85.12
254.028	83.12
254.261	71.12
254.494	80.12
254.727	76.12
254.96	65.12
255.193	73.12
255.426	85.12
255.659	74.12
255.892	79.12
256.124	77.12
256.357	85.12
256.59	83.12
256.823	79.12
257.056	77.12
257.289	79.12
257.521	67.12
257.754	69.12
257.987	77.12
258.22	83.12
258.452	78.12
258.685	92.12
258.918	61.12
259.151	82.12
259.383	71.12
259.616	80.12
259.849	96.12
260.081	71.12
260.314	89.12
260.547	84.12
260.779	85.12
261.012	88.12
261.244	83.12
261.477	83.12
261.71	80.12
261.942	80.12
262.175	90.12
262.407	84.12
262.64	88.12
262.872	75.12
263.105	93.12
263.337	89.12
263.57	76.12
263.802	78.12
264.035	77.12
264.267	75.12
264.499	86.12
264.732	77.12
264.964	84.12
265.197	73.12
265.429	77.12
265.661	73.12
265.894	74.12
266.126	66.12
266.358	81.12
266.591	81.12
266.823	86.12
267.055	86.12
267.287	72.12
267.52	84.12
267.752	69.12
267.984	79.12
268.216	74.12
268.448	90.12
268.681	84.12
268.913	82.12
269.145	82.12
269.377	91.12
269.609	91.12
269.841	80.12
270.073	82.12
270.306	70.12
270.538	73.12
270.77	77.12
271.002	95.12
271.234	88.12
271.466	72.12
271.698	93.12
271.93	78.12
272.162	92.12
272.394	89.12
272.626	77.12
272.858	89.12
273.09	85.12
273.322	85.12
273.553	82.12
273.785	95.12
274.017	81.12
274.249	83.12
274.481	77.12
274.713	89.12
274.945	85.12
275.176	89.12
275.408	71.12
275.64	88.12
275.872	93.12
276.104	78.12
276.335	81.12
276.567	82.12
276.799	69.12
277.031	83.12
277.262	81.12
277.494	86.12
277.726	77.12
277.957	87.12
278.189	77.12
278.421	93.12
278.652	85.12
278.884	90.12
279.115	92.12
279.347	91.12
279.579	77.12
279.81	89.12
280.042	88.12
280.273	103.12
280.505	87.12
280.736	90.12
280.968	85.12
281.199	83.12
281.431	72.12
281.662	89.12
281.894	74.12
282.125	77.12
282.356	75.12
282.588	83.12
282.819	85.12
283.051	78.12
283.282	81.12
283.513	77.12
283.745	96.12
283.976	83.12
284.207	92.12
284.439	76.12
284.67	75.12
284.901	77.12
285.132	72.12
285.364	87.12
285.595	81.12
285.826	80.12
286.057	76.12
286.288	78.12
286.52	88.12
286.751	69.12
286.982	84.12
287.213	73.12
287.444	84.12
287.675	85.12
287.906	79.12
288.138	79.12
288.369	86.12
288.6	83.12
288.831	88.12
289.062	80.12
289.293	80.12
289.524	80.12
289.755	67.12
289.986	75.12
290.217	78.12
290.448	79.12
290.679	83.12
290.91	91.12
291.141	71.12
291.371	95.12
291.602	85.12
291.833	85.12
292.064	80.12
292.295	98.12
292.526	85.12
292.757	74.12
292.987	95.12
293.218	83.12
293.449	88.12
293.68	91.12
293.91	80.12
294.141	90.12
294.372	87.12
294.603	73.12
294.833	79.12
295.064	76.12
295.295	82.12
295.525	81.12
295.756	83.12
295.987	80.12
296.217	91.12
296.448	83.12
296.679	82.12
296.909	79.12
297.14	82.12
297.37	93.12
297.601	85.12
297.831	85.12
298.062	98.12
298.292	70.12
298.523	100.12
298.753	81.12
298.984	72.12
299.214	95.12
299.445	81.12
299.675	81.12
299.905	91.12
300.136	82.12
300.366	86.12
300.597	94.12
300.827	81.12
301.057	84.12
301.288	79.12
301.518	69.12
301.748	89.12
301.979	95.12
302.209	78.12
302.439	91.12
302.669	87.12
302.9	77.12
303.13	79.12
303.36	79.12
303.59	84.12
303.82	77.12
304.051	77.12
304.281	82.12
304.511	85.12
304.741	84.12
304.971	66.12
305.201	93.12
305.431	100.12
305.661	88.12
305.891	70.12
306.121	78.12
306.352	83.12
306.582	87.12
306.812	86.12
307.042	77.12
307.272	87.12
307.502	81.12
307.731	94.12
307.961	91.12
308.191	95.12
308.421	89.12
308.651	87.12
308.881	91.12
309.111	91.12
309.341	83.12
309.571	90.12
309.8	70.12
310.03	96.12
310.26	76.12
310.49	81.12
310.72	86.12
310.949	81.12
311.179	76.12
311.409	83.12
311.639	91.12
311.868	92.12
312.098	84.12
312.328	95.12
312.557	83.12
312.787	59.12
313.017	87.12
313.246	85.12
313.476	96.12
313.706	87.12
313.935	77.12
314.165	79.12
314.394	71.12
314.624	92.12
314.853	73.12
315.083	81.12
315.312	93.12
315.542	85.12
315.771	80.12
316.001	91.12
316.23	107.12
316.46	80.12
316.689	69.12
316.919	90.12
317.148	86.12
317.377	93.12
317.607	88.12
317.836	80.12
318.065	84.12
318.295	94.12
318.524	84.12
318.753	92.12
318.983	79.12
319.212	67.12
319.441	103.12
319.67	98.12
319.9	83.12
320.129	81.12
320.358	91.12
320.587	84.12
320.816	84.12
321.046	80.12
321.275	93.12
321.504	78.12
321.733	81.12
321.962	91.12
322.191	90.12
322.42	87.12
322.649	90.12
322.878	79.12
323.108	88.12
323.337	89.12
323.566	83.12
323.795	97.12
324.024	114.12
324.253	95.12
324.482	87.12
324.71	83.12
324.939	75.12
325.168	96.12
325.397	81.12
325.626	85.12
325.855	72.12
326.084	86.12
326.313	88.12
326.542	77.12
326.77	75.12
326.999	69.12
327.228	87.12
327.457	83.12
327.686	93.12
327.914	92.12
328.143	72.12
328.372	92.12
328.6	74.12
328.829	67.12
329.058	83.12
329.287	75.12
329.515	81.12
329.744	83.12
329.972	85.12
330.201	84.12
330.43	92.12
330.658	75.12
330.887	83.12
331.115	83.12
331.344	81.12
331.572	82.12
331.801	99.12
332.03	87.12
332.258	91.12
332.486	81.12
332.715	84.12
332.943	70.12
333.172	77.12
333.4	79.12
333.629	83.12
333.857	66.12
334.085	89.12
334.314	88.12
334.542	78.12
334.771	92.12
334.999	79.12
335.227	92.12
335.455	83.12
335.684	89.12
335.912	95.12
336.14	97.12
336.369	101.12
336.597	85.12
336.825	88.12
337.053	85.12
337.281	83.12
337.51	87.12
337.738	83.12
337.966	93.12
338.194	67.12
338.422	91.12
338.65	93.12
338.878	99.12
339.106	91.12
339.334	87.12
339.562	83.12
339.79	74.12
340.018	85.12
340.246	90.12
340.474	93.12
340.702	86.12
340.93	90.12
341.158	90.12
341.386	80.12
341.614	80.12
341.842	73.12
342.07	82.12
342.298	76.12
342.526	83.12
342.754	85.12
342.981	87.12
343.209	94.12
343.437	101.12
343.665	83.12
343.893	81.12
344.12	81.12
344.348	85.12
344.576	95.12
344.804	88.12
345.031	83.12
345.259	87.12
345.487	87.12
345.714	87.12
345.942	88.12
346.17	92.12
346.397	74.12
346.625	83.12
346.853	76.12
347.08	86.12
347.308	88.12
347.535	90.12
347.763	79.12
347.99	79.12
348.218	93.12
348.445	83.12
348.673	76.12
348.9	86.12
349.128	80.12
349.355	82.12
349.583	78.12
349.81	90.12
350.037	83.12
350.265	81.12
350.492	87.12
350.72	83.12
350.947	94.12
351.174	89.12
351.402	80.12
351.629	87.12
351.856	89.12
352.083	86.12
352.311	79.12
352.538	83.12
352.765	91.12
352.992	92.12
353.22	75.12
353.447	83.12
353.674	77.12
353.901	79.12
354.128	111.12
354.355	78.12
354.583	96.12
354.81	91.12
355.037	91.12
355.264	78.12
355.491	102.12
355.718	86.12
355.945	75.12
356.172	82.12
356.399	99.12
356.626	78.12
356.853	78.12
357.08	88.12
357.307	77.12
357.534	78.12
357.761	85.12
357.988	78.12
358.215	90.12
358.441	92.12
358.668	93.12
358.895	75.12
359.122	74.12
359.349	92.12
359.576	91.12
359.802	83.12
360.029	89.12
360.256	84.12
360.483	90.12
360.709	87.12
360.936	92.12
361.163	77.12
361.39	83.12
361.616	89.12
361.843	96.12
362.07	97.12
362.296	81.12
362.523	86.12
362.749	83.12
362.976	85.12
363.203	96.12
363.429	95.12
363.656	89.12
363.882	85.12
364.109	86.12
364.335	79.12
364.562	77.12
364.788	85.12
365.015	87.12
365.241	81.12
365.468	73.12
365.694	72.12
365.92	82.12
366.147	93.12
366.373	85.12
366.599	72.12
366.826	76.12
367.052	86.12
367.278	85.12
367.505	83.12
367.731	86.12
367.957	79.12
368.184	75.12
368.41	77.12
368.636	76.12
368.862	99.12
369.089	75.12
369.315	89.12
369.541	75.12
369.767	86.12
369.993	85.12
370.219	91.12
370.445	85.12
370.672	68.12
370.898	70.12
371.124	79.12
371.35	73.12
371.576	79.12
371.802	89.12
372.028	90.12
372.254	83.12
372.48	87.12
372.706	87.12
372.932	74.12
373.158	83.12
373.384	90.12
373.61	85.12
373.835	78.12
374.061	87.12
374.287	84.12
374.513	91.12
374.739	100.12
374.965	80.12
375.191	77.12
375.416	96.12
375.642	91.12
375.868	93.12
376.094	102.12
376.319	83.12
376.545	94.12
376.771	77.12
376.997	89.12
377.222	71.12
377.448	70.12
377.674	77.12
377.899	87.12
378.125	62.12
378.35	61.12
378.576	76.12
378.802	75.12
379.027	70.12
379.253	71.12
379.478	83.12
379.704	83.12
379.929	73.12
380.155	84.12
380.38	85.12
380.606	89.12
380.831	75.12
381.057	100.12
381.282	82.12
381.507	86.12
381.733	76.12
381.958	79.12
382.184	83.12
382.409	86.12
382.634	86.12
382.86	76.12
383.085	88.12
383.31	74.12
383.535	87.12
383.761	95.12
383.986	84.12
384.211	83.12
384.436	80.12
384.662	88.12
384.887	88.12
385.112	91.12
385.337	71.12
385.562	93.12
385.787	82.12
386.013	89.12
386.238	93.12
386.463	91.12
386.688	98.12
386.913	71.12
387.138	81.12
387.363	80.12
387.588	88.12
387.813	86.12
388.038	93.12
388.263	79.12
388.488	78.12
388.713	80.12
388.938	82.12
389.163	85.12
389.387	86.12
389.612	94.12
389.837	79.12
390.062	96.12
390.287	89.12
390.512	83.12
390.736	76.12
390.961	76.12
391.186	84.12
391.411	99.12
391.636	87.12
391.86	77.12
392.085	88.12
392.31	82.12
392.534	82.12
392.759	88.12
392.984	93.12
393.208	107.12
393.433	157.12
393.658	127.12
393.882	85.12
394.107	79.12
394.331	95.12
394.556	92.12
394.78	87.12
395.005	85.12
395.229	89.12
395.454	100.12
395.678	85.12
395.903	83.12
396.127	101.12
396.352	96.12
396.576	104.12
396.801	117.12
397.025	122.12
397.249	100.12
397.474	91.12
397.698	87.12
397.922	99.12
398.147	84.12
398.371	82.12
398.595	87.12
398.82	76.12
399.044	92.12
399.268	91.12
399.492	92.12
399.717	92.12
399.941	87.12
400.165	84.12
400.389	81.12
400.613	83.12
400.837	79.12
401.062	78.12
401.286	95.12
401.51	98.12
401.734	73.12
401.958	79.12
402.182	84.12
402.406	91.12
402.63	77.12
402.854	68.12
403.078	90.12
403.302	84.12
403.526	68.12
403.75	74.12
403.974	78.12
404.198	71.12
404.422	78.12
404.645	102.12
404.869	64.12
405.093	75.12
405.317	84.12
405.541	78.12
405.765	80.12
405.988	88.12
406.212	99.12
406.436	67.12
406.66	83.12
406.883	74.12
407.107	81.12
407.331	81.12
407.555	74.12
407.778	87.12
408.002	77.12
408.226	87.12
408.449	81.12
408.673	90.12
408.896	81.12
409.12	95.12
409.344	89.12
409.567	84.12
409.791	86.12
410.014	93.12
410.238	87.12
410.461	79.12
410.685	91.12
410.908	69.12
411.132	70.12
411.355	80.12
411.578	87.12
411.802	74.12
412.025	83.12
412.249	81.12
412.472	83.12
412.695	69.12
412.919	91.12
413.142	77.12
413.365	92.12
413.589	72.12
413.812	80.12
414.035	76.12
414.258	85.12
414.482	95.12
414.705	86.12
414.928	88.12
415.151	85.12
415.374	85.12
415.597	84.12
415.821	87.12
416.044	79.12
416.267	89.12
416.49	76.12
416.713	72.12
416.936	80.12
417.159	76.12
417.382	75.12
417.605	63.12
417.828	85.12
418.051	91.12
418.274	75.12
418.497	78.12
418.72	89.12
418.943	85.12
419.166	82.12
419.389	76.12
419.611	72.12
419.834	98.12
420.057	86.12
420.28	87.12
420.503	85.12
420.726	84.12
420.948	80.12
421.171	85.12
421.394	72.12
421.617	75.12
421.839	71.12
422.062	80.12
422.285	97.12
422.507	107.12
422.73	152.12
422.953	125.12
423.175	95.12
423.398	87.12
423.621	81.12
423.843	81.12
424.066	83.12
424.288	81.12
424.511	90.12
424.733	84.12
424.956	94.12
425.178	91.12
425.401	77.12
425.623	86.12
425.846	71.12
426.068	75.12
426.291	74.12
426.513	77.12
426.735	83.12
426.958	87.12
427.18	84.12
427.402	78.12
427.625	91.12
427.847	92.12
428.069	79.12
428.292	83.12
428.514	81.12
428.736	74.12
428.958	77.12
429.181	102.12
429.403	83.12
429.625	77.12
429.847	84.12
430.069	90.12
430.292	96.12
430.514	100.12
430.736	73.12
430.958	105.12
431.18	84.12
431.402	75.12
431.624	87.12
431.846	95.12
432.068	92.12
432.29	91.12
432.512	89.12
432.734	85.12
432.956	97.12
433.178	87.12
433.4	77.12
433.622	83.12
433.844	80.12
434.066	85.12
434.287	77.12
434.509	75.12
434.731	80.12
434.953	89.12
435.175	95.12
435.397	92.12
435.618	78.12
435.84	91.12
436.062	73.12
436.284	75.12
436.505	73.12
436.727	89.12
436.949	93.12
437.17	75.12
437.392	74.12
437.614	87.12
437.835	92.12
438.057	85.12
438.278	81.12
438.5	77.12
438.721	85.12
438.943	81.12
439.165	69.12
439.386	75.12
439.608	83.12
439.829	101.12
440.05	85.12
440.272	75.12
440.493	81.12
440.715	78.12
440.936	64.12
441.158	81.12
441.379	89.12
441.6	84.12
441.822	87.12
442.043	79.12
442.264	92.12
442.486	85.12
442.707	91.12
442.928	88.12
443.149	85.12
443.371	105.12
443.592	108.12
443.813	111.12
444.034	76.12
444.255	77.12
444.476	90.12
444.698	80.12
444.919	96.12
445.14	171.12
445.361	136.12
445.582	119.12
445.803	112.12
446.024	89.12
446.245	89.12
446.466	97.12
446.687	85.12
446.908	77.12
447.129	80.12
447.35	76.12
447.571	77.12
447.792	80.12
448.013	81.12
448.234	77.12
448.455	76.12
448.675	77.12
448.896	69.12
449.117	74.12
449.338	76.12
449.559	84.12
449.779	85.12
450	80.12
450.221	82.12
450.442	83.12
450.662	101.12
450.883	83.12
451.104	82.12
451.324	75.12
451.545	82.12
451.766	83.12
451.986	83.12
452.207	82.12
452.428	90.12
452.648	77.12
452.869	91.12
453.089	76.12
453.31	83.12
453.53	84.12
453.751	87.12
453.971	89.12
454.192	84.12
454.412	81.12
454.633	94.12
454.853	79.12
455.073	76.12
455.294	85.12
455.514	96.12
455.734	75.12
455.955	79.12
456.175	87.12
456.395	70.12
456.616	92.12
456.836	94.12
457.056	83.12
457.276	78.12
457.497	88.12
457.717	88.12
457.937	83.12
458.157	92.12
458.377	94.12
458.598	79.12
458.818	83.12
459.038	85.12
459.258	80.12
459.478	89.12
459.698	67.12
459.918	76.12
460.138	88.12
460.358	80.12
460.578	75.12
460.798	91.12
461.018	89.12
461.238	77.12
461.458	85.12
461.678	60.12
461.898	78.12
462.118	75.12
462.338	76.12
462.558	87.12
462.777	79.12
462.997	85.12
463.217	79.12
463.437	89.12
463.657	66.12
463.876	63.12
464.096	75.12
464.316	74.12
464.536	93.12
464.755	84.12
464.975	81.12
465.195	66.12
465.414	91.12
465.634	77.12
465.854	83.12
466.073	89.12
466.293	87.12
466.512	80.12
466.732	93.12
466.951	89.12
467.171	78.12
467.391	81.12
467.61	72.12
467.829	69.12
468.049	82.12
468.268	85.12
468.488	77.12
468.707	84.12
468.927	83.12
469.146	96.12
469.365	83.12
469.585	93.12
469.804	87.12
470.023	84.12
470.243	71.12
470.462	81.12
470.681	83.12
470.901	73.12
471.12	69.12
471.339	93.12
471.558	84.12
471.777	70.12
471.997	67.12
472.216	77.12
472.435	77.12
472.654	86.12
472.873	85.12
473.092	76.12
473.311	85.12
473.53	81.12
473.749	84.12
473.968	81.12
474.187	85.12
474.406	80.12
474.625	68.12
474.844	86.12
475.063	72.12
475.282	82.12
475.501	66.12
475.72	87.12
475.939	76.12
476.158	69.12
476.377	92.12
476.596	83.12
476.814	85.12
477.033	69.12
477.252	74.12
477.471	81.12
477.69	83.12
477.908	89.12
478.127	70.12
478.346	101.12
478.564	73.12
478.783	87.12
479.002	79.12
479.22	72.12
479.439	86.12
479.658	88.12
479.876	74.12
480.095	89.12
480.313	86.12
480.532	80.12
480.751	72.12
480.969	93.12
481.188	85.12
481.406	84.12
481.624	82.12
481.843	70.12
482.061	63.12
482.28	89.12
482.498	79.12
482.717	81.12
482.935	104.12
483.153	80.12
483.372	85.12
483.59	82.12
483.808	86.12
484.027	90.12
484.245	98.12
484.463	91.12
484.681	76.12
484.9	85.12
485.118	77.12
485.336	82.12
485.554	71.12
485.772	73.12
485.99	90.12
486.209	92.12
486.427	83.12
486.645	82.12
486.863	84.12
487.081	71.12
487.299	90.12
487.517	91.12
487.735	87.12
487.953	94.12
488.171	91.12
488.389	78.12
488.607	81.12
488.825	74.12
489.043	85.12
489.261	87.12
489.479	84.12
489.696	87.12
489.914	75.12
490.132	79.12
490.35	60.12
490.568	76.12
490.786	84.12
491.003	73.12
491.221	69.12
491.439	73.12
491.657	84.12
491.874	69.12
492.092	76.12
492.31	89.12
492.527	71.12
492.745	73.12
492.963	85.12
493.18	82.12
493.398	88.12
493.615	74.12
493.833	73.12
494.05	87.12
494.268	85.12
494.485	85.12
494.703	82.12
494.92	70.12
495.138	75.12
495.355	73.12
495.573	85.12
495.79	75.12
496.008	85.12
496.225	81.12
496.442	77.12
496.66	80.12
496.877	63.12
497.094	92.12
497.312	95.12
497.529	81.12
497.746	72.12
497.963	78.12
498.181	85.12
498.398	85.12
498.615	84.12
498.832	90.12
499.049	87.12
499.267	98.12
499.484	89.12
499.701	77.12
499.918	92.12
500.135	81.12
500.352	90.12
500.569	69.12
500.786	87.12
501.003	89.12
501.22	77.12
501.437	85.12
501.654	79.12
501.871	72.12
502.088	92.12
502.305	81.12
502.522	103.12
502.739	88.12
502.956	80.12
503.172	95.12
503.389	80.12
503.606	71.12
503.823	75.12
504.04	91.12
504.256	94.12
504.473	91.12
504.69	89.12
504.907	95.12
505.123	69.12
505.34	77.12
505.557	97.12
505.773	69.12
505.99	79.12
506.207	78.12
506.423	84.12
506.64	86.12
506.856	88.12
507.073	71.12
507.289	85.12
507.506	87.12
507.722	87.12
507.939	73.12
508.155	82.12
508.372	78.12
508.588	74.12
508.805	83.12
509.021	83.12
509.238	88.12
509.454	73.12
509.67	91.12
509.887	68.12
510.103	81.12
510.319	95.12
510.536	92.12
510.752	93.12
510.968	79.12
511.184	85.12
511.401	72.12
511.617	84.12
511.833	71.12
512.049	73.12
512.265	91.12
512.481	95.12
512.698	80.12
512.914	92.12
513.13	99.12
513.346	98.12
513.562	80.12
513.778	85.12
513.994	88.12
514.21	77.12
514.426	90.12
514.642	83.12
514.858	80.12
515.074	86.12
515.29	82.12
515.506	96.12
515.721	99.12
515.937	90.12
516.153	73.12
516.369	79.12
516.585	91.12
516.801	88.12
517.016	73.12
517.232	91.12
517.448	87.12
517.664	77.12
517.879	95.12
518.095	79.12
518.311	83.12
518.527	84.12
518.742	91.12
518.958	83.12
519.173	81.12
519.389	76.12
519.605	77.12
519.82	83.12
