Data from 15780_2_HRD10591_00038.txt Node
Date: Mon Jan 19 14:19:22 EST 2026
User: Yrep
Spectrometer: HR+D1059
Trigger mode: 1
Integration Time (sec): 1.000000E-1
Scans to average: 1
Electric dark correction enabled: true
Nonlinearity correction enabled: false
Boxcar width: 0
XAxis mode: Wavelengths
Number of Pixels in Spectrum: 2048
>>>>>Begin Spectral Data<<<<<
223.165	-13.56
223.4	-13.56
223.635	-13.56
223.869	-11.56
224.104	-25.56
224.338	-22.56
224.573	-7.56
224.808	-12.56
225.042	-12.56
225.277	-7.56
225.511	2.44
225.746	-1.56
225.98	14.44
226.215	6.44
226.449	13.44
226.683	17.44
226.918	32.44
227.152	28.44
227.387	54.44
227.621	39.44
227.856	54.44
228.09	44.44
228.324	44.44
228.559	51.44
228.793	58.44
229.027	60.44
229.262	69.44
229.496	65.44
229.73	81.44
229.964	82.44
230.199	58.44
230.433	80.44
230.667	93.44
230.901	79.44
231.136	63.44
231.37	78.44
231.604	86.44
231.838	79.44
232.072	78.44
232.306	86.44
232.541	101.44
232.775	81.44
233.009	87.44
233.243	82.44
233.477	76.44
233.711	77.44
233.945	81.44
234.179	77.44
234.413	81.44
234.647	78.44
234.881	80.44
235.115	83.44
235.349	85.44
235.583	84.44
235.817	77.44
236.051	74.44
236.285	59.44
236.519	79.44
236.753	78.44
236.987	62.44
237.221	75.44
237.455	79.44
237.689	100.44
237.922	85.44
238.156	85.44
238.39	88.44
238.624	64.44
238.858	73.44
239.091	87.44
239.325	69.44
239.559	83.44
239.793	79.44
240.027	79.44
240.26	89.44
240.494	72.44
240.728	70.44
240.961	73.44
241.195	76.44
241.429	81.44
241.662	72.44
241.896	63.44
242.13	64.44
242.363	89.44
242.597	69.44
242.83	67.44
243.064	71.44
243.298	79.44
243.531	75.44
243.765	75.44
243.998	83.44
244.232	77.44
244.465	85.44
244.699	71.44
244.932	71.44
245.166	89.44
245.399	69.44
245.633	87.44
245.866	87.44
246.099	88.44
246.333	83.44
246.566	96.44
246.8	78.44
247.033	66.44
247.266	80.44
247.5	67.44
247.733	66.44
247.966	75.44
248.2	111.44
248.433	86.44
248.666	85.44
248.899	93.44
249.133	70.44
249.366	76.44
249.599	85.44
249.832	89.44
250.066	97.44
250.299	82.44
250.532	72.44
250.765	96.44
250.998	90.44
251.231	70.44
251.465	78.44
251.698	82.44
251.931	81.44
252.164	83.44
252.397	76.44
252.63	79.44
252.863	90.44
253.096	72.44
253.329	77.44
253.562	72.44
253.795	82.44
254.028	81.44
254.261	76.44
254.494	70.44
254.727	74.44
254.96	78.44
255.193	100.44
255.426	76.44
255.659	77.44
255.892	79.44
256.124	70.44
256.357	81.44
256.59	82.44
256.823	77.44
257.056	80.44
257.289	77.44
257.521	92.44
257.754	65.44
257.987	78.44
258.22	77.44
258.452	66.44
258.685	81.44
258.918	73.44
259.151	70.44
259.383	65.44
259.616	73.44
259.849	87.44
260.081	101.44
260.314	87.44
260.547	88.44
260.779	83.44
261.012	84.44
261.244	81.44
261.477	79.44
261.71	78.44
261.942	80.44
262.175	67.44
262.407	82.44
262.64	77.44
262.872	67.44
263.105	79.44
263.337	86.44
263.57	77.44
263.802	80.44
264.035	86.44
264.267	71.44
264.499	74.44
264.732	88.44
264.964	75.44
265.197	91.44
265.429	83.44
265.661	88.44
265.894	85.44
266.126	85.44
266.358	85.44
266.591	73.44
266.823	79.44
267.055	91.44
267.287	77.44
267.52	79.44
267.752	74.44
267.984	76.44
268.216	81.44
268.448	82.44
268.681	84.44
268.913	89.44
269.145	82.44
269.377	76.44
269.609	83.44
269.841	91.44
270.073	73.44
270.306	87.44
270.538	80.44
270.77	86.44
271.002	91.44
271.234	95.44
271.466	91.44
271.698	86.44
271.93	80.44
272.162	79.44
272.394	96.44
272.626	87.44
272.858	97.44
273.09	91.44
273.322	84.44
273.553	91.44
273.785	83.44
274.017	94.44
274.249	90.44
274.481	79.44
274.713	69.44
274.945	82.44
275.176	70.44
275.408	82.44
275.64	89.44
275.872	85.44
276.104	98.44
276.335	89.44
276.567	93.44
276.799	87.44
277.031	89.44
277.262	85.44
277.494	84.44
277.726	97.44
277.957	93.44
278.189	77.44
278.421	78.44
278.652	80.44
278.884	80.44
279.115	79.44
279.347	90.44
279.579	79.44
279.81	89.44
280.042	85.44
280.273	91.44
280.505	73.44
280.736	78.44
280.968	82.44
281.199	91.44
281.431	77.44
281.662	78.44
281.894	85.44
282.125	91.44
282.356	84.44
282.588	93.44
282.819	87.44
283.051	82.44
283.282	91.44
283.513	89.44
283.745	92.44
283.976	92.44
284.207	84.44
284.439	82.44
284.67	97.44
284.901	79.44
285.132	73.44
285.364	92.44
285.595	80.44
285.826	79.44
286.057	77.44
286.288	78.44
286.52	89.44
286.751	85.44
286.982	75.44
287.213	95.44
287.444	91.44
287.675	80.44
287.906	97.44
288.138	74.44
288.369	87.44
288.6	74.44
288.831	101.44
289.062	108.44
289.293	77.44
289.524	77.44
289.755	69.44
289.986	80.44
290.217	85.44
290.448	71.44
290.679	79.44
290.91	87.44
291.141	101.44
291.371	86.44
291.602	86.44
291.833	85.44
292.064	80.44
292.295	87.44
292.526	82.44
292.757	74.44
292.987	92.44
293.218	85.44
293.449	75.44
293.68	78.44
293.91	87.44
294.141	86.44
294.372	89.44
294.603	94.44
294.833	95.44
295.064	87.44
295.295	97.44
295.525	87.44
295.756	88.44
295.987	83.44
296.217	82.44
296.448	98.44
296.679	79.44
296.909	95.44
297.14	92.44
297.37	83.44
297.601	84.44
297.831	72.44
298.062	65.44
298.292	95.44
298.523	87.44
298.753	86.44
298.984	87.44
299.214	89.44
299.445	94.44
299.675	95.44
299.905	92.44
300.136	93.44
300.366	84.44
300.597	75.44
300.827	79.44
301.057	87.44
301.288	89.44
301.518	104.44
301.748	86.44
301.979	105.44
302.209	83.44
302.439	83.44
302.669	73.44
302.9	87.44
303.13	77.44
303.36	85.44
303.59	84.44
303.82	76.44
304.051	91.44
304.281	97.44
304.511	90.44
304.741	77.44
304.971	86.44
305.201	81.44
305.431	89.44
305.661	97.44
305.891	79.44
306.121	86.44
306.352	103.44
306.582	87.44
306.812	74.44
307.042	87.44
307.272	94.44
307.502	85.44
307.731	83.44
307.961	83.44
308.191	89.44
308.421	91.44
308.651	81.44
308.881	89.44
309.111	101.44
309.341	99.44
309.571	85.44
309.8	97.44
310.03	92.44
310.26	89.44
310.49	79.44
310.72	93.44
310.949	95.44
311.179	103.44
311.409	86.44
311.639	88.44
311.868	85.44
312.098	90.44
312.328	88.44
312.557	86.44
312.787	85.44
313.017	79.44
313.246	79.44
313.476	102.44
313.706	85.44
313.935	76.44
314.165	90.44
314.394	89.44
314.624	95.44
314.853	84.44
315.083	89.44
315.312	97.44
315.542	91.44
315.771	101.44
316.001	89.44
316.23	83.44
316.46	79.44
316.689	89.44
316.919	95.44
317.148	86.44
317.377	97.44
317.607	88.44
317.836	85.44
318.065	78.44
318.295	83.44
318.524	87.44
318.753	74.44
318.983	101.44
319.212	92.44
319.441	85.44
319.67	85.44
319.9	90.44
320.129	90.44
320.358	99.44
320.587	85.44
320.816	91.44
321.046	76.44
321.275	75.44
321.504	89.44
321.733	84.44
321.962	100.44
322.191	86.44
322.42	91.44
322.649	78.44
322.878	92.44
323.108	87.44
323.337	83.44
323.566	86.44
323.795	80.44
324.024	79.44
324.253	92.44
324.482	82.44
324.71	80.44
324.939	91.44
325.168	87.44
325.397	89.44
325.626	79.44
325.855	77.44
326.084	89.44
326.313	90.44
326.542	85.44
326.77	78.44
326.999	73.44
327.228	89.44
327.457	83.44
327.686	78.44
327.914	85.44
328.143	90.44
328.372	89.44
328.6	76.44
328.829	89.44
329.058	85.44
329.287	87.44
329.515	84.44
329.744	83.44
329.972	89.44
330.201	84.44
330.43	95.44
330.658	78.44
330.887	89.44
331.115	92.44
331.344	86.44
331.572	86.44
331.801	73.44
332.03	85.44
332.258	67.44
332.486	77.44
332.715	90.44
332.943	97.44
333.172	84.44
333.4	80.44
333.629	89.44
333.857	89.44
334.085	86.44
334.314	77.44
334.542	83.44
334.771	91.44
334.999	79.44
335.227	83.44
335.455	77.44
335.684	83.44
335.912	97.44
336.14	88.44
336.369	102.44
336.597	86.44
336.825	91.44
337.053	82.44
337.281	85.44
337.51	81.44
337.738	73.44
337.966	95.44
338.194	79.44
338.422	103.44
338.65	96.44
338.878	85.44
339.106	71.44
339.334	90.44
339.562	87.44
339.79	81.44
340.018	93.44
340.246	86.44
340.474	86.44
340.702	92.44
340.93	88.44
341.158	94.44
341.386	89.44
341.614	96.44
341.842	76.44
342.07	88.44
342.298	80.44
342.526	105.44
342.754	81.44
342.981	88.44
343.209	87.44
343.437	105.44
343.665	70.44
343.893	90.44
344.12	82.44
344.348	79.44
344.576	83.44
344.804	85.44
345.031	90.44
345.259	92.44
345.487	91.44
345.714	68.44
345.942	93.44
346.17	79.44
346.397	90.44
346.625	91.44
346.853	90.44
347.08	85.44
347.308	81.44
347.535	71.44
347.763	86.44
347.99	78.44
348.218	88.44
348.445	71.44
348.673	83.44
348.9	76.44
349.128	94.44
349.355	85.44
349.583	87.44
349.81	79.44
350.037	85.44
350.265	87.44
350.492	86.44
350.72	77.44
350.947	83.44
351.174	78.44
351.402	75.44
351.629	95.44
351.856	89.44
352.083	75.44
352.311	83.44
352.538	89.44
352.765	79.44
352.992	86.44
353.22	89.44
353.447	89.44
353.674	83.44
353.901	87.44
354.128	78.44
354.355	87.44
354.583	83.44
354.81	85.44
355.037	90.44
355.264	74.44
355.491	71.44
355.718	92.44
355.945	74.44
356.172	79.44
356.399	86.44
356.626	79.44
356.853	77.44
357.08	84.44
357.307	79.44
357.534	90.44
357.761	94.44
357.988	98.44
358.215	93.44
358.441	100.44
358.668	90.44
358.895	73.44
359.122	86.44
359.349	87.44
359.576	74.44
359.802	86.44
360.029	85.44
360.256	89.44
360.483	85.44
360.709	84.44
360.936	95.44
361.163	85.44
361.39	83.44
361.616	87.44
361.843	90.44
362.07	75.44
362.296	93.44
362.523	95.44
362.749	94.44
362.976	90.44
363.203	82.44
363.429	89.44
363.656	85.44
363.882	85.44
364.109	89.44
364.335	81.44
364.562	102.44
364.788	71.44
365.015	90.44
365.241	75.44
365.468	85.44
365.694	93.44
365.92	82.44
366.147	76.44
366.373	96.44
366.599	79.44
366.826	91.44
367.052	84.44
367.278	83.44
367.505	83.44
367.731	107.44
367.957	99.44
368.184	86.44
368.41	93.44
368.636	84.44
368.862	75.44
369.089	71.44
369.315	78.44
369.541	79.44
369.767	87.44
369.993	83.44
370.219	79.44
370.445	87.44
370.672	95.44
370.898	83.44
371.124	89.44
371.35	74.44
371.576	81.44
371.802	98.44
372.028	83.44
372.254	84.44
372.48	70.44
372.706	90.44
372.932	70.44
373.158	91.44
373.384	71.44
373.61	87.44
373.835	79.44
374.061	91.44
374.287	96.44
374.513	77.44
374.739	92.44
374.965	79.44
375.191	82.44
375.416	91.44
375.642	82.44
375.868	110.44
376.094	85.44
376.319	75.44
376.545	78.44
376.771	86.44
376.997	78.44
377.222	71.44
377.448	92.44
377.674	77.44
377.899	91.44
378.125	80.44
378.35	97.44
378.576	82.44
378.802	90.44
379.027	98.44
379.253	67.44
379.478	80.44
379.704	78.44
379.929	83.44
380.155	97.44
380.38	87.44
380.606	78.44
380.831	89.44
381.057	85.44
381.282	83.44
381.507	82.44
381.733	89.44
381.958	78.44
382.184	81.44
382.409	101.44
382.634	94.44
382.86	92.44
383.085	83.44
383.31	93.44
383.535	95.44
383.761	92.44
383.986	85.44
384.211	87.44
384.436	88.44
384.662	89.44
384.887	92.44
385.112	82.44
385.337	96.44
385.562	90.44
385.787	94.44
386.013	73.44
386.238	92.44
386.463	93.44
386.688	87.44
386.913	78.44
387.138	83.44
387.363	83.44
387.588	88.44
387.813	85.44
388.038	70.44
388.263	86.44
388.488	93.44
388.713	84.44
388.938	83.44
389.163	89.44
389.387	88.44
389.612	68.44
389.837	79.44
390.062	79.44
390.287	99.44
390.512	94.44
390.736	80.44
390.961	77.44
391.186	83.44
391.411	81.44
391.636	72.44
391.86	91.44
392.085	87.44
392.31	73.44
392.534	83.44
392.759	99.44
392.984	82.44
393.208	141.44
393.433	191.44
393.658	161.44
393.882	119.44
394.107	81.44
394.331	93.44
394.556	93.44
394.78	75.44
395.005	85.44
395.229	78.44
395.454	90.44
395.678	79.44
395.903	97.44
396.127	113.44
396.352	100.44
396.576	103.44
396.801	147.44
397.025	174.44
397.249	115.44
397.474	81.44
397.698	78.44
397.922	80.44
398.147	81.44
398.371	79.44
398.595	83.44
398.82	78.44
399.044	83.44
399.268	98.44
399.492	90.44
399.717	77.44
399.941	83.44
400.165	65.44
400.389	77.44
400.613	84.44
400.837	85.44
401.062	82.44
401.286	92.44
401.51	67.44
401.734	79.44
401.958	85.44
402.182	76.44
402.406	73.44
402.63	83.44
402.854	96.44
403.078	91.44
403.302	70.44
403.526	83.44
403.75	85.44
403.974	72.44
404.198	85.44
404.422	98.44
404.645	103.44
404.869	96.44
405.093	76.44
405.317	90.44
405.541	94.44
405.765	80.44
405.988	83.44
406.212	93.44
406.436	78.44
406.66	87.44
406.883	83.44
407.107	81.44
407.331	81.44
407.555	66.44
407.778	82.44
408.002	92.44
408.226	78.44
408.449	100.44
408.673	99.44
408.896	69.44
409.12	75.44
409.344	97.44
409.567	77.44
409.791	89.44
410.014	92.44
410.238	87.44
410.461	79.44
410.685	83.44
410.908	85.44
411.132	88.44
411.355	85.44
411.578	82.44
411.802	69.44
412.025	76.44
412.249	79.44
412.472	92.44
412.695	88.44
412.919	94.44
413.142	84.44
413.365	79.44
413.589	83.44
413.812	80.44
414.035	94.44
414.258	78.44
414.482	75.44
414.705	75.44
414.928	90.44
415.151	83.44
415.374	71.44
415.597	85.44
415.821	67.44
416.044	90.44
416.267	89.44
416.49	71.44
416.713	65.44
416.936	89.44
417.159	77.44
417.382	85.44
417.605	84.44
417.828	71.44
418.051	80.44
418.274	85.44
418.497	81.44
418.72	74.44
418.943	85.44
419.166	74.44
419.389	85.44
419.611	71.44
419.834	96.44
420.057	97.44
420.28	76.44
420.503	87.44
420.726	80.44
420.948	97.44
421.171	82.44
421.394	79.44
421.617	99.44
421.839	82.44
422.062	99.44
422.285	113.44
422.507	149.44
422.73	163.44
422.953	159.44
423.175	104.44
423.398	103.44
423.621	85.44
423.843	76.44
424.066	82.44
424.288	95.44
424.511	91.44
424.733	95.44
424.956	74.44
425.178	75.44
425.401	93.44
425.623	65.44
425.846	81.44
426.068	94.44
426.291	77.44
426.513	80.44
426.735	69.44
426.958	79.44
427.18	86.44
427.402	87.44
427.625	82.44
427.847	87.44
428.069	89.44
428.292	87.44
428.514	97.44
428.736	93.44
428.958	85.44
429.181	102.44
429.403	89.44
429.625	93.44
429.847	95.44
430.069	108.44
430.292	134.44
430.514	111.44
430.736	98.44
430.958	94.44
431.18	78.44
431.402	93.44
431.624	87.44
431.846	96.44
432.068	93.44
432.29	93.44
432.512	93.44
432.734	82.44
432.956	78.44
433.178	93.44
433.4	77.44
433.622	96.44
433.844	85.44
434.066	82.44
434.287	77.44
434.509	81.44
434.731	77.44
434.953	84.44
435.175	77.44
435.397	75.44
435.618	87.44
435.84	83.44
436.062	84.44
436.284	91.44
436.505	87.44
436.727	91.44
436.949	75.44
437.17	82.44
437.392	77.44
437.614	89.44
437.835	82.44
438.057	93.44
438.278	86.44
438.5	78.44
438.721	89.44
438.943	89.44
439.165	94.44
439.386	85.44
439.608	88.44
439.829	76.44
440.05	80.44
440.272	79.44
440.493	86.44
440.715	87.44
440.936	90.44
441.158	82.44
441.379	92.44
441.6	73.44
441.822	85.44
442.043	79.44
442.264	67.44
442.486	91.44
442.707	107.44
442.928	102.44
443.149	86.44
443.371	93.44
443.592	121.44
443.813	115.44
444.034	91.44
444.255	82.44
444.476	80.44
444.698	97.44
444.919	85.44
445.14	166.44
445.361	135.44
445.582	124.44
445.803	113.44
446.024	89.44
446.245	84.44
446.466	87.44
446.687	77.44
446.908	89.44
447.129	92.44
447.35	97.44
447.571	91.44
447.792	90.44
448.013	94.44
448.234	83.44
448.455	79.44
448.675	76.44
448.896	87.44
449.117	71.44
449.338	86.44
449.559	70.44
449.779	78.44
450	77.44
450.221	93.44
450.442	71.44
450.662	83.44
450.883	79.44
451.104	81.44
451.324	75.44
451.545	85.44
451.766	87.44
451.986	84.44
452.207	91.44
452.428	87.44
452.648	66.44
452.869	76.44
453.089	78.44
453.31	90.44
453.53	75.44
453.751	92.44
453.971	79.44
454.192	91.44
454.412	85.44
454.633	90.44
454.853	71.44
455.073	74.44
455.294	75.44
455.514	82.44
455.734	81.44
455.955	83.44
456.175	102.44
456.395	87.44
456.616	63.44
456.836	85.44
457.056	67.44
457.276	75.44
457.497	89.44
457.717	99.44
457.937	80.44
458.157	75.44
458.377	90.44
458.598	86.44
458.818	92.44
459.038	77.44
459.258	68.44
459.478	89.44
459.698	78.44
459.918	80.44
460.138	83.44
460.358	81.44
460.578	84.44
460.798	90.44
461.018	95.44
461.238	94.44
461.458	98.44
461.678	89.44
461.898	72.44
462.118	63.44
462.338	73.44
462.558	83.44
462.777	87.44
462.997	92.44
463.217	78.44
463.437	91.44
463.657	87.44
463.876	88.44
464.096	82.44
464.316	79.44
464.536	90.44
464.755	78.44
464.975	79.44
465.195	70.44
465.414	91.44
465.634	73.44
465.854	74.44
466.073	87.44
466.293	85.44
466.512	80.44
466.732	77.44
466.951	78.44
467.171	79.44
467.391	76.44
467.61	93.44
467.829	87.44
468.049	81.44
468.268	79.44
468.488	73.44
468.707	87.44
468.927	81.44
469.146	85.44
469.365	76.44
469.585	82.44
469.804	85.44
470.023	95.44
470.243	87.44
470.462	70.44
470.681	86.44
470.901	80.44
471.12	84.44
471.339	88.44
471.558	89.44
471.777	80.44
471.997	92.44
472.216	80.44
472.435	83.44
472.654	88.44
472.873	83.44
473.092	85.44
473.311	87.44
473.53	72.44
473.749	80.44
473.968	94.44
474.187	89.44
474.406	87.44
474.625	75.44
474.844	78.44
475.063	85.44
475.282	80.44
475.501	96.44
475.72	97.44
475.939	92.44
476.158	77.44
476.377	74.44
476.596	93.44
476.814	88.44
477.033	80.44
477.252	87.44
477.471	79.44
477.69	79.44
477.908	76.44
478.127	89.44
478.346	77.44
478.564	82.44
478.783	92.44
479.002	92.44
479.22	86.44
479.439	79.44
479.658	92.44
479.876	85.44
480.095	101.44
480.313	93.44
480.532	87.44
480.751	72.44
480.969	88.44
481.188	78.44
481.406	73.44
481.624	85.44
481.843	81.44
482.061	73.44
482.28	77.44
482.498	86.44
482.717	79.44
482.935	82.44
483.153	85.44
483.372	77.44
483.59	107.44
483.808	71.44
484.027	76.44
484.245	85.44
484.463	81.44
484.681	83.44
484.9	95.44
485.118	85.44
485.336	64.44
485.554	89.44
485.772	81.44
485.99	66.44
486.209	83.44
486.427	101.44
486.645	69.44
486.863	70.44
487.081	74.44
487.299	65.44
487.517	80.44
487.735	80.44
487.953	99.44
488.171	98.44
488.389	79.44
488.607	73.44
488.825	87.44
489.043	93.44
489.261	89.44
489.479	92.44
489.696	91.44
489.914	73.44
490.132	83.44
490.35	79.44
490.568	74.44
490.786	92.44
491.003	77.44
491.221	82.44
491.439	83.44
491.657	91.44
491.874	79.44
492.092	84.44
492.31	73.44
492.527	79.44
492.745	90.44
492.963	78.44
493.18	81.44
493.398	101.44
493.615	99.44
493.833	74.44
494.05	86.44
494.268	85.44
494.485	72.44
494.703	93.44
494.92	78.44
495.138	73.44
495.355	87.44
495.573	86.44
495.79	80.44
496.008	91.44
496.225	89.44
496.442	78.44
496.66	79.44
496.877	77.44
497.094	99.44
497.312	79.44
497.529	78.44
497.746	83.44
497.963	74.44
498.181	83.44
498.398	87.44
498.615	89.44
498.832	87.44
499.049	73.44
499.267	78.44
499.484	88.44
499.701	83.44
499.918	94.44
500.135	83.44
500.352	77.44
500.569	77.44
500.786	93.44
501.003	90.44
501.22	83.44
501.437	87.44
501.654	88.44
501.871	85.44
502.088	86.44
502.305	89.44
502.522	89.44
502.739	91.44
502.956	74.44
503.172	79.44
503.389	86.44
503.606	96.44
503.823	85.44
504.04	90.44
504.256	86.44
504.473	101.44
504.69	83.44
504.907	78.44
505.123	92.44
505.34	102.44
505.557	98.44
505.773	89.44
505.99	87.44
506.207	88.44
506.423	84.44
506.64	87.44
506.856	73.44
507.073	81.44
507.289	90.44
507.506	74.44
507.722	88.44
507.939	83.44
508.155	77.44
508.372	71.44
508.588	87.44
508.805	76.44
509.021	70.44
509.238	84.44
509.454	76.44
509.67	82.44
509.887	82.44
510.103	92.44
510.319	90.44
510.536	95.44
510.752	78.44
510.968	73.44
511.184	81.44
511.401	79.44
511.617	83.44
511.833	87.44
512.049	79.44
512.265	82.44
512.481	70.44
512.698	73.44
512.914	105.44
513.13	91.44
513.346	94.44
513.562	82.44
513.778	83.44
513.994	82.44
514.21	92.44
514.426	90.44
514.642	73.44
514.858	82.44
515.074	87.44
515.29	76.44
515.506	89.44
515.721	79.44
515.937	85.44
516.153	91.44
516.369	87.44
516.585	100.44
516.801	85.44
517.016	90.44
517.232	81.44
517.448	91.44
517.664	80.44
517.879	83.44
518.095	90.44
518.311	79.44
518.527	94.44
518.742	80.44
518.958	97.44
519.173	98.44
519.389	89.44
