Data from 15780_2_HRD10591_00007.txt Node
Date: Mon Jan 19 14:19:07 EST 2026
User: Yrep
Spectrometer: HR+D1059
Trigger mode: 1
Integration Time (sec): 1.000000E-1
Scans to average: 1
Electric dark correction enabled: true
Nonlinearity correction enabled: false
Boxcar width: 0
XAxis mode: Wavelengths
Number of Pixels in Spectrum: 2048
>>>>>Begin Spectral Data<<<<<
223.165	-7.69
223.4	-7.69
223.635	-7.69
223.869	-18.69
224.104	-17.69
224.338	-17.69
224.573	-15.69
224.808	-15.69
225.042	-3.69
225.277	9.31
225.511	-3.69
225.746	-0.69
225.98	1.31
226.215	-0.69
226.449	17.31
226.683	27.31
226.918	17.31
227.152	29.31
227.387	37.31
227.621	40.31
227.856	50.31
228.09	50.31
228.324	60.31
228.559	56.31
228.793	69.31
229.027	64.31
229.262	65.31
229.496	84.31
229.73	69.31
229.964	71.31
230.199	78.31
230.433	78.31
230.667	69.31
230.901	76.31
231.136	88.31
231.37	78.31
231.604	72.31
231.838	73.31
232.072	76.31
232.306	99.31
232.541	64.31
232.775	67.31
233.009	76.31
233.243	74.31
233.477	80.31
233.711	84.31
233.945	81.31
234.179	82.31
234.413	83.31
234.647	76.31
234.881	65.31
235.115	70.31
235.349	84.31
235.583	95.31
235.817	66.31
236.051	69.31
236.285	70.31
236.519	81.31
236.753	84.31
236.987	71.31
237.221	78.31
237.455	68.31
237.689	79.31
237.922	72.31
238.156	85.31
238.39	79.31
238.624	73.31
238.858	67.31
239.091	73.31
239.325	91.31
239.559	79.31
239.793	78.31
240.027	88.31
240.26	67.31
240.494	84.31
240.728	79.31
240.961	75.31
241.195	58.31
241.429	75.31
241.662	60.31
241.896	72.31
242.13	77.31
242.363	82.31
242.597	77.31
242.83	83.31
243.064	79.31
243.298	77.31
243.531	82.31
243.765	64.31
243.998	78.31
244.232	78.31
244.465	86.31
244.699	83.31
244.932	86.31
245.166	71.31
245.399	86.31
245.633	82.31
245.866	79.31
246.099	71.31
246.333	79.31
246.566	66.31
246.8	88.31
247.033	64.31
247.266	74.31
247.5	70.31
247.733	77.31
247.966	78.31
248.2	70.31
248.433	75.31
248.666	84.31
248.899	81.31
249.133	87.31
249.366	78.31
249.599	63.31
249.832	84.31
250.066	77.31
250.299	74.31
250.532	77.31
250.765	91.31
250.998	76.31
251.231	75.31
251.465	80.31
251.698	73.31
251.931	79.31
252.164	77.31
252.397	68.31
252.63	82.31
252.863	68.31
253.096	84.31
253.329	75.31
253.562	78.31
253.795	68.31
254.028	80.31
254.261	79.31
254.494	66.31
254.727	81.31
254.96	76.31
255.193	69.31
255.426	71.31
255.659	78.31
255.892	84.31
256.124	96.31
256.357	88.31
256.59	94.31
256.823	76.31
257.056	78.31
257.289	83.31
257.521	84.31
257.754	93.31
257.987	85.31
258.22	89.31
258.452	90.31
258.685	70.31
258.918	76.31
259.151	87.31
259.383	90.31
259.616	93.31
259.849	77.31
260.081	76.31
260.314	95.31
260.547	68.31
260.779	75.31
261.012	79.31
261.244	78.31
261.477	76.31
261.71	74.31
261.942	83.31
262.175	85.31
262.407	89.31
262.64	76.31
262.872	86.31
263.105	96.31
263.337	78.31
263.57	74.31
263.802	74.31
264.035	79.31
264.267	76.31
264.499	85.31
264.732	94.31
264.964	82.31
265.197	86.31
265.429	69.31
265.661	80.31
265.894	86.31
266.126	95.31
266.358	76.31
266.591	81.31
266.823	87.31
267.055	88.31
267.287	83.31
267.52	95.31
267.752	76.31
267.984	80.31
268.216	66.31
268.448	97.31
268.681	74.31
268.913	74.31
269.145	84.31
269.377	72.31
269.609	86.31
269.841	64.31
270.073	76.31
270.306	86.31
270.538	79.31
270.77	72.31
271.002	77.31
271.234	97.31
271.466	95.31
271.698	77.31
271.93	83.31
272.162	88.31
272.394	76.31
272.626	86.31
272.858	84.31
273.09	80.31
273.322	89.31
273.553	75.31
273.785	82.31
274.017	78.31
274.249	94.31
274.481	83.31
274.713	80.31
274.945	92.31
275.176	89.31
275.408	88.31
275.64	92.31
275.872	82.31
276.104	91.31
276.335	75.31
276.567	80.31
276.799	74.31
277.031	101.31
277.262	97.31
277.494	81.31
277.726	89.31
277.957	88.31
278.189	75.31
278.421	84.31
278.652	77.31
278.884	97.31
279.115	73.31
279.347	94.31
279.579	89.31
279.81	98.31
280.042	97.31
280.273	94.31
280.505	75.31
280.736	76.31
280.968	84.31
281.199	90.31
281.431	87.31
281.662	76.31
281.894	71.31
282.125	84.31
282.356	78.31
282.588	90.31
282.819	77.31
283.051	82.31
283.282	96.31
283.513	92.31
283.745	88.31
283.976	98.31
284.207	93.31
284.439	73.31
284.67	81.31
284.901	82.31
285.132	86.31
285.364	93.31
285.595	81.31
285.826	72.31
286.057	86.31
286.288	68.31
286.52	104.31
286.751	82.31
286.982	76.31
287.213	76.31
287.444	69.31
287.675	90.31
287.906	82.31
288.138	83.31
288.369	93.31
288.6	87.31
288.831	76.31
289.062	83.31
289.293	84.31
289.524	89.31
289.755	93.31
289.986	88.31
290.217	82.31
290.448	98.31
290.679	90.31
290.91	93.31
291.141	78.31
291.371	83.31
291.602	73.31
291.833	91.31
292.064	96.31
292.295	87.31
292.526	82.31
292.757	74.31
292.987	77.31
293.218	76.31
293.449	75.31
293.68	93.31
293.91	79.31
294.141	87.31
294.372	83.31
294.603	88.31
294.833	84.31
295.064	83.31
295.295	76.31
295.525	94.31
295.756	84.31
295.987	80.31
296.217	82.31
296.448	84.31
296.679	84.31
296.909	85.31
297.14	79.31
297.37	79.31
297.601	83.31
297.831	79.31
298.062	88.31
298.292	76.31
298.523	83.31
298.753	88.31
298.984	96.31
299.214	81.31
299.445	77.31
299.675	80.31
299.905	72.31
300.136	88.31
300.366	70.31
300.597	93.31
300.827	84.31
301.057	70.31
301.288	90.31
301.518	84.31
301.748	70.31
301.979	99.31
302.209	89.31
302.439	80.31
302.669	86.31
302.9	85.31
303.13	97.31
303.36	92.31
303.59	81.31
303.82	100.31
304.051	89.31
304.281	93.31
304.511	84.31
304.741	68.31
304.971	90.31
305.201	78.31
305.431	95.31
305.661	92.31
305.891	89.31
306.121	94.31
306.352	88.31
306.582	84.31
306.812	82.31
307.042	78.31
307.272	86.31
307.502	79.31
307.731	90.31
307.961	84.31
308.191	95.31
308.421	93.31
308.651	79.31
308.881	93.31
309.111	84.31
309.341	96.31
309.571	72.31
309.8	84.31
310.03	80.31
310.26	89.31
310.49	84.31
310.72	88.31
310.949	108.31
311.179	80.31
311.409	73.31
311.639	96.31
311.868	79.31
312.098	83.31
312.328	87.31
312.557	88.31
312.787	88.31
313.017	84.31
313.246	92.31
313.476	85.31
313.706	83.31
313.935	76.31
314.165	82.31
314.394	87.31
314.624	91.31
314.853	64.31
315.083	78.31
315.312	86.31
315.542	91.31
315.771	92.31
316.001	86.31
316.23	86.31
316.46	86.31
316.689	82.31
316.919	94.31
317.148	102.31
317.377	105.31
317.607	90.31
317.836	83.31
318.065	77.31
318.295	74.31
318.524	102.31
318.753	82.31
318.983	98.31
319.212	83.31
319.441	80.31
319.67	86.31
319.9	86.31
320.129	90.31
320.358	86.31
320.587	92.31
320.816	81.31
321.046	86.31
321.275	94.31
321.504	85.31
321.733	74.31
321.962	80.31
322.191	87.31
322.42	72.31
322.649	83.31
322.878	80.31
323.108	88.31
323.337	81.31
323.566	98.31
323.795	80.31
324.024	96.31
324.253	86.31
324.482	81.31
324.71	84.31
324.939	89.31
325.168	93.31
325.397	91.31
325.626	102.31
325.855	74.31
326.084	77.31
326.313	74.31
326.542	84.31
326.77	90.31
326.999	95.31
327.228	72.31
327.457	90.31
327.686	79.31
327.914	82.31
328.143	107.31
328.372	87.31
328.6	91.31
328.829	81.31
329.058	106.31
329.287	78.31
329.515	84.31
329.744	93.31
329.972	89.31
330.201	93.31
330.43	89.31
330.658	85.31
330.887	73.31
331.115	92.31
331.344	87.31
331.572	98.31
331.801	93.31
332.03	94.31
332.258	93.31
332.486	73.31
332.715	94.31
332.943	81.31
333.172	77.31
333.4	85.31
333.629	81.31
333.857	77.31
334.085	108.31
334.314	75.31
334.542	74.31
334.771	100.31
334.999	82.31
335.227	82.31
335.455	92.31
335.684	97.31
335.912	96.31
336.14	80.31
336.369	75.31
336.597	72.31
336.825	82.31
337.053	88.31
337.281	82.31
337.51	87.31
337.738	79.31
337.966	80.31
338.194	80.31
338.422	90.31
338.65	93.31
338.878	86.31
339.106	58.31
339.334	92.31
339.562	94.31
339.79	88.31
340.018	81.31
340.246	93.31
340.474	90.31
340.702	86.31
340.93	87.31
341.158	82.31
341.386	90.31
341.614	89.31
341.842	73.31
342.07	93.31
342.298	84.31
342.526	90.31
342.754	81.31
342.981	82.31
343.209	99.31
343.437	88.31
343.665	82.31
343.893	83.31
344.12	96.31
344.348	84.31
344.576	89.31
344.804	74.31
345.031	79.31
345.259	100.31
345.487	84.31
345.714	87.31
345.942	88.31
346.17	95.31
346.397	82.31
346.625	82.31
346.853	81.31
347.08	96.31
347.308	97.31
347.535	74.31
347.763	84.31
347.99	79.31
348.218	73.31
348.445	80.31
348.673	88.31
348.9	84.31
349.128	87.31
349.355	81.31
349.583	73.31
349.81	71.31
350.037	90.31
350.265	98.31
350.492	81.31
350.72	97.31
350.947	81.31
351.174	82.31
351.402	90.31
351.629	88.31
351.856	90.31
352.083	85.31
352.311	90.31
352.538	74.31
352.765	96.31
352.992	98.31
353.22	86.31
353.447	78.31
353.674	93.31
353.901	88.31
354.128	86.31
354.355	86.31
354.583	83.31
354.81	85.31
355.037	84.31
355.264	86.31
355.491	81.31
355.718	100.31
355.945	88.31
356.172	88.31
356.399	98.31
356.626	94.31
356.853	86.31
357.08	93.31
357.307	96.31
357.534	72.31
357.761	84.31
357.988	84.31
358.215	98.31
358.441	91.31
358.668	84.31
358.895	89.31
359.122	91.31
359.349	92.31
359.576	77.31
359.802	102.31
360.029	96.31
360.256	96.31
360.483	86.31
360.709	74.31
360.936	84.31
361.163	96.31
361.39	84.31
361.616	72.31
361.843	96.31
362.07	98.31
362.296	106.31
362.523	91.31
362.749	86.31
362.976	102.31
363.203	95.31
363.429	85.31
363.656	99.31
363.882	84.31
364.109	97.31
364.335	105.31
364.562	116.31
364.788	90.31
365.015	80.31
365.241	90.31
365.468	88.31
365.694	87.31
365.92	102.31
366.147	93.31
366.373	88.31
366.599	86.31
366.826	97.31
367.052	87.31
367.278	72.31
367.505	91.31
367.731	90.31
367.957	79.31
368.184	82.31
368.41	98.31
368.636	91.31
368.862	80.31
369.089	86.31
369.315	97.31
369.541	86.31
369.767	87.31
369.993	87.31
370.219	86.31
370.445	86.31
370.672	82.31
370.898	80.31
371.124	89.31
371.35	93.31
371.576	102.31
371.802	77.31
372.028	78.31
372.254	97.31
372.48	79.31
372.706	100.31
372.932	90.31
373.158	101.31
373.384	96.31
373.61	85.31
373.835	84.31
374.061	81.31
374.287	79.31
374.513	78.31
374.739	88.31
374.965	88.31
375.191	88.31
375.416	104.31
375.642	98.31
375.868	89.31
376.094	83.31
376.319	83.31
376.545	83.31
376.771	78.31
376.997	89.31
377.222	94.31
377.448	84.31
377.674	98.31
377.899	86.31
378.125	76.31
378.35	82.31
378.576	77.31
378.802	84.31
379.027	96.31
379.253	87.31
379.478	86.31
379.704	88.31
379.929	88.31
380.155	81.31
380.38	92.31
380.606	90.31
380.831	82.31
381.057	92.31
381.282	72.31
381.507	88.31
381.733	99.31
381.958	82.31
382.184	97.31
382.409	84.31
382.634	90.31
382.86	90.31
383.085	97.31
383.31	89.31
383.535	96.31
383.761	88.31
383.986	88.31
384.211	91.31
384.436	98.31
384.662	85.31
384.887	98.31
385.112	93.31
385.337	90.31
385.562	86.31
385.787	86.31
386.013	105.31
386.238	94.31
386.463	78.31
386.688	91.31
386.913	79.31
387.138	88.31
387.363	86.31
387.588	97.31
387.813	86.31
388.038	84.31
388.263	97.31
388.488	89.31
388.713	90.31
388.938	82.31
389.163	86.31
389.387	83.31
389.612	94.31
389.837	77.31
390.062	90.31
390.287	87.31
390.512	69.31
390.736	87.31
390.961	74.31
391.186	87.31
391.411	91.31
391.636	91.31
391.86	82.31
392.085	90.31
392.31	82.31
392.534	92.31
392.759	105.31
392.984	107.31
393.208	129.31
393.433	171.31
393.658	140.31
393.882	115.31
394.107	93.31
394.331	92.31
394.556	90.31
394.78	94.31
395.005	74.31
395.229	89.31
395.454	89.31
395.678	89.31
395.903	91.31
396.127	97.31
396.352	113.31
396.576	106.31
396.801	133.31
397.025	132.31
397.249	108.31
397.474	98.31
397.698	95.31
397.922	77.31
398.147	94.31
398.371	95.31
398.595	86.31
398.82	90.31
399.044	99.31
399.268	92.31
399.492	81.31
399.717	88.31
399.941	75.31
400.165	92.31
400.389	84.31
400.613	79.31
400.837	84.31
401.062	86.31
401.286	79.31
401.51	84.31
401.734	87.31
401.958	86.31
402.182	92.31
402.406	86.31
402.63	72.31
402.854	78.31
403.078	93.31
403.302	65.31
403.526	96.31
403.75	85.31
403.974	76.31
404.198	76.31
404.422	83.31
404.645	92.31
404.869	90.31
405.093	84.31
405.317	98.31
405.541	79.31
405.765	82.31
405.988	88.31
406.212	83.31
406.436	92.31
406.66	86.31
406.883	94.31
407.107	70.31
407.331	88.31
407.555	86.31
407.778	102.31
408.002	83.31
408.226	89.31
408.449	79.31
408.673	84.31
408.896	86.31
409.12	92.31
409.344	80.31
409.567	89.31
409.791	100.31
410.014	81.31
410.238	82.31
410.461	87.31
410.685	92.31
410.908	81.31
411.132	83.31
411.355	92.31
411.578	87.31
411.802	87.31
412.025	77.31
412.249	72.31
412.472	83.31
412.695	76.31
412.919	82.31
413.142	83.31
413.365	90.31
413.589	86.31
413.812	95.31
414.035	88.31
414.258	100.31
414.482	82.31
414.705	78.31
414.928	99.31
415.151	92.31
415.374	88.31
415.597	90.31
415.821	97.31
416.044	91.31
416.267	98.31
416.49	78.31
416.713	76.31
416.936	79.31
417.159	72.31
417.382	90.31
417.605	101.31
417.828	95.31
418.051	80.31
418.274	89.31
418.497	83.31
418.72	78.31
418.943	85.31
419.166	85.31
419.389	79.31
419.611	89.31
419.834	81.31
420.057	86.31
420.28	87.31
420.503	92.31
420.726	89.31
420.948	84.31
421.171	84.31
421.394	84.31
421.617	90.31
421.839	107.31
422.062	96.31
422.285	99.31
422.507	144.31
422.73	190.31
422.953	176.31
423.175	121.31
423.398	108.31
423.621	104.31
423.843	86.31
424.066	92.31
424.288	86.31
424.511	93.31
424.733	92.31
424.956	89.31
425.178	79.31
425.401	90.31
425.623	85.31
425.846	85.31
426.068	82.31
426.291	86.31
426.513	84.31
426.735	74.31
426.958	89.31
427.18	79.31
427.402	86.31
427.625	92.31
427.847	79.31
428.069	80.31
428.292	107.31
428.514	92.31
428.736	105.31
428.958	96.31
429.181	104.31
429.403	87.31
429.625	95.31
429.847	107.31
430.069	109.31
430.292	122.31
430.514	115.31
430.736	104.31
430.958	107.31
431.18	93.31
431.402	95.31
431.624	83.31
431.846	95.31
432.068	121.31
432.29	103.31
432.512	100.31
432.734	88.31
432.956	89.31
433.178	78.31
433.4	93.31
433.622	86.31
433.844	92.31
434.066	97.31
434.287	89.31
434.509	92.31
434.731	88.31
434.953	103.31
435.175	81.31
435.397	102.31
435.618	80.31
435.84	93.31
436.062	84.31
436.284	93.31
436.505	74.31
436.727	87.31
436.949	71.31
437.17	73.31
437.392	86.31
437.614	84.31
437.835	82.31
438.057	96.31
438.278	80.31
438.5	90.31
438.721	69.31
438.943	70.31
439.165	77.31
439.386	73.31
439.608	70.31
439.829	80.31
440.05	88.31
440.272	103.31
440.493	88.31
440.715	87.31
440.936	93.31
441.158	88.31
441.379	82.31
441.6	89.31
441.822	89.31
442.043	89.31
442.264	87.31
442.486	100.31
442.707	95.31
442.928	90.31
443.149	92.31
443.371	96.31
443.592	141.31
443.813	126.31
444.034	92.31
444.255	76.31
444.476	83.31
444.698	85.31
444.919	73.31
445.14	173.31
445.361	147.31
445.582	143.31
445.803	124.31
446.024	91.31
446.245	76.31
446.466	92.31
446.687	82.31
446.908	88.31
447.129	94.31
447.35	89.31
447.571	81.31
447.792	84.31
448.013	81.31
448.234	97.31
448.455	89.31
448.675	89.31
448.896	76.31
449.117	93.31
449.338	86.31
449.559	68.31
449.779	76.31
450	85.31
450.221	76.31
450.442	78.31
450.662	95.31
450.883	86.31
451.104	99.31
451.324	80.31
451.545	72.31
451.766	71.31
451.986	81.31
452.207	87.31
452.428	97.31
452.648	87.31
452.869	100.31
453.089	90.31
453.31	90.31
453.53	92.31
453.751	104.31
453.971	91.31
454.192	84.31
454.412	86.31
454.633	78.31
454.853	83.31
455.073	84.31
455.294	84.31
455.514	83.31
455.734	87.31
455.955	79.31
456.175	77.31
456.395	90.31
456.616	84.31
456.836	90.31
457.056	89.31
457.276	76.31
457.497	88.31
457.717	89.31
457.937	104.31
458.157	89.31
458.377	100.31
458.598	92.31
458.818	94.31
459.038	81.31
459.258	82.31
459.478	81.31
459.698	94.31
459.918	93.31
460.138	89.31
460.358	72.31
460.578	97.31
460.798	100.31
461.018	102.31
461.238	92.31
461.458	91.31
461.678	75.31
461.898	85.31
462.118	85.31
462.338	88.31
462.558	89.31
462.777	77.31
462.997	84.31
463.217	88.31
463.437	82.31
463.657	81.31
463.876	79.31
464.096	75.31
464.316	92.31
464.536	78.31
464.755	98.31
464.975	73.31
465.195	84.31
465.414	90.31
465.634	86.31
465.854	68.31
466.073	88.31
466.293	73.31
466.512	72.31
466.732	93.31
466.951	95.31
467.171	86.31
467.391	94.31
467.61	85.31
467.829	109.31
468.049	76.31
468.268	77.31
468.488	85.31
468.707	72.31
468.927	94.31
469.146	81.31
469.365	80.31
469.585	76.31
469.804	67.31
470.023	95.31
470.243	91.31
470.462	95.31
470.681	81.31
470.901	76.31
471.12	90.31
471.339	106.31
471.558	91.31
471.777	96.31
471.997	93.31
472.216	90.31
472.435	87.31
472.654	93.31
472.873	92.31
473.092	82.31
473.311	90.31
473.53	80.31
473.749	92.31
473.968	82.31
474.187	79.31
474.406	91.31
474.625	83.31
474.844	94.31
475.063	82.31
475.282	87.31
475.501	77.31
475.72	90.31
475.939	86.31
476.158	85.31
476.377	85.31
476.596	93.31
476.814	102.31
477.033	102.31
477.252	80.31
477.471	92.31
477.69	83.31
477.908	81.31
478.127	86.31
478.346	90.31
478.564	84.31
478.783	83.31
479.002	85.31
479.22	77.31
479.439	79.31
479.658	74.31
479.876	80.31
480.095	94.31
480.313	88.31
480.532	77.31
480.751	85.31
480.969	91.31
481.188	86.31
481.406	101.31
481.624	93.31
481.843	85.31
482.061	80.31
482.28	88.31
482.498	86.31
482.717	93.31
482.935	83.31
483.153	69.31
483.372	104.31
483.59	89.31
483.808	85.31
484.027	91.31
484.245	92.31
484.463	108.31
484.681	93.31
484.9	99.31
485.118	82.31
485.336	90.31
485.554	108.31
485.772	93.31
485.99	87.31
486.209	85.31
486.427	84.31
486.645	98.31
486.863	76.31
487.081	84.31
487.299	100.31
487.517	98.31
487.735	95.31
487.953	104.31
488.171	94.31
488.389	95.31
488.607	90.31
488.825	92.31
489.043	92.31
489.261	92.31
489.479	97.31
489.696	91.31
489.914	86.31
490.132	92.31
490.35	89.31
490.568	87.31
490.786	81.31
491.003	93.31
491.221	85.31
491.439	71.31
491.657	89.31
491.874	91.31
492.092	100.31
492.31	77.31
492.527	89.31
492.745	94.31
492.963	107.31
493.18	102.31
493.398	90.31
493.615	85.31
493.833	83.31
494.05	89.31
494.268	90.31
494.485	85.31
494.703	84.31
494.92	83.31
495.138	82.31
495.355	90.31
495.573	86.31
495.79	72.31
496.008	98.31
496.225	96.31
496.442	99.31
496.66	95.31
496.877	90.31
497.094	88.31
497.312	86.31
497.529	78.31
497.746	97.31
497.963	82.31
498.181	108.31
498.398	104.31
498.615	97.31
498.832	107.31
499.049	94.31
499.267	98.31
499.484	95.31
499.701	96.31
499.918	86.31
500.135	92.31
500.352	96.31
500.569	76.31
500.786	109.31
501.003	83.31
501.22	97.31
501.437	94.31
501.654	80.31
501.871	84.31
502.088	85.31
502.305	86.31
502.522	86.31
502.739	89.31
502.956	89.31
503.172	85.31
503.389	82.31
503.606	93.31
503.823	89.31
504.04	97.31
504.256	108.31
504.473	123.31
504.69	88.31
504.907	82.31
505.123	88.31
505.34	86.31
505.557	74.31
505.773	94.31
505.99	87.31
506.207	106.31
506.423	83.31
506.64	87.31
506.856	68.31
507.073	92.31
507.289	97.31
507.506	76.31
507.722	87.31
507.939	86.31
508.155	103.31
508.372	100.31
508.588	95.31
508.805	103.31
509.021	102.31
509.238	84.31
509.454	81.31
509.67	98.31
509.887	92.31
510.103	90.31
510.319	78.31
510.536	89.31
510.752	89.31
510.968	87.31
511.184	88.31
511.401	55.31
511.617	98.31
511.833	88.31
512.049	90.31
512.265	81.31
512.481	82.31
512.698	83.31
512.914	99.31
513.13	86.31
513.346	79.31
513.562	95.31
513.778	85.31
513.994	72.31
514.21	92.31
514.426	93.31
514.642	76.31
514.858	89.31
515.074	78.31
515.29	96.31
515.506	84.31
515.721	99.31
515.937	85.31
516.153	83.31
516.369	77.31
516.585	84.31
516.801	92.31
517.016	102.31
517.232	89.31
517.448	101.31
517.664	100.31
517.879	96.31
518.095	88.31
518.311	88.31
518.527	89.31
518.742	98.31
518.958	116.31
