Data from 15780_2_HRD10591_00009.txt Node
Date: Mon Jan 19 14:19:08 EST 2026
User: Yrep
Spectrometer: HR+D1059
Trigger mode: 1
Integration Time (sec): 1.000000E-1
Scans to average: 1
Electric dark correction enabled: true
Nonlinearity correction enabled: false
Boxcar width: 0
XAxis mode: Wavelengths
Number of Pixels in Spectrum: 2048
>>>>>Begin Spectral Data<<<<<
223.165	-20.69
223.4	-20.69
223.635	-20.69
223.869	-13.69
224.104	-30.69
224.338	-5.69
224.573	-12.69
224.808	-21.69
225.042	-4.69
225.277	-3.69
225.511	-11.69
225.746	-0.69
225.98	2.31
226.215	19.31
226.449	23.31
226.683	24.31
226.918	32.31
227.152	24.31
227.387	45.31
227.621	50.31
227.856	55.31
228.09	53.31
228.324	64.31
228.559	58.31
228.793	60.31
229.027	68.31
229.262	59.31
229.496	67.31
229.73	80.31
229.964	78.31
230.199	77.31
230.433	66.31
230.667	77.31
230.901	76.31
231.136	71.31
231.37	70.31
231.604	78.31
231.838	86.31
232.072	78.31
232.306	90.31
232.541	81.31
232.775	79.31
233.009	80.31
233.243	78.31
233.477	81.31
233.711	88.31
233.945	91.31
234.179	79.31
234.413	82.31
234.647	84.31
234.881	83.31
235.115	73.31
235.349	77.31
235.583	85.31
235.817	87.31
236.051	69.31
236.285	72.31
236.519	77.31
236.753	78.31
236.987	73.31
237.221	80.31
237.455	77.31
237.689	78.31
237.922	80.31
238.156	81.31
238.39	63.31
238.624	81.31
238.858	72.31
239.091	66.31
239.325	83.31
239.559	80.31
239.793	86.31
240.027	79.31
240.26	96.31
240.494	86.31
240.728	74.31
240.961	69.31
241.195	74.31
241.429	87.31
241.662	88.31
241.896	76.31
242.13	78.31
242.363	88.31
242.597	76.31
242.83	85.31
243.064	84.31
243.298	74.31
243.531	70.31
243.765	71.31
243.998	88.31
244.232	86.31
244.465	79.31
244.699	72.31
244.932	73.31
245.166	77.31
245.399	78.31
245.633	70.31
245.866	71.31
246.099	72.31
246.333	74.31
246.566	80.31
246.8	74.31
247.033	82.31
247.266	89.31
247.5	75.31
247.733	79.31
247.966	77.31
248.2	87.31
248.433	83.31
248.666	81.31
248.899	81.31
249.133	89.31
249.366	90.31
249.599	95.31
249.832	76.31
250.066	78.31
250.299	79.31
250.532	85.31
250.765	78.31
250.998	78.31
251.231	69.31
251.465	83.31
251.698	77.31
251.931	94.31
252.164	74.31
252.397	86.31
252.63	90.31
252.863	88.31
253.096	74.31
253.329	89.31
253.562	84.31
253.795	74.31
254.028	84.31
254.261	85.31
254.494	95.31
254.727	93.31
254.96	83.31
255.193	78.31
255.426	87.31
255.659	90.31
255.892	87.31
256.124	77.31
256.357	81.31
256.59	98.31
256.823	83.31
257.056	86.31
257.289	85.31
257.521	80.31
257.754	68.31
257.987	80.31
258.22	82.31
258.452	90.31
258.685	98.31
258.918	76.31
259.151	79.31
259.383	78.31
259.616	85.31
259.849	79.31
260.081	98.31
260.314	94.31
260.547	77.31
260.779	96.31
261.012	70.31
261.244	86.31
261.477	80.31
261.71	86.31
261.942	77.31
262.175	93.31
262.407	88.31
262.64	85.31
262.872	94.31
263.105	90.31
263.337	82.31
263.57	83.31
263.802	84.31
264.035	79.31
264.267	86.31
264.499	79.31
264.732	85.31
264.964	84.31
265.197	95.31
265.429	78.31
265.661	84.31
265.894	74.31
266.126	83.31
266.358	100.31
266.591	80.31
266.823	80.31
267.055	103.31
267.287	88.31
267.52	91.31
267.752	66.31
267.984	92.31
268.216	78.31
268.448	92.31
268.681	87.31
268.913	79.31
269.145	86.31
269.377	90.31
269.609	77.31
269.841	96.31
270.073	85.31
270.306	86.31
270.538	73.31
270.77	74.31
271.002	80.31
271.234	92.31
271.466	99.31
271.698	74.31
271.93	87.31
272.162	75.31
272.394	90.31
272.626	94.31
272.858	80.31
273.09	78.31
273.322	86.31
273.553	90.31
273.785	86.31
274.017	83.31
274.249	84.31
274.481	74.31
274.713	81.31
274.945	92.31
275.176	89.31
275.408	83.31
275.64	86.31
275.872	88.31
276.104	89.31
276.335	79.31
276.567	92.31
276.799	96.31
277.031	102.31
277.262	76.31
277.494	79.31
277.726	95.31
277.957	96.31
278.189	91.31
278.421	89.31
278.652	80.31
278.884	85.31
279.115	88.31
279.347	94.31
279.579	89.31
279.81	92.31
280.042	77.31
280.273	85.31
280.505	94.31
280.736	67.31
280.968	70.31
281.199	92.31
281.431	87.31
281.662	87.31
281.894	83.31
282.125	90.31
282.356	86.31
282.588	96.31
282.819	80.31
283.051	94.31
283.282	88.31
283.513	91.31
283.745	97.31
283.976	92.31
284.207	87.31
284.439	86.31
284.67	86.31
284.901	82.31
285.132	87.31
285.364	79.31
285.595	82.31
285.826	83.31
286.057	79.31
286.288	90.31
286.52	87.31
286.751	81.31
286.982	86.31
287.213	92.31
287.444	89.31
287.675	90.31
287.906	92.31
288.138	98.31
288.369	92.31
288.6	81.31
288.831	91.31
289.062	90.31
289.293	61.31
289.524	88.31
289.755	70.31
289.986	94.31
290.217	84.31
290.448	101.31
290.679	92.31
290.91	86.31
291.141	82.31
291.371	94.31
291.602	92.31
291.833	84.31
292.064	89.31
292.295	77.31
292.526	79.31
292.757	89.31
292.987	72.31
293.218	94.31
293.449	94.31
293.68	94.31
293.91	97.31
294.141	87.31
294.372	80.31
294.603	98.31
294.833	78.31
295.064	94.31
295.295	78.31
295.525	74.31
295.756	96.31
295.987	93.31
296.217	87.31
296.448	78.31
296.679	91.31
296.909	80.31
297.14	95.31
297.37	90.31
297.601	86.31
297.831	84.31
298.062	86.31
298.292	92.31
298.523	87.31
298.753	84.31
298.984	87.31
299.214	95.31
299.445	94.31
299.675	90.31
299.905	103.31
300.136	90.31
300.366	76.31
300.597	90.31
300.827	93.31
301.057	70.31
301.288	78.31
301.518	74.31
301.748	99.31
301.979	114.31
302.209	94.31
302.439	95.31
302.669	96.31
302.9	92.31
303.13	105.31
303.36	90.31
303.59	77.31
303.82	98.31
304.051	84.31
304.281	85.31
304.511	83.31
304.741	72.31
304.971	82.31
305.201	101.31
305.431	92.31
305.661	76.31
305.891	83.31
306.121	86.31
306.352	89.31
306.582	94.31
306.812	90.31
307.042	88.31
307.272	88.31
307.502	91.31
307.731	98.31
307.961	101.31
308.191	95.31
308.421	86.31
308.651	92.31
308.881	98.31
309.111	85.31
309.341	94.31
309.571	91.31
309.8	80.31
310.03	100.31
310.26	87.31
310.49	94.31
310.72	94.31
310.949	81.31
311.179	77.31
311.409	80.31
311.639	85.31
311.868	86.31
312.098	83.31
312.328	89.31
312.557	99.31
312.787	94.31
313.017	82.31
313.246	86.31
313.476	90.31
313.706	76.31
313.935	78.31
314.165	87.31
314.394	80.31
314.624	106.31
314.853	80.31
315.083	81.31
315.312	82.31
315.542	87.31
315.771	81.31
316.001	88.31
316.23	99.31
316.46	80.31
316.689	82.31
316.919	91.31
317.148	86.31
317.377	100.31
317.607	88.31
317.836	91.31
318.065	93.31
318.295	87.31
318.524	92.31
318.753	96.31
318.983	76.31
319.212	88.31
319.441	77.31
319.67	92.31
319.9	89.31
320.129	99.31
320.358	89.31
320.587	81.31
320.816	92.31
321.046	71.31
321.275	82.31
321.504	85.31
321.733	93.31
321.962	87.31
322.191	96.31
322.42	75.31
322.649	86.31
322.878	92.31
323.108	94.31
323.337	86.31
323.566	89.31
323.795	94.31
324.024	96.31
324.253	86.31
324.482	91.31
324.71	76.31
324.939	88.31
325.168	101.31
325.397	84.31
325.626	89.31
325.855	84.31
326.084	94.31
326.313	92.31
326.542	88.31
326.77	95.31
326.999	87.31
327.228	86.31
327.457	79.31
327.686	97.31
327.914	90.31
328.143	83.31
328.372	81.31
328.6	82.31
328.829	88.31
329.058	93.31
329.287	87.31
329.515	83.31
329.744	104.31
329.972	86.31
330.201	90.31
330.43	94.31
330.658	77.31
330.887	87.31
331.115	94.31
331.344	91.31
331.572	93.31
331.801	74.31
332.03	80.31
332.258	92.31
332.486	84.31
332.715	104.31
332.943	102.31
333.172	80.31
333.4	95.31
333.629	83.31
333.857	93.31
334.085	102.31
334.314	93.31
334.542	86.31
334.771	91.31
334.999	97.31
335.227	101.31
335.455	100.31
335.684	99.31
335.912	96.31
336.14	86.31
336.369	107.31
336.597	91.31
336.825	93.31
337.053	98.31
337.281	92.31
337.51	91.31
337.738	86.31
337.966	93.31
338.194	100.31
338.422	90.31
338.65	92.31
338.878	98.31
339.106	102.31
339.334	96.31
339.562	89.31
339.79	84.31
340.018	102.31
340.246	87.31
340.474	80.31
340.702	92.31
340.93	91.31
341.158	78.31
341.386	92.31
341.614	85.31
341.842	96.31
342.07	92.31
342.298	90.31
342.526	82.31
342.754	85.31
342.981	89.31
343.209	95.31
343.437	98.31
343.665	94.31
343.893	86.31
344.12	74.31
344.348	95.31
344.576	106.31
344.804	88.31
345.031	103.31
345.259	86.31
345.487	82.31
345.714	83.31
345.942	99.31
346.17	96.31
346.397	86.31
346.625	87.31
346.853	90.31
347.08	92.31
347.308	91.31
347.535	84.31
347.763	98.31
347.99	91.31
348.218	90.31
348.445	86.31
348.673	93.31
348.9	88.31
349.128	82.31
349.355	95.31
349.583	96.31
349.81	100.31
350.037	96.31
350.265	87.31
350.492	80.31
350.72	93.31
350.947	79.31
351.174	95.31
351.402	90.31
351.629	83.31
351.856	85.31
352.083	104.31
352.311	92.31
352.538	86.31
352.765	89.31
352.992	104.31
353.22	86.31
353.447	85.31
353.674	89.31
353.901	87.31
354.128	85.31
354.355	93.31
354.583	88.31
354.81	87.31
355.037	89.31
355.264	91.31
355.491	98.31
355.718	90.31
355.945	92.31
356.172	98.31
356.399	95.31
356.626	93.31
356.853	101.31
357.08	104.31
357.307	87.31
357.534	76.31
357.761	84.31
357.988	94.31
358.215	90.31
358.441	85.31
358.668	107.31
358.895	102.31
359.122	89.31
359.349	104.31
359.576	83.31
359.802	90.31
360.029	92.31
360.256	96.31
360.483	89.31
360.709	94.31
360.936	95.31
361.163	95.31
361.39	94.31
361.616	95.31
361.843	95.31
362.07	91.31
362.296	103.31
362.523	102.31
362.749	97.31
362.976	111.31
363.203	114.31
363.429	103.31
363.656	90.31
363.882	94.31
364.109	100.31
364.335	110.31
364.562	107.31
364.788	105.31
365.015	75.31
365.241	96.31
365.468	80.31
365.694	66.31
365.92	97.31
366.147	86.31
366.373	91.31
366.599	102.31
366.826	86.31
367.052	85.31
367.278	87.31
367.505	92.31
367.731	98.31
367.957	89.31
368.184	96.31
368.41	94.31
368.636	89.31
368.862	86.31
369.089	86.31
369.315	82.31
369.541	88.31
369.767	103.31
369.993	72.31
370.219	92.31
370.445	70.31
370.672	95.31
370.898	85.31
371.124	88.31
371.35	76.31
371.576	90.31
371.802	100.31
372.028	85.31
372.254	99.31
372.48	98.31
372.706	76.31
372.932	98.31
373.158	102.31
373.384	102.31
373.61	107.31
373.835	108.31
374.061	96.31
374.287	81.31
374.513	97.31
374.739	95.31
374.965	95.31
375.191	91.31
375.416	95.31
375.642	101.31
375.868	103.31
376.094	92.31
376.319	86.31
376.545	88.31
376.771	88.31
376.997	80.31
377.222	102.31
377.448	95.31
377.674	101.31
377.899	103.31
378.125	87.31
378.35	87.31
378.576	93.31
378.802	93.31
379.027	82.31
379.253	92.31
379.478	98.31
379.704	94.31
379.929	98.31
380.155	95.31
380.38	99.31
380.606	84.31
380.831	86.31
381.057	93.31
381.282	82.31
381.507	90.31
381.733	98.31
381.958	97.31
382.184	99.31
382.409	101.31
382.634	102.31
382.86	93.31
383.085	102.31
383.31	100.31
383.535	94.31
383.761	97.31
383.986	87.31
384.211	95.31
384.436	87.31
384.662	86.31
384.887	84.31
385.112	85.31
385.337	89.31
385.562	103.31
385.787	100.31
386.013	98.31
386.238	100.31
386.463	97.31
386.688	116.31
386.913	88.31
387.138	95.31
387.363	94.31
387.588	91.31
387.813	108.31
388.038	96.31
388.263	91.31
388.488	97.31
388.713	103.31
388.938	89.31
389.163	86.31
389.387	101.31
389.612	88.31
389.837	87.31
390.062	86.31
390.287	86.31
390.512	95.31
390.736	98.31
390.961	98.31
391.186	96.31
391.411	80.31
391.636	87.31
391.86	93.31
392.085	86.31
392.31	90.31
392.534	100.31
392.759	110.31
392.984	143.31
393.208	198.31
393.433	247.31
393.658	201.31
393.882	109.31
394.107	100.31
394.331	96.31
394.556	99.31
394.78	95.31
395.005	102.31
395.229	95.31
395.454	99.31
395.678	112.31
395.903	103.31
396.127	115.31
396.352	142.31
396.576	124.31
396.801	164.31
397.025	205.31
397.249	122.31
397.474	93.31
397.698	78.31
397.922	90.31
398.147	88.31
398.371	98.31
398.595	87.31
398.82	88.31
399.044	91.31
399.268	80.31
399.492	96.31
399.717	101.31
399.941	90.31
400.165	100.31
400.389	82.31
400.613	102.31
400.837	92.31
401.062	111.31
401.286	85.31
401.51	84.31
401.734	86.31
401.958	92.31
402.182	80.31
402.406	94.31
402.63	84.31
402.854	94.31
403.078	90.31
403.302	88.31
403.526	82.31
403.75	86.31
403.974	96.31
404.198	94.31
404.422	93.31
404.645	109.31
404.869	91.31
405.093	89.31
405.317	93.31
405.541	87.31
405.765	83.31
405.988	93.31
406.212	101.31
406.436	84.31
406.66	100.31
406.883	87.31
407.107	86.31
407.331	88.31
407.555	107.31
407.778	105.31
408.002	96.31
408.226	81.31
408.449	84.31
408.673	100.31
408.896	95.31
409.12	102.31
409.344	102.31
409.567	115.31
409.791	97.31
410.014	97.31
410.238	84.31
410.461	81.31
410.685	98.31
410.908	87.31
411.132	91.31
411.355	90.31
411.578	90.31
411.802	75.31
412.025	87.31
412.249	95.31
412.472	83.31
412.695	105.31
412.919	89.31
413.142	95.31
413.365	86.31
413.589	91.31
413.812	106.31
414.035	88.31
414.258	82.31
414.482	86.31
414.705	83.31
414.928	99.31
415.151	91.31
415.374	93.31
415.597	77.31
415.821	87.31
416.044	92.31
416.267	85.31
416.49	87.31
416.713	88.31
416.936	89.31
417.159	88.31
417.382	93.31
417.605	84.31
417.828	98.31
418.051	83.31
418.274	90.31
418.497	83.31
418.72	95.31
418.943	98.31
419.166	101.31
419.389	80.31
419.611	84.31
419.834	92.31
420.057	99.31
420.28	92.31
420.503	102.31
420.726	87.31
420.948	94.31
421.171	110.31
421.394	99.31
421.617	114.31
421.839	109.31
422.062	115.31
422.285	143.31
422.507	228.31
422.73	298.31
422.953	283.31
423.175	168.31
423.398	118.31
423.621	108.31
423.843	96.31
424.066	100.31
424.288	96.31
424.511	108.31
424.733	74.31
424.956	88.31
425.178	100.31
425.401	87.31
425.623	80.31
425.846	100.31
426.068	90.31
426.291	93.31
426.513	88.31
426.735	80.31
426.958	87.31
427.18	100.31
427.402	89.31
427.625	86.31
427.847	94.31
428.069	98.31
428.292	112.31
428.514	115.31
428.736	110.31
428.958	115.31
429.181	112.31
429.403	100.31
429.625	81.31
429.847	112.31
430.069	142.31
430.292	147.31
430.514	134.31
430.736	126.31
430.958	140.31
431.18	90.31
431.402	95.31
431.624	102.31
431.846	111.31
432.068	110.31
432.29	77.31
432.512	87.31
432.734	76.31
432.956	101.31
433.178	92.31
433.4	95.31
433.622	102.31
433.844	72.31
434.066	73.31
434.287	88.31
434.509	81.31
434.731	82.31
434.953	97.31
435.175	86.31
435.397	96.31
435.618	92.31
435.84	95.31
436.062	93.31
436.284	86.31
436.505	98.31
436.727	99.31
436.949	92.31
437.17	73.31
437.392	88.31
437.614	84.31
437.835	71.31
438.057	77.31
438.278	94.31
438.5	94.31
438.721	87.31
438.943	94.31
439.165	98.31
439.386	84.31
439.608	95.31
439.829	86.31
440.05	80.31
440.272	98.31
440.493	97.31
440.715	79.31
440.936	90.31
441.158	78.31
441.379	86.31
441.6	88.31
441.822	93.31
442.043	77.31
442.264	103.31
442.486	110.31
442.707	128.31
442.928	102.31
443.149	88.31
443.371	126.31
443.592	182.31
443.813	173.31
444.034	119.31
444.255	87.31
444.476	94.31
444.698	100.31
444.919	94.31
445.14	168.31
445.361	170.31
445.582	215.31
445.803	190.31
446.024	127.31
446.245	108.31
446.466	87.31
446.687	94.31
446.908	87.31
447.129	86.31
447.35	72.31
447.571	90.31
447.792	91.31
448.013	84.31
448.234	76.31
448.455	84.31
448.675	79.31
448.896	87.31
449.117	86.31
449.338	93.31
449.559	94.31
449.779	83.31
450	80.31
450.221	90.31
450.442	97.31
450.662	86.31
450.883	100.31
451.104	90.31
451.324	90.31
451.545	79.31
451.766	91.31
451.986	94.31
452.207	96.31
452.428	90.31
452.648	96.31
452.869	100.31
453.089	91.31
453.31	88.31
453.53	86.31
453.751	94.31
453.971	88.31
454.192	91.31
454.412	88.31
454.633	98.31
454.853	90.31
455.073	62.31
455.294	90.31
455.514	98.31
455.734	86.31
455.955	85.31
456.175	99.31
456.395	110.31
456.616	79.31
456.836	84.31
457.056	84.31
457.276	75.31
457.497	78.31
457.717	89.31
457.937	103.31
458.157	104.31
458.377	111.31
458.598	115.31
458.818	111.31
459.038	84.31
459.258	91.31
459.478	92.31
459.698	86.31
459.918	89.31
460.138	90.31
460.358	90.31
460.578	90.31
460.798	119.31
461.018	95.31
461.238	100.31
461.458	87.31
461.678	94.31
461.898	102.31
462.118	90.31
462.338	85.31
462.558	104.31
462.777	102.31
462.997	98.31
463.217	92.31
463.437	100.31
463.657	91.31
463.876	92.31
464.096	91.31
464.316	80.31
464.536	86.31
464.755	88.31
464.975	95.31
465.195	93.31
465.414	104.31
465.634	93.31
465.854	86.31
466.073	76.31
466.293	92.31
466.512	90.31
466.732	88.31
466.951	91.31
467.171	101.31
467.391	93.31
467.61	91.31
467.829	98.31
468.049	92.31
468.268	98.31
468.488	87.31
468.707	96.31
468.927	104.31
469.146	88.31
469.365	84.31
469.585	89.31
469.804	81.31
470.023	92.31
470.243	94.31
470.462	87.31
470.681	86.31
470.901	92.31
471.12	77.31
471.339	84.31
471.558	86.31
471.777	78.31
471.997	87.31
472.216	102.31
472.435	95.31
472.654	90.31
472.873	93.31
473.092	87.31
473.311	91.31
473.53	79.31
473.749	93.31
473.968	88.31
474.187	76.31
474.406	91.31
474.625	91.31
474.844	108.31
475.063	96.31
475.282	86.31
475.501	77.31
475.72	94.31
475.939	87.31
476.158	71.31
476.377	91.31
476.596	82.31
476.814	88.31
477.033	88.31
477.252	96.31
477.471	84.31
477.69	98.31
477.908	96.31
478.127	92.31
478.346	85.31
478.564	96.31
478.783	98.31
479.002	95.31
479.22	94.31
479.439	93.31
479.658	98.31
479.876	76.31
480.095	86.31
480.313	94.31
480.532	93.31
480.751	98.31
480.969	94.31
481.188	98.31
481.406	95.31
481.624	98.31
481.843	94.31
482.061	99.31
482.28	107.31
482.498	75.31
482.717	109.31
482.935	95.31
483.153	94.31
483.372	86.31
483.59	98.31
483.808	98.31
484.027	87.31
484.245	90.31
484.463	88.31
484.681	98.31
484.9	84.31
485.118	91.31
485.336	92.31
485.554	96.31
485.772	86.31
485.99	86.31
486.209	94.31
486.427	77.31
486.645	109.31
486.863	94.31
487.081	94.31
487.299	91.31
487.517	103.31
487.735	115.31
487.953	151.31
488.171	120.31
488.389	104.31
488.607	101.31
488.825	108.31
489.043	95.31
489.261	93.31
489.479	101.31
489.696	100.31
489.914	93.31
490.132	99.31
490.35	81.31
490.568	96.31
490.786	95.31
491.003	93.31
491.221	88.31
491.439	94.31
491.657	81.31
491.874	108.31
492.092	95.31
492.31	108.31
492.527	99.31
492.745	86.31
492.963	88.31
493.18	90.31
493.398	86.31
493.615	101.31
493.833	94.31
494.05	94.31
494.268	79.31
494.485	87.31
494.703	91.31
494.92	96.31
495.138	94.31
495.355	92.31
495.573	99.31
495.79	108.31
496.008	116.31
496.225	101.31
496.442	102.31
496.66	98.31
496.877	94.31
497.094	100.31
497.312	98.31
497.529	96.31
497.746	92.31
497.963	89.31
498.181	104.31
498.398	111.31
498.615	96.31
498.832	104.31
499.049	106.31
499.267	96.31
499.484	98.31
499.701	106.31
499.918	86.31
500.135	115.31
500.352	103.31
500.569	87.31
500.786	95.31
501.003	93.31
501.22	99.31
501.437	93.31
501.654	106.31
501.871	88.31
502.088	93.31
502.305	112.31
502.522	106.31
502.739	102.31
502.956	118.31
503.172	89.31
503.389	102.31
503.606	103.31
503.823	103.31
504.04	112.31
504.256	117.31
504.473	102.31
504.69	98.31
504.907	101.31
505.123	92.31
505.34	97.31
505.557	97.31
505.773	103.31
505.99	87.31
506.207	87.31
506.423	98.31
506.64	107.31
506.856	89.31
507.073	92.31
507.289	93.31
507.506	90.31
507.722	89.31
507.939	77.31
508.155	107.31
508.372	94.31
508.588	95.31
508.805	99.31
509.021	88.31
509.238	99.31
509.454	90.31
509.67	100.31
509.887	88.31
510.103	98.31
510.319	87.31
510.536	94.31
510.752	84.31
510.968	88.31
511.184	91.31
511.401	92.31
511.617	86.31
511.833	104.31
512.049	92.31
512.265	92.31
512.481	88.31
512.698	90.31
512.914	85.31
513.13	81.31
513.346	88.31
513.562	96.31
513.778	88.31
513.994	100.31
514.21	102.31
514.426	97.31
514.642	103.31
514.858	74.31
515.074	82.31
515.29	88.31
515.506	93.31
515.721	99.31
515.937	96.31
516.153	96.31
516.369	98.31
516.585	90.31
516.801	107.31
517.016	98.31
517.232	102.31
