Data from 15780_2_HRD10591_00050.txt Node
Date: Mon Jan 19 14:19:28 EST 2026
User: Yrep
Spectrometer: HR+D1059
Trigger mode: 1
Integration Time (sec): 1.000000E-1
Scans to average: 1
Electric dark correction enabled: true
Nonlinearity correction enabled: false
Boxcar width: 0
XAxis mode: Wavelengths
Number of Pixels in Spectrum: 2048
>>>>>Begin Spectral Data<<<<<
223.165	-28.31
223.4	-28.31
223.635	-28.31
223.869	-12.31
224.104	-19.31
224.338	-16.31
224.573	-13.31
224.808	-19.31
225.042	-8.31
225.277	0.69
225.511	-0.31
225.746	-2.31
225.98	13.69
226.215	2.69
226.449	26.69
226.683	18.69
226.918	18.69
227.152	38.69
227.387	28.69
227.621	41.69
227.856	60.69
228.09	52.69
228.324	52.69
228.559	70.69
228.793	60.69
229.027	63.69
229.262	63.69
229.496	67.69
229.73	75.69
229.964	70.69
230.199	77.69
230.433	67.69
230.667	84.69
230.901	83.69
231.136	89.69
231.37	75.69
231.604	76.69
231.838	79.69
232.072	81.69
232.306	82.69
232.541	85.69
232.775	88.69
233.009	93.69
233.243	75.69
233.477	68.69
233.711	77.69
233.945	88.69
234.179	104.69
234.413	87.69
234.647	77.69
234.881	73.69
235.115	73.69
235.349	84.69
235.583	75.69
235.817	81.69
236.051	80.69
236.285	77.69
236.519	85.69
236.753	68.69
236.987	89.69
237.221	62.69
237.455	79.69
237.689	73.69
237.922	67.69
238.156	76.69
238.39	83.69
238.624	81.69
238.858	75.69
239.091	78.69
239.325	75.69
239.559	87.69
239.793	93.69
240.027	85.69
240.26	75.69
240.494	75.69
240.728	68.69
240.961	62.69
241.195	86.69
241.429	75.69
241.662	73.69
241.896	63.69
242.13	72.69
242.363	68.69
242.597	60.69
242.83	68.69
243.064	63.69
243.298	78.69
243.531	76.69
243.765	73.69
243.998	68.69
244.232	77.69
244.465	69.69
244.699	74.69
244.932	71.69
245.166	79.69
245.399	69.69
245.633	67.69
245.866	92.69
246.099	84.69
246.333	83.69
246.566	83.69
246.8	86.69
247.033	77.69
247.266	83.69
247.5	79.69
247.733	63.69
247.966	70.69
248.2	90.69
248.433	73.69
248.666	83.69
248.899	85.69
249.133	76.69
249.366	81.69
249.599	85.69
249.832	79.69
250.066	87.69
250.299	86.69
250.532	85.69
250.765	79.69
250.998	92.69
251.231	76.69
251.465	81.69
251.698	63.69
251.931	83.69
252.164	84.69
252.397	84.69
252.63	76.69
252.863	91.69
253.096	76.69
253.329	79.69
253.562	83.69
253.795	89.69
254.028	85.69
254.261	70.69
254.494	74.69
254.727	73.69
254.96	91.69
255.193	66.69
255.426	75.69
255.659	77.69
255.892	89.69
256.124	81.69
256.357	75.69
256.59	79.69
256.823	87.69
257.056	97.69
257.289	73.69
257.521	81.69
257.754	83.69
257.987	91.69
258.22	77.69
258.452	79.69
258.685	79.69
258.918	85.69
259.151	84.69
259.383	77.69
259.616	79.69
259.849	77.69
260.081	67.69
260.314	78.69
260.547	87.69
260.779	82.69
261.012	67.69
261.244	73.69
261.477	72.69
261.71	86.69
261.942	86.69
262.175	98.69
262.407	77.69
262.64	84.69
262.872	88.69
263.105	77.69
263.337	80.69
263.57	73.69
263.802	84.69
264.035	90.69
264.267	84.69
264.499	88.69
264.732	77.69
264.964	93.69
265.197	86.69
265.429	72.69
265.661	82.69
265.894	91.69
266.126	96.69
266.358	75.69
266.591	88.69
266.823	75.69
267.055	90.69
267.287	83.69
267.52	76.69
267.752	73.69
267.984	83.69
268.216	65.69
268.448	77.69
268.681	80.69
268.913	85.69
269.145	84.69
269.377	75.69
269.609	91.69
269.841	63.69
270.073	70.69
270.306	75.69
270.538	86.69
270.77	79.69
271.002	72.69
271.234	70.69
271.466	81.69
271.698	62.69
271.93	77.69
272.162	84.69
272.394	76.69
272.626	78.69
272.858	86.69
273.09	90.69
273.322	83.69
273.553	74.69
273.785	86.69
274.017	78.69
274.249	84.69
274.481	74.69
274.713	91.69
274.945	68.69
275.176	72.69
275.408	89.69
275.64	94.69
275.872	100.69
276.104	95.69
276.335	90.69
276.567	78.69
276.799	76.69
277.031	92.69
277.262	90.69
277.494	86.69
277.726	73.69
277.957	82.69
278.189	81.69
278.421	84.69
278.652	81.69
278.884	88.69
279.115	83.69
279.347	84.69
279.579	91.69
279.81	91.69
280.042	79.69
280.273	93.69
280.505	86.69
280.736	87.69
280.968	84.69
281.199	97.69
281.431	87.69
281.662	88.69
281.894	85.69
282.125	80.69
282.356	77.69
282.588	81.69
282.819	73.69
283.051	90.69
283.282	84.69
283.513	85.69
283.745	83.69
283.976	78.69
284.207	74.69
284.439	89.69
284.67	92.69
284.901	88.69
285.132	83.69
285.364	84.69
285.595	95.69
285.826	99.69
286.057	82.69
286.288	87.69
286.52	93.69
286.751	85.69
286.982	86.69
287.213	79.69
287.444	82.69
287.675	83.69
287.906	88.69
288.138	88.69
288.369	84.69
288.6	91.69
288.831	78.69
289.062	89.69
289.293	98.69
289.524	95.69
289.755	75.69
289.986	86.69
290.217	76.69
290.448	81.69
290.679	100.69
290.91	90.69
291.141	103.69
291.371	71.69
291.602	85.69
291.833	89.69
292.064	77.69
292.295	71.69
292.526	76.69
292.757	75.69
292.987	80.69
293.218	72.69
293.449	77.69
293.68	95.69
293.91	78.69
294.141	91.69
294.372	67.69
294.603	93.69
294.833	96.69
295.064	71.69
295.295	83.69
295.525	81.69
295.756	95.69
295.987	77.69
296.217	90.69
296.448	103.69
296.679	74.69
296.909	90.69
297.14	97.69
297.37	91.69
297.601	84.69
297.831	89.69
298.062	85.69
298.292	76.69
298.523	87.69
298.753	83.69
298.984	97.69
299.214	81.69
299.445	90.69
299.675	76.69
299.905	83.69
300.136	85.69
300.366	83.69
300.597	78.69
300.827	97.69
301.057	86.69
301.288	69.69
301.518	91.69
301.748	83.69
301.979	114.69
302.209	87.69
302.439	83.69
302.669	87.69
302.9	79.69
303.13	84.69
303.36	93.69
303.59	88.69
303.82	91.69
304.051	81.69
304.281	88.69
304.511	84.69
304.741	89.69
304.971	80.69
305.201	90.69
305.431	85.69
305.661	97.69
305.891	74.69
306.121	83.69
306.352	78.69
306.582	87.69
306.812	88.69
307.042	85.69
307.272	82.69
307.502	85.69
307.731	73.69
307.961	92.69
308.191	95.69
308.421	81.69
308.651	97.69
308.881	85.69
309.111	98.69
309.341	80.69
309.571	83.69
309.8	87.69
310.03	85.69
310.26	91.69
310.49	80.69
310.72	78.69
310.949	73.69
311.179	75.69
311.409	86.69
311.639	103.69
311.868	93.69
312.098	83.69
312.328	78.69
312.557	90.69
312.787	106.69
313.017	80.69
313.246	90.69
313.476	75.69
313.706	84.69
313.935	93.69
314.165	100.69
314.394	82.69
314.624	73.69
314.853	78.69
315.083	91.69
315.312	88.69
315.542	88.69
315.771	86.69
316.001	82.69
316.23	84.69
316.46	89.69
316.689	92.69
316.919	96.69
317.148	91.69
317.377	91.69
317.607	82.69
317.836	84.69
318.065	86.69
318.295	78.69
318.524	80.69
318.753	81.69
318.983	78.69
319.212	81.69
319.441	85.69
319.67	90.69
319.9	73.69
320.129	89.69
320.358	89.69
320.587	68.69
320.816	82.69
321.046	102.69
321.275	79.69
321.504	78.69
321.733	95.69
321.962	90.69
322.191	81.69
322.42	75.69
322.649	77.69
322.878	94.69
323.108	68.69
323.337	90.69
323.566	77.69
323.795	88.69
324.024	73.69
324.253	100.69
324.482	91.69
324.71	88.69
324.939	80.69
325.168	81.69
325.397	91.69
325.626	84.69
325.855	81.69
326.084	91.69
326.313	98.69
326.542	83.69
326.77	90.69
326.999	97.69
327.228	92.69
327.457	94.69
327.686	83.69
327.914	82.69
328.143	95.69
328.372	86.69
328.6	90.69
328.829	95.69
329.058	89.69
329.287	83.69
329.515	87.69
329.744	98.69
329.972	87.69
330.201	99.69
330.43	83.69
330.658	81.69
330.887	69.69
331.115	92.69
331.344	88.69
331.572	84.69
331.801	80.69
332.03	89.69
332.258	90.69
332.486	87.69
332.715	93.69
332.943	87.69
333.172	90.69
333.4	82.69
333.629	82.69
333.857	84.69
334.085	83.69
334.314	103.69
334.542	92.69
334.771	96.69
334.999	82.69
335.227	96.69
335.455	82.69
335.684	103.69
335.912	85.69
336.14	77.69
336.369	76.69
336.597	92.69
336.825	82.69
337.053	89.69
337.281	91.69
337.51	81.69
337.738	81.69
337.966	96.69
338.194	84.69
338.422	89.69
338.65	88.69
338.878	80.69
339.106	82.69
339.334	78.69
339.562	88.69
339.79	102.69
340.018	90.69
340.246	83.69
340.474	84.69
340.702	63.69
340.93	89.69
341.158	87.69
341.386	82.69
341.614	79.69
341.842	77.69
342.07	79.69
342.298	91.69
342.526	90.69
342.754	83.69
342.981	92.69
343.209	78.69
343.437	88.69
343.665	86.69
343.893	88.69
344.12	100.69
344.348	93.69
344.576	86.69
344.804	108.69
345.031	88.69
345.259	98.69
345.487	88.69
345.714	75.69
345.942	83.69
346.17	91.69
346.397	97.69
346.625	97.69
346.853	69.69
347.08	70.69
347.308	84.69
347.535	95.69
347.763	79.69
347.99	90.69
348.218	83.69
348.445	79.69
348.673	78.69
348.9	85.69
349.128	80.69
349.355	91.69
349.583	95.69
349.81	82.69
350.037	73.69
350.265	95.69
350.492	81.69
350.72	87.69
350.947	82.69
351.174	91.69
351.402	77.69
351.629	84.69
351.856	76.69
352.083	92.69
352.311	81.69
352.538	82.69
352.765	76.69
352.992	78.69
353.22	94.69
353.447	87.69
353.674	85.69
353.901	79.69
354.128	91.69
354.355	87.69
354.583	84.69
354.81	80.69
355.037	86.69
355.264	82.69
355.491	91.69
355.718	76.69
355.945	95.69
356.172	88.69
356.399	103.69
356.626	79.69
356.853	79.69
357.08	86.69
357.307	85.69
357.534	105.69
357.761	91.69
357.988	87.69
358.215	104.69
358.441	81.69
358.668	73.69
358.895	89.69
359.122	72.69
359.349	78.69
359.576	73.69
359.802	79.69
360.029	95.69
360.256	98.69
360.483	94.69
360.709	85.69
360.936	95.69
361.163	85.69
361.39	83.69
361.616	82.69
361.843	75.69
362.07	76.69
362.296	85.69
362.523	89.69
362.749	108.69
362.976	91.69
363.203	83.69
363.429	89.69
363.656	95.69
363.882	86.69
364.109	69.69
364.335	111.69
364.562	94.69
364.788	87.69
365.015	85.69
365.241	81.69
365.468	83.69
365.694	100.69
365.92	87.69
366.147	83.69
366.373	89.69
366.599	83.69
366.826	75.69
367.052	73.69
367.278	76.69
367.505	84.69
367.731	91.69
367.957	75.69
368.184	95.69
368.41	90.69
368.636	80.69
368.862	81.69
369.089	76.69
369.315	83.69
369.541	81.69
369.767	74.69
369.993	72.69
370.219	79.69
370.445	67.69
370.672	81.69
370.898	86.69
371.124	88.69
371.35	82.69
371.576	97.69
371.802	88.69
372.028	99.69
372.254	87.69
372.48	81.69
372.706	70.69
372.932	86.69
373.158	94.69
373.384	97.69
373.61	97.69
373.835	103.69
374.061	85.69
374.287	86.69
374.513	72.69
374.739	97.69
374.965	83.69
375.191	102.69
375.416	93.69
375.642	84.69
375.868	93.69
376.094	86.69
376.319	85.69
376.545	85.69
376.771	100.69
376.997	84.69
377.222	87.69
377.448	93.69
377.674	81.69
377.899	89.69
378.125	85.69
378.35	94.69
378.576	86.69
378.802	76.69
379.027	77.69
379.253	93.69
379.478	79.69
379.704	77.69
379.929	81.69
380.155	71.69
380.38	75.69
380.606	81.69
380.831	63.69
381.057	96.69
381.282	76.69
381.507	82.69
381.733	87.69
381.958	90.69
382.184	88.69
382.409	86.69
382.634	100.69
382.86	95.69
383.085	91.69
383.31	76.69
383.535	109.69
383.761	90.69
383.986	87.69
384.211	83.69
384.436	92.69
384.662	89.69
384.887	83.69
385.112	85.69
385.337	85.69
385.562	94.69
385.787	89.69
386.013	99.69
386.238	116.69
386.463	89.69
386.688	92.69
386.913	84.69
387.138	99.69
387.363	89.69
387.588	86.69
387.813	86.69
388.038	89.69
388.263	101.69
388.488	100.69
388.713	88.69
388.938	71.69
389.163	95.69
389.387	87.69
389.612	76.69
389.837	90.69
390.062	90.69
390.287	95.69
390.512	86.69
390.736	76.69
390.961	79.69
391.186	85.69
391.411	87.69
391.636	55.69
391.86	77.69
392.085	100.69
392.31	102.69
392.534	89.69
392.759	94.69
392.984	114.69
393.208	194.69
393.433	277.69
393.658	213.69
393.882	101.69
394.107	96.69
394.331	86.69
394.556	101.69
394.78	87.69
395.005	95.69
395.229	103.69
395.454	95.69
395.678	100.69
395.903	102.69
396.127	119.69
396.352	140.69
396.576	137.69
396.801	191.69
397.025	221.69
397.249	135.69
397.474	101.69
397.698	81.69
397.922	95.69
398.147	98.69
398.371	100.69
398.595	74.69
398.82	88.69
399.044	86.69
399.268	89.69
399.492	84.69
399.717	79.69
399.941	87.69
400.165	83.69
400.389	89.69
400.613	80.69
400.837	104.69
401.062	86.69
401.286	87.69
401.51	84.69
401.734	76.69
401.958	89.69
402.182	87.69
402.406	86.69
402.63	87.69
402.854	79.69
403.078	89.69
403.302	85.69
403.526	83.69
403.75	83.69
403.974	87.69
404.198	109.69
404.422	132.69
404.645	155.69
404.869	135.69
405.093	95.69
405.317	86.69
405.541	91.69
405.765	83.69
405.988	73.69
406.212	76.69
406.436	76.69
406.66	79.69
406.883	101.69
407.107	87.69
407.331	95.69
407.555	79.69
407.778	98.69
408.002	104.69
408.226	92.69
408.449	104.69
408.673	92.69
408.896	87.69
409.12	67.69
409.344	85.69
409.567	79.69
409.791	83.69
410.014	92.69
410.238	72.69
410.461	83.69
410.685	103.69
410.908	87.69
411.132	91.69
411.355	94.69
411.578	85.69
411.802	100.69
412.025	72.69
412.249	99.69
412.472	76.69
412.695	81.69
412.919	65.69
413.142	77.69
413.365	96.69
413.589	86.69
413.812	89.69
414.035	85.69
414.258	81.69
414.482	95.69
414.705	85.69
414.928	75.69
415.151	86.69
415.374	93.69
415.597	75.69
415.821	96.69
416.044	79.69
416.267	82.69
416.49	86.69
416.713	76.69
416.936	69.69
417.159	79.69
417.382	83.69
417.605	88.69
417.828	83.69
418.051	85.69
418.274	94.69
418.497	88.69
418.72	72.69
418.943	84.69
419.166	94.69
419.389	85.69
419.611	87.69
419.834	99.69
420.057	95.69
420.28	84.69
420.503	87.69
420.726	88.69
420.948	95.69
421.171	95.69
421.394	95.69
421.617	85.69
421.839	97.69
422.062	103.69
422.285	125.69
422.507	199.69
422.73	323.69
422.953	284.69
423.175	151.69
423.398	109.69
423.621	88.69
423.843	89.69
424.066	84.69
424.288	91.69
424.511	85.69
424.733	88.69
424.956	76.69
425.178	95.69
425.401	95.69
425.623	89.69
425.846	90.69
426.068	91.69
426.291	82.69
426.513	72.69
426.735	82.69
426.958	87.69
427.18	98.69
427.402	74.69
427.625	70.69
427.847	73.69
428.069	87.69
428.292	98.69
428.514	122.69
428.736	107.69
428.958	115.69
429.181	98.69
429.403	92.69
429.625	78.69
429.847	90.69
430.069	132.69
430.292	153.69
430.514	139.69
430.736	108.69
430.958	116.69
431.18	83.69
431.402	77.69
431.624	83.69
431.846	106.69
432.068	131.69
432.29	108.69
432.512	95.69
432.734	83.69
432.956	83.69
433.178	80.69
433.4	84.69
433.622	75.69
433.844	84.69
434.066	76.69
434.287	88.69
434.509	75.69
434.731	81.69
434.953	101.69
435.175	83.69
435.397	79.69
435.618	71.69
435.84	83.69
436.062	91.69
436.284	75.69
436.505	80.69
436.727	85.69
436.949	74.69
437.17	76.69
437.392	80.69
437.614	83.69
437.835	83.69
438.057	91.69
438.278	71.69
438.5	97.69
438.721	87.69
438.943	83.69
439.165	80.69
439.386	85.69
439.608	95.69
439.829	83.69
440.05	79.69
440.272	83.69
440.493	66.69
440.715	85.69
440.936	88.69
441.158	96.69
441.379	85.69
441.6	92.69
441.822	85.69
442.043	74.69
442.264	103.69
442.486	102.69
442.707	133.69
442.928	100.69
443.149	111.69
443.371	121.69
443.592	177.69
443.813	152.69
444.034	104.69
444.255	96.69
444.476	94.69
444.698	79.69
444.919	98.69
445.14	166.69
445.361	168.69
445.582	187.69
445.803	156.69
446.024	100.69
446.245	93.69
446.466	92.69
446.687	75.69
446.908	88.69
447.129	102.69
447.35	85.69
447.571	88.69
447.792	97.69
448.013	81.69
448.234	76.69
448.455	94.69
448.675	71.69
448.896	85.69
449.117	83.69
449.338	74.69
449.559	96.69
449.779	81.69
450	72.69
450.221	83.69
450.442	89.69
450.662	83.69
450.883	79.69
451.104	77.69
451.324	83.69
451.545	73.69
451.766	76.69
451.986	76.69
452.207	82.69
452.428	75.69
452.648	86.69
452.869	83.69
453.089	85.69
453.31	92.69
453.53	97.69
453.751	95.69
453.971	76.69
454.192	83.69
454.412	80.69
454.633	83.69
454.853	79.69
455.073	73.69
455.294	88.69
455.514	85.69
455.734	73.69
455.955	85.69
456.175	68.69
456.395	84.69
456.616	74.69
456.836	83.69
457.056	76.69
457.276	85.69
457.497	71.69
457.717	93.69
457.937	84.69
458.157	99.69
458.377	107.69
458.598	98.69
458.818	101.69
459.038	79.69
459.258	78.69
459.478	88.69
459.698	69.69
459.918	88.69
460.138	75.69
460.358	84.69
460.578	95.69
460.798	96.69
461.018	91.69
461.238	84.69
461.458	89.69
461.678	76.69
461.898	90.69
462.118	87.69
462.338	85.69
462.558	82.69
462.777	91.69
462.997	77.69
463.217	92.69
463.437	79.69
463.657	83.69
463.876	89.69
464.096	84.69
464.316	81.69
464.536	91.69
464.755	72.69
464.975	83.69
465.195	81.69
465.414	90.69
465.634	69.69
465.854	83.69
466.073	79.69
466.293	64.69
466.512	92.69
466.732	92.69
466.951	89.69
467.171	83.69
467.391	85.69
467.61	91.69
467.829	69.69
468.049	81.69
468.268	88.69
468.488	79.69
468.707	93.69
468.927	86.69
469.146	90.69
469.365	86.69
469.585	76.69
469.804	90.69
470.023	73.69
470.243	61.69
470.462	86.69
470.681	76.69
470.901	97.69
471.12	79.69
471.339	83.69
471.558	83.69
471.777	91.69
471.997	84.69
472.216	67.69
472.435	91.69
472.654	81.69
472.873	84.69
473.092	76.69
473.311	88.69
473.53	73.69
473.749	99.69
473.968	99.69
474.187	72.69
474.406	81.69
474.625	95.69
474.844	83.69
475.063	85.69
475.282	91.69
475.501	84.69
475.72	83.69
475.939	75.69
476.158	80.69
476.377	75.69
476.596	75.69
476.814	91.69
477.033	72.69
477.252	89.69
477.471	99.69
477.69	90.69
477.908	81.69
478.127	87.69
478.346	80.69
478.564	78.69
478.783	86.69
479.002	79.69
479.22	76.69
479.439	80.69
479.658	74.69
479.876	74.69
480.095	71.69
480.313	81.69
480.532	76.69
480.751	84.69
480.969	87.69
481.188	67.69
481.406	81.69
481.624	93.69
481.843	81.69
482.061	80.69
482.28	83.69
482.498	90.69
482.717	75.69
482.935	83.69
483.153	79.69
483.372	80.69
483.59	86.69
483.808	83.69
484.027	98.69
484.245	95.69
484.463	74.69
484.681	84.69
484.9	93.69
485.118	91.69
485.336	67.69
485.554	84.69
485.772	82.69
485.99	85.69
486.209	85.69
486.427	92.69
486.645	89.69
486.863	87.69
487.081	90.69
487.299	99.69
487.517	86.69
487.735	91.69
487.953	116.69
488.171	105.69
488.389	85.69
488.607	87.69
488.825	89.69
489.043	83.69
489.261	82.69
489.479	79.69
489.696	91.69
489.914	97.69
490.132	85.69
490.35	89.69
490.568	85.69
490.786	74.69
491.003	75.69
491.221	81.69
491.439	76.69
491.657	77.69
491.874	78.69
492.092	84.69
492.31	71.69
492.527	89.69
492.745	70.69
492.963	83.69
493.18	85.69
493.398	90.69
493.615	93.69
493.833	97.69
494.05	91.69
494.268	71.69
494.485	73.69
494.703	86.69
494.92	81.69
495.138	87.69
495.355	94.69
495.573	91.69
495.79	81.69
496.008	89.69
496.225	73.69
496.442	84.69
496.66	87.69
496.877	78.69
497.094	97.69
497.312	95.69
497.529	88.69
497.746	105.69
497.963	86.69
498.181	89.69
498.398	84.69
498.615	84.69
498.832	72.69
499.049	77.69
499.267	80.69
499.484	95.69
499.701	93.69
499.918	89.69
500.135	72.69
500.352	93.69
500.569	76.69
500.786	84.69
501.003	85.69
501.22	87.69
501.437	73.69
501.654	99.69
501.871	91.69
502.088	54.69
502.305	83.69
502.522	83.69
502.739	90.69
502.956	83.69
503.172	83.69
503.389	90.69
503.606	93.69
503.823	87.69
504.04	95.69
504.256	114.69
504.473	94.69
504.69	85.69
504.907	95.69
505.123	91.69
505.34	76.69
505.557	83.69
505.773	89.69
505.99	83.69
506.207	76.69
506.423	89.69
506.64	87.69
506.856	84.69
507.073	85.69
507.289	82.69
507.506	81.69
507.722	77.69
507.939	79.69
508.155	85.69
508.372	82.69
508.588	89.69
508.805	98.69
509.021	87.69
509.238	93.69
509.454	87.69
509.67	83.69
509.887	66.69
510.103	73.69
510.319	91.69
510.536	85.69
510.752	80.69
510.968	87.69
511.184	92.69
511.401	88.69
511.617	84.69
511.833	93.69
512.049	98.69
512.265	99.69
512.481	88.69
512.698	85.69
512.914	75.69
513.13	81.69
513.346	101.69
513.562	85.69
513.778	87.69
513.994	91.69
514.21	96.69
514.426	83.69
514.642	73.69
514.858	75.69
515.074	80.69
515.29	93.69
515.506	75.69
515.721	82.69
515.937	82.69
516.153	88.69
516.369	87.69
516.585	70.69
516.801	85.69
517.016	97.69
517.232	82.69
517.448	95.69
517.664	86.69
517.879	85.69
518.095	88.69
518.311	80.69
518.527	87.69
518.742	93.69
