Data from 15780_2_HRD10591_00029.txt Node
Date: Mon Jan 19 14:19:18 EST 2026
User: Yrep
Spectrometer: HR+D1059
Trigger mode: 1
Integration Time (sec): 1.000000E-1
Scans to average: 1
Electric dark correction enabled: true
Nonlinearity correction enabled: false
Boxcar width: 0
XAxis mode: Wavelengths
Number of Pixels in Spectrum: 2048
>>>>>Begin Spectral Data<<<<<
223.165	-25.62
223.4	-25.62
223.635	-25.62
223.869	-17.62
224.104	-23.62
224.338	-12.62
224.573	-24.62
224.808	-14.62
225.042	-6.62
225.277	-5.62
225.511	-4.62
225.746	1.38
225.98	-0.62
226.215	8.38
226.449	31.38
226.683	23.38
226.918	28.38
227.152	43.38
227.387	33.38
227.621	29.38
227.856	64.38
228.09	66.38
228.324	57.38
228.559	61.38
228.793	44.38
229.027	37.38
229.262	53.38
229.496	77.38
229.73	55.38
229.964	64.38
230.199	85.38
230.433	81.38
230.667	75.38
230.901	72.38
231.136	88.38
231.37	75.38
231.604	77.38
231.838	77.38
232.072	71.38
232.306	72.38
232.541	93.38
232.775	87.38
233.009	65.38
233.243	77.38
233.477	79.38
233.711	87.38
233.945	88.38
234.179	87.38
234.413	88.38
234.647	74.38
234.881	69.38
235.115	72.38
235.349	84.38
235.583	72.38
235.817	77.38
236.051	76.38
236.285	87.38
236.519	73.38
236.753	73.38
236.987	77.38
237.221	68.38
237.455	64.38
237.689	75.38
237.922	69.38
238.156	65.38
238.39	67.38
238.624	78.38
238.858	69.38
239.091	85.38
239.325	72.38
239.559	73.38
239.793	74.38
240.027	67.38
240.26	63.38
240.494	81.38
240.728	72.38
240.961	79.38
241.195	75.38
241.429	57.38
241.662	65.38
241.896	68.38
242.13	81.38
242.363	67.38
242.597	67.38
242.83	60.38
243.064	81.38
243.298	72.38
243.531	63.38
243.765	71.38
243.998	80.38
244.232	81.38
244.465	89.38
244.699	80.38
244.932	77.38
245.166	77.38
245.399	82.38
245.633	85.38
245.866	93.38
246.099	66.38
246.333	87.38
246.566	76.38
246.8	81.38
247.033	73.38
247.266	77.38
247.5	83.38
247.733	72.38
247.966	83.38
248.2	82.38
248.433	80.38
248.666	83.38
248.899	81.38
249.133	60.38
249.366	82.38
249.599	84.38
249.832	86.38
250.066	83.38
250.299	68.38
250.532	75.38
250.765	73.38
250.998	71.38
251.231	80.38
251.465	81.38
251.698	89.38
251.931	81.38
252.164	73.38
252.397	64.38
252.63	66.38
252.863	75.38
253.096	87.38
253.329	76.38
253.562	85.38
253.795	70.38
254.028	85.38
254.261	91.38
254.494	74.38
254.727	85.38
254.96	81.38
255.193	62.38
255.426	77.38
255.659	88.38
255.892	82.38
256.124	60.38
256.357	76.38
256.59	77.38
256.823	75.38
257.056	91.38
257.289	93.38
257.521	78.38
257.754	77.38
257.987	70.38
258.22	64.38
258.452	67.38
258.685	91.38
258.918	83.38
259.151	69.38
259.383	88.38
259.616	75.38
259.849	93.38
260.081	75.38
260.314	82.38
260.547	69.38
260.779	69.38
261.012	82.38
261.244	81.38
261.477	80.38
261.71	74.38
261.942	84.38
262.175	73.38
262.407	79.38
262.64	91.38
262.872	79.38
263.105	83.38
263.337	85.38
263.57	80.38
263.802	92.38
264.035	80.38
264.267	99.38
264.499	84.38
264.732	95.38
264.964	75.38
265.197	78.38
265.429	76.38
265.661	83.38
265.894	89.38
266.126	95.38
266.358	76.38
266.591	83.38
266.823	85.38
267.055	82.38
267.287	87.38
267.52	73.38
267.752	79.38
267.984	83.38
268.216	81.38
268.448	70.38
268.681	78.38
268.913	78.38
269.145	86.38
269.377	90.38
269.609	80.38
269.841	71.38
270.073	83.38
270.306	82.38
270.538	81.38
270.77	75.38
271.002	78.38
271.234	76.38
271.466	77.38
271.698	63.38
271.93	81.38
272.162	74.38
272.394	87.38
272.626	78.38
272.858	82.38
273.09	95.38
273.322	79.38
273.553	66.38
273.785	79.38
274.017	91.38
274.249	87.38
274.481	76.38
274.713	66.38
274.945	82.38
275.176	83.38
275.408	67.38
275.64	82.38
275.872	84.38
276.104	85.38
276.335	86.38
276.567	79.38
276.799	94.38
277.031	72.38
277.262	76.38
277.494	86.38
277.726	76.38
277.957	71.38
278.189	81.38
278.421	79.38
278.652	79.38
278.884	76.38
279.115	94.38
279.347	97.38
279.579	83.38
279.81	82.38
280.042	80.38
280.273	90.38
280.505	81.38
280.736	99.38
280.968	89.38
281.199	87.38
281.431	91.38
281.662	74.38
281.894	84.38
282.125	91.38
282.356	85.38
282.588	73.38
282.819	78.38
283.051	78.38
283.282	67.38
283.513	77.38
283.745	85.38
283.976	99.38
284.207	69.38
284.439	81.38
284.67	79.38
284.901	85.38
285.132	83.38
285.364	96.38
285.595	74.38
285.826	86.38
286.057	84.38
286.288	90.38
286.52	81.38
286.751	85.38
286.982	84.38
287.213	73.38
287.444	83.38
287.675	85.38
287.906	96.38
288.138	70.38
288.369	73.38
288.6	88.38
288.831	78.38
289.062	101.38
289.293	84.38
289.524	88.38
289.755	80.38
289.986	85.38
290.217	81.38
290.448	80.38
290.679	85.38
290.91	79.38
291.141	77.38
291.371	90.38
291.602	81.38
291.833	89.38
292.064	97.38
292.295	83.38
292.526	83.38
292.757	100.38
292.987	87.38
293.218	93.38
293.449	87.38
293.68	87.38
293.91	82.38
294.141	91.38
294.372	94.38
294.603	82.38
294.833	81.38
295.064	87.38
295.295	61.38
295.525	86.38
295.756	97.38
295.987	92.38
296.217	85.38
296.448	77.38
296.679	70.38
296.909	95.38
297.14	87.38
297.37	78.38
297.601	91.38
297.831	68.38
298.062	63.38
298.292	87.38
298.523	88.38
298.753	87.38
298.984	87.38
299.214	84.38
299.445	78.38
299.675	87.38
299.905	85.38
300.136	83.38
300.366	93.38
300.597	87.38
300.827	80.38
301.057	102.38
301.288	67.38
301.518	81.38
301.748	82.38
301.979	90.38
302.209	72.38
302.439	73.38
302.669	95.38
302.9	75.38
303.13	70.38
303.36	82.38
303.59	81.38
303.82	78.38
304.051	86.38
304.281	87.38
304.511	90.38
304.741	82.38
304.971	68.38
305.201	89.38
305.431	87.38
305.661	82.38
305.891	85.38
306.121	87.38
306.352	100.38
306.582	87.38
306.812	91.38
307.042	97.38
307.272	88.38
307.502	77.38
307.731	85.38
307.961	88.38
308.191	83.38
308.421	94.38
308.651	90.38
308.881	77.38
309.111	77.38
309.341	90.38
309.571	68.38
309.8	76.38
310.03	79.38
310.26	85.38
310.49	75.38
310.72	101.38
310.949	81.38
311.179	98.38
311.409	76.38
311.639	84.38
311.868	69.38
312.098	85.38
312.328	67.38
312.557	83.38
312.787	73.38
313.017	92.38
313.246	77.38
313.476	87.38
313.706	81.38
313.935	76.38
314.165	79.38
314.394	84.38
314.624	99.38
314.853	85.38
315.083	91.38
315.312	79.38
315.542	97.38
315.771	80.38
316.001	77.38
316.23	85.38
316.46	84.38
316.689	85.38
316.919	89.38
317.148	93.38
317.377	82.38
317.607	89.38
317.836	89.38
318.065	92.38
318.295	76.38
318.524	87.38
318.753	77.38
318.983	83.38
319.212	85.38
319.441	78.38
319.67	83.38
319.9	64.38
320.129	87.38
320.358	72.38
320.587	66.38
320.816	93.38
321.046	88.38
321.275	78.38
321.504	93.38
321.733	71.38
321.962	84.38
322.191	78.38
322.42	89.38
322.649	71.38
322.878	98.38
323.108	92.38
323.337	91.38
323.566	93.38
323.795	90.38
324.024	75.38
324.253	89.38
324.482	76.38
324.71	95.38
324.939	81.38
325.168	96.38
325.397	84.38
325.626	83.38
325.855	88.38
326.084	89.38
326.313	91.38
326.542	78.38
326.77	92.38
326.999	90.38
327.228	92.38
327.457	90.38
327.686	78.38
327.914	85.38
328.143	83.38
328.372	81.38
328.6	81.38
328.829	91.38
329.058	86.38
329.287	83.38
329.515	85.38
329.744	84.38
329.972	80.38
330.201	78.38
330.43	79.38
330.658	78.38
330.887	86.38
331.115	87.38
331.344	81.38
331.572	75.38
331.801	86.38
332.03	81.38
332.258	73.38
332.486	77.38
332.715	78.38
332.943	84.38
333.172	83.38
333.4	97.38
333.629	80.38
333.857	99.38
334.085	77.38
334.314	80.38
334.542	67.38
334.771	81.38
334.999	87.38
335.227	77.38
335.455	90.38
335.684	87.38
335.912	79.38
336.14	76.38
336.369	78.38
336.597	89.38
336.825	93.38
337.053	78.38
337.281	84.38
337.51	85.38
337.738	76.38
337.966	83.38
338.194	74.38
338.422	74.38
338.65	93.38
338.878	81.38
339.106	89.38
339.334	81.38
339.562	73.38
339.79	76.38
340.018	76.38
340.246	72.38
340.474	67.38
340.702	75.38
340.93	89.38
341.158	84.38
341.386	78.38
341.614	98.38
341.842	73.38
342.07	88.38
342.298	73.38
342.526	74.38
342.754	71.38
342.981	73.38
343.209	87.38
343.437	91.38
343.665	81.38
343.893	90.38
344.12	81.38
344.348	81.38
344.576	68.38
344.804	87.38
345.031	69.38
345.259	94.38
345.487	79.38
345.714	88.38
345.942	78.38
346.17	101.38
346.397	84.38
346.625	80.38
346.853	66.38
347.08	75.38
347.308	81.38
347.535	85.38
347.763	84.38
347.99	85.38
348.218	84.38
348.445	69.38
348.673	87.38
348.9	94.38
349.128	71.38
349.355	77.38
349.583	81.38
349.81	95.38
350.037	83.38
350.265	83.38
350.492	85.38
350.72	77.38
350.947	98.38
351.174	79.38
351.402	75.38
351.629	83.38
351.856	90.38
352.083	88.38
352.311	81.38
352.538	76.38
352.765	92.38
352.992	80.38
353.22	79.38
353.447	76.38
353.674	87.38
353.901	93.38
354.128	84.38
354.355	77.38
354.583	89.38
354.81	71.38
355.037	75.38
355.264	74.38
355.491	65.38
355.718	69.38
355.945	83.38
356.172	88.38
356.399	80.38
356.626	85.38
356.853	91.38
357.08	81.38
357.307	68.38
357.534	92.38
357.761	89.38
357.988	76.38
358.215	83.38
358.441	92.38
358.668	83.38
358.895	87.38
359.122	81.38
359.349	88.38
359.576	80.38
359.802	95.38
360.029	90.38
360.256	79.38
360.483	76.38
360.709	74.38
360.936	87.38
361.163	91.38
361.39	85.38
361.616	85.38
361.843	91.38
362.07	81.38
362.296	83.38
362.523	89.38
362.749	74.38
362.976	80.38
363.203	84.38
363.429	72.38
363.656	83.38
363.882	89.38
364.109	96.38
364.335	90.38
364.562	94.38
364.788	99.38
365.015	77.38
365.241	78.38
365.468	83.38
365.694	85.38
365.92	83.38
366.147	85.38
366.373	76.38
366.599	80.38
366.826	86.38
367.052	85.38
367.278	87.38
367.505	77.38
367.731	75.38
367.957	65.38
368.184	73.38
368.41	96.38
368.636	83.38
368.862	83.38
369.089	79.38
369.315	71.38
369.541	79.38
369.767	85.38
369.993	89.38
370.219	86.38
370.445	81.38
370.672	88.38
370.898	80.38
371.124	70.38
371.35	74.38
371.576	85.38
371.802	76.38
372.028	81.38
372.254	77.38
372.48	87.38
372.706	87.38
372.932	90.38
373.158	79.38
373.384	83.38
373.61	84.38
373.835	88.38
374.061	81.38
374.287	84.38
374.513	78.38
374.739	85.38
374.965	77.38
375.191	95.38
375.416	84.38
375.642	83.38
375.868	83.38
376.094	72.38
376.319	75.38
376.545	81.38
376.771	77.38
376.997	79.38
377.222	82.38
377.448	93.38
377.674	89.38
377.899	71.38
378.125	73.38
378.35	90.38
378.576	77.38
378.802	78.38
379.027	94.38
379.253	98.38
379.478	67.38
379.704	84.38
379.929	75.38
380.155	84.38
380.38	84.38
380.606	76.38
380.831	79.38
381.057	84.38
381.282	89.38
381.507	92.38
381.733	74.38
381.958	95.38
382.184	73.38
382.409	84.38
382.634	91.38
382.86	86.38
383.085	92.38
383.31	87.38
383.535	81.38
383.761	69.38
383.986	91.38
384.211	81.38
384.436	81.38
384.662	87.38
384.887	83.38
385.112	86.38
385.337	101.38
385.562	77.38
385.787	75.38
386.013	94.38
386.238	78.38
386.463	88.38
386.688	83.38
386.913	87.38
387.138	91.38
387.363	63.38
387.588	91.38
387.813	91.38
388.038	92.38
388.263	74.38
388.488	85.38
388.713	91.38
388.938	79.38
389.163	85.38
389.387	74.38
389.612	84.38
389.837	96.38
390.062	88.38
390.287	83.38
390.512	79.38
390.736	90.38
390.961	73.38
391.186	81.38
391.411	80.38
391.636	77.38
391.86	88.38
392.085	90.38
392.31	88.38
392.534	87.38
392.759	102.38
392.984	113.38
393.208	131.38
393.433	162.38
393.658	136.38
393.882	87.38
394.107	74.38
394.331	86.38
394.556	84.38
394.78	85.38
395.005	76.38
395.229	89.38
395.454	90.38
395.678	88.38
395.903	83.38
396.127	77.38
396.352	101.38
396.576	119.38
396.801	143.38
397.025	145.38
397.249	99.38
397.474	75.38
397.698	72.38
397.922	87.38
398.147	75.38
398.371	83.38
398.595	84.38
398.82	85.38
399.044	71.38
399.268	70.38
399.492	80.38
399.717	89.38
399.941	73.38
400.165	107.38
400.389	74.38
400.613	71.38
400.837	72.38
401.062	86.38
401.286	87.38
401.51	80.38
401.734	78.38
401.958	77.38
402.182	74.38
402.406	65.38
402.63	77.38
402.854	77.38
403.078	77.38
403.302	82.38
403.526	68.38
403.75	83.38
403.974	83.38
404.198	88.38
404.422	103.38
404.645	72.38
404.869	70.38
405.093	83.38
405.317	50.38
405.541	82.38
405.765	73.38
405.988	81.38
406.212	85.38
406.436	90.38
406.66	86.38
406.883	88.38
407.107	87.38
407.331	77.38
407.555	77.38
407.778	82.38
408.002	82.38
408.226	96.38
408.449	78.38
408.673	71.38
408.896	71.38
409.12	95.38
409.344	93.38
409.567	89.38
409.791	90.38
410.014	87.38
410.238	86.38
410.461	75.38
410.685	73.38
410.908	76.38
411.132	76.38
411.355	91.38
411.578	77.38
411.802	69.38
412.025	89.38
412.249	84.38
412.472	74.38
412.695	82.38
412.919	78.38
413.142	76.38
413.365	95.38
413.589	85.38
413.812	81.38
414.035	89.38
414.258	81.38
414.482	66.38
414.705	85.38
414.928	76.38
415.151	84.38
415.374	81.38
415.597	89.38
415.821	93.38
416.044	89.38
416.267	83.38
416.49	77.38
416.713	75.38
416.936	75.38
417.159	79.38
417.382	87.38
417.605	71.38
417.828	81.38
418.051	90.38
418.274	72.38
418.497	75.38
418.72	81.38
418.943	85.38
419.166	84.38
419.389	64.38
419.611	74.38
419.834	85.38
420.057	85.38
420.28	70.38
420.503	83.38
420.726	72.38
420.948	89.38
421.171	86.38
421.394	86.38
421.617	100.38
421.839	88.38
422.062	78.38
422.285	81.38
422.507	100.38
422.73	138.38
422.953	125.38
423.175	89.38
423.398	84.38
423.621	72.38
423.843	79.38
424.066	94.38
424.288	89.38
424.511	85.38
424.733	92.38
424.956	84.38
425.178	80.38
425.401	66.38
425.623	68.38
425.846	79.38
426.068	73.38
426.291	79.38
426.513	78.38
426.735	94.38
426.958	77.38
427.18	74.38
427.402	78.38
427.625	84.38
427.847	72.38
428.069	73.38
428.292	81.38
428.514	69.38
428.736	82.38
428.958	89.38
429.181	91.38
429.403	77.38
429.625	76.38
429.847	88.38
430.069	95.38
430.292	87.38
430.514	78.38
430.736	73.38
430.958	84.38
431.18	81.38
431.402	77.38
431.624	79.38
431.846	86.38
432.068	98.38
432.29	84.38
432.512	98.38
432.734	88.38
432.956	95.38
433.178	86.38
433.4	87.38
433.622	87.38
433.844	88.38
434.066	91.38
434.287	85.38
434.509	89.38
434.731	74.38
434.953	79.38
435.175	77.38
435.397	78.38
435.618	81.38
435.84	82.38
436.062	77.38
436.284	74.38
436.505	67.38
436.727	81.38
436.949	73.38
437.17	64.38
437.392	81.38
437.614	76.38
437.835	90.38
438.057	83.38
438.278	81.38
438.5	93.38
438.721	75.38
438.943	83.38
439.165	83.38
439.386	66.38
439.608	77.38
439.829	73.38
440.05	79.38
440.272	80.38
440.493	81.38
440.715	82.38
440.936	85.38
441.158	88.38
441.379	71.38
441.6	77.38
441.822	74.38
442.043	77.38
442.264	83.38
442.486	96.38
442.707	85.38
442.928	90.38
443.149	89.38
443.371	91.38
443.592	92.38
443.813	87.38
444.034	88.38
444.255	81.38
444.476	75.38
444.698	76.38
444.919	85.38
445.14	178.38
445.361	130.38
445.582	108.38
445.803	102.38
446.024	81.38
446.245	94.38
446.466	90.38
446.687	89.38
446.908	94.38
447.129	80.38
447.35	77.38
447.571	89.38
447.792	73.38
448.013	80.38
448.234	77.38
448.455	79.38
448.675	76.38
448.896	87.38
449.117	82.38
449.338	68.38
449.559	69.38
449.779	88.38
450	72.38
450.221	78.38
450.442	74.38
450.662	83.38
450.883	80.38
451.104	83.38
451.324	76.38
451.545	83.38
451.766	78.38
451.986	74.38
452.207	83.38
452.428	69.38
452.648	83.38
452.869	86.38
453.089	78.38
453.31	72.38
453.53	85.38
453.751	81.38
453.971	83.38
454.192	71.38
454.412	92.38
454.633	95.38
454.853	90.38
455.073	76.38
455.294	81.38
455.514	88.38
455.734	79.38
455.955	93.38
456.175	84.38
456.395	84.38
456.616	74.38
456.836	74.38
457.056	86.38
457.276	87.38
457.497	90.38
457.717	80.38
457.937	92.38
458.157	89.38
458.377	75.38
458.598	92.38
458.818	69.38
459.038	88.38
459.258	92.38
459.478	92.38
459.698	70.38
459.918	74.38
460.138	82.38
460.358	83.38
460.578	87.38
460.798	98.38
461.018	86.38
461.238	72.38
461.458	97.38
461.678	72.38
461.898	72.38
462.118	73.38
462.338	82.38
462.558	75.38
462.777	85.38
462.997	83.38
463.217	84.38
463.437	85.38
463.657	71.38
463.876	70.38
464.096	86.38
464.316	78.38
464.536	71.38
464.755	80.38
464.975	81.38
465.195	88.38
465.414	73.38
465.634	77.38
465.854	72.38
466.073	81.38
466.293	87.38
466.512	81.38
466.732	70.38
466.951	65.38
467.171	74.38
467.391	75.38
467.61	76.38
467.829	77.38
468.049	87.38
468.268	71.38
468.488	71.38
468.707	93.38
468.927	73.38
469.146	86.38
469.365	79.38
469.585	84.38
469.804	84.38
470.023	68.38
470.243	65.38
470.462	83.38
470.681	77.38
470.901	77.38
471.12	84.38
471.339	76.38
471.558	88.38
471.777	79.38
471.997	66.38
472.216	70.38
472.435	89.38
472.654	71.38
472.873	78.38
473.092	80.38
473.311	88.38
473.53	72.38
473.749	76.38
473.968	77.38
474.187	84.38
474.406	81.38
474.625	84.38
474.844	78.38
475.063	95.38
475.282	64.38
475.501	74.38
475.72	67.38
475.939	88.38
476.158	81.38
476.377	82.38
476.596	86.38
476.814	81.38
477.033	85.38
477.252	78.38
477.471	85.38
477.69	81.38
477.908	81.38
478.127	64.38
478.346	73.38
478.564	80.38
478.783	81.38
479.002	83.38
479.22	80.38
479.439	88.38
479.658	74.38
479.876	67.38
480.095	77.38
480.313	59.38
480.532	72.38
480.751	77.38
480.969	88.38
481.188	85.38
481.406	83.38
481.624	88.38
481.843	91.38
482.061	86.38
482.28	80.38
482.498	88.38
482.717	72.38
482.935	78.38
483.153	93.38
483.372	84.38
483.59	97.38
483.808	87.38
484.027	73.38
484.245	85.38
484.463	85.38
484.681	87.38
484.9	83.38
485.118	63.38
485.336	77.38
485.554	83.38
485.772	66.38
485.99	77.38
486.209	84.38
486.427	83.38
486.645	65.38
486.863	74.38
487.081	78.38
487.299	85.38
487.517	88.38
487.735	97.38
487.953	87.38
488.171	82.38
488.389	83.38
488.607	77.38
488.825	87.38
489.043	76.38
489.261	76.38
489.479	78.38
489.696	81.38
489.914	70.38
490.132	92.38
490.35	83.38
490.568	75.38
490.786	69.38
491.003	84.38
491.221	84.38
491.439	86.38
491.657	80.38
491.874	78.38
492.092	77.38
492.31	83.38
492.527	84.38
492.745	87.38
492.963	79.38
493.18	97.38
493.398	87.38
493.615	75.38
493.833	82.38
494.05	69.38
494.268	85.38
494.485	83.38
494.703	86.38
494.92	80.38
495.138	75.38
495.355	83.38
495.573	96.38
495.79	79.38
496.008	86.38
496.225	77.38
496.442	73.38
496.66	83.38
496.877	84.38
497.094	85.38
497.312	80.38
497.529	69.38
497.746	92.38
497.963	81.38
498.181	95.38
498.398	89.38
498.615	85.38
498.832	80.38
499.049	97.38
499.267	97.38
499.484	89.38
499.701	78.38
499.918	80.38
500.135	76.38
500.352	80.38
500.569	88.38
500.786	68.38
501.003	75.38
501.22	86.38
501.437	89.38
501.654	87.38
501.871	72.38
502.088	85.38
502.305	95.38
502.522	100.38
502.739	87.38
502.956	76.38
503.172	79.38
503.389	77.38
503.606	64.38
503.823	84.38
504.04	83.38
504.256	90.38
504.473	90.38
504.69	94.38
504.907	84.38
505.123	87.38
505.34	85.38
505.557	87.38
505.773	91.38
505.99	72.38
506.207	91.38
506.423	76.38
506.64	87.38
506.856	72.38
507.073	96.38
507.289	75.38
507.506	83.38
507.722	76.38
507.939	85.38
508.155	77.38
508.372	83.38
508.588	78.38
508.805	93.38
509.021	89.38
509.238	80.38
509.454	85.38
509.67	94.38
509.887	77.38
510.103	66.38
510.319	69.38
510.536	74.38
510.752	72.38
510.968	74.38
511.184	79.38
511.401	80.38
511.617	98.38
511.833	84.38
512.049	78.38
512.265	81.38
512.481	72.38
512.698	79.38
512.914	86.38
513.13	85.38
513.346	92.38
513.562	63.38
513.778	77.38
513.994	89.38
514.21	80.38
514.426	77.38
514.642	83.38
514.858	84.38
515.074	88.38
515.29	80.38
515.506	77.38
515.721	81.38
515.937	90.38
516.153	88.38
516.369	69.38
516.585	85.38
516.801	86.38
517.016	94.38
517.232	83.38
517.448	76.38
517.664	83.38
517.879	87.38
518.095	102.38
518.311	83.38
518.527	85.38
518.742	89.38
518.958	83.38
519.173	89.38
519.389	90.38
519.605	77.38
519.82	92.38
