Data from 15780_2_HRD10591_00047.txt Node
Date: Mon Jan 19 14:19:27 EST 2026
User: Yrep
Spectrometer: HR+D1059
Trigger mode: 1
Integration Time (sec): 1.000000E-1
Scans to average: 1
Electric dark correction enabled: true
Nonlinearity correction enabled: false
Boxcar width: 0
XAxis mode: Wavelengths
Number of Pixels in Spectrum: 2048
>>>>>Begin Spectral Data<<<<<
223.165	-12.06
223.4	-12.06
223.635	-12.06
223.869	-6.06
224.104	-30.06
224.338	-13.06
224.573	-11.06
224.808	-21.06
225.042	10.94
225.277	-7.06
225.511	11.94
225.746	-7.06
225.98	2.94
226.215	12.94
226.449	14.94
226.683	12.94
226.918	18.94
227.152	21.94
227.387	37.94
227.621	35.94
227.856	35.94
228.09	59.94
228.324	50.94
228.559	59.94
228.793	54.94
229.027	72.94
229.262	58.94
229.496	78.94
229.73	76.94
229.964	71.94
230.199	67.94
230.433	55.94
230.667	70.94
230.901	77.94
231.136	74.94
231.37	89.94
231.604	79.94
231.838	82.94
232.072	85.94
232.306	83.94
232.541	74.94
232.775	88.94
233.009	75.94
233.243	104.94
233.477	105.94
233.711	72.94
233.945	71.94
234.179	73.94
234.413	77.94
234.647	75.94
234.881	76.94
235.115	69.94
235.349	57.94
235.583	75.94
235.817	83.94
236.051	97.94
236.285	92.94
236.519	73.94
236.753	79.94
236.987	81.94
237.221	72.94
237.455	84.94
237.689	67.94
237.922	84.94
238.156	82.94
238.39	70.94
238.624	78.94
238.858	72.94
239.091	64.94
239.325	82.94
239.559	82.94
239.793	71.94
240.027	96.94
240.26	75.94
240.494	73.94
240.728	80.94
240.961	75.94
241.195	62.94
241.429	82.94
241.662	78.94
241.896	68.94
242.13	81.94
242.363	78.94
242.597	75.94
242.83	75.94
243.064	65.94
243.298	83.94
243.531	75.94
243.765	65.94
243.998	67.94
244.232	78.94
244.465	78.94
244.699	76.94
244.932	87.94
245.166	68.94
245.399	76.94
245.633	71.94
245.866	78.94
246.099	85.94
246.333	76.94
246.566	78.94
246.8	86.94
247.033	90.94
247.266	71.94
247.5	70.94
247.733	70.94
247.966	69.94
248.2	76.94
248.433	82.94
248.666	76.94
248.899	78.94
249.133	76.94
249.366	84.94
249.599	84.94
249.832	89.94
250.066	93.94
250.299	89.94
250.532	88.94
250.765	88.94
250.998	87.94
251.231	81.94
251.465	76.94
251.698	77.94
251.931	75.94
252.164	75.94
252.397	68.94
252.63	83.94
252.863	86.94
253.096	77.94
253.329	82.94
253.562	83.94
253.795	69.94
254.028	73.94
254.261	69.94
254.494	74.94
254.727	89.94
254.96	72.94
255.193	81.94
255.426	87.94
255.659	77.94
255.892	81.94
256.124	64.94
256.357	65.94
256.59	63.94
256.823	74.94
257.056	81.94
257.289	73.94
257.521	75.94
257.754	76.94
257.987	73.94
258.22	91.94
258.452	72.94
258.685	76.94
258.918	73.94
259.151	81.94
259.383	74.94
259.616	68.94
259.849	88.94
260.081	85.94
260.314	109.94
260.547	78.94
260.779	82.94
261.012	68.94
261.244	81.94
261.477	92.94
261.71	78.94
261.942	78.94
262.175	97.94
262.407	85.94
262.64	78.94
262.872	76.94
263.105	73.94
263.337	70.94
263.57	94.94
263.802	88.94
264.035	81.94
264.267	78.94
264.499	78.94
264.732	82.94
264.964	90.94
265.197	78.94
265.429	85.94
265.661	88.94
265.894	75.94
266.126	84.94
266.358	84.94
266.591	97.94
266.823	83.94
267.055	78.94
267.287	74.94
267.52	76.94
267.752	77.94
267.984	80.94
268.216	92.94
268.448	82.94
268.681	85.94
268.913	95.94
269.145	75.94
269.377	70.94
269.609	85.94
269.841	80.94
270.073	87.94
270.306	77.94
270.538	85.94
270.77	82.94
271.002	88.94
271.234	78.94
271.466	79.94
271.698	85.94
271.93	79.94
272.162	74.94
272.394	92.94
272.626	77.94
272.858	82.94
273.09	77.94
273.322	85.94
273.553	74.94
273.785	66.94
274.017	69.94
274.249	78.94
274.481	95.94
274.713	85.94
274.945	81.94
275.176	86.94
275.408	94.94
275.64	75.94
275.872	90.94
276.104	82.94
276.335	82.94
276.567	94.94
276.799	82.94
277.031	83.94
277.262	81.94
277.494	88.94
277.726	84.94
277.957	77.94
278.189	73.94
278.421	77.94
278.652	84.94
278.884	84.94
279.115	90.94
279.347	73.94
279.579	75.94
279.81	86.94
280.042	101.94
280.273	79.94
280.505	79.94
280.736	90.94
280.968	90.94
281.199	82.94
281.431	85.94
281.662	79.94
281.894	80.94
282.125	78.94
282.356	74.94
282.588	82.94
282.819	87.94
283.051	82.94
283.282	88.94
283.513	76.94
283.745	74.94
283.976	90.94
284.207	99.94
284.439	87.94
284.67	82.94
284.901	93.94
285.132	74.94
285.364	77.94
285.595	82.94
285.826	88.94
286.057	81.94
286.288	97.94
286.52	84.94
286.751	78.94
286.982	109.94
287.213	84.94
287.444	81.94
287.675	88.94
287.906	85.94
288.138	93.94
288.369	89.94
288.6	87.94
288.831	71.94
289.062	80.94
289.293	91.94
289.524	84.94
289.755	93.94
289.986	96.94
290.217	90.94
290.448	96.94
290.679	69.94
290.91	77.94
291.141	87.94
291.371	79.94
291.602	82.94
291.833	87.94
292.064	79.94
292.295	80.94
292.526	74.94
292.757	86.94
292.987	88.94
293.218	90.94
293.449	88.94
293.68	90.94
293.91	92.94
294.141	92.94
294.372	76.94
294.603	80.94
294.833	87.94
295.064	81.94
295.295	91.94
295.525	92.94
295.756	83.94
295.987	101.94
296.217	94.94
296.448	99.94
296.679	90.94
296.909	96.94
297.14	90.94
297.37	99.94
297.601	93.94
297.831	83.94
298.062	89.94
298.292	72.94
298.523	86.94
298.753	76.94
298.984	93.94
299.214	81.94
299.445	82.94
299.675	94.94
299.905	78.94
300.136	80.94
300.366	75.94
300.597	68.94
300.827	80.94
301.057	93.94
301.288	94.94
301.518	80.94
301.748	80.94
301.979	114.94
302.209	89.94
302.439	91.94
302.669	68.94
302.9	80.94
303.13	91.94
303.36	78.94
303.59	80.94
303.82	88.94
304.051	80.94
304.281	87.94
304.511	68.94
304.741	82.94
304.971	85.94
305.201	75.94
305.431	85.94
305.661	81.94
305.891	79.94
306.121	84.94
306.352	88.94
306.582	89.94
306.812	88.94
307.042	70.94
307.272	84.94
307.502	96.94
307.731	83.94
307.961	81.94
308.191	84.94
308.421	75.94
308.651	77.94
308.881	82.94
309.111	84.94
309.341	72.94
309.571	89.94
309.8	86.94
310.03	89.94
310.26	83.94
310.49	86.94
310.72	72.94
310.949	92.94
311.179	89.94
311.409	85.94
311.639	108.94
311.868	93.94
312.098	87.94
312.328	86.94
312.557	104.94
312.787	84.94
313.017	86.94
313.246	73.94
313.476	80.94
313.706	76.94
313.935	84.94
314.165	80.94
314.394	92.94
314.624	82.94
314.853	94.94
315.083	81.94
315.312	95.94
315.542	83.94
315.771	82.94
316.001	83.94
316.23	89.94
316.46	88.94
316.689	88.94
316.919	82.94
317.148	93.94
317.377	97.94
317.607	76.94
317.836	92.94
318.065	88.94
318.295	89.94
318.524	93.94
318.753	102.94
318.983	86.94
319.212	76.94
319.441	81.94
319.67	99.94
319.9	101.94
320.129	106.94
320.358	83.94
320.587	90.94
320.816	81.94
321.046	91.94
321.275	87.94
321.504	71.94
321.733	74.94
321.962	81.94
322.191	94.94
322.42	88.94
322.649	81.94
322.878	63.94
323.108	86.94
323.337	92.94
323.566	82.94
323.795	76.94
324.024	88.94
324.253	85.94
324.482	82.94
324.71	87.94
324.939	82.94
325.168	89.94
325.397	73.94
325.626	85.94
325.855	73.94
326.084	92.94
326.313	86.94
326.542	82.94
326.77	98.94
326.999	69.94
327.228	91.94
327.457	100.94
327.686	93.94
327.914	89.94
328.143	91.94
328.372	96.94
328.6	91.94
328.829	79.94
329.058	73.94
329.287	90.94
329.515	97.94
329.744	81.94
329.972	97.94
330.201	98.94
330.43	68.94
330.658	83.94
330.887	94.94
331.115	93.94
331.344	90.94
331.572	77.94
331.801	75.94
332.03	72.94
332.258	88.94
332.486	76.94
332.715	74.94
332.943	84.94
333.172	97.94
333.4	85.94
333.629	81.94
333.857	94.94
334.085	78.94
334.314	94.94
334.542	83.94
334.771	77.94
334.999	96.94
335.227	85.94
335.455	83.94
335.684	93.94
335.912	72.94
336.14	92.94
336.369	80.94
336.597	89.94
336.825	96.94
337.053	98.94
337.281	78.94
337.51	86.94
337.738	96.94
337.966	89.94
338.194	88.94
338.422	79.94
338.65	86.94
338.878	97.94
339.106	82.94
339.334	91.94
339.562	86.94
339.79	88.94
340.018	75.94
340.246	88.94
340.474	85.94
340.702	80.94
340.93	77.94
341.158	85.94
341.386	78.94
341.614	87.94
341.842	85.94
342.07	89.94
342.298	81.94
342.526	86.94
342.754	90.94
342.981	85.94
343.209	86.94
343.437	90.94
343.665	84.94
343.893	85.94
344.12	88.94
344.348	84.94
344.576	81.94
344.804	73.94
345.031	79.94
345.259	75.94
345.487	77.94
345.714	89.94
345.942	78.94
346.17	84.94
346.397	80.94
346.625	91.94
346.853	87.94
347.08	82.94
347.308	75.94
347.535	92.94
347.763	76.94
347.99	96.94
348.218	89.94
348.445	72.94
348.673	86.94
348.9	97.94
349.128	99.94
349.355	73.94
349.583	78.94
349.81	88.94
350.037	83.94
350.265	85.94
350.492	84.94
350.72	84.94
350.947	85.94
351.174	83.94
351.402	89.94
351.629	88.94
351.856	75.94
352.083	93.94
352.311	73.94
352.538	78.94
352.765	83.94
352.992	91.94
353.22	85.94
353.447	73.94
353.674	74.94
353.901	95.94
354.128	96.94
354.355	77.94
354.583	88.94
354.81	87.94
355.037	88.94
355.264	84.94
355.491	75.94
355.718	80.94
355.945	78.94
356.172	99.94
356.399	91.94
356.626	71.94
356.853	81.94
357.08	86.94
357.307	95.94
357.534	86.94
357.761	84.94
357.988	85.94
358.215	97.94
358.441	97.94
358.668	90.94
358.895	66.94
359.122	92.94
359.349	78.94
359.576	76.94
359.802	84.94
360.029	105.94
360.256	88.94
360.483	79.94
360.709	90.94
360.936	82.94
361.163	80.94
361.39	90.94
361.616	80.94
361.843	73.94
362.07	86.94
362.296	90.94
362.523	97.94
362.749	86.94
362.976	79.94
363.203	80.94
363.429	88.94
363.656	81.94
363.882	86.94
364.109	86.94
364.335	93.94
364.562	88.94
364.788	86.94
365.015	86.94
365.241	87.94
365.468	91.94
365.694	92.94
365.92	81.94
366.147	88.94
366.373	78.94
366.599	78.94
366.826	83.94
367.052	74.94
367.278	82.94
367.505	91.94
367.731	89.94
367.957	78.94
368.184	80.94
368.41	77.94
368.636	88.94
368.862	89.94
369.089	82.94
369.315	82.94
369.541	96.94
369.767	84.94
369.993	90.94
370.219	72.94
370.445	85.94
370.672	96.94
370.898	88.94
371.124	86.94
371.35	72.94
371.576	75.94
371.802	71.94
372.028	63.94
372.254	81.94
372.48	79.94
372.706	96.94
372.932	83.94
373.158	83.94
373.384	92.94
373.61	73.94
373.835	96.94
374.061	101.94
374.287	100.94
374.513	93.94
374.739	87.94
374.965	86.94
375.191	75.94
375.416	85.94
375.642	77.94
375.868	86.94
376.094	92.94
376.319	81.94
376.545	92.94
376.771	83.94
376.997	91.94
377.222	78.94
377.448	78.94
377.674	77.94
377.899	76.94
378.125	73.94
378.35	81.94
378.576	99.94
378.802	76.94
379.027	69.94
379.253	77.94
379.478	74.94
379.704	70.94
379.929	85.94
380.155	82.94
380.38	78.94
380.606	75.94
380.831	98.94
381.057	86.94
381.282	74.94
381.507	91.94
381.733	84.94
381.958	92.94
382.184	73.94
382.409	88.94
382.634	86.94
382.86	80.94
383.085	82.94
383.31	97.94
383.535	104.94
383.761	86.94
383.986	90.94
384.211	94.94
384.436	92.94
384.662	79.94
384.887	83.94
385.112	88.94
385.337	88.94
385.562	94.94
385.787	71.94
386.013	76.94
386.238	84.94
386.463	89.94
386.688	98.94
386.913	83.94
387.138	81.94
387.363	77.94
387.588	92.94
387.813	69.94
388.038	93.94
388.263	94.94
388.488	73.94
388.713	78.94
388.938	73.94
389.163	92.94
389.387	82.94
389.612	74.94
389.837	76.94
390.062	87.94
390.287	80.94
390.512	79.94
390.736	85.94
390.961	69.94
391.186	83.94
391.411	89.94
391.636	78.94
391.86	96.94
392.085	73.94
392.31	79.94
392.534	88.94
392.759	100.94
392.984	112.94
393.208	128.94
393.433	155.94
393.658	116.94
393.882	72.94
394.107	78.94
394.331	77.94
394.556	86.94
394.78	88.94
395.005	89.94
395.229	72.94
395.454	71.94
395.678	82.94
395.903	90.94
396.127	83.94
396.352	94.94
396.576	93.94
396.801	130.94
397.025	137.94
397.249	105.94
397.474	98.94
397.698	97.94
397.922	74.94
398.147	82.94
398.371	78.94
398.595	98.94
398.82	87.94
399.044	76.94
399.268	86.94
399.492	85.94
399.717	89.94
399.941	71.94
400.165	77.94
400.389	84.94
400.613	66.94
400.837	82.94
401.062	79.94
401.286	100.94
401.51	85.94
401.734	87.94
401.958	65.94
402.182	71.94
402.406	81.94
402.63	79.94
402.854	74.94
403.078	101.94
403.302	82.94
403.526	88.94
403.75	81.94
403.974	78.94
404.198	90.94
404.422	103.94
404.645	100.94
404.869	97.94
405.093	80.94
405.317	84.94
405.541	87.94
405.765	82.94
405.988	94.94
406.212	81.94
406.436	78.94
406.66	78.94
406.883	85.94
407.107	97.94
407.331	77.94
407.555	68.94
407.778	84.94
408.002	95.94
408.226	82.94
408.449	84.94
408.673	91.94
408.896	89.94
409.12	83.94
409.344	92.94
409.567	93.94
409.791	92.94
410.014	74.94
410.238	91.94
410.461	68.94
410.685	70.94
410.908	81.94
411.132	86.94
411.355	76.94
411.578	78.94
411.802	85.94
412.025	86.94
412.249	85.94
412.472	82.94
412.695	80.94
412.919	81.94
413.142	92.94
413.365	76.94
413.589	78.94
413.812	80.94
414.035	86.94
414.258	82.94
414.482	91.94
414.705	68.94
414.928	86.94
415.151	84.94
415.374	84.94
415.597	90.94
415.821	70.94
416.044	82.94
416.267	88.94
416.49	76.94
416.713	73.94
416.936	84.94
417.159	88.94
417.382	97.94
417.605	83.94
417.828	82.94
418.051	87.94
418.274	84.94
418.497	69.94
418.72	83.94
418.943	100.94
419.166	105.94
419.389	88.94
419.611	84.94
419.834	96.94
420.057	78.94
420.28	84.94
420.503	65.94
420.726	77.94
420.948	81.94
421.171	93.94
421.394	82.94
421.617	88.94
421.839	82.94
422.062	84.94
422.285	98.94
422.507	116.94
422.73	141.94
422.953	135.94
423.175	87.94
423.398	89.94
423.621	83.94
423.843	78.94
424.066	82.94
424.288	78.94
424.511	69.94
424.733	78.94
424.956	79.94
425.178	84.94
425.401	78.94
425.623	92.94
425.846	69.94
426.068	90.94
426.291	90.94
426.513	91.94
426.735	97.94
426.958	73.94
427.18	78.94
427.402	98.94
427.625	77.94
427.847	82.94
428.069	93.94
428.292	82.94
428.514	82.94
428.736	89.94
428.958	84.94
429.181	91.94
429.403	75.94
429.625	86.94
429.847	80.94
430.069	92.94
430.292	98.94
430.514	95.94
430.736	67.94
430.958	91.94
431.18	80.94
431.402	90.94
431.624	93.94
431.846	89.94
432.068	92.94
432.29	79.94
432.512	78.94
432.734	88.94
432.956	92.94
433.178	94.94
433.4	86.94
433.622	85.94
433.844	88.94
434.066	86.94
434.287	81.94
434.509	82.94
434.731	75.94
434.953	64.94
435.175	70.94
435.397	74.94
435.618	80.94
435.84	78.94
436.062	69.94
436.284	81.94
436.505	91.94
436.727	68.94
436.949	89.94
437.17	87.94
437.392	90.94
437.614	75.94
437.835	92.94
438.057	82.94
438.278	76.94
438.5	89.94
438.721	75.94
438.943	83.94
439.165	72.94
439.386	66.94
439.608	85.94
439.829	99.94
440.05	89.94
440.272	90.94
440.493	94.94
440.715	80.94
440.936	72.94
441.158	77.94
441.379	93.94
441.6	87.94
441.822	85.94
442.043	89.94
442.264	88.94
442.486	89.94
442.707	85.94
442.928	91.94
443.149	84.94
443.371	96.94
443.592	94.94
443.813	97.94
444.034	86.94
444.255	78.94
444.476	83.94
444.698	68.94
444.919	93.94
445.14	148.94
445.361	118.94
445.582	96.94
445.803	112.94
446.024	88.94
446.245	86.94
446.466	84.94
446.687	93.94
446.908	80.94
447.129	80.94
447.35	67.94
447.571	83.94
447.792	101.94
448.013	90.94
448.234	82.94
448.455	81.94
448.675	88.94
448.896	81.94
449.117	82.94
449.338	77.94
449.559	73.94
449.779	81.94
450	64.94
450.221	90.94
450.442	87.94
450.662	86.94
450.883	86.94
451.104	91.94
451.324	73.94
451.545	87.94
451.766	73.94
451.986	83.94
452.207	80.94
452.428	90.94
452.648	74.94
452.869	93.94
453.089	84.94
453.31	90.94
453.53	71.94
453.751	80.94
453.971	72.94
454.192	85.94
454.412	84.94
454.633	82.94
454.853	90.94
455.073	90.94
455.294	73.94
455.514	92.94
455.734	75.94
455.955	88.94
456.175	75.94
456.395	81.94
456.616	88.94
456.836	83.94
457.056	83.94
457.276	82.94
457.497	75.94
457.717	78.94
457.937	78.94
458.157	85.94
458.377	90.94
458.598	68.94
458.818	85.94
459.038	78.94
459.258	79.94
459.478	81.94
459.698	85.94
459.918	79.94
460.138	83.94
460.358	76.94
460.578	68.94
460.798	90.94
461.018	90.94
461.238	82.94
461.458	77.94
461.678	91.94
461.898	79.94
462.118	92.94
462.338	95.94
462.558	83.94
462.777	84.94
462.997	66.94
463.217	75.94
463.437	80.94
463.657	85.94
463.876	77.94
464.096	75.94
464.316	69.94
464.536	66.94
464.755	81.94
464.975	64.94
465.195	74.94
465.414	92.94
465.634	76.94
465.854	75.94
466.073	90.94
466.293	84.94
466.512	80.94
466.732	91.94
466.951	85.94
467.171	88.94
467.391	70.94
467.61	82.94
467.829	86.94
468.049	86.94
468.268	76.94
468.488	79.94
468.707	90.94
468.927	80.94
469.146	80.94
469.365	89.94
469.585	94.94
469.804	72.94
470.023	76.94
470.243	80.94
470.462	76.94
470.681	92.94
470.901	73.94
471.12	90.94
471.339	80.94
471.558	75.94
471.777	77.94
471.997	90.94
472.216	75.94
472.435	75.94
472.654	78.94
472.873	93.94
473.092	82.94
473.311	74.94
473.53	77.94
473.749	102.94
473.968	104.94
474.187	84.94
474.406	76.94
474.625	77.94
474.844	90.94
475.063	70.94
475.282	73.94
475.501	74.94
475.72	91.94
475.939	78.94
476.158	75.94
476.377	68.94
476.596	63.94
476.814	74.94
477.033	79.94
477.252	89.94
477.471	86.94
477.69	76.94
477.908	75.94
478.127	88.94
478.346	86.94
478.564	81.94
478.783	80.94
479.002	84.94
479.22	87.94
479.439	79.94
479.658	86.94
479.876	79.94
480.095	85.94
480.313	85.94
480.532	90.94
480.751	86.94
480.969	88.94
481.188	86.94
481.406	92.94
481.624	83.94
481.843	91.94
482.061	98.94
482.28	83.94
482.498	82.94
482.717	70.94
482.935	83.94
483.153	76.94
483.372	89.94
483.59	76.94
483.808	92.94
484.027	78.94
484.245	92.94
484.463	104.94
484.681	82.94
484.9	80.94
485.118	77.94
485.336	91.94
485.554	93.94
485.772	84.94
485.99	82.94
486.209	88.94
486.427	104.94
486.645	84.94
486.863	76.94
487.081	67.94
487.299	87.94
487.517	88.94
487.735	79.94
487.953	92.94
488.171	77.94
488.389	87.94
488.607	86.94
488.825	77.94
489.043	82.94
489.261	88.94
489.479	84.94
489.696	83.94
489.914	73.94
490.132	99.94
490.35	98.94
490.568	81.94
490.786	90.94
491.003	74.94
491.221	81.94
491.439	89.94
491.657	83.94
491.874	85.94
492.092	81.94
492.31	89.94
492.527	79.94
492.745	77.94
492.963	88.94
493.18	78.94
493.398	79.94
493.615	74.94
493.833	90.94
494.05	75.94
494.268	87.94
494.485	85.94
494.703	86.94
494.92	88.94
495.138	93.94
495.355	88.94
495.573	82.94
495.79	85.94
496.008	96.94
496.225	85.94
496.442	77.94
496.66	82.94
496.877	96.94
497.094	76.94
497.312	76.94
497.529	75.94
497.746	78.94
497.963	77.94
498.181	73.94
498.398	89.94
498.615	87.94
498.832	81.94
499.049	79.94
499.267	81.94
499.484	84.94
499.701	100.94
499.918	83.94
500.135	87.94
500.352	81.94
500.569	75.94
500.786	77.94
501.003	72.94
501.22	75.94
501.437	72.94
501.654	69.94
501.871	78.94
502.088	91.94
502.305	90.94
502.522	84.94
502.739	86.94
502.956	84.94
503.172	91.94
503.389	88.94
503.606	83.94
503.823	75.94
504.04	92.94
504.256	95.94
504.473	86.94
504.69	85.94
504.907	75.94
505.123	83.94
505.34	88.94
505.557	93.94
505.773	78.94
505.99	90.94
506.207	96.94
506.423	87.94
506.64	88.94
506.856	77.94
507.073	79.94
507.289	92.94
507.506	97.94
507.722	71.94
507.939	98.94
508.155	97.94
508.372	70.94
508.588	74.94
508.805	79.94
509.021	88.94
509.238	85.94
509.454	82.94
509.67	90.94
509.887	88.94
510.103	77.94
510.319	104.94
510.536	83.94
510.752	72.94
510.968	96.94
511.184	70.94
511.401	78.94
511.617	102.94
511.833	85.94
512.049	94.94
512.265	100.94
512.481	86.94
512.698	77.94
512.914	79.94
513.13	87.94
513.346	83.94
513.562	86.94
513.778	85.94
513.994	76.94
514.21	74.94
514.426	88.94
514.642	102.94
514.858	68.94
515.074	83.94
515.29	93.94
515.506	78.94
515.721	100.94
515.937	83.94
516.153	93.94
516.369	82.94
516.585	80.94
516.801	87.94
517.016	66.94
517.232	78.94
517.448	89.94
517.664	81.94
517.879	87.94
518.095	92.94
518.311	93.94
518.527	89.94
518.742	91.94
518.958	75.94
519.173	78.94
519.389	73.94
519.605	76.94
