Data from 15780_2_HRD10591_00003.txt Node
Date: Mon Jan 19 14:19:05 EST 2026
User: Yrep
Spectrometer: HR+D1059
Trigger mode: 1
Integration Time (sec): 1.000000E-1
Scans to average: 1
Electric dark correction enabled: true
Nonlinearity correction enabled: false
Boxcar width: 0
XAxis mode: Wavelengths
Number of Pixels in Spectrum: 2048
>>>>>Begin Spectral Data<<<<<
223.165	-31.44
223.4	-31.44
223.635	-31.44
223.869	-20.44
224.104	-21.44
224.338	-15.44
224.573	-13.44
224.808	-18.44
225.042	-8.44
225.277	-3.44
225.511	0.56
225.746	4.56
225.98	14.56
226.215	13.56
226.449	22.56
226.683	29.56
226.918	8.56
227.152	38.56
227.387	30.56
227.621	44.56
227.856	45.56
228.09	49.56
228.324	48.56
228.559	55.56
228.793	60.56
229.027	67.56
229.262	63.56
229.496	82.56
229.73	70.56
229.964	60.56
230.199	85.56
230.433	64.56
230.667	75.56
230.901	80.56
231.136	74.56
231.37	66.56
231.604	74.56
231.838	85.56
232.072	81.56
232.306	84.56
232.541	79.56
232.775	70.56
233.009	68.56
233.243	69.56
233.477	78.56
233.711	72.56
233.945	76.56
234.179	89.56
234.413	72.56
234.647	98.56
234.881	70.56
235.115	70.56
235.349	78.56
235.583	66.56
235.817	66.56
236.051	74.56
236.285	78.56
236.519	81.56
236.753	73.56
236.987	74.56
237.221	80.56
237.455	63.56
237.689	69.56
237.922	66.56
238.156	71.56
238.39	83.56
238.624	77.56
238.858	69.56
239.091	81.56
239.325	77.56
239.559	64.56
239.793	65.56
240.027	74.56
240.26	64.56
240.494	82.56
240.728	56.56
240.961	78.56
241.195	75.56
241.429	72.56
241.662	79.56
241.896	72.56
242.13	59.56
242.363	69.56
242.597	72.56
242.83	85.56
243.064	72.56
243.298	76.56
243.531	68.56
243.765	74.56
243.998	81.56
244.232	79.56
244.465	69.56
244.699	70.56
244.932	79.56
245.166	78.56
245.399	65.56
245.633	84.56
245.866	82.56
246.099	77.56
246.333	72.56
246.566	81.56
246.8	84.56
247.033	85.56
247.266	79.56
247.5	81.56
247.733	57.56
247.966	85.56
248.2	71.56
248.433	78.56
248.666	87.56
248.899	82.56
249.133	84.56
249.366	81.56
249.599	68.56
249.832	74.56
250.066	66.56
250.299	78.56
250.532	77.56
250.765	78.56
250.998	76.56
251.231	76.56
251.465	64.56
251.698	80.56
251.931	70.56
252.164	72.56
252.397	65.56
252.63	85.56
252.863	70.56
253.096	84.56
253.329	96.56
253.562	65.56
253.795	82.56
254.028	70.56
254.261	60.56
254.494	75.56
254.727	79.56
254.96	82.56
255.193	78.56
255.426	82.56
255.659	71.56
255.892	78.56
256.124	66.56
256.357	72.56
256.59	87.56
256.823	83.56
257.056	88.56
257.289	86.56
257.521	81.56
257.754	74.56
257.987	76.56
258.22	82.56
258.452	84.56
258.685	78.56
258.918	69.56
259.151	72.56
259.383	79.56
259.616	88.56
259.849	92.56
260.081	88.56
260.314	84.56
260.547	70.56
260.779	86.56
261.012	82.56
261.244	83.56
261.477	94.56
261.71	72.56
261.942	73.56
262.175	82.56
262.407	76.56
262.64	70.56
262.872	67.56
263.105	73.56
263.337	90.56
263.57	84.56
263.802	75.56
264.035	70.56
264.267	70.56
264.499	87.56
264.732	97.56
264.964	81.56
265.197	70.56
265.429	70.56
265.661	91.56
265.894	74.56
266.126	80.56
266.358	64.56
266.591	84.56
266.823	66.56
267.055	75.56
267.287	69.56
267.52	75.56
267.752	68.56
267.984	84.56
268.216	79.56
268.448	101.56
268.681	85.56
268.913	66.56
269.145	78.56
269.377	85.56
269.609	86.56
269.841	77.56
270.073	75.56
270.306	77.56
270.538	89.56
270.77	92.56
271.002	88.56
271.234	86.56
271.466	72.56
271.698	70.56
271.93	85.56
272.162	92.56
272.394	72.56
272.626	89.56
272.858	72.56
273.09	79.56
273.322	85.56
273.553	72.56
273.785	73.56
274.017	78.56
274.249	85.56
274.481	82.56
274.713	80.56
274.945	82.56
275.176	79.56
275.408	81.56
275.64	81.56
275.872	74.56
276.104	82.56
276.335	82.56
276.567	73.56
276.799	94.56
277.031	73.56
277.262	78.56
277.494	72.56
277.726	71.56
277.957	73.56
278.189	82.56
278.421	85.56
278.652	92.56
278.884	86.56
279.115	80.56
279.347	86.56
279.579	79.56
279.81	74.56
280.042	78.56
280.273	87.56
280.505	84.56
280.736	69.56
280.968	88.56
281.199	102.56
281.431	86.56
281.662	84.56
281.894	73.56
282.125	82.56
282.356	79.56
282.588	82.56
282.819	89.56
283.051	75.56
283.282	76.56
283.513	81.56
283.745	82.56
283.976	88.56
284.207	90.56
284.439	84.56
284.67	77.56
284.901	88.56
285.132	80.56
285.364	77.56
285.595	83.56
285.826	78.56
286.057	72.56
286.288	73.56
286.52	78.56
286.751	74.56
286.982	85.56
287.213	73.56
287.444	77.56
287.675	80.56
287.906	79.56
288.138	81.56
288.369	80.56
288.6	75.56
288.831	78.56
289.062	96.56
289.293	94.56
289.524	78.56
289.755	88.56
289.986	85.56
290.217	83.56
290.448	100.56
290.679	92.56
290.91	76.56
291.141	70.56
291.371	88.56
291.602	73.56
291.833	81.56
292.064	79.56
292.295	80.56
292.526	83.56
292.757	89.56
292.987	84.56
293.218	84.56
293.449	88.56
293.68	91.56
293.91	83.56
294.141	88.56
294.372	81.56
294.603	80.56
294.833	89.56
295.064	79.56
295.295	85.56
295.525	82.56
295.756	82.56
295.987	79.56
296.217	74.56
296.448	88.56
296.679	81.56
296.909	93.56
297.14	86.56
297.37	89.56
297.601	85.56
297.831	76.56
298.062	78.56
298.292	80.56
298.523	66.56
298.753	84.56
298.984	84.56
299.214	82.56
299.445	90.56
299.675	110.56
299.905	84.56
300.136	80.56
300.366	77.56
300.597	72.56
300.827	78.56
301.057	81.56
301.288	68.56
301.518	75.56
301.748	82.56
301.979	109.56
302.209	100.56
302.439	88.56
302.669	89.56
302.9	85.56
303.13	82.56
303.36	75.56
303.59	97.56
303.82	74.56
304.051	82.56
304.281	86.56
304.511	96.56
304.741	82.56
304.971	74.56
305.201	69.56
305.431	77.56
305.661	89.56
305.891	95.56
306.121	96.56
306.352	79.56
306.582	81.56
306.812	74.56
307.042	80.56
307.272	85.56
307.502	87.56
307.731	79.56
307.961	93.56
308.191	100.56
308.421	92.56
308.651	84.56
308.881	94.56
309.111	87.56
309.341	75.56
309.571	73.56
309.8	78.56
310.03	76.56
310.26	93.56
310.49	96.56
310.72	80.56
310.949	68.56
311.179	78.56
311.409	80.56
311.639	70.56
311.868	89.56
312.098	86.56
312.328	92.56
312.557	86.56
312.787	81.56
313.017	76.56
313.246	100.56
313.476	77.56
313.706	80.56
313.935	70.56
314.165	82.56
314.394	74.56
314.624	66.56
314.853	85.56
315.083	83.56
315.312	92.56
315.542	87.56
315.771	86.56
316.001	92.56
316.23	87.56
316.46	89.56
316.689	100.56
316.919	80.56
317.148	84.56
317.377	87.56
317.607	102.56
317.836	88.56
318.065	101.56
318.295	95.56
318.524	89.56
318.753	100.56
318.983	75.56
319.212	109.56
319.441	91.56
319.67	84.56
319.9	86.56
320.129	90.56
320.358	92.56
320.587	97.56
320.816	67.56
321.046	96.56
321.275	88.56
321.504	82.56
321.733	93.56
321.962	94.56
322.191	95.56
322.42	87.56
322.649	77.56
322.878	87.56
323.108	79.56
323.337	87.56
323.566	95.56
323.795	86.56
324.024	87.56
324.253	98.56
324.482	77.56
324.71	82.56
324.939	81.56
325.168	73.56
325.397	81.56
325.626	76.56
325.855	82.56
326.084	96.56
326.313	77.56
326.542	83.56
326.77	82.56
326.999	75.56
327.228	88.56
327.457	80.56
327.686	75.56
327.914	73.56
328.143	84.56
328.372	76.56
328.6	93.56
328.829	78.56
329.058	86.56
329.287	73.56
329.515	82.56
329.744	78.56
329.972	77.56
330.201	92.56
330.43	85.56
330.658	84.56
330.887	79.56
331.115	83.56
331.344	83.56
331.572	74.56
331.801	78.56
332.03	66.56
332.258	94.56
332.486	79.56
332.715	83.56
332.943	83.56
333.172	86.56
333.4	79.56
333.629	91.56
333.857	83.56
334.085	80.56
334.314	70.56
334.542	82.56
334.771	91.56
334.999	94.56
335.227	86.56
335.455	92.56
335.684	102.56
335.912	84.56
336.14	73.56
336.369	104.56
336.597	89.56
336.825	93.56
337.053	88.56
337.281	83.56
337.51	88.56
337.738	86.56
337.966	72.56
338.194	88.56
338.422	87.56
338.65	88.56
338.878	75.56
339.106	67.56
339.334	82.56
339.562	72.56
339.79	90.56
340.018	80.56
340.246	78.56
340.474	78.56
340.702	66.56
340.93	82.56
341.158	75.56
341.386	73.56
341.614	84.56
341.842	87.56
342.07	80.56
342.298	79.56
342.526	83.56
342.754	82.56
342.981	66.56
343.209	89.56
343.437	104.56
343.665	80.56
343.893	96.56
344.12	96.56
344.348	96.56
344.576	88.56
344.804	83.56
345.031	88.56
345.259	84.56
345.487	95.56
345.714	68.56
345.942	85.56
346.17	86.56
346.397	86.56
346.625	85.56
346.853	78.56
347.08	62.56
347.308	79.56
347.535	94.56
347.763	84.56
347.99	89.56
348.218	82.56
348.445	92.56
348.673	86.56
348.9	98.56
349.128	92.56
349.355	77.56
349.583	84.56
349.81	85.56
350.037	90.56
350.265	90.56
350.492	81.56
350.72	76.56
350.947	80.56
351.174	85.56
351.402	82.56
351.629	76.56
351.856	97.56
352.083	74.56
352.311	88.56
352.538	81.56
352.765	76.56
352.992	80.56
353.22	66.56
353.447	86.56
353.674	84.56
353.901	85.56
354.128	72.56
354.355	91.56
354.583	88.56
354.81	76.56
355.037	89.56
355.264	83.56
355.491	80.56
355.718	85.56
355.945	87.56
356.172	78.56
356.399	82.56
356.626	79.56
356.853	103.56
357.08	90.56
357.307	96.56
357.534	72.56
357.761	84.56
357.988	88.56
358.215	101.56
358.441	81.56
358.668	88.56
358.895	70.56
359.122	90.56
359.349	79.56
359.576	86.56
359.802	72.56
360.029	83.56
360.256	68.56
360.483	80.56
360.709	75.56
360.936	104.56
361.163	86.56
361.39	95.56
361.616	92.56
361.843	84.56
362.07	92.56
362.296	97.56
362.523	110.56
362.749	103.56
362.976	111.56
363.203	118.56
363.429	87.56
363.656	100.56
363.882	96.56
364.109	102.56
364.335	126.56
364.562	127.56
364.788	89.56
365.015	108.56
365.241	99.56
365.468	94.56
365.694	84.56
365.92	72.56
366.147	85.56
366.373	82.56
366.599	80.56
366.826	97.56
367.052	82.56
367.278	85.56
367.505	88.56
367.731	93.56
367.957	88.56
368.184	78.56
368.41	88.56
368.636	80.56
368.862	90.56
369.089	82.56
369.315	66.56
369.541	80.56
369.767	88.56
369.993	82.56
370.219	85.56
370.445	87.56
370.672	104.56
370.898	97.56
371.124	93.56
371.35	95.56
371.576	76.56
371.802	88.56
372.028	90.56
372.254	82.56
372.48	88.56
372.706	90.56
372.932	90.56
373.158	85.56
373.384	92.56
373.61	109.56
373.835	108.56
374.061	85.56
374.287	96.56
374.513	90.56
374.739	103.56
374.965	84.56
375.191	83.56
375.416	89.56
375.642	87.56
375.868	78.56
376.094	90.56
376.319	87.56
376.545	92.56
376.771	84.56
376.997	81.56
377.222	86.56
377.448	91.56
377.674	87.56
377.899	70.56
378.125	81.56
378.35	82.56
378.576	87.56
378.802	93.56
379.027	80.56
379.253	85.56
379.478	80.56
379.704	80.56
379.929	86.56
380.155	81.56
380.38	92.56
380.606	86.56
380.831	90.56
381.057	86.56
381.282	77.56
381.507	90.56
381.733	88.56
381.958	90.56
382.184	100.56
382.409	89.56
382.634	95.56
382.86	97.56
383.085	98.56
383.31	100.56
383.535	108.56
383.761	101.56
383.986	104.56
384.211	98.56
384.436	92.56
384.662	92.56
384.887	88.56
385.112	67.56
385.337	92.56
385.562	86.56
385.787	90.56
386.013	111.56
386.238	86.56
386.463	89.56
386.688	98.56
386.913	88.56
387.138	78.56
387.363	94.56
387.588	89.56
387.813	90.56
388.038	81.56
388.263	111.56
388.488	103.56
388.713	97.56
388.938	94.56
389.163	93.56
389.387	84.56
389.612	89.56
389.837	87.56
390.062	89.56
390.287	81.56
390.512	83.56
390.736	66.56
390.961	69.56
391.186	79.56
391.411	88.56
391.636	97.56
391.86	78.56
392.085	102.56
392.31	89.56
392.534	85.56
392.759	100.56
392.984	144.56
393.208	215.56
393.433	297.56
393.658	246.56
393.882	135.56
394.107	102.56
394.331	108.56
394.556	118.56
394.78	101.56
395.005	86.56
395.229	84.56
395.454	88.56
395.678	110.56
395.903	115.56
396.127	123.56
396.352	153.56
396.576	135.56
396.801	214.56
397.025	236.56
397.249	150.56
397.474	116.56
397.698	103.56
397.922	90.56
398.147	87.56
398.371	97.56
398.595	79.56
398.82	91.56
399.044	91.56
399.268	89.56
399.492	87.56
399.717	86.56
399.941	94.56
400.165	96.56
400.389	85.56
400.613	78.56
400.837	100.56
401.062	79.56
401.286	80.56
401.51	92.56
401.734	93.56
401.958	85.56
402.182	66.56
402.406	82.56
402.63	78.56
402.854	90.56
403.078	68.56
403.302	83.56
403.526	94.56
403.75	88.56
403.974	92.56
404.198	80.56
404.422	85.56
404.645	88.56
404.869	93.56
405.093	74.56
405.317	74.56
405.541	80.56
405.765	75.56
405.988	93.56
406.212	80.56
406.436	84.56
406.66	85.56
406.883	66.56
407.107	84.56
407.331	85.56
407.555	97.56
407.778	99.56
408.002	105.56
408.226	77.56
408.449	80.56
408.673	80.56
408.896	88.56
409.12	82.56
409.344	86.56
409.567	97.56
409.791	95.56
410.014	94.56
410.238	91.56
410.461	90.56
410.685	88.56
410.908	95.56
411.132	77.56
411.355	83.56
411.578	75.56
411.802	88.56
412.025	88.56
412.249	77.56
412.472	87.56
412.695	89.56
412.919	83.56
413.142	75.56
413.365	91.56
413.589	88.56
413.812	82.56
414.035	97.56
414.258	92.56
414.482	86.56
414.705	87.56
414.928	80.56
415.151	76.56
415.374	81.56
415.597	85.56
415.821	92.56
416.044	69.56
416.267	95.56
416.49	76.56
416.713	88.56
416.936	81.56
417.159	69.56
417.382	73.56
417.605	88.56
417.828	100.56
418.051	84.56
418.274	86.56
418.497	81.56
418.72	78.56
418.943	77.56
419.166	74.56
419.389	85.56
419.611	80.56
419.834	83.56
420.057	78.56
420.28	92.56
420.503	90.56
420.726	96.56
420.948	79.56
421.171	89.56
421.394	86.56
421.617	102.56
421.839	120.56
422.062	120.56
422.285	153.56
422.507	230.56
422.73	315.56
422.953	274.56
423.175	167.56
423.398	126.56
423.621	105.56
423.843	104.56
424.066	97.56
424.288	90.56
424.511	82.56
424.733	82.56
424.956	87.56
425.178	86.56
425.401	89.56
425.623	90.56
425.846	82.56
426.068	88.56
426.291	97.56
426.513	86.56
426.735	90.56
426.958	79.56
427.18	90.56
427.402	85.56
427.625	83.56
427.847	87.56
428.069	102.56
428.292	115.56
428.514	128.56
428.736	103.56
428.958	132.56
429.181	117.56
429.403	91.56
429.625	88.56
429.847	116.56
430.069	148.56
430.292	176.56
430.514	145.56
430.736	122.56
430.958	129.56
431.18	83.56
431.402	101.56
431.624	95.56
431.846	103.56
432.068	120.56
432.29	97.56
432.512	96.56
432.734	89.56
432.956	80.56
433.178	69.56
433.4	86.56
433.622	69.56
433.844	82.56
434.066	95.56
434.287	74.56
434.509	88.56
434.731	80.56
434.953	74.56
435.175	84.56
435.397	83.56
435.618	92.56
435.84	87.56
436.062	93.56
436.284	88.56
436.505	82.56
436.727	76.56
436.949	88.56
437.17	100.56
437.392	81.56
437.614	84.56
437.835	62.56
438.057	76.56
438.278	94.56
438.5	102.56
438.721	73.56
438.943	72.56
439.165	95.56
439.386	81.56
439.608	82.56
439.829	83.56
440.05	82.56
440.272	79.56
440.493	84.56
440.715	88.56
440.936	85.56
441.158	82.56
441.379	86.56
441.6	97.56
441.822	92.56
442.043	97.56
442.264	103.56
442.486	128.56
442.707	158.56
442.928	113.56
443.149	108.56
443.371	130.56
443.592	200.56
443.813	186.56
444.034	103.56
444.255	112.56
444.476	89.56
444.698	77.56
444.919	96.56
445.14	176.56
445.361	174.56
445.582	241.56
445.803	210.56
446.024	118.56
446.245	90.56
446.466	83.56
446.687	81.56
446.908	79.56
447.129	81.56
447.35	87.56
447.571	78.56
447.792	93.56
448.013	93.56
448.234	89.56
448.455	79.56
448.675	77.56
448.896	84.56
449.117	83.56
449.338	85.56
449.559	84.56
449.779	79.56
450	92.56
450.221	83.56
450.442	84.56
450.662	84.56
450.883	84.56
451.104	72.56
451.324	82.56
451.545	81.56
451.766	77.56
451.986	80.56
452.207	82.56
452.428	89.56
452.648	100.56
452.869	94.56
453.089	67.56
453.31	84.56
453.53	97.56
453.751	102.56
453.971	99.56
454.192	94.56
454.412	90.56
454.633	80.56
454.853	97.56
455.073	83.56
455.294	92.56
455.514	79.56
455.734	92.56
455.955	82.56
456.175	75.56
456.395	84.56
456.616	90.56
456.836	71.56
457.056	101.56
457.276	82.56
457.497	83.56
457.717	80.56
457.937	98.56
458.157	118.56
458.377	111.56
458.598	125.56
458.818	111.56
459.038	88.56
459.258	83.56
459.478	73.56
459.698	102.56
459.918	93.56
460.138	88.56
460.358	95.56
460.578	86.56
460.798	109.56
461.018	124.56
461.238	105.56
461.458	101.56
461.678	78.56
461.898	72.56
462.118	79.56
462.338	86.56
462.558	104.56
462.777	78.56
462.997	80.56
463.217	84.56
463.437	70.56
463.657	98.56
463.876	92.56
464.096	89.56
464.316	82.56
464.536	80.56
464.755	81.56
464.975	88.56
465.195	88.56
465.414	85.56
465.634	85.56
465.854	98.56
466.073	83.56
466.293	82.56
466.512	84.56
466.732	78.56
466.951	81.56
467.171	80.56
467.391	88.56
467.61	56.56
467.829	82.56
468.049	80.56
468.268	87.56
468.488	93.56
468.707	93.56
468.927	102.56
469.146	82.56
469.365	96.56
469.585	74.56
469.804	97.56
470.023	86.56
470.243	88.56
470.462	88.56
470.681	85.56
470.901	86.56
471.12	86.56
471.339	73.56
471.558	78.56
471.777	60.56
471.997	85.56
472.216	96.56
472.435	74.56
472.654	88.56
472.873	73.56
473.092	80.56
473.311	72.56
473.53	90.56
473.749	75.56
473.968	72.56
474.187	89.56
474.406	84.56
474.625	84.56
474.844	94.56
475.063	89.56
475.282	87.56
475.501	88.56
475.72	84.56
475.939	84.56
476.158	91.56
476.377	86.56
476.596	83.56
476.814	96.56
477.033	92.56
477.252	92.56
477.471	74.56
477.69	69.56
477.908	93.56
478.127	101.56
478.346	96.56
478.564	80.56
478.783	73.56
479.002	76.56
479.22	70.56
479.439	72.56
479.658	92.56
479.876	89.56
480.095	78.56
480.313	86.56
480.532	101.56
480.751	91.56
480.969	89.56
481.188	102.56
481.406	88.56
481.624	76.56
481.843	94.56
482.061	89.56
482.28	82.56
482.498	91.56
482.717	93.56
482.935	79.56
483.153	80.56
483.372	81.56
483.59	80.56
483.808	90.56
484.027	92.56
484.245	108.56
484.463	90.56
484.681	97.56
484.9	89.56
485.118	105.56
485.336	96.56
485.554	85.56
485.772	81.56
485.99	91.56
486.209	92.56
486.427	103.56
486.645	89.56
486.863	89.56
487.081	85.56
487.299	82.56
487.517	92.56
487.735	104.56
487.953	150.56
488.171	120.56
488.389	101.56
488.607	104.56
488.825	97.56
489.043	88.56
489.261	104.56
489.479	78.56
489.696	88.56
489.914	88.56
490.132	93.56
490.35	92.56
490.568	100.56
490.786	91.56
491.003	89.56
491.221	89.56
491.439	98.56
491.657	100.56
491.874	93.56
492.092	92.56
492.31	85.56
492.527	83.56
492.745	76.56
492.963	85.56
493.18	99.56
493.398	98.56
493.615	97.56
493.833	92.56
494.05	85.56
494.268	91.56
494.485	92.56
494.703	78.56
494.92	88.56
495.138	86.56
495.355	87.56
495.573	101.56
495.79	96.56
496.008	94.56
496.225	89.56
496.442	108.56
496.66	96.56
496.877	83.56
497.094	101.56
497.312	76.56
497.529	73.56
497.746	96.56
497.963	83.56
498.181	93.56
498.398	137.56
498.615	97.56
498.832	100.56
499.049	98.56
499.267	100.56
499.484	101.56
499.701	90.56
499.918	95.56
500.135	105.56
500.352	87.56
500.569	96.56
500.786	97.56
501.003	98.56
501.22	75.56
501.437	92.56
501.654	100.56
501.871	96.56
502.088	87.56
502.305	102.56
502.522	85.56
502.739	82.56
502.956	110.56
503.172	80.56
503.389	90.56
503.606	95.56
503.823	103.56
504.04	105.56
504.256	132.56
504.473	135.56
504.69	85.56
504.907	95.56
505.123	81.56
505.34	87.56
505.557	94.56
505.773	92.56
505.99	100.56
506.207	92.56
506.423	78.56
506.64	99.56
506.856	94.56
507.073	88.56
507.289	89.56
507.506	90.56
507.722	85.56
507.939	89.56
508.155	101.56
508.372	92.56
508.588	101.56
508.805	73.56
509.021	77.56
509.238	93.56
509.454	88.56
509.67	97.56
509.887	91.56
510.103	79.56
510.319	87.56
510.536	84.56
510.752	77.56
510.968	85.56
511.184	86.56
511.401	82.56
511.617	110.56
511.833	97.56
512.049	97.56
512.265	97.56
512.481	105.56
512.698	93.56
512.914	78.56
513.13	87.56
513.346	89.56
513.562	92.56
513.778	93.56
513.994	73.56
514.21	105.56
514.426	74.56
514.642	89.56
514.858	80.56
515.074	81.56
515.29	92.56
515.506	88.56
515.721	82.56
515.937	95.56
516.153	103.56
516.369	92.56
516.585	81.56
516.801	99.56
517.016	107.56
517.232	96.56
517.448	110.56
517.664	96.56
517.879	90.56
518.095	88.56
