Data from 15780_2_HRD10591_00011.txt Node
Date: Mon Jan 19 14:19:09 EST 2026
User: Yrep
Spectrometer: HR+D1059
Trigger mode: 1
Integration Time (sec): 1.000000E-1
Scans to average: 1
Electric dark correction enabled: true
Nonlinearity correction enabled: false
Boxcar width: 0
XAxis mode: Wavelengths
Number of Pixels in Spectrum: 2048
>>>>>Begin Spectral Data<<<<<
223.165	-22.81
223.4	-22.81
223.635	-22.81
223.869	-8.81
224.104	-22.81
224.338	-9.81
224.573	-17.81
224.808	-12.81
225.042	-23.81
225.277	-11.81
225.511	-6.81
225.746	14.19
225.98	20.19
226.215	4.19
226.449	20.19
226.683	19.19
226.918	19.19
227.152	40.19
227.387	30.19
227.621	27.19
227.856	30.19
228.09	47.19
228.324	35.19
228.559	41.19
228.793	55.19
229.027	65.19
229.262	72.19
229.496	65.19
229.73	61.19
229.964	65.19
230.199	83.19
230.433	65.19
230.667	73.19
230.901	76.19
231.136	82.19
231.37	83.19
231.604	86.19
231.838	87.19
232.072	83.19
232.306	77.19
232.541	85.19
232.775	91.19
233.009	81.19
233.243	82.19
233.477	82.19
233.711	75.19
233.945	75.19
234.179	89.19
234.413	81.19
234.647	71.19
234.881	91.19
235.115	78.19
235.349	79.19
235.583	82.19
235.817	83.19
236.051	83.19
236.285	77.19
236.519	81.19
236.753	71.19
236.987	78.19
237.221	72.19
237.455	75.19
237.689	72.19
237.922	77.19
238.156	73.19
238.39	75.19
238.624	93.19
238.858	90.19
239.091	71.19
239.325	68.19
239.559	74.19
239.793	75.19
240.027	65.19
240.26	88.19
240.494	71.19
240.728	61.19
240.961	63.19
241.195	76.19
241.429	91.19
241.662	72.19
241.896	87.19
242.13	83.19
242.363	76.19
242.597	73.19
242.83	67.19
243.064	82.19
243.298	90.19
243.531	63.19
243.765	83.19
243.998	81.19
244.232	72.19
244.465	86.19
244.699	72.19
244.932	64.19
245.166	74.19
245.399	81.19
245.633	76.19
245.866	90.19
246.099	83.19
246.333	78.19
246.566	71.19
246.8	69.19
247.033	71.19
247.266	89.19
247.5	87.19
247.733	81.19
247.966	81.19
248.2	87.19
248.433	86.19
248.666	84.19
248.899	76.19
249.133	72.19
249.366	82.19
249.599	88.19
249.832	63.19
250.066	83.19
250.299	88.19
250.532	85.19
250.765	78.19
250.998	78.19
251.231	63.19
251.465	83.19
251.698	74.19
251.931	76.19
252.164	82.19
252.397	81.19
252.63	75.19
252.863	85.19
253.096	72.19
253.329	88.19
253.562	80.19
253.795	85.19
254.028	85.19
254.261	69.19
254.494	77.19
254.727	67.19
254.96	90.19
255.193	79.19
255.426	75.19
255.659	86.19
255.892	92.19
256.124	85.19
256.357	81.19
256.59	72.19
256.823	83.19
257.056	81.19
257.289	69.19
257.521	77.19
257.754	70.19
257.987	83.19
258.22	90.19
258.452	77.19
258.685	92.19
258.918	70.19
259.151	85.19
259.383	75.19
259.616	91.19
259.849	75.19
260.081	83.19
260.314	76.19
260.547	90.19
260.779	79.19
261.012	85.19
261.244	75.19
261.477	81.19
261.71	79.19
261.942	77.19
262.175	80.19
262.407	79.19
262.64	79.19
262.872	79.19
263.105	81.19
263.337	99.19
263.57	77.19
263.802	76.19
264.035	81.19
264.267	77.19
264.499	77.19
264.732	74.19
264.964	80.19
265.197	79.19
265.429	71.19
265.661	85.19
265.894	77.19
266.126	87.19
266.358	85.19
266.591	90.19
266.823	87.19
267.055	69.19
267.287	83.19
267.52	81.19
267.752	77.19
267.984	76.19
268.216	66.19
268.448	75.19
268.681	86.19
268.913	92.19
269.145	78.19
269.377	82.19
269.609	79.19
269.841	85.19
270.073	72.19
270.306	82.19
270.538	76.19
270.77	87.19
271.002	69.19
271.234	88.19
271.466	96.19
271.698	86.19
271.93	92.19
272.162	85.19
272.394	86.19
272.626	84.19
272.858	94.19
273.09	85.19
273.322	77.19
273.553	85.19
273.785	85.19
274.017	81.19
274.249	103.19
274.481	81.19
274.713	93.19
274.945	82.19
275.176	84.19
275.408	88.19
275.64	85.19
275.872	90.19
276.104	81.19
276.335	96.19
276.567	90.19
276.799	77.19
277.031	92.19
277.262	84.19
277.494	88.19
277.726	88.19
277.957	80.19
278.189	81.19
278.421	102.19
278.652	90.19
278.884	75.19
279.115	88.19
279.347	93.19
279.579	104.19
279.81	73.19
280.042	83.19
280.273	83.19
280.505	88.19
280.736	83.19
280.968	84.19
281.199	76.19
281.431	81.19
281.662	73.19
281.894	87.19
282.125	78.19
282.356	80.19
282.588	83.19
282.819	83.19
283.051	76.19
283.282	81.19
283.513	98.19
283.745	89.19
283.976	86.19
284.207	71.19
284.439	83.19
284.67	87.19
284.901	76.19
285.132	96.19
285.364	109.19
285.595	84.19
285.826	91.19
286.057	89.19
286.288	79.19
286.52	83.19
286.751	96.19
286.982	89.19
287.213	72.19
287.444	75.19
287.675	88.19
287.906	80.19
288.138	99.19
288.369	85.19
288.6	85.19
288.831	80.19
289.062	90.19
289.293	82.19
289.524	80.19
289.755	70.19
289.986	88.19
290.217	79.19
290.448	93.19
290.679	81.19
290.91	91.19
291.141	77.19
291.371	100.19
291.602	84.19
291.833	72.19
292.064	77.19
292.295	75.19
292.526	87.19
292.757	98.19
292.987	92.19
293.218	80.19
293.449	68.19
293.68	81.19
293.91	82.19
294.141	92.19
294.372	85.19
294.603	74.19
294.833	81.19
295.064	85.19
295.295	100.19
295.525	88.19
295.756	76.19
295.987	91.19
296.217	93.19
296.448	80.19
296.679	85.19
296.909	74.19
297.14	80.19
297.37	89.19
297.601	91.19
297.831	85.19
298.062	85.19
298.292	105.19
298.523	94.19
298.753	91.19
298.984	92.19
299.214	95.19
299.445	70.19
299.675	108.19
299.905	85.19
300.136	83.19
300.366	74.19
300.597	70.19
300.827	97.19
301.057	101.19
301.288	92.19
301.518	89.19
301.748	91.19
301.979	98.19
302.209	89.19
302.439	78.19
302.669	87.19
302.9	83.19
303.13	97.19
303.36	90.19
303.59	82.19
303.82	103.19
304.051	91.19
304.281	85.19
304.511	78.19
304.741	85.19
304.971	76.19
305.201	89.19
305.431	85.19
305.661	86.19
305.891	105.19
306.121	107.19
306.352	76.19
306.582	93.19
306.812	94.19
307.042	95.19
307.272	97.19
307.502	76.19
307.731	87.19
307.961	91.19
308.191	90.19
308.421	99.19
308.651	87.19
308.881	98.19
309.111	97.19
309.341	89.19
309.571	92.19
309.8	85.19
310.03	84.19
310.26	91.19
310.49	87.19
310.72	89.19
310.949	73.19
311.179	87.19
311.409	92.19
311.639	88.19
311.868	87.19
312.098	103.19
312.328	75.19
312.557	86.19
312.787	89.19
313.017	83.19
313.246	91.19
313.476	77.19
313.706	91.19
313.935	76.19
314.165	81.19
314.394	75.19
314.624	81.19
314.853	90.19
315.083	95.19
315.312	84.19
315.542	94.19
315.771	91.19
316.001	91.19
316.23	98.19
316.46	69.19
316.689	91.19
316.919	82.19
317.148	76.19
317.377	91.19
317.607	92.19
317.836	90.19
318.065	107.19
318.295	103.19
318.524	96.19
318.753	77.19
318.983	85.19
319.212	92.19
319.441	87.19
319.67	83.19
319.9	90.19
320.129	104.19
320.358	85.19
320.587	86.19
320.816	80.19
321.046	96.19
321.275	80.19
321.504	89.19
321.733	75.19
321.962	82.19
322.191	91.19
322.42	89.19
322.649	92.19
322.878	97.19
323.108	93.19
323.337	79.19
323.566	87.19
323.795	91.19
324.024	92.19
324.253	88.19
324.482	80.19
324.71	93.19
324.939	91.19
325.168	87.19
325.397	77.19
325.626	90.19
325.855	85.19
326.084	80.19
326.313	88.19
326.542	82.19
326.77	83.19
326.999	86.19
327.228	84.19
327.457	65.19
327.686	79.19
327.914	86.19
328.143	85.19
328.372	91.19
328.6	73.19
328.829	74.19
329.058	74.19
329.287	75.19
329.515	104.19
329.744	92.19
329.972	88.19
330.201	94.19
330.43	84.19
330.658	95.19
330.887	85.19
331.115	86.19
331.344	85.19
331.572	97.19
331.801	83.19
332.03	91.19
332.258	73.19
332.486	88.19
332.715	97.19
332.943	78.19
333.172	87.19
333.4	82.19
333.629	89.19
333.857	95.19
334.085	102.19
334.314	77.19
334.542	86.19
334.771	97.19
334.999	111.19
335.227	93.19
335.455	91.19
335.684	91.19
335.912	91.19
336.14	82.19
336.369	96.19
336.597	84.19
336.825	91.19
337.053	83.19
337.281	94.19
337.51	87.19
337.738	94.19
337.966	101.19
338.194	89.19
338.422	87.19
338.65	91.19
338.878	93.19
339.106	88.19
339.334	83.19
339.562	87.19
339.79	85.19
340.018	88.19
340.246	97.19
340.474	86.19
340.702	91.19
340.93	73.19
341.158	94.19
341.386	85.19
341.614	85.19
341.842	76.19
342.07	92.19
342.298	87.19
342.526	89.19
342.754	69.19
342.981	91.19
343.209	103.19
343.437	95.19
343.665	77.19
343.893	84.19
344.12	107.19
344.348	74.19
344.576	77.19
344.804	81.19
345.031	79.19
345.259	91.19
345.487	84.19
345.714	82.19
345.942	77.19
346.17	85.19
346.397	97.19
346.625	74.19
346.853	87.19
347.08	85.19
347.308	95.19
347.535	96.19
347.763	79.19
347.99	75.19
348.218	91.19
348.445	73.19
348.673	75.19
348.9	78.19
349.128	83.19
349.355	74.19
349.583	75.19
349.81	90.19
350.037	98.19
350.265	84.19
350.492	87.19
350.72	93.19
350.947	72.19
351.174	81.19
351.402	87.19
351.629	92.19
351.856	98.19
352.083	79.19
352.311	93.19
352.538	79.19
352.765	74.19
352.992	89.19
353.22	76.19
353.447	87.19
353.674	102.19
353.901	107.19
354.128	84.19
354.355	97.19
354.583	92.19
354.81	81.19
355.037	83.19
355.264	95.19
355.491	101.19
355.718	75.19
355.945	90.19
356.172	83.19
356.399	84.19
356.626	95.19
356.853	108.19
357.08	101.19
357.307	97.19
357.534	96.19
357.761	77.19
357.988	101.19
358.215	107.19
358.441	111.19
358.668	81.19
358.895	87.19
359.122	74.19
359.349	89.19
359.576	96.19
359.802	87.19
360.029	90.19
360.256	86.19
360.483	90.19
360.709	96.19
360.936	97.19
361.163	92.19
361.39	100.19
361.616	92.19
361.843	103.19
362.07	101.19
362.296	93.19
362.523	99.19
362.749	73.19
362.976	106.19
363.203	137.19
363.429	107.19
363.656	108.19
363.882	98.19
364.109	107.19
364.335	132.19
364.562	126.19
364.788	109.19
365.015	111.19
365.241	101.19
365.468	85.19
365.694	103.19
365.92	74.19
366.147	82.19
366.373	88.19
366.599	93.19
366.826	91.19
367.052	89.19
367.278	80.19
367.505	87.19
367.731	114.19
367.957	103.19
368.184	91.19
368.41	93.19
368.636	93.19
368.862	86.19
369.089	78.19
369.315	96.19
369.541	87.19
369.767	88.19
369.993	87.19
370.219	92.19
370.445	117.19
370.672	83.19
370.898	108.19
371.124	100.19
371.35	84.19
371.576	78.19
371.802	100.19
372.028	98.19
372.254	99.19
372.48	88.19
372.706	90.19
372.932	99.19
373.158	96.19
373.384	102.19
373.61	118.19
373.835	123.19
374.061	89.19
374.287	93.19
374.513	108.19
374.739	111.19
374.965	103.19
375.191	99.19
375.416	81.19
375.642	102.19
375.868	111.19
376.094	90.19
376.319	107.19
376.545	93.19
376.771	83.19
376.997	94.19
377.222	91.19
377.448	89.19
377.674	85.19
377.899	84.19
378.125	87.19
378.35	88.19
378.576	95.19
378.802	91.19
379.027	91.19
379.253	104.19
379.478	84.19
379.704	97.19
379.929	81.19
380.155	91.19
380.38	81.19
380.606	94.19
380.831	86.19
381.057	96.19
381.282	85.19
381.507	86.19
381.733	95.19
381.958	77.19
382.184	108.19
382.409	106.19
382.634	111.19
382.86	105.19
383.085	102.19
383.31	99.19
383.535	103.19
383.761	99.19
383.986	88.19
384.211	99.19
384.436	91.19
384.662	103.19
384.887	99.19
385.112	87.19
385.337	98.19
385.562	90.19
385.787	100.19
386.013	102.19
386.238	104.19
386.463	88.19
386.688	123.19
386.913	98.19
387.138	102.19
387.363	91.19
387.588	109.19
387.813	90.19
388.038	98.19
388.263	100.19
388.488	88.19
388.713	116.19
388.938	99.19
389.163	81.19
389.387	91.19
389.612	97.19
389.837	98.19
390.062	97.19
390.287	89.19
390.512	97.19
390.736	108.19
390.961	96.19
391.186	82.19
391.411	98.19
391.636	94.19
391.86	85.19
392.085	98.19
392.31	96.19
392.534	100.19
392.759	120.19
392.984	163.19
393.208	263.19
393.433	371.19
393.658	287.19
393.882	132.19
394.107	115.19
394.331	108.19
394.556	143.19
394.78	117.19
395.005	104.19
395.229	90.19
395.454	101.19
395.678	97.19
395.903	135.19
396.127	147.19
396.352	165.19
396.576	164.19
396.801	265.19
397.025	296.19
397.249	173.19
397.474	116.19
397.698	104.19
397.922	96.19
398.147	75.19
398.371	91.19
398.595	95.19
398.82	89.19
399.044	80.19
399.268	92.19
399.492	84.19
399.717	99.19
399.941	100.19
400.165	91.19
400.389	85.19
400.613	85.19
400.837	99.19
401.062	87.19
401.286	75.19
401.51	89.19
401.734	86.19
401.958	87.19
402.182	90.19
402.406	82.19
402.63	87.19
402.854	87.19
403.078	92.19
403.302	99.19
403.526	87.19
403.75	90.19
403.974	76.19
404.198	81.19
404.422	94.19
404.645	95.19
404.869	94.19
405.093	101.19
405.317	87.19
405.541	75.19
405.765	89.19
405.988	91.19
406.212	80.19
406.436	77.19
406.66	103.19
406.883	96.19
407.107	84.19
407.331	96.19
407.555	103.19
407.778	104.19
408.002	107.19
408.226	88.19
408.449	98.19
408.673	89.19
408.896	103.19
409.12	93.19
409.344	93.19
409.567	100.19
409.791	97.19
410.014	83.19
410.238	74.19
410.461	87.19
410.685	88.19
410.908	82.19
411.132	92.19
411.355	98.19
411.578	89.19
411.802	88.19
412.025	86.19
412.249	84.19
412.472	79.19
412.695	83.19
412.919	72.19
413.142	76.19
413.365	75.19
413.589	75.19
413.812	89.19
414.035	113.19
414.258	78.19
414.482	95.19
414.705	69.19
414.928	99.19
415.151	80.19
415.374	89.19
415.597	90.19
415.821	93.19
416.044	94.19
416.267	69.19
416.49	87.19
416.713	85.19
416.936	91.19
417.159	92.19
417.382	97.19
417.605	91.19
417.828	87.19
418.051	96.19
418.274	88.19
418.497	90.19
418.72	73.19
418.943	93.19
419.166	92.19
419.389	76.19
419.611	83.19
419.834	97.19
420.057	97.19
420.28	78.19
420.503	99.19
420.726	91.19
420.948	97.19
421.171	93.19
421.394	116.19
421.617	106.19
421.839	120.19
422.062	131.19
422.285	173.19
422.507	314.19
422.73	471.19
422.953	410.19
423.175	227.19
423.398	137.19
423.621	113.19
423.843	101.19
424.066	101.19
424.288	112.19
424.511	103.19
424.733	93.19
424.956	93.19
425.178	97.19
425.401	102.19
425.623	74.19
425.846	84.19
426.068	87.19
426.291	87.19
426.513	79.19
426.735	87.19
426.958	81.19
427.18	91.19
427.402	99.19
427.625	95.19
427.847	91.19
428.069	97.19
428.292	119.19
428.514	153.19
428.736	122.19
428.958	138.19
429.181	146.19
429.403	115.19
429.625	104.19
429.847	117.19
430.069	178.19
430.292	195.19
430.514	190.19
430.736	149.19
430.958	155.19
431.18	110.19
431.402	87.19
431.624	97.19
431.846	108.19
432.068	143.19
432.29	112.19
432.512	109.19
432.734	78.19
432.956	95.19
433.178	100.19
433.4	78.19
433.622	91.19
433.844	83.19
434.066	95.19
434.287	84.19
434.509	81.19
434.731	83.19
434.953	92.19
435.175	83.19
435.397	90.19
435.618	87.19
435.84	92.19
436.062	85.19
436.284	85.19
436.505	84.19
436.727	69.19
436.949	89.19
437.17	89.19
437.392	92.19
437.614	80.19
437.835	75.19
438.057	99.19
438.278	88.19
438.5	111.19
438.721	91.19
438.943	102.19
439.165	83.19
439.386	99.19
439.608	96.19
439.829	93.19
440.05	81.19
440.272	85.19
440.493	102.19
440.715	90.19
440.936	81.19
441.158	101.19
441.379	84.19
441.6	84.19
441.822	85.19
442.043	84.19
442.264	96.19
442.486	125.19
442.707	158.19
442.928	121.19
443.149	109.19
443.371	152.19
443.592	261.19
443.813	235.19
444.034	102.19
444.255	94.19
444.476	91.19
444.698	81.19
444.919	92.19
445.14	200.19
445.361	211.19
445.582	314.19
445.803	262.19
446.024	126.19
446.245	97.19
446.466	105.19
446.687	85.19
446.908	91.19
447.129	89.19
447.35	88.19
447.571	77.19
447.792	95.19
448.013	85.19
448.234	90.19
448.455	93.19
448.675	74.19
448.896	94.19
449.117	88.19
449.338	90.19
449.559	85.19
449.779	76.19
450	79.19
450.221	75.19
450.442	98.19
450.662	83.19
450.883	85.19
451.104	82.19
451.324	82.19
451.545	82.19
451.766	94.19
451.986	87.19
452.207	81.19
452.428	90.19
452.648	88.19
452.869	100.19
453.089	101.19
453.31	99.19
453.53	112.19
453.751	101.19
453.971	85.19
454.192	82.19
454.412	91.19
454.633	97.19
454.853	78.19
455.073	82.19
455.294	99.19
455.514	114.19
455.734	93.19
455.955	91.19
456.175	85.19
456.395	88.19
456.616	93.19
456.836	74.19
457.056	75.19
457.276	86.19
457.497	88.19
457.717	103.19
457.937	124.19
458.157	135.19
458.377	106.19
458.598	128.19
458.818	133.19
459.038	95.19
459.258	95.19
459.478	77.19
459.698	86.19
459.918	77.19
460.138	85.19
460.358	80.19
460.578	95.19
460.798	126.19
461.018	140.19
461.238	104.19
461.458	90.19
461.678	83.19
461.898	81.19
462.118	95.19
462.338	87.19
462.558	93.19
462.777	84.19
462.997	87.19
463.217	95.19
463.437	88.19
463.657	92.19
463.876	85.19
464.096	86.19
464.316	77.19
464.536	81.19
464.755	98.19
464.975	76.19
465.195	83.19
465.414	87.19
465.634	101.19
465.854	94.19
466.073	80.19
466.293	85.19
466.512	85.19
466.732	72.19
466.951	83.19
467.171	87.19
467.391	72.19
467.61	87.19
467.829	90.19
468.049	96.19
468.268	95.19
468.488	92.19
468.707	93.19
468.927	88.19
469.146	93.19
469.365	101.19
469.585	102.19
469.804	86.19
470.023	65.19
470.243	89.19
470.462	89.19
470.681	90.19
470.901	78.19
471.12	90.19
471.339	87.19
471.558	84.19
471.777	88.19
471.997	81.19
472.216	84.19
472.435	88.19
472.654	83.19
472.873	85.19
473.092	90.19
473.311	100.19
473.53	91.19
473.749	95.19
473.968	92.19
474.187	81.19
474.406	75.19
474.625	97.19
474.844	88.19
475.063	100.19
475.282	97.19
475.501	83.19
475.72	100.19
475.939	85.19
476.158	97.19
476.377	83.19
476.596	77.19
476.814	88.19
477.033	93.19
477.252	90.19
477.471	87.19
477.69	89.19
477.908	91.19
478.127	90.19
478.346	78.19
478.564	84.19
478.783	102.19
479.002	91.19
479.22	79.19
479.439	93.19
479.658	102.19
479.876	92.19
480.095	85.19
480.313	85.19
480.532	101.19
480.751	83.19
480.969	87.19
481.188	94.19
481.406	88.19
481.624	90.19
481.843	101.19
482.061	85.19
482.28	99.19
482.498	92.19
482.717	97.19
482.935	97.19
483.153	87.19
483.372	99.19
483.59	101.19
483.808	105.19
484.027	79.19
484.245	91.19
484.463	101.19
484.681	96.19
484.9	92.19
485.118	88.19
485.336	87.19
485.554	102.19
485.772	96.19
485.99	94.19
486.209	98.19
486.427	95.19
486.645	92.19
486.863	96.19
487.081	96.19
487.299	109.19
487.517	100.19
487.735	125.19
487.953	195.19
488.171	154.19
488.389	89.19
488.607	75.19
488.825	88.19
489.043	89.19
489.261	77.19
489.479	90.19
489.696	86.19
489.914	91.19
490.132	94.19
490.35	97.19
490.568	95.19
490.786	103.19
491.003	90.19
491.221	93.19
491.439	86.19
491.657	79.19
491.874	100.19
492.092	95.19
492.31	103.19
492.527	83.19
492.745	93.19
492.963	96.19
493.18	87.19
493.398	81.19
493.615	114.19
493.833	77.19
494.05	99.19
494.268	95.19
494.485	74.19
494.703	87.19
494.92	87.19
495.138	74.19
495.355	81.19
495.573	80.19
495.79	92.19
496.008	107.19
496.225	101.19
496.442	100.19
496.66	107.19
496.877	85.19
497.094	89.19
497.312	105.19
497.529	99.19
497.746	91.19
497.963	108.19
498.181	103.19
498.398	124.19
498.615	99.19
498.832	94.19
499.049	92.19
499.267	108.19
499.484	99.19
499.701	95.19
499.918	95.19
500.135	101.19
500.352	95.19
500.569	94.19
500.786	114.19
501.003	111.19
501.22	85.19
501.437	109.19
501.654	100.19
501.871	89.19
502.088	114.19
502.305	101.19
502.522	97.19
502.739	88.19
502.956	93.19
503.172	75.19
503.389	79.19
503.606	92.19
503.823	105.19
504.04	112.19
504.256	150.19
504.473	122.19
504.69	97.19
504.907	101.19
505.123	100.19
505.34	87.19
505.557	95.19
505.773	95.19
505.99	88.19
506.207	83.19
506.423	93.19
506.64	85.19
506.856	102.19
507.073	79.19
507.289	84.19
507.506	96.19
507.722	108.19
507.939	102.19
508.155	90.19
508.372	89.19
508.588	78.19
508.805	81.19
509.021	90.19
509.238	99.19
509.454	94.19
509.67	105.19
509.887	89.19
510.103	96.19
510.319	94.19
510.536	95.19
510.752	89.19
510.968	94.19
511.184	84.19
511.401	89.19
511.617	100.19
511.833	105.19
512.049	90.19
512.265	91.19
512.481	97.19
512.698	92.19
512.914	91.19
513.13	105.19
513.346	92.19
513.562	78.19
513.778	77.19
513.994	98.19
514.21	102.19
514.426	81.19
514.642	93.19
514.858	87.19
515.074	107.19
515.29	93.19
515.506	94.19
515.721	90.19
515.937	99.19
516.153	86.19
516.369	97.19
516.585	89.19
516.801	90.19
517.016	94.19
