Data from 15780_2_HRD10591_00030.txt Node
Date: Mon Jan 19 14:19:18 EST 2026
User: Yrep
Spectrometer: HR+D1059
Trigger mode: 1
Integration Time (sec): 1.000000E-1
Scans to average: 1
Electric dark correction enabled: true
Nonlinearity correction enabled: false
Boxcar width: 0
XAxis mode: Wavelengths
Number of Pixels in Spectrum: 2048
>>>>>Begin Spectral Data<<<<<
223.165	-15.5
223.4	-15.5
223.635	-15.5
223.869	-16.5
224.104	-11.5
224.338	-11.5
224.573	-5.5
224.808	-10.5
225.042	0.5
225.277	-15.5
225.511	-6.5
225.746	-7.5
225.98	5.5
226.215	8.5
226.449	17.5
226.683	18.5
226.918	30.5
227.152	19.5
227.387	24.5
227.621	58.5
227.856	36.5
228.09	44.5
228.324	43.5
228.559	55.5
228.793	52.5
229.027	60.5
229.262	63.5
229.496	66.5
229.73	55.5
229.964	65.5
230.199	74.5
230.433	90.5
230.667	71.5
230.901	74.5
231.136	76.5
231.37	72.5
231.604	82.5
231.838	82.5
232.072	87.5
232.306	69.5
232.541	90.5
232.775	95.5
233.009	74.5
233.243	70.5
233.477	91.5
233.711	82.5
233.945	68.5
234.179	59.5
234.413	91.5
234.647	93.5
234.881	67.5
235.115	68.5
235.349	66.5
235.583	73.5
235.817	80.5
236.051	71.5
236.285	72.5
236.519	74.5
236.753	80.5
236.987	72.5
237.221	90.5
237.455	79.5
237.689	74.5
237.922	77.5
238.156	62.5
238.39	71.5
238.624	77.5
238.858	64.5
239.091	84.5
239.325	84.5
239.559	70.5
239.793	75.5
240.027	90.5
240.26	79.5
240.494	87.5
240.728	67.5
240.961	77.5
241.195	74.5
241.429	87.5
241.662	82.5
241.896	64.5
242.13	58.5
242.363	66.5
242.597	62.5
242.83	64.5
243.064	73.5
243.298	86.5
243.531	69.5
243.765	75.5
243.998	77.5
244.232	88.5
244.465	72.5
244.699	72.5
244.932	70.5
245.166	76.5
245.399	81.5
245.633	79.5
245.866	76.5
246.099	82.5
246.333	78.5
246.566	75.5
246.8	64.5
247.033	80.5
247.266	74.5
247.5	97.5
247.733	73.5
247.966	89.5
248.2	94.5
248.433	78.5
248.666	75.5
248.899	76.5
249.133	83.5
249.366	91.5
249.599	74.5
249.832	102.5
250.066	82.5
250.299	85.5
250.532	68.5
250.765	82.5
250.998	66.5
251.231	82.5
251.465	94.5
251.698	82.5
251.931	84.5
252.164	86.5
252.397	80.5
252.63	75.5
252.863	94.5
253.096	80.5
253.329	86.5
253.562	74.5
253.795	72.5
254.028	85.5
254.261	72.5
254.494	74.5
254.727	82.5
254.96	80.5
255.193	72.5
255.426	72.5
255.659	89.5
255.892	82.5
256.124	67.5
256.357	70.5
256.59	73.5
256.823	78.5
257.056	88.5
257.289	81.5
257.521	75.5
257.754	85.5
257.987	83.5
258.22	75.5
258.452	68.5
258.685	67.5
258.918	74.5
259.151	71.5
259.383	84.5
259.616	62.5
259.849	81.5
260.081	80.5
260.314	83.5
260.547	84.5
260.779	73.5
261.012	76.5
261.244	80.5
261.477	75.5
261.71	70.5
261.942	84.5
262.175	89.5
262.407	72.5
262.64	76.5
262.872	80.5
263.105	74.5
263.337	93.5
263.57	91.5
263.802	79.5
264.035	87.5
264.267	85.5
264.499	90.5
264.732	78.5
264.964	80.5
265.197	84.5
265.429	78.5
265.661	73.5
265.894	80.5
266.126	87.5
266.358	83.5
266.591	79.5
266.823	71.5
267.055	95.5
267.287	89.5
267.52	92.5
267.752	75.5
267.984	82.5
268.216	83.5
268.448	79.5
268.681	99.5
268.913	67.5
269.145	69.5
269.377	86.5
269.609	80.5
269.841	82.5
270.073	70.5
270.306	82.5
270.538	75.5
270.77	83.5
271.002	67.5
271.234	78.5
271.466	87.5
271.698	99.5
271.93	72.5
272.162	73.5
272.394	82.5
272.626	81.5
272.858	94.5
273.09	66.5
273.322	69.5
273.553	97.5
273.785	76.5
274.017	85.5
274.249	96.5
274.481	76.5
274.713	69.5
274.945	81.5
275.176	74.5
275.408	75.5
275.64	76.5
275.872	78.5
276.104	69.5
276.335	82.5
276.567	72.5
276.799	78.5
277.031	82.5
277.262	68.5
277.494	79.5
277.726	81.5
277.957	83.5
278.189	75.5
278.421	90.5
278.652	76.5
278.884	99.5
279.115	91.5
279.347	79.5
279.579	87.5
279.81	94.5
280.042	104.5
280.273	94.5
280.505	94.5
280.736	95.5
280.968	89.5
281.199	88.5
281.431	88.5
281.662	69.5
281.894	81.5
282.125	77.5
282.356	91.5
282.588	88.5
282.819	87.5
283.051	72.5
283.282	85.5
283.513	82.5
283.745	78.5
283.976	77.5
284.207	91.5
284.439	95.5
284.67	89.5
284.901	83.5
285.132	91.5
285.364	99.5
285.595	96.5
285.826	72.5
286.057	82.5
286.288	102.5
286.52	103.5
286.751	89.5
286.982	85.5
287.213	71.5
287.444	81.5
287.675	78.5
287.906	84.5
288.138	97.5
288.369	80.5
288.6	84.5
288.831	69.5
289.062	70.5
289.293	81.5
289.524	79.5
289.755	74.5
289.986	85.5
290.217	83.5
290.448	81.5
290.679	85.5
290.91	81.5
291.141	94.5
291.371	90.5
291.602	89.5
291.833	90.5
292.064	97.5
292.295	77.5
292.526	69.5
292.757	96.5
292.987	87.5
293.218	83.5
293.449	88.5
293.68	89.5
293.91	82.5
294.141	93.5
294.372	76.5
294.603	74.5
294.833	85.5
295.064	97.5
295.295	76.5
295.525	82.5
295.756	90.5
295.987	78.5
296.217	82.5
296.448	105.5
296.679	92.5
296.909	92.5
297.14	81.5
297.37	76.5
297.601	81.5
297.831	82.5
298.062	90.5
298.292	81.5
298.523	90.5
298.753	78.5
298.984	95.5
299.214	76.5
299.445	84.5
299.675	89.5
299.905	100.5
300.136	79.5
300.366	78.5
300.597	85.5
300.827	90.5
301.057	90.5
301.288	88.5
301.518	85.5
301.748	90.5
301.979	102.5
302.209	92.5
302.439	91.5
302.669	88.5
302.9	91.5
303.13	85.5
303.36	89.5
303.59	85.5
303.82	79.5
304.051	84.5
304.281	89.5
304.511	87.5
304.741	94.5
304.971	86.5
305.201	82.5
305.431	73.5
305.661	79.5
305.891	100.5
306.121	97.5
306.352	97.5
306.582	75.5
306.812	81.5
307.042	80.5
307.272	86.5
307.502	95.5
307.731	96.5
307.961	91.5
308.191	86.5
308.421	91.5
308.651	82.5
308.881	82.5
309.111	108.5
309.341	98.5
309.571	94.5
309.8	95.5
310.03	75.5
310.26	87.5
310.49	86.5
310.72	83.5
310.949	75.5
311.179	86.5
311.409	85.5
311.639	89.5
311.868	88.5
312.098	79.5
312.328	84.5
312.557	91.5
312.787	84.5
313.017	81.5
313.246	80.5
313.476	76.5
313.706	90.5
313.935	78.5
314.165	83.5
314.394	90.5
314.624	99.5
314.853	74.5
315.083	89.5
315.312	86.5
315.542	81.5
315.771	100.5
316.001	97.5
316.23	91.5
316.46	74.5
316.689	85.5
316.919	90.5
317.148	86.5
317.377	83.5
317.607	95.5
317.836	114.5
318.065	110.5
318.295	96.5
318.524	88.5
318.753	87.5
318.983	78.5
319.212	98.5
319.441	82.5
319.67	88.5
319.9	85.5
320.129	94.5
320.358	80.5
320.587	91.5
320.816	91.5
321.046	72.5
321.275	84.5
321.504	78.5
321.733	79.5
321.962	82.5
322.191	87.5
322.42	84.5
322.649	84.5
322.878	86.5
323.108	86.5
323.337	102.5
323.566	114.5
323.795	79.5
324.024	80.5
324.253	88.5
324.482	82.5
324.71	94.5
324.939	96.5
325.168	91.5
325.397	94.5
325.626	92.5
325.855	85.5
326.084	74.5
326.313	89.5
326.542	88.5
326.77	98.5
326.999	80.5
327.228	82.5
327.457	86.5
327.686	71.5
327.914	85.5
328.143	98.5
328.372	76.5
328.6	87.5
328.829	73.5
329.058	80.5
329.287	75.5
329.515	79.5
329.744	100.5
329.972	92.5
330.201	80.5
330.43	103.5
330.658	88.5
330.887	85.5
331.115	91.5
331.344	92.5
331.572	91.5
331.801	82.5
332.03	83.5
332.258	76.5
332.486	91.5
332.715	87.5
332.943	87.5
333.172	87.5
333.4	80.5
333.629	79.5
333.857	73.5
334.085	96.5
334.314	74.5
334.542	84.5
334.771	83.5
334.999	94.5
335.227	90.5
335.455	84.5
335.684	93.5
335.912	87.5
336.14	106.5
336.369	105.5
336.597	101.5
336.825	84.5
337.053	82.5
337.281	81.5
337.51	76.5
337.738	78.5
337.966	94.5
338.194	86.5
338.422	79.5
338.65	85.5
338.878	92.5
339.106	89.5
339.334	86.5
339.562	74.5
339.79	79.5
340.018	72.5
340.246	97.5
340.474	85.5
340.702	85.5
340.93	75.5
341.158	77.5
341.386	70.5
341.614	82.5
341.842	86.5
342.07	83.5
342.298	76.5
342.526	84.5
342.754	93.5
342.981	91.5
343.209	96.5
343.437	103.5
343.665	75.5
343.893	92.5
344.12	94.5
344.348	91.5
344.576	100.5
344.804	95.5
345.031	86.5
345.259	82.5
345.487	90.5
345.714	82.5
345.942	80.5
346.17	70.5
346.397	75.5
346.625	87.5
346.853	95.5
347.08	70.5
347.308	95.5
347.535	88.5
347.763	69.5
347.99	70.5
348.218	84.5
348.445	82.5
348.673	84.5
348.9	86.5
349.128	91.5
349.355	94.5
349.583	64.5
349.81	85.5
350.037	87.5
350.265	85.5
350.492	84.5
350.72	86.5
350.947	80.5
351.174	79.5
351.402	92.5
351.629	90.5
351.856	83.5
352.083	85.5
352.311	82.5
352.538	79.5
352.765	71.5
352.992	81.5
353.22	96.5
353.447	82.5
353.674	100.5
353.901	85.5
354.128	81.5
354.355	84.5
354.583	74.5
354.81	100.5
355.037	82.5
355.264	89.5
355.491	91.5
355.718	81.5
355.945	83.5
356.172	89.5
356.399	89.5
356.626	96.5
356.853	111.5
357.08	98.5
357.307	92.5
357.534	90.5
357.761	100.5
357.988	87.5
358.215	105.5
358.441	99.5
358.668	91.5
358.895	96.5
359.122	70.5
359.349	83.5
359.576	83.5
359.802	85.5
360.029	78.5
360.256	80.5
360.483	89.5
360.709	90.5
360.936	90.5
361.163	86.5
361.39	76.5
361.616	82.5
361.843	97.5
362.07	95.5
362.296	86.5
362.523	86.5
362.749	89.5
362.976	98.5
363.203	124.5
363.429	110.5
363.656	99.5
363.882	100.5
364.109	95.5
364.335	105.5
364.562	126.5
364.788	96.5
365.015	104.5
365.241	90.5
365.468	82.5
365.694	86.5
365.92	88.5
366.147	106.5
366.373	82.5
366.599	64.5
366.826	83.5
367.052	98.5
367.278	90.5
367.505	81.5
367.731	100.5
367.957	87.5
368.184	82.5
368.41	80.5
368.636	90.5
368.862	86.5
369.089	85.5
369.315	74.5
369.541	82.5
369.767	80.5
369.993	77.5
370.219	93.5
370.445	83.5
370.672	97.5
370.898	80.5
371.124	87.5
371.35	85.5
371.576	94.5
371.802	98.5
372.028	96.5
372.254	90.5
372.48	97.5
372.706	79.5
372.932	80.5
373.158	97.5
373.384	121.5
373.61	113.5
373.835	140.5
374.061	83.5
374.287	92.5
374.513	110.5
374.739	96.5
374.965	112.5
375.191	89.5
375.416	87.5
375.642	100.5
375.868	106.5
376.094	105.5
376.319	92.5
376.545	104.5
376.771	86.5
376.997	88.5
377.222	81.5
377.448	84.5
377.674	76.5
377.899	90.5
378.125	80.5
378.35	82.5
378.576	88.5
378.802	72.5
379.027	91.5
379.253	87.5
379.478	92.5
379.704	97.5
379.929	94.5
380.155	82.5
380.38	102.5
380.606	94.5
380.831	85.5
381.057	86.5
381.282	86.5
381.507	96.5
381.733	113.5
381.958	99.5
382.184	104.5
382.409	110.5
382.634	100.5
382.86	108.5
383.085	90.5
383.31	85.5
383.535	103.5
383.761	103.5
383.986	121.5
384.211	104.5
384.436	94.5
384.662	101.5
384.887	90.5
385.112	102.5
385.337	91.5
385.562	94.5
385.787	114.5
386.013	98.5
386.238	102.5
386.463	103.5
386.688	106.5
386.913	86.5
387.138	101.5
387.363	103.5
387.588	92.5
387.813	90.5
388.038	117.5
388.263	112.5
388.488	99.5
388.713	97.5
388.938	98.5
389.163	85.5
389.387	83.5
389.612	71.5
389.837	85.5
390.062	93.5
390.287	95.5
390.512	85.5
390.736	92.5
390.961	84.5
391.186	102.5
391.411	80.5
391.636	82.5
391.86	84.5
392.085	100.5
392.31	99.5
392.534	118.5
392.759	149.5
392.984	198.5
393.208	368.5
393.433	596.5
393.658	439.5
393.882	170.5
394.107	122.5
394.331	131.5
394.556	143.5
394.78	112.5
395.005	91.5
395.229	92.5
395.454	103.5
395.678	105.5
395.903	137.5
396.127	170.5
396.352	198.5
396.576	233.5
396.801	399.5
397.025	476.5
397.249	239.5
397.474	128.5
397.698	96.5
397.922	94.5
398.147	99.5
398.371	95.5
398.595	80.5
398.82	80.5
399.044	91.5
399.268	86.5
399.492	84.5
399.717	82.5
399.941	80.5
400.165	82.5
400.389	91.5
400.613	90.5
400.837	83.5
401.062	85.5
401.286	96.5
401.51	82.5
401.734	95.5
401.958	84.5
402.182	82.5
402.406	87.5
402.63	90.5
402.854	84.5
403.078	96.5
403.302	86.5
403.526	83.5
403.75	94.5
403.974	80.5
404.198	92.5
404.422	97.5
404.645	110.5
404.869	91.5
405.093	87.5
405.317	83.5
405.541	75.5
405.765	90.5
405.988	84.5
406.212	78.5
406.436	81.5
406.66	90.5
406.883	78.5
407.107	76.5
407.331	84.5
407.555	96.5
407.778	132.5
408.002	124.5
408.226	95.5
408.449	71.5
408.673	85.5
408.896	83.5
409.12	95.5
409.344	96.5
409.567	85.5
409.791	86.5
410.014	98.5
410.238	90.5
410.461	89.5
410.685	95.5
410.908	90.5
411.132	88.5
411.355	82.5
411.578	72.5
411.802	88.5
412.025	83.5
412.249	83.5
412.472	96.5
412.695	88.5
412.919	77.5
413.142	84.5
413.365	93.5
413.589	89.5
413.812	90.5
414.035	92.5
414.258	97.5
414.482	78.5
414.705	86.5
414.928	86.5
415.151	88.5
415.374	92.5
415.597	82.5
415.821	81.5
416.044	75.5
416.267	78.5
416.49	78.5
416.713	92.5
416.936	79.5
417.159	61.5
417.382	74.5
417.605	74.5
417.828	72.5
418.051	86.5
418.274	90.5
418.497	81.5
418.72	78.5
418.943	96.5
419.166	78.5
419.389	75.5
419.611	80.5
419.834	94.5
420.057	79.5
420.28	90.5
420.503	97.5
420.726	76.5
420.948	107.5
421.171	99.5
421.394	87.5
421.617	143.5
421.839	141.5
422.062	114.5
422.285	151.5
422.507	272.5
422.73	478.5
422.953	401.5
423.175	165.5
423.398	112.5
423.621	102.5
423.843	90.5
424.066	91.5
424.288	71.5
424.511	90.5
424.733	82.5
424.956	89.5
425.178	90.5
425.401	74.5
425.623	83.5
425.846	96.5
426.068	98.5
426.291	100.5
426.513	86.5
426.735	86.5
426.958	94.5
427.18	101.5
427.402	101.5
427.625	95.5
427.847	86.5
428.069	89.5
428.292	127.5
428.514	148.5
428.736	114.5
428.958	138.5
429.181	145.5
429.403	103.5
429.625	85.5
429.847	126.5
430.069	167.5
430.292	200.5
430.514	191.5
430.736	135.5
430.958	147.5
431.18	91.5
431.402	90.5
431.624	103.5
431.846	112.5
432.068	135.5
432.29	93.5
432.512	83.5
432.734	87.5
432.956	87.5
433.178	93.5
433.4	89.5
433.622	84.5
433.844	86.5
434.066	86.5
434.287	88.5
434.509	82.5
434.731	92.5
434.953	78.5
435.175	85.5
435.397	87.5
435.618	90.5
435.84	90.5
436.062	82.5
436.284	87.5
436.505	80.5
436.727	81.5
436.949	95.5
437.17	78.5
437.392	81.5
437.614	91.5
437.835	69.5
438.057	70.5
438.278	78.5
438.5	101.5
438.721	92.5
438.943	97.5
439.165	84.5
439.386	102.5
439.608	77.5
439.829	76.5
440.05	74.5
440.272	86.5
440.493	72.5
440.715	90.5
440.936	84.5
441.158	95.5
441.379	88.5
441.6	99.5
441.822	87.5
442.043	86.5
442.264	102.5
442.486	132.5
442.707	161.5
442.928	122.5
443.149	123.5
443.371	156.5
443.592	264.5
443.813	204.5
444.034	107.5
444.255	82.5
444.476	88.5
444.698	94.5
444.919	91.5
445.14	188.5
445.361	219.5
445.582	304.5
445.803	243.5
446.024	110.5
446.245	84.5
446.466	103.5
446.687	80.5
446.908	87.5
447.129	87.5
447.35	79.5
447.571	86.5
447.792	88.5
448.013	76.5
448.234	92.5
448.455	91.5
448.675	74.5
448.896	76.5
449.117	89.5
449.338	81.5
449.559	90.5
449.779	87.5
450	94.5
450.221	81.5
450.442	88.5
450.662	82.5
450.883	89.5
451.104	88.5
451.324	83.5
451.545	79.5
451.766	73.5
451.986	73.5
452.207	98.5
452.428	78.5
452.648	76.5
452.869	100.5
453.089	81.5
453.31	93.5
453.53	95.5
453.751	104.5
453.971	85.5
454.192	82.5
454.412	82.5
454.633	90.5
454.853	90.5
455.073	90.5
455.294	86.5
455.514	96.5
455.734	94.5
455.955	73.5
456.175	74.5
456.395	70.5
456.616	69.5
456.836	83.5
457.056	92.5
457.276	88.5
457.497	82.5
457.717	90.5
457.937	99.5
458.157	113.5
458.377	109.5
458.598	111.5
458.818	115.5
459.038	71.5
459.258	83.5
459.478	85.5
459.698	85.5
459.918	88.5
460.138	92.5
460.358	97.5
460.578	100.5
460.798	130.5
461.018	122.5
461.238	81.5
461.458	94.5
461.678	80.5
461.898	98.5
462.118	91.5
462.338	80.5
462.558	84.5
462.777	81.5
462.997	75.5
463.217	70.5
463.437	84.5
463.657	80.5
463.876	80.5
464.096	85.5
464.316	89.5
464.536	89.5
464.755	80.5
464.975	82.5
465.195	68.5
465.414	84.5
465.634	95.5
465.854	90.5
466.073	65.5
466.293	76.5
466.512	74.5
466.732	91.5
466.951	80.5
467.171	76.5
467.391	80.5
467.61	77.5
467.829	84.5
468.049	79.5
468.268	83.5
468.488	80.5
468.707	85.5
468.927	90.5
469.146	95.5
469.365	84.5
469.585	86.5
469.804	86.5
470.023	82.5
470.243	75.5
470.462	84.5
470.681	81.5
470.901	85.5
471.12	95.5
471.339	74.5
471.558	89.5
471.777	85.5
471.997	74.5
472.216	88.5
472.435	91.5
472.654	83.5
472.873	97.5
473.092	97.5
473.311	74.5
473.53	85.5
473.749	83.5
473.968	92.5
474.187	92.5
474.406	77.5
474.625	83.5
474.844	89.5
475.063	87.5
475.282	74.5
475.501	87.5
475.72	88.5
475.939	82.5
476.158	87.5
476.377	98.5
476.596	95.5
476.814	88.5
477.033	82.5
477.252	80.5
477.471	83.5
477.69	91.5
477.908	82.5
478.127	92.5
478.346	94.5
478.564	88.5
478.783	82.5
479.002	79.5
479.22	89.5
479.439	94.5
479.658	86.5
479.876	84.5
480.095	88.5
480.313	95.5
480.532	78.5
480.751	86.5
480.969	95.5
481.188	103.5
481.406	91.5
481.624	85.5
481.843	83.5
482.061	71.5
482.28	85.5
482.498	91.5
482.717	89.5
482.935	76.5
483.153	93.5
483.372	83.5
483.59	90.5
483.808	85.5
484.027	96.5
484.245	94.5
484.463	95.5
484.681	71.5
484.9	84.5
485.118	92.5
485.336	92.5
485.554	96.5
485.772	74.5
485.99	73.5
486.209	102.5
486.427	91.5
486.645	85.5
486.863	91.5
487.081	94.5
487.299	95.5
487.517	100.5
487.735	106.5
487.953	165.5
488.171	130.5
488.389	110.5
488.607	83.5
488.825	93.5
489.043	87.5
489.261	90.5
489.479	68.5
489.696	83.5
489.914	88.5
490.132	84.5
490.35	91.5
490.568	93.5
490.786	70.5
491.003	79.5
491.221	90.5
491.439	96.5
491.657	76.5
491.874	81.5
492.092	85.5
492.31	74.5
492.527	72.5
492.745	88.5
492.963	88.5
493.18	88.5
493.398	96.5
493.615	98.5
493.833	92.5
494.05	71.5
494.268	78.5
494.485	81.5
494.703	85.5
494.92	83.5
495.138	93.5
495.355	91.5
495.573	96.5
495.79	99.5
496.008	91.5
496.225	72.5
496.442	78.5
496.66	82.5
496.877	91.5
497.094	93.5
497.312	87.5
497.529	85.5
497.746	102.5
497.963	92.5
498.181	98.5
498.398	113.5
498.615	82.5
498.832	91.5
499.049	110.5
499.267	95.5
499.484	91.5
499.701	104.5
499.918	94.5
500.135	91.5
500.352	84.5
500.569	91.5
500.786	94.5
501.003	94.5
501.22	85.5
501.437	80.5
501.654	109.5
501.871	91.5
502.088	98.5
502.305	87.5
502.522	98.5
502.739	99.5
502.956	90.5
503.172	104.5
503.389	80.5
503.606	91.5
503.823	97.5
504.04	78.5
504.256	130.5
504.473	112.5
504.69	103.5
504.907	99.5
505.123	74.5
505.34	96.5
505.557	94.5
505.773	77.5
505.99	86.5
506.207	94.5
506.423	94.5
506.64	75.5
506.856	82.5
507.073	89.5
507.289	87.5
507.506	77.5
507.722	73.5
507.939	86.5
508.155	81.5
508.372	88.5
508.588	79.5
508.805	81.5
509.021	79.5
509.238	72.5
509.454	77.5
509.67	90.5
509.887	93.5
510.103	96.5
510.319	83.5
510.536	75.5
510.752	86.5
510.968	84.5
511.184	87.5
511.401	83.5
511.617	86.5
511.833	90.5
512.049	76.5
512.265	84.5
512.481	76.5
512.698	68.5
512.914	97.5
513.13	77.5
513.346	83.5
513.562	83.5
513.778	90.5
513.994	78.5
514.21	86.5
514.426	84.5
514.642	100.5
514.858	83.5
515.074	86.5
515.29	96.5
515.506	78.5
515.721	84.5
515.937	86.5
516.153	99.5
516.369	100.5
516.585	98.5
516.801	86.5
517.016	95.5
517.232	103.5
517.448	95.5
517.664	79.5
517.879	78.5
518.095	76.5
518.311	91.5
518.527	102.5
518.742	100.5
518.958	135.5
519.173	140.5
519.389	102.5
519.605	91.5
519.82	80.5
520.036	83.5
520.251	99.5
520.467	86.5
520.682	84.5
520.898	104.5
521.113	103.5
521.329	101.5
521.544	83.5
521.76	94.5
521.975	80.5
522.19	95.5
522.406	89.5
522.621	84.5
522.836	84.5
523.052	101.5
523.267	81.5
523.482	92.5
523.698	89.5
523.913	90.5
524.128	84.5
524.343	94.5
524.559	81.5
524.774	77.5
524.989	98.5
525.204	94.5
525.419	83.5
525.634	84.5
525.849	88.5
526.064	96.5
526.28	190.5
526.495	257.5
526.71	310.5
526.925	202.5
527.14	270.5
527.355	245.5
527.57	99.5
527.785	82.5
527.999	95.5
528.214	84.5
528.429	92.5
528.644	79.5
528.859	81.5
529.074	87.5
529.289	100.5
529.503	97.5
529.718	92.5
529.933	99.5
530.148	95.5
530.363	90.5
530.577	85.5
530.792	93.5
531.007	79.5
531.221	80.5
531.436	88.5
531.651	92.5
531.865	79.5
532.08	91.5
532.295	87.5
532.509	100.5
532.724	99.5
532.938	101.5
533.153	92.5
533.367	87.5
533.582	98.5
533.796	90.5
534.011	86.5
534.225	94.5
534.44	90.5
534.654	101.5
534.868	105.5
535.083	148.5
535.297	124.5
535.511	108.5
535.726	114.5
535.94	94.5
536.154	94.5
536.369	89.5
536.583	96.5
536.797	92.5
537.011	91.5
537.225	96.5
537.44	103.5
537.654	92.5
537.868	99.5
