Data from 15780_2_HRD10591_00005.txt Node
Date: Mon Jan 19 14:19:06 EST 2026
User: Yrep
Spectrometer: HR+D1059
Trigger mode: 1
Integration Time (sec): 1.000000E-1
Scans to average: 1
Electric dark correction enabled: true
Nonlinearity correction enabled: false
Boxcar width: 0
XAxis mode: Wavelengths
Number of Pixels in Spectrum: 2048
>>>>>Begin Spectral Data<<<<<
223.165	-12.12
223.4	-12.12
223.635	-12.12
223.869	-21.12
224.104	-20.12
224.338	-8.12
224.573	-16.12
224.808	-15.12
225.042	-20.12
225.277	-9.12
225.511	3.88
225.746	-0.12
225.98	3.88
226.215	22.88
226.449	17.88
226.683	21.88
226.918	24.88
227.152	26.88
227.387	24.88
227.621	41.88
227.856	37.88
228.09	50.88
228.324	58.88
228.559	49.88
228.793	65.88
229.027	56.88
229.262	56.88
229.496	62.88
229.73	80.88
229.964	70.88
230.199	67.88
230.433	63.88
230.667	79.88
230.901	72.88
231.136	73.88
231.37	74.88
231.604	86.88
231.838	98.88
232.072	86.88
232.306	85.88
232.541	88.88
232.775	84.88
233.009	91.88
233.243	83.88
233.477	87.88
233.711	83.88
233.945	77.88
234.179	83.88
234.413	78.88
234.647	72.88
234.881	87.88
235.115	85.88
235.349	93.88
235.583	96.88
235.817	85.88
236.051	68.88
236.285	82.88
236.519	64.88
236.753	77.88
236.987	82.88
237.221	85.88
237.455	81.88
237.689	76.88
237.922	78.88
238.156	78.88
238.39	75.88
238.624	89.88
238.858	59.88
239.091	73.88
239.325	84.88
239.559	77.88
239.793	63.88
240.027	91.88
240.26	81.88
240.494	73.88
240.728	87.88
240.961	71.88
241.195	69.88
241.429	93.88
241.662	71.88
241.896	88.88
242.13	88.88
242.363	84.88
242.597	88.88
242.83	66.88
243.064	70.88
243.298	87.88
243.531	71.88
243.765	90.88
243.998	89.88
244.232	83.88
244.465	78.88
244.699	75.88
244.932	84.88
245.166	84.88
245.399	75.88
245.633	75.88
245.866	73.88
246.099	80.88
246.333	67.88
246.566	88.88
246.8	89.88
247.033	78.88
247.266	65.88
247.5	72.88
247.733	89.88
247.966	84.88
248.2	81.88
248.433	84.88
248.666	79.88
248.899	90.88
249.133	80.88
249.366	73.88
249.599	69.88
249.832	81.88
250.066	81.88
250.299	86.88
250.532	83.88
250.765	82.88
250.998	81.88
251.231	97.88
251.465	68.88
251.698	78.88
251.931	85.88
252.164	73.88
252.397	71.88
252.63	84.88
252.863	81.88
253.096	77.88
253.329	81.88
253.562	76.88
253.795	85.88
254.028	83.88
254.261	71.88
254.494	87.88
254.727	91.88
254.96	81.88
255.193	82.88
255.426	63.88
255.659	79.88
255.892	76.88
256.124	65.88
256.357	63.88
256.59	73.88
256.823	87.88
257.056	73.88
257.289	72.88
257.521	77.88
257.754	80.88
257.987	74.88
258.22	68.88
258.452	72.88
258.685	66.88
258.918	76.88
259.151	87.88
259.383	88.88
259.616	77.88
259.849	78.88
260.081	71.88
260.314	96.88
260.547	84.88
260.779	68.88
261.012	75.88
261.244	75.88
261.477	93.88
261.71	66.88
261.942	80.88
262.175	88.88
262.407	73.88
262.64	74.88
262.872	73.88
263.105	85.88
263.337	87.88
263.57	86.88
263.802	80.88
264.035	96.88
264.267	91.88
264.499	81.88
264.732	79.88
264.964	89.88
265.197	75.88
265.429	61.88
265.661	75.88
265.894	63.88
266.126	83.88
266.358	84.88
266.591	76.88
266.823	91.88
267.055	75.88
267.287	75.88
267.52	85.88
267.752	75.88
267.984	70.88
268.216	94.88
268.448	81.88
268.681	73.88
268.913	85.88
269.145	89.88
269.377	75.88
269.609	78.88
269.841	86.88
270.073	87.88
270.306	77.88
270.538	73.88
270.77	67.88
271.002	71.88
271.234	94.88
271.466	94.88
271.698	88.88
271.93	73.88
272.162	77.88
272.394	82.88
272.626	75.88
272.858	85.88
273.09	87.88
273.322	71.88
273.553	70.88
273.785	93.88
274.017	83.88
274.249	74.88
274.481	84.88
274.713	86.88
274.945	79.88
275.176	80.88
275.408	85.88
275.64	81.88
275.872	91.88
276.104	90.88
276.335	76.88
276.567	83.88
276.799	96.88
277.031	80.88
277.262	67.88
277.494	83.88
277.726	83.88
277.957	95.88
278.189	95.88
278.421	84.88
278.652	87.88
278.884	76.88
279.115	91.88
279.347	85.88
279.579	84.88
279.81	84.88
280.042	86.88
280.273	80.88
280.505	78.88
280.736	78.88
280.968	77.88
281.199	80.88
281.431	84.88
281.662	88.88
281.894	84.88
282.125	81.88
282.356	83.88
282.588	86.88
282.819	82.88
283.051	83.88
283.282	93.88
283.513	84.88
283.745	95.88
283.976	73.88
284.207	99.88
284.439	77.88
284.67	82.88
284.901	91.88
285.132	84.88
285.364	86.88
285.595	84.88
285.826	81.88
286.057	73.88
286.288	95.88
286.52	78.88
286.751	82.88
286.982	96.88
287.213	83.88
287.444	80.88
287.675	89.88
287.906	92.88
288.138	94.88
288.369	92.88
288.6	89.88
288.831	79.88
289.062	83.88
289.293	79.88
289.524	92.88
289.755	85.88
289.986	85.88
290.217	83.88
290.448	75.88
290.679	85.88
290.91	75.88
291.141	78.88
291.371	81.88
291.602	87.88
291.833	79.88
292.064	74.88
292.295	87.88
292.526	99.88
292.757	93.88
292.987	85.88
293.218	89.88
293.449	80.88
293.68	87.88
293.91	86.88
294.141	91.88
294.372	71.88
294.603	92.88
294.833	89.88
295.064	72.88
295.295	79.88
295.525	86.88
295.756	82.88
295.987	83.88
296.217	89.88
296.448	76.88
296.679	79.88
296.909	75.88
297.14	76.88
297.37	97.88
297.601	90.88
297.831	81.88
298.062	88.88
298.292	73.88
298.523	96.88
298.753	82.88
298.984	82.88
299.214	104.88
299.445	81.88
299.675	83.88
299.905	93.88
300.136	92.88
300.366	77.88
300.597	95.88
300.827	83.88
301.057	83.88
301.288	103.88
301.518	91.88
301.748	83.88
301.979	98.88
302.209	100.88
302.439	82.88
302.669	74.88
302.9	81.88
303.13	83.88
303.36	86.88
303.59	81.88
303.82	98.88
304.051	99.88
304.281	91.88
304.511	86.88
304.741	85.88
304.971	87.88
305.201	83.88
305.431	89.88
305.661	89.88
305.891	82.88
306.121	87.88
306.352	89.88
306.582	69.88
306.812	95.88
307.042	80.88
307.272	86.88
307.502	84.88
307.731	77.88
307.961	88.88
308.191	88.88
308.421	87.88
308.651	90.88
308.881	95.88
309.111	96.88
309.341	80.88
309.571	97.88
309.8	91.88
310.03	104.88
310.26	89.88
310.49	71.88
310.72	68.88
310.949	97.88
311.179	101.88
311.409	86.88
311.639	87.88
311.868	88.88
312.098	81.88
312.328	79.88
312.557	85.88
312.787	94.88
313.017	81.88
313.246	87.88
313.476	75.88
313.706	76.88
313.935	82.88
314.165	68.88
314.394	91.88
314.624	85.88
314.853	84.88
315.083	84.88
315.312	85.88
315.542	84.88
315.771	95.88
316.001	94.88
316.23	83.88
316.46	81.88
316.689	80.88
316.919	85.88
317.148	87.88
317.377	82.88
317.607	89.88
317.836	90.88
318.065	83.88
318.295	97.88
318.524	78.88
318.753	77.88
318.983	81.88
319.212	73.88
319.441	87.88
319.67	90.88
319.9	89.88
320.129	90.88
320.358	88.88
320.587	90.88
320.816	86.88
321.046	93.88
321.275	82.88
321.504	77.88
321.733	100.88
321.962	84.88
322.191	87.88
322.42	78.88
322.649	98.88
322.878	96.88
323.108	84.88
323.337	83.88
323.566	90.88
323.795	90.88
324.024	80.88
324.253	75.88
324.482	79.88
324.71	94.88
324.939	95.88
325.168	104.88
325.397	83.88
325.626	75.88
325.855	76.88
326.084	86.88
326.313	91.88
326.542	95.88
326.77	94.88
326.999	69.88
327.228	89.88
327.457	79.88
327.686	92.88
327.914	89.88
328.143	98.88
328.372	93.88
328.6	77.88
328.829	83.88
329.058	85.88
329.287	73.88
329.515	78.88
329.744	85.88
329.972	64.88
330.201	93.88
330.43	84.88
330.658	84.88
330.887	95.88
331.115	84.88
331.344	84.88
331.572	85.88
331.801	78.88
332.03	91.88
332.258	83.88
332.486	95.88
332.715	83.88
332.943	77.88
333.172	85.88
333.4	76.88
333.629	83.88
333.857	84.88
334.085	79.88
334.314	86.88
334.542	91.88
334.771	83.88
334.999	105.88
335.227	97.88
335.455	96.88
335.684	88.88
335.912	93.88
336.14	91.88
336.369	93.88
336.597	76.88
336.825	93.88
337.053	75.88
337.281	88.88
337.51	92.88
337.738	100.88
337.966	87.88
338.194	99.88
338.422	97.88
338.65	86.88
338.878	87.88
339.106	90.88
339.334	73.88
339.562	81.88
339.79	78.88
340.018	77.88
340.246	81.88
340.474	84.88
340.702	91.88
340.93	103.88
341.158	85.88
341.386	95.88
341.614	78.88
341.842	96.88
342.07	86.88
342.298	73.88
342.526	85.88
342.754	81.88
342.981	95.88
343.209	79.88
343.437	104.88
343.665	86.88
343.893	84.88
344.12	75.88
344.348	93.88
344.576	84.88
344.804	88.88
345.031	91.88
345.259	88.88
345.487	84.88
345.714	90.88
345.942	95.88
346.17	79.88
346.397	76.88
346.625	92.88
346.853	74.88
347.08	86.88
347.308	81.88
347.535	94.88
347.763	97.88
347.99	84.88
348.218	78.88
348.445	79.88
348.673	83.88
348.9	81.88
349.128	91.88
349.355	87.88
349.583	76.88
349.81	87.88
350.037	83.88
350.265	78.88
350.492	71.88
350.72	77.88
350.947	87.88
351.174	79.88
351.402	91.88
351.629	77.88
351.856	78.88
352.083	85.88
352.311	90.88
352.538	86.88
352.765	98.88
352.992	71.88
353.22	79.88
353.447	93.88
353.674	92.88
353.901	93.88
354.128	95.88
354.355	83.88
354.583	87.88
354.81	83.88
355.037	100.88
355.264	84.88
355.491	90.88
355.718	84.88
355.945	81.88
356.172	91.88
356.399	87.88
356.626	84.88
356.853	76.88
357.08	107.88
357.307	87.88
357.534	90.88
357.761	72.88
357.988	92.88
358.215	91.88
358.441	92.88
358.668	81.88
358.895	79.88
359.122	80.88
359.349	93.88
359.576	84.88
359.802	78.88
360.029	82.88
360.256	80.88
360.483	85.88
360.709	95.88
360.936	84.88
361.163	78.88
361.39	90.88
361.616	95.88
361.843	77.88
362.07	108.88
362.296	87.88
362.523	93.88
362.749	106.88
362.976	100.88
363.203	123.88
363.429	109.88
363.656	95.88
363.882	83.88
364.109	92.88
364.335	115.88
364.562	107.88
364.788	91.88
365.015	89.88
365.241	71.88
365.468	74.88
365.694	89.88
365.92	88.88
366.147	87.88
366.373	66.88
366.599	85.88
366.826	75.88
367.052	77.88
367.278	85.88
367.505	77.88
367.731	97.88
367.957	75.88
368.184	90.88
368.41	93.88
368.636	95.88
368.862	90.88
369.089	75.88
369.315	83.88
369.541	85.88
369.767	87.88
369.993	93.88
370.219	100.88
370.445	80.88
370.672	89.88
370.898	98.88
371.124	67.88
371.35	103.88
371.576	86.88
371.802	85.88
372.028	88.88
372.254	103.88
372.48	86.88
372.706	92.88
372.932	83.88
373.158	87.88
373.384	97.88
373.61	104.88
373.835	109.88
374.061	91.88
374.287	109.88
374.513	81.88
374.739	103.88
374.965	102.88
375.191	86.88
375.416	92.88
375.642	102.88
375.868	100.88
376.094	96.88
376.319	84.88
376.545	83.88
376.771	90.88
376.997	92.88
377.222	103.88
377.448	99.88
377.674	103.88
377.899	85.88
378.125	87.88
378.35	86.88
378.576	87.88
378.802	89.88
379.027	93.88
379.253	85.88
379.478	85.88
379.704	92.88
379.929	95.88
380.155	86.88
380.38	92.88
380.606	76.88
380.831	91.88
381.057	86.88
381.282	92.88
381.507	85.88
381.733	83.88
381.958	91.88
382.184	80.88
382.409	105.88
382.634	104.88
382.86	102.88
383.085	113.88
383.31	103.88
383.535	97.88
383.761	100.88
383.986	106.88
384.211	98.88
384.436	93.88
384.662	88.88
384.887	82.88
385.112	87.88
385.337	101.88
385.562	92.88
385.787	83.88
386.013	84.88
386.238	99.88
386.463	99.88
386.688	92.88
386.913	93.88
387.138	90.88
387.363	96.88
387.588	93.88
387.813	94.88
388.038	101.88
388.263	99.88
388.488	86.88
388.713	91.88
388.938	80.88
389.163	91.88
389.387	95.88
389.612	90.88
389.837	80.88
390.062	106.88
390.287	91.88
390.512	85.88
390.736	93.88
390.961	94.88
391.186	89.88
391.411	100.88
391.636	89.88
391.86	75.88
392.085	83.88
392.31	99.88
392.534	91.88
392.759	107.88
392.984	136.88
393.208	207.88
393.433	267.88
393.658	233.88
393.882	121.88
394.107	87.88
394.331	117.88
394.556	122.88
394.78	105.88
395.005	95.88
395.229	93.88
395.454	89.88
395.678	96.88
395.903	107.88
396.127	127.88
396.352	124.88
396.576	152.88
396.801	225.88
397.025	226.88
397.249	124.88
397.474	108.88
397.698	112.88
397.922	77.88
398.147	97.88
398.371	65.88
398.595	90.88
398.82	80.88
399.044	80.88
399.268	96.88
399.492	103.88
399.717	85.88
399.941	84.88
400.165	73.88
400.389	87.88
400.613	72.88
400.837	83.88
401.062	83.88
401.286	90.88
401.51	93.88
401.734	85.88
401.958	88.88
402.182	75.88
402.406	76.88
402.63	79.88
402.854	82.88
403.078	99.88
403.302	93.88
403.526	96.88
403.75	87.88
403.974	83.88
404.198	97.88
404.422	94.88
404.645	98.88
404.869	84.88
405.093	93.88
405.317	85.88
405.541	97.88
405.765	75.88
405.988	97.88
406.212	68.88
406.436	89.88
406.66	84.88
406.883	83.88
407.107	93.88
407.331	103.88
407.555	85.88
407.778	113.88
408.002	102.88
408.226	83.88
408.449	77.88
408.673	77.88
408.896	91.88
409.12	90.88
409.344	90.88
409.567	96.88
409.791	91.88
410.014	91.88
410.238	81.88
410.461	94.88
410.685	84.88
410.908	90.88
411.132	83.88
411.355	79.88
411.578	79.88
411.802	76.88
412.025	77.88
412.249	94.88
412.472	81.88
412.695	87.88
412.919	82.88
413.142	80.88
413.365	83.88
413.589	77.88
413.812	74.88
414.035	92.88
414.258	83.88
414.482	78.88
414.705	80.88
414.928	77.88
415.151	95.88
415.374	96.88
415.597	88.88
415.821	81.88
416.044	89.88
416.267	81.88
416.49	88.88
416.713	70.88
416.936	96.88
417.159	91.88
417.382	89.88
417.605	102.88
417.828	89.88
418.051	89.88
418.274	92.88
418.497	83.88
418.72	89.88
418.943	96.88
419.166	73.88
419.389	79.88
419.611	83.88
419.834	86.88
420.057	89.88
420.28	78.88
420.503	95.88
420.726	76.88
420.948	98.88
421.171	96.88
421.394	79.88
421.617	127.88
421.839	115.88
422.062	85.88
422.285	113.88
422.507	178.88
422.73	235.88
422.953	216.88
423.175	136.88
423.398	115.88
423.621	101.88
423.843	97.88
424.066	93.88
424.288	90.88
424.511	87.88
424.733	91.88
424.956	88.88
425.178	90.88
425.401	72.88
425.623	95.88
425.846	77.88
426.068	71.88
426.291	81.88
426.513	93.88
426.735	83.88
426.958	75.88
427.18	89.88
427.402	75.88
427.625	92.88
427.847	89.88
428.069	95.88
428.292	95.88
428.514	109.88
428.736	95.88
428.958	113.88
429.181	107.88
429.403	88.88
429.625	74.88
429.847	100.88
430.069	129.88
430.292	140.88
430.514	138.88
430.736	106.88
430.958	136.88
431.18	100.88
431.402	89.88
431.624	90.88
431.846	104.88
432.068	99.88
432.29	83.88
432.512	93.88
432.734	86.88
432.956	83.88
433.178	83.88
433.4	85.88
433.622	75.88
433.844	96.88
434.066	85.88
434.287	89.88
434.509	88.88
434.731	88.88
434.953	87.88
435.175	87.88
435.397	98.88
435.618	87.88
435.84	101.88
436.062	78.88
436.284	98.88
436.505	99.88
436.727	80.88
436.949	91.88
437.17	79.88
437.392	90.88
437.614	87.88
437.835	72.88
438.057	81.88
438.278	79.88
438.5	92.88
438.721	78.88
438.943	82.88
439.165	72.88
439.386	90.88
439.608	77.88
439.829	75.88
440.05	90.88
440.272	95.88
440.493	90.88
440.715	87.88
440.936	77.88
441.158	95.88
441.379	84.88
441.6	88.88
441.822	80.88
442.043	91.88
442.264	83.88
442.486	115.88
442.707	123.88
442.928	90.88
443.149	92.88
443.371	119.88
443.592	161.88
443.813	155.88
444.034	92.88
444.255	83.88
444.476	91.88
444.698	85.88
444.919	78.88
445.14	170.88
445.361	166.88
445.582	200.88
445.803	190.88
446.024	106.88
446.245	96.88
446.466	95.88
446.687	85.88
446.908	84.88
447.129	82.88
447.35	67.88
447.571	83.88
447.792	86.88
448.013	85.88
448.234	80.88
448.455	83.88
448.675	84.88
448.896	99.88
449.117	91.88
449.338	88.88
449.559	69.88
449.779	87.88
450	92.88
450.221	77.88
450.442	75.88
450.662	78.88
450.883	79.88
451.104	88.88
451.324	91.88
451.545	77.88
451.766	90.88
451.986	97.88
452.207	85.88
452.428	102.88
452.648	97.88
452.869	99.88
453.089	89.88
453.31	95.88
453.53	96.88
453.751	98.88
453.971	91.88
454.192	91.88
454.412	80.88
454.633	89.88
454.853	78.88
455.073	85.88
455.294	79.88
455.514	82.88
455.734	82.88
455.955	75.88
456.175	76.88
456.395	81.88
456.616	85.88
456.836	93.88
457.056	99.88
457.276	79.88
457.497	78.88
457.717	76.88
457.937	87.88
458.157	99.88
458.377	119.88
458.598	117.88
458.818	93.88
459.038	95.88
459.258	81.88
459.478	80.88
459.698	95.88
459.918	83.88
460.138	75.88
460.358	82.88
460.578	99.88
460.798	81.88
461.018	86.88
461.238	83.88
461.458	75.88
461.678	83.88
461.898	88.88
462.118	98.88
462.338	89.88
462.558	95.88
462.777	73.88
462.997	90.88
463.217	83.88
463.437	78.88
463.657	91.88
463.876	94.88
464.096	88.88
464.316	84.88
464.536	71.88
464.755	83.88
464.975	85.88
465.195	82.88
465.414	84.88
465.634	77.88
465.854	67.88
466.073	83.88
466.293	75.88
466.512	85.88
466.732	93.88
466.951	80.88
467.171	90.88
467.391	83.88
467.61	93.88
467.829	81.88
468.049	87.88
468.268	93.88
468.488	94.88
468.707	72.88
468.927	92.88
469.146	91.88
469.365	72.88
469.585	80.88
469.804	65.88
470.023	74.88
470.243	94.88
470.462	76.88
470.681	85.88
470.901	81.88
471.12	89.88
471.339	87.88
471.558	84.88
471.777	93.88
471.997	82.88
472.216	95.88
472.435	90.88
472.654	76.88
472.873	86.88
473.092	82.88
473.311	70.88
473.53	68.88
473.749	96.88
473.968	88.88
474.187	87.88
474.406	94.88
474.625	76.88
474.844	92.88
475.063	78.88
475.282	86.88
475.501	89.88
475.72	84.88
475.939	85.88
476.158	81.88
476.377	79.88
476.596	84.88
476.814	75.88
477.033	81.88
477.252	90.88
477.471	82.88
477.69	85.88
477.908	84.88
478.127	92.88
478.346	89.88
478.564	90.88
478.783	91.88
479.002	95.88
479.22	90.88
479.439	94.88
479.658	80.88
479.876	81.88
480.095	98.88
480.313	90.88
480.532	81.88
480.751	88.88
480.969	85.88
481.188	73.88
481.406	94.88
481.624	97.88
481.843	104.88
482.061	86.88
482.28	81.88
482.498	78.88
482.717	96.88
482.935	84.88
483.153	93.88
483.372	85.88
483.59	93.88
483.808	100.88
484.027	96.88
484.245	86.88
484.463	94.88
484.681	94.88
484.9	89.88
485.118	87.88
485.336	84.88
485.554	91.88
485.772	81.88
485.99	87.88
486.209	81.88
486.427	98.88
486.645	87.88
486.863	72.88
487.081	99.88
487.299	93.88
487.517	103.88
487.735	97.88
487.953	141.88
488.171	103.88
488.389	101.88
488.607	105.88
488.825	85.88
489.043	91.88
489.261	96.88
489.479	89.88
489.696	81.88
489.914	88.88
490.132	93.88
490.35	95.88
490.568	95.88
490.786	92.88
491.003	92.88
491.221	84.88
491.439	86.88
491.657	94.88
491.874	93.88
492.092	86.88
492.31	97.88
492.527	85.88
492.745	88.88
492.963	95.88
493.18	90.88
493.398	83.88
493.615	85.88
493.833	89.88
494.05	88.88
494.268	83.88
494.485	94.88
494.703	99.88
494.92	85.88
495.138	91.88
495.355	100.88
495.573	90.88
495.79	85.88
496.008	102.88
496.225	94.88
496.442	94.88
496.66	81.88
496.877	78.88
497.094	88.88
497.312	73.88
497.529	93.88
497.746	80.88
497.963	89.88
498.181	105.88
498.398	87.88
498.615	95.88
498.832	71.88
499.049	85.88
499.267	95.88
499.484	101.88
499.701	108.88
499.918	81.88
500.135	91.88
500.352	88.88
500.569	83.88
500.786	98.88
501.003	88.88
501.22	91.88
501.437	87.88
501.654	88.88
501.871	104.88
502.088	89.88
502.305	86.88
502.522	90.88
502.739	97.88
502.956	84.88
503.172	100.88
503.389	87.88
503.606	88.88
503.823	96.88
504.04	97.88
504.256	129.88
504.473	133.88
504.69	105.88
504.907	89.88
505.123	88.88
505.34	97.88
505.557	91.88
505.773	85.88
505.99	82.88
506.207	85.88
506.423	103.88
506.64	99.88
506.856	91.88
507.073	75.88
507.289	92.88
507.506	91.88
507.722	97.88
507.939	87.88
508.155	88.88
508.372	91.88
508.588	89.88
508.805	80.88
509.021	87.88
509.238	78.88
509.454	92.88
509.67	81.88
509.887	96.88
510.103	109.88
510.319	91.88
510.536	80.88
510.752	89.88
510.968	100.88
511.184	100.88
511.401	86.88
511.617	85.88
511.833	90.88
512.049	91.88
512.265	70.88
512.481	81.88
512.698	83.88
512.914	75.88
513.13	94.88
513.346	88.88
513.562	103.88
513.778	91.88
513.994	81.88
514.21	86.88
514.426	89.88
514.642	94.88
514.858	100.88
515.074	83.88
515.29	102.88
515.506	99.88
515.721	102.88
515.937	89.88
516.153	89.88
516.369	91.88
516.585	89.88
516.801	102.88
517.016	91.88
517.232	100.88
517.448	102.88
517.664	92.88
517.879	95.88
518.095	82.88
518.311	101.88
518.527	104.88
