Data from 15780_2_HRD10591_00046.txt Node
Date: Mon Jan 19 14:19:26 EST 2026
User: Yrep
Spectrometer: HR+D1059
Trigger mode: 1
Integration Time (sec): 1.000000E-1
Scans to average: 1
Electric dark correction enabled: true
Nonlinearity correction enabled: false
Boxcar width: 0
XAxis mode: Wavelengths
Number of Pixels in Spectrum: 2048
>>>>>Begin Spectral Data<<<<<
223.165	-24.69
223.4	-24.69
223.635	-24.69
223.869	-24.69
224.104	-11.69
224.338	-3.69
224.573	-9.69
224.808	-12.69
225.042	-2.69
225.277	-7.69
225.511	3.31
225.746	-4.69
225.98	1.31
226.215	13.31
226.449	21.31
226.683	16.31
226.918	18.31
227.152	28.31
227.387	33.31
227.621	40.31
227.856	38.31
228.09	37.31
228.324	49.31
228.559	63.31
228.793	59.31
229.027	76.31
229.262	62.31
229.496	60.31
229.73	68.31
229.964	61.31
230.199	68.31
230.433	79.31
230.667	72.31
230.901	78.31
231.136	83.31
231.37	81.31
231.604	91.31
231.838	73.31
232.072	79.31
232.306	64.31
232.541	75.31
232.775	73.31
233.009	102.31
233.243	82.31
233.477	83.31
233.711	92.31
233.945	73.31
234.179	93.31
234.413	77.31
234.647	85.31
234.881	78.31
235.115	76.31
235.349	80.31
235.583	71.31
235.817	81.31
236.051	92.31
236.285	78.31
236.519	97.31
236.753	77.31
236.987	71.31
237.221	73.31
237.455	67.31
237.689	83.31
237.922	84.31
238.156	79.31
238.39	83.31
238.624	60.31
238.858	71.31
239.091	68.31
239.325	95.31
239.559	76.31
239.793	75.31
240.027	59.31
240.26	84.31
240.494	79.31
240.728	85.31
240.961	71.31
241.195	75.31
241.429	80.31
241.662	81.31
241.896	73.31
242.13	79.31
242.363	88.31
242.597	76.31
242.83	76.31
243.064	83.31
243.298	77.31
243.531	95.31
243.765	67.31
243.998	97.31
244.232	73.31
244.465	73.31
244.699	74.31
244.932	80.31
245.166	83.31
245.399	71.31
245.633	72.31
245.866	73.31
246.099	87.31
246.333	72.31
246.566	83.31
246.8	86.31
247.033	77.31
247.266	65.31
247.5	66.31
247.733	62.31
247.966	77.31
248.2	71.31
248.433	80.31
248.666	81.31
248.899	87.31
249.133	67.31
249.366	77.31
249.599	91.31
249.832	80.31
250.066	91.31
250.299	83.31
250.532	78.31
250.765	83.31
250.998	70.31
251.231	81.31
251.465	89.31
251.698	87.31
251.931	77.31
252.164	85.31
252.397	71.31
252.63	78.31
252.863	85.31
253.096	78.31
253.329	98.31
253.562	87.31
253.795	82.31
254.028	73.31
254.261	68.31
254.494	89.31
254.727	97.31
254.96	79.31
255.193	97.31
255.426	73.31
255.659	88.31
255.892	84.31
256.124	63.31
256.357	88.31
256.59	79.31
256.823	93.31
257.056	84.31
257.289	77.31
257.521	81.31
257.754	76.31
257.987	89.31
258.22	83.31
258.452	82.31
258.685	83.31
258.918	85.31
259.151	85.31
259.383	72.31
259.616	81.31
259.849	93.31
260.081	91.31
260.314	92.31
260.547	85.31
260.779	77.31
261.012	87.31
261.244	75.31
261.477	85.31
261.71	82.31
261.942	95.31
262.175	89.31
262.407	76.31
262.64	83.31
262.872	83.31
263.105	85.31
263.337	88.31
263.57	81.31
263.802	60.31
264.035	68.31
264.267	69.31
264.499	73.31
264.732	83.31
264.964	67.31
265.197	75.31
265.429	91.31
265.661	83.31
265.894	92.31
266.126	90.31
266.358	81.31
266.591	101.31
266.823	92.31
267.055	75.31
267.287	82.31
267.52	63.31
267.752	69.31
267.984	73.31
268.216	71.31
268.448	82.31
268.681	86.31
268.913	78.31
269.145	86.31
269.377	93.31
269.609	85.31
269.841	88.31
270.073	92.31
270.306	90.31
270.538	82.31
270.77	82.31
271.002	70.31
271.234	81.31
271.466	76.31
271.698	76.31
271.93	92.31
272.162	88.31
272.394	89.31
272.626	80.31
272.858	65.31
273.09	78.31
273.322	83.31
273.553	80.31
273.785	83.31
274.017	67.31
274.249	80.31
274.481	83.31
274.713	96.31
274.945	84.31
275.176	77.31
275.408	99.31
275.64	84.31
275.872	71.31
276.104	85.31
276.335	95.31
276.567	82.31
276.799	76.31
277.031	77.31
277.262	92.31
277.494	83.31
277.726	91.31
277.957	75.31
278.189	85.31
278.421	83.31
278.652	76.31
278.884	86.31
279.115	85.31
279.347	75.31
279.579	79.31
279.81	112.31
280.042	81.31
280.273	88.31
280.505	96.31
280.736	88.31
280.968	87.31
281.199	84.31
281.431	72.31
281.662	83.31
281.894	99.31
282.125	92.31
282.356	96.31
282.588	80.31
282.819	90.31
283.051	71.31
283.282	72.31
283.513	77.31
283.745	88.31
283.976	77.31
284.207	86.31
284.439	87.31
284.67	95.31
284.901	90.31
285.132	103.31
285.364	90.31
285.595	90.31
285.826	96.31
286.057	89.31
286.288	89.31
286.52	108.31
286.751	96.31
286.982	90.31
287.213	92.31
287.444	83.31
287.675	87.31
287.906	89.31
288.138	93.31
288.369	112.31
288.6	99.31
288.831	89.31
289.062	76.31
289.293	86.31
289.524	81.31
289.755	79.31
289.986	100.31
290.217	69.31
290.448	85.31
290.679	90.31
290.91	79.31
291.141	85.31
291.371	91.31
291.602	89.31
291.833	86.31
292.064	83.31
292.295	90.31
292.526	84.31
292.757	84.31
292.987	91.31
293.218	83.31
293.449	87.31
293.68	77.31
293.91	82.31
294.141	85.31
294.372	79.31
294.603	98.31
294.833	90.31
295.064	83.31
295.295	82.31
295.525	89.31
295.756	89.31
295.987	83.31
296.217	83.31
296.448	84.31
296.679	87.31
296.909	94.31
297.14	82.31
297.37	88.31
297.601	74.31
297.831	91.31
298.062	98.31
298.292	86.31
298.523	89.31
298.753	86.31
298.984	93.31
299.214	85.31
299.445	93.31
299.675	96.31
299.905	86.31
300.136	80.31
300.366	95.31
300.597	98.31
300.827	98.31
301.057	95.31
301.288	97.31
301.518	84.31
301.748	90.31
301.979	107.31
302.209	98.31
302.439	96.31
302.669	87.31
302.9	73.31
303.13	83.31
303.36	80.31
303.59	80.31
303.82	100.31
304.051	85.31
304.281	96.31
304.511	79.31
304.741	88.31
304.971	73.31
305.201	82.31
305.431	93.31
305.661	91.31
305.891	96.31
306.121	93.31
306.352	85.31
306.582	95.31
306.812	88.31
307.042	76.31
307.272	78.31
307.502	81.31
307.731	85.31
307.961	101.31
308.191	93.31
308.421	87.31
308.651	99.31
308.881	96.31
309.111	112.31
309.341	112.31
309.571	114.31
309.8	91.31
310.03	76.31
310.26	74.31
310.49	81.31
310.72	87.31
310.949	71.31
311.179	91.31
311.409	85.31
311.639	92.31
311.868	77.31
312.098	76.31
312.328	74.31
312.557	80.31
312.787	73.31
313.017	89.31
313.246	90.31
313.476	89.31
313.706	82.31
313.935	85.31
314.165	82.31
314.394	86.31
314.624	82.31
314.853	93.31
315.083	86.31
315.312	83.31
315.542	101.31
315.771	107.31
316.001	111.31
316.23	98.31
316.46	97.31
316.689	70.31
316.919	95.31
317.148	88.31
317.377	89.31
317.607	109.31
317.836	105.31
318.065	139.31
318.295	123.31
318.524	92.31
318.753	91.31
318.983	85.31
319.212	73.31
319.441	80.31
319.67	99.31
319.9	81.31
320.129	95.31
320.358	88.31
320.587	81.31
320.816	74.31
321.046	93.31
321.275	85.31
321.504	116.31
321.733	87.31
321.962	89.31
322.191	96.31
322.42	84.31
322.649	87.31
322.878	93.31
323.108	80.31
323.337	97.31
323.566	107.31
323.795	104.31
324.024	98.31
324.253	88.31
324.482	88.31
324.71	95.31
324.939	82.31
325.168	83.31
325.397	76.31
325.626	96.31
325.855	67.31
326.084	77.31
326.313	91.31
326.542	83.31
326.77	100.31
326.999	99.31
327.228	87.31
327.457	81.31
327.686	92.31
327.914	84.31
328.143	84.31
328.372	81.31
328.6	90.31
328.829	81.31
329.058	78.31
329.287	97.31
329.515	83.31
329.744	78.31
329.972	92.31
330.201	101.31
330.43	82.31
330.658	97.31
330.887	81.31
331.115	94.31
331.344	87.31
331.572	85.31
331.801	89.31
332.03	99.31
332.258	92.31
332.486	81.31
332.715	75.31
332.943	87.31
333.172	88.31
333.4	84.31
333.629	83.31
333.857	88.31
334.085	95.31
334.314	83.31
334.542	89.31
334.771	78.31
334.999	99.31
335.227	98.31
335.455	86.31
335.684	96.31
335.912	87.31
336.14	97.31
336.369	93.31
336.597	96.31
336.825	80.31
337.053	76.31
337.281	93.31
337.51	100.31
337.738	90.31
337.966	83.31
338.194	83.31
338.422	105.31
338.65	104.31
338.878	86.31
339.106	85.31
339.334	80.31
339.562	83.31
339.79	84.31
340.018	77.31
340.246	79.31
340.474	79.31
340.702	90.31
340.93	86.31
341.158	78.31
341.386	90.31
341.614	81.31
341.842	83.31
342.07	81.31
342.298	85.31
342.526	88.31
342.754	90.31
342.981	91.31
343.209	83.31
343.437	91.31
343.665	91.31
343.893	102.31
344.12	114.31
344.348	99.31
344.576	91.31
344.804	87.31
345.031	85.31
345.259	76.31
345.487	83.31
345.714	68.31
345.942	93.31
346.17	96.31
346.397	76.31
346.625	84.31
346.853	91.31
347.08	91.31
347.308	100.31
347.535	75.31
347.763	97.31
347.99	93.31
348.218	94.31
348.445	89.31
348.673	85.31
348.9	82.31
349.128	91.31
349.355	89.31
349.583	77.31
349.81	85.31
350.037	84.31
350.265	92.31
350.492	78.31
350.72	89.31
350.947	74.31
351.174	91.31
351.402	91.31
351.629	97.31
351.856	84.31
352.083	86.31
352.311	82.31
352.538	90.31
352.765	102.31
352.992	97.31
353.22	91.31
353.447	79.31
353.674	77.31
353.901	99.31
354.128	97.31
354.355	73.31
354.583	80.31
354.81	94.31
355.037	70.31
355.264	85.31
355.491	66.31
355.718	98.31
355.945	68.31
356.172	83.31
356.399	89.31
356.626	82.31
356.853	90.31
357.08	87.31
357.307	99.31
357.534	81.31
357.761	100.31
357.988	101.31
358.215	99.31
358.441	107.31
358.668	91.31
358.895	96.31
359.122	81.31
359.349	88.31
359.576	98.31
359.802	77.31
360.029	92.31
360.256	84.31
360.483	80.31
360.709	80.31
360.936	91.31
361.163	85.31
361.39	101.31
361.616	92.31
361.843	105.31
362.07	91.31
362.296	103.31
362.523	93.31
362.749	114.31
362.976	111.31
363.203	129.31
363.429	100.31
363.656	93.31
363.882	104.31
364.109	108.31
364.335	118.31
364.562	132.31
364.788	99.31
365.015	90.31
365.241	94.31
365.468	84.31
365.694	87.31
365.92	83.31
366.147	86.31
366.373	73.31
366.599	83.31
366.826	74.31
367.052	79.31
367.278	90.31
367.505	83.31
367.731	99.31
367.957	82.31
368.184	95.31
368.41	90.31
368.636	95.31
368.862	97.31
369.089	81.31
369.315	77.31
369.541	73.31
369.767	75.31
369.993	81.31
370.219	90.31
370.445	113.31
370.672	112.31
370.898	88.31
371.124	85.31
371.35	86.31
371.576	101.31
371.802	107.31
372.028	92.31
372.254	101.31
372.48	86.31
372.706	66.31
372.932	90.31
373.158	102.31
373.384	101.31
373.61	154.31
373.835	147.31
374.061	100.31
374.287	92.31
374.513	93.31
374.739	101.31
374.965	118.31
375.191	97.31
375.416	94.31
375.642	99.31
375.868	95.31
376.094	105.31
376.319	112.31
376.545	91.31
376.771	91.31
376.997	93.31
377.222	81.31
377.448	86.31
377.674	74.31
377.899	76.31
378.125	94.31
378.35	95.31
378.576	94.31
378.802	80.31
379.027	92.31
379.253	94.31
379.478	90.31
379.704	98.31
379.929	85.31
380.155	78.31
380.38	89.31
380.606	98.31
380.831	90.31
381.057	112.31
381.282	105.31
381.507	102.31
381.733	99.31
381.958	98.31
382.184	111.31
382.409	104.31
382.634	113.31
382.86	99.31
383.085	104.31
383.31	98.31
383.535	120.31
383.761	95.31
383.986	116.31
384.211	118.31
384.436	100.31
384.662	95.31
384.887	116.31
385.112	105.31
385.337	108.31
385.562	111.31
385.787	119.31
386.013	123.31
386.238	106.31
386.463	104.31
386.688	96.31
386.913	93.31
387.138	109.31
387.363	107.31
387.588	98.31
387.813	107.31
388.038	107.31
388.263	105.31
388.488	119.31
388.713	93.31
388.938	96.31
389.163	81.31
389.387	83.31
389.612	78.31
389.837	95.31
390.062	90.31
390.287	91.31
390.512	111.31
390.736	88.31
390.961	95.31
391.186	89.31
391.411	83.31
391.636	102.31
391.86	105.31
392.085	91.31
392.31	108.31
392.534	119.31
392.759	154.31
392.984	269.31
393.208	540.31
393.433	837.31
393.658	580.31
393.882	219.31
394.107	152.31
394.331	158.31
394.556	161.31
394.78	108.31
395.005	104.31
395.229	88.31
395.454	120.31
395.678	119.31
395.903	145.31
396.127	196.31
396.352	237.31
396.576	308.31
396.801	521.31
397.025	647.31
397.249	287.31
397.474	146.31
397.698	106.31
397.922	107.31
398.147	100.31
398.371	94.31
398.595	97.31
398.82	91.31
399.044	96.31
399.268	88.31
399.492	86.31
399.717	88.31
399.941	83.31
400.165	73.31
400.389	90.31
400.613	95.31
400.837	93.31
401.062	96.31
401.286	85.31
401.51	86.31
401.734	72.31
401.958	83.31
402.182	72.31
402.406	99.31
402.63	88.31
402.854	98.31
403.078	89.31
403.302	87.31
403.526	85.31
403.75	91.31
403.974	84.31
404.198	100.31
404.422	135.31
404.645	139.31
404.869	116.31
405.093	97.31
405.317	69.31
405.541	83.31
405.765	99.31
405.988	98.31
406.212	105.31
406.436	101.31
406.66	101.31
406.883	81.31
407.107	91.31
407.331	102.31
407.555	117.31
407.778	147.31
408.002	143.31
408.226	96.31
408.449	84.31
408.673	95.31
408.896	91.31
409.12	97.31
409.344	101.31
409.567	80.31
409.791	104.31
410.014	90.31
410.238	100.31
410.461	92.31
410.685	74.31
410.908	91.31
411.132	90.31
411.355	82.31
411.578	85.31
411.802	85.31
412.025	83.31
412.249	73.31
412.472	93.31
412.695	95.31
412.919	71.31
413.142	81.31
413.365	86.31
413.589	85.31
413.812	88.31
414.035	85.31
414.258	88.31
414.482	79.31
414.705	83.31
414.928	86.31
415.151	93.31
415.374	95.31
415.597	68.31
415.821	90.31
416.044	74.31
416.267	91.31
416.49	68.31
416.713	87.31
416.936	85.31
417.159	80.31
417.382	79.31
417.605	83.31
417.828	95.31
418.051	87.31
418.274	90.31
418.497	91.31
418.72	89.31
418.943	78.31
419.166	83.31
419.389	87.31
419.611	89.31
419.834	74.31
420.057	77.31
420.28	100.31
420.503	83.31
420.726	99.31
420.948	100.31
421.171	99.31
421.394	113.31
421.617	142.31
421.839	138.31
422.062	138.31
422.285	171.31
422.507	359.31
422.73	629.31
422.953	543.31
423.175	218.31
423.398	127.31
423.621	107.31
423.843	85.31
424.066	98.31
424.288	103.31
424.511	89.31
424.733	93.31
424.956	78.31
425.178	86.31
425.401	87.31
425.623	79.31
425.846	84.31
426.068	85.31
426.291	86.31
426.513	86.31
426.735	86.31
426.958	72.31
427.18	89.31
427.402	100.31
427.625	96.31
427.847	95.31
428.069	109.31
428.292	159.31
428.514	164.31
428.736	129.31
428.958	147.31
429.181	162.31
429.403	103.31
429.625	97.31
429.847	136.31
430.069	229.31
430.292	251.31
430.514	231.31
430.736	156.31
430.958	171.31
431.18	109.31
431.402	96.31
431.624	116.31
431.846	161.31
432.068	175.31
432.29	110.31
432.512	97.31
432.734	96.31
432.956	102.31
433.178	92.31
433.4	84.31
433.622	83.31
433.844	78.31
434.066	90.31
434.287	89.31
434.509	83.31
434.731	70.31
434.953	88.31
435.175	100.31
435.397	103.31
435.618	95.31
435.84	73.31
436.062	95.31
436.284	84.31
436.505	76.31
436.727	80.31
436.949	76.31
437.17	90.31
437.392	70.31
437.614	78.31
437.835	88.31
438.057	77.31
438.278	83.31
438.5	85.31
438.721	88.31
438.943	84.31
439.165	98.31
439.386	80.31
439.608	99.31
439.829	99.31
440.05	90.31
440.272	64.31
440.493	84.31
440.715	87.31
440.936	81.31
441.158	87.31
441.379	100.31
441.6	92.31
441.822	79.31
442.043	91.31
442.264	101.31
442.486	131.31
442.707	194.31
442.928	139.31
443.149	116.31
443.371	179.31
443.592	325.31
443.813	275.31
444.034	108.31
444.255	104.31
444.476	95.31
444.698	94.31
444.919	101.31
445.14	193.31
445.361	260.31
445.582	404.31
445.803	334.31
446.024	137.31
446.245	99.31
446.466	83.31
446.687	87.31
446.908	85.31
447.129	83.31
447.35	94.31
447.571	97.31
447.792	78.31
448.013	85.31
448.234	79.31
448.455	77.31
448.675	81.31
448.896	77.31
449.117	77.31
449.338	77.31
449.559	89.31
449.779	91.31
450	83.31
450.221	81.31
450.442	89.31
450.662	96.31
450.883	78.31
451.104	83.31
451.324	76.31
451.545	76.31
451.766	99.31
451.986	89.31
452.207	75.31
452.428	88.31
452.648	100.31
452.869	103.31
453.089	95.31
453.31	107.31
453.53	100.31
453.751	111.31
453.971	91.31
454.192	76.31
454.412	78.31
454.633	72.31
454.853	76.31
455.073	85.31
455.294	86.31
455.514	97.31
455.734	88.31
455.955	72.31
456.175	86.31
456.395	86.31
456.616	88.31
456.836	89.31
457.056	75.31
457.276	85.31
457.497	89.31
457.717	83.31
457.937	113.31
458.157	130.31
458.377	123.31
458.598	128.31
458.818	133.31
459.038	102.31
459.258	82.31
459.478	89.31
459.698	83.31
459.918	92.31
460.138	98.31
460.358	72.31
460.578	111.31
460.798	132.31
461.018	118.31
461.238	90.31
461.458	80.31
461.678	95.31
461.898	90.31
462.118	85.31
462.338	96.31
462.558	89.31
462.777	89.31
462.997	80.31
463.217	91.31
463.437	72.31
463.657	91.31
463.876	91.31
464.096	102.31
464.316	78.31
464.536	80.31
464.755	87.31
464.975	85.31
465.195	71.31
465.414	77.31
465.634	82.31
465.854	91.31
466.073	77.31
466.293	67.31
466.512	74.31
466.732	89.31
466.951	82.31
467.171	84.31
467.391	73.31
467.61	87.31
467.829	83.31
468.049	92.31
468.268	84.31
468.488	96.31
468.707	87.31
468.927	88.31
469.146	100.31
469.365	79.31
469.585	77.31
469.804	90.31
470.023	95.31
470.243	69.31
470.462	91.31
470.681	92.31
470.901	88.31
471.12	104.31
471.339	87.31
471.558	63.31
471.777	76.31
471.997	75.31
472.216	85.31
472.435	89.31
472.654	85.31
472.873	93.31
473.092	87.31
473.311	70.31
473.53	76.31
473.749	83.31
473.968	77.31
474.187	76.31
474.406	90.31
474.625	89.31
474.844	96.31
475.063	82.31
475.282	84.31
475.501	86.31
475.72	79.31
475.939	98.31
476.158	87.31
476.377	94.31
476.596	79.31
476.814	88.31
477.033	79.31
477.252	102.31
477.471	83.31
477.69	79.31
477.908	85.31
478.127	72.31
478.346	86.31
478.564	96.31
478.783	92.31
479.002	98.31
479.22	86.31
479.439	83.31
479.658	75.31
479.876	82.31
480.095	75.31
480.313	96.31
480.532	83.31
480.751	89.31
480.969	79.31
481.188	88.31
481.406	88.31
481.624	78.31
481.843	79.31
482.061	80.31
482.28	92.31
482.498	88.31
482.717	75.31
482.935	111.31
483.153	77.31
483.372	87.31
483.59	87.31
483.808	103.31
484.027	85.31
484.245	82.31
484.463	90.31
484.681	85.31
484.9	91.31
485.118	85.31
485.336	88.31
485.554	85.31
485.772	89.31
485.99	77.31
486.209	88.31
486.427	96.31
486.645	87.31
486.863	74.31
487.081	88.31
487.299	95.31
487.517	95.31
487.735	127.31
487.953	183.31
488.171	147.31
488.389	83.31
488.607	103.31
488.825	80.31
489.043	95.31
489.261	91.31
489.479	85.31
489.696	92.31
489.914	89.31
490.132	87.31
490.35	87.31
490.568	85.31
490.786	83.31
491.003	99.31
491.221	80.31
491.439	96.31
491.657	98.31
491.874	94.31
492.092	77.31
492.31	79.31
492.527	84.31
492.745	90.31
492.963	111.31
493.18	79.31
493.398	83.31
493.615	103.31
493.833	92.31
494.05	85.31
494.268	83.31
494.485	79.31
494.703	81.31
494.92	78.31
495.138	75.31
495.355	87.31
495.573	93.31
495.79	111.31
496.008	83.31
496.225	92.31
496.442	81.31
496.66	98.31
496.877	91.31
497.094	103.31
497.312	90.31
497.529	86.31
497.746	94.31
497.963	79.31
498.181	96.31
498.398	117.31
498.615	99.31
498.832	81.31
499.049	84.31
499.267	100.31
499.484	109.31
499.701	88.31
499.918	92.31
500.135	105.31
500.352	98.31
500.569	98.31
500.786	95.31
501.003	77.31
501.22	80.31
501.437	88.31
501.654	85.31
501.871	87.31
502.088	116.31
502.305	88.31
502.522	93.31
502.739	98.31
502.956	78.31
503.172	90.31
503.389	90.31
503.606	93.31
503.823	93.31
504.04	103.31
504.256	137.31
504.473	132.31
504.69	101.31
504.907	103.31
505.123	84.31
505.34	97.31
505.557	79.31
505.773	89.31
505.99	94.31
506.207	80.31
506.423	74.31
506.64	92.31
506.856	85.31
507.073	74.31
507.289	100.31
507.506	88.31
507.722	93.31
507.939	93.31
508.155	104.31
508.372	93.31
508.588	108.31
508.805	102.31
509.021	77.31
509.238	91.31
509.454	69.31
509.67	88.31
509.887	97.31
510.103	81.31
510.319	99.31
510.536	103.31
510.752	82.31
510.968	86.31
511.184	91.31
511.401	76.31
511.617	87.31
511.833	91.31
512.049	92.31
512.265	95.31
512.481	81.31
512.698	77.31
512.914	86.31
513.13	87.31
513.346	87.31
513.562	76.31
513.778	85.31
513.994	89.31
514.21	78.31
514.426	98.31
514.642	95.31
514.858	86.31
515.074	86.31
515.29	81.31
515.506	77.31
515.721	83.31
515.937	83.31
516.153	103.31
516.369	103.31
516.585	73.31
516.801	77.31
517.016	107.31
