Data from 15780_2_HRD10591_00006.txt Node
Date: Mon Jan 19 14:19:06 EST 2026
User: Yrep
Spectrometer: HR+D1059
Trigger mode: 1
Integration Time (sec): 1.000000E-1
Scans to average: 1
Electric dark correction enabled: true
Nonlinearity correction enabled: false
Boxcar width: 0
XAxis mode: Wavelengths
Number of Pixels in Spectrum: 2048
>>>>>Begin Spectral Data<<<<<
223.165	-20
223.4	-20
223.635	-20
223.869	-23
224.104	-20
224.338	-17
224.573	-10
224.808	-6
225.042	-8
225.277	-5
225.511	4
225.746	7
225.98	13
226.215	8
226.449	13
226.683	16
226.918	11
227.152	37
227.387	34
227.621	29
227.856	41
228.09	51
228.324	40
228.559	58
228.793	50
229.027	68
229.262	58
229.496	73
229.73	81
229.964	75
230.199	57
230.433	74
230.667	83
230.901	82
231.136	87
231.37	103
231.604	84
231.838	82
232.072	78
232.306	91
232.541	73
232.775	87
233.009	89
233.243	74
233.477	94
233.711	91
233.945	83
234.179	80
234.413	66
234.647	85
234.881	91
235.115	94
235.349	89
235.583	86
235.817	91
236.051	84
236.285	72
236.519	90
236.753	75
236.987	87
237.221	79
237.455	97
237.689	77
237.922	76
238.156	80
238.39	71
238.624	69
238.858	78
239.091	76
239.325	73
239.559	76
239.793	78
240.027	79
240.26	83
240.494	77
240.728	78
240.961	76
241.195	72
241.429	86
241.662	78
241.896	81
242.13	76
242.363	70
242.597	71
242.83	73
243.064	72
243.298	88
243.531	74
243.765	74
243.998	81
244.232	71
244.465	81
244.699	80
244.932	93
245.166	85
245.399	77
245.633	76
245.866	71
246.099	88
246.333	80
246.566	70
246.8	70
247.033	81
247.266	70
247.5	74
247.733	98
247.966	78
248.2	71
248.433	93
248.666	75
248.899	72
249.133	81
249.366	92
249.599	80
249.832	87
250.066	78
250.299	76
250.532	81
250.765	80
250.998	66
251.231	78
251.465	69
251.698	67
251.931	68
252.164	96
252.397	84
252.63	90
252.863	97
253.096	79
253.329	80
253.562	88
253.795	95
254.028	101
254.261	88
254.494	72
254.727	102
254.96	89
255.193	79
255.426	93
255.659	89
255.892	83
256.124	88
256.357	82
256.59	81
256.823	96
257.056	80
257.289	70
257.521	88
257.754	94
257.987	75
258.22	88
258.452	84
258.685	88
258.918	88
259.151	73
259.383	90
259.616	78
259.849	76
260.081	86
260.314	87
260.547	86
260.779	78
261.012	78
261.244	80
261.477	85
261.71	73
261.942	96
262.175	74
262.407	88
262.64	98
262.872	92
263.105	84
263.337	83
263.57	83
263.802	83
264.035	88
264.267	77
264.499	91
264.732	79
264.964	73
265.197	96
265.429	79
265.661	77
265.894	72
266.126	81
266.358	84
266.591	87
266.823	88
267.055	85
267.287	74
267.52	76
267.752	83
267.984	82
268.216	70
268.448	95
268.681	84
268.913	87
269.145	73
269.377	81
269.609	70
269.841	87
270.073	78
270.306	85
270.538	84
270.77	83
271.002	86
271.234	85
271.466	89
271.698	85
271.93	66
272.162	88
272.394	91
272.626	84
272.858	85
273.09	82
273.322	68
273.553	88
273.785	99
274.017	80
274.249	90
274.481	86
274.713	92
274.945	90
275.176	83
275.408	71
275.64	79
275.872	75
276.104	73
276.335	86
276.567	94
276.799	80
277.031	91
277.262	80
277.494	90
277.726	94
277.957	77
278.189	87
278.421	78
278.652	79
278.884	87
279.115	74
279.347	84
279.579	99
279.81	81
280.042	78
280.273	94
280.505	89
280.736	93
280.968	96
281.199	79
281.431	86
281.662	92
281.894	89
282.125	83
282.356	78
282.588	94
282.819	84
283.051	84
283.282	78
283.513	92
283.745	81
283.976	87
284.207	85
284.439	99
284.67	94
284.901	86
285.132	90
285.364	85
285.595	75
285.826	100
286.057	80
286.288	96
286.52	92
286.751	84
286.982	72
287.213	96
287.444	76
287.675	72
287.906	99
288.138	72
288.369	86
288.6	106
288.831	87
289.062	86
289.293	90
289.524	83
289.755	81
289.986	95
290.217	94
290.448	78
290.679	86
290.91	93
291.141	92
291.371	93
291.602	81
291.833	87
292.064	74
292.295	80
292.526	88
292.757	92
292.987	86
293.218	88
293.449	79
293.68	76
293.91	91
294.141	92
294.372	87
294.603	79
294.833	102
295.064	82
295.295	100
295.525	81
295.756	86
295.987	87
296.217	89
296.448	96
296.679	84
296.909	78
297.14	92
297.37	96
297.601	85
297.831	86
298.062	89
298.292	82
298.523	89
298.753	87
298.984	88
299.214	97
299.445	105
299.675	79
299.905	96
300.136	85
300.366	89
300.597	90
300.827	93
301.057	88
301.288	89
301.518	91
301.748	99
301.979	96
302.209	80
302.439	92
302.669	86
302.9	80
303.13	84
303.36	113
303.59	78
303.82	98
304.051	80
304.281	86
304.511	91
304.741	81
304.971	97
305.201	94
305.431	85
305.661	88
305.891	77
306.121	93
306.352	93
306.582	101
306.812	91
307.042	69
307.272	88
307.502	98
307.731	90
307.961	92
308.191	88
308.421	101
308.651	88
308.881	90
309.111	99
309.341	90
309.571	103
309.8	91
310.03	96
310.26	95
310.49	85
310.72	88
310.949	70
311.179	98
311.409	86
311.639	80
311.868	99
312.098	103
312.328	81
312.557	95
312.787	94
313.017	86
313.246	83
313.476	91
313.706	79
313.935	100
314.165	88
314.394	81
314.624	80
314.853	96
315.083	90
315.312	86
315.542	71
315.771	92
316.001	99
316.23	87
316.46	87
316.689	83
316.919	84
317.148	105
317.377	106
317.607	101
317.836	98
318.065	83
318.295	91
318.524	76
318.753	77
318.983	84
319.212	98
319.441	83
319.67	80
319.9	98
320.129	101
320.358	88
320.587	79
320.816	68
321.046	89
321.275	94
321.504	96
321.733	88
321.962	90
322.191	100
322.42	83
322.649	96
322.878	96
323.108	80
323.337	83
323.566	81
323.795	94
324.024	79
324.253	86
324.482	89
324.71	90
324.939	93
325.168	83
325.397	81
325.626	104
325.855	95
326.084	82
326.313	100
326.542	98
326.77	107
326.999	93
327.228	82
327.457	75
327.686	79
327.914	85
328.143	99
328.372	74
328.6	78
328.829	85
329.058	96
329.287	76
329.515	95
329.744	88
329.972	80
330.201	98
330.43	87
330.658	92
330.887	84
331.115	90
331.344	87
331.572	97
331.801	111
332.03	88
332.258	83
332.486	67
332.715	99
332.943	87
333.172	74
333.4	86
333.629	78
333.857	79
334.085	92
334.314	102
334.542	79
334.771	91
334.999	98
335.227	84
335.455	83
335.684	90
335.912	97
336.14	107
336.369	90
336.597	93
336.825	96
337.053	84
337.281	87
337.51	92
337.738	88
337.966	84
338.194	86
338.422	92
338.65	84
338.878	89
339.106	88
339.334	87
339.562	94
339.79	86
340.018	81
340.246	77
340.474	94
340.702	87
340.93	75
341.158	92
341.386	85
341.614	82
341.842	90
342.07	94
342.298	77
342.526	86
342.754	95
342.981	95
343.209	90
343.437	89
343.665	76
343.893	94
344.12	98
344.348	103
344.576	85
344.804	86
345.031	79
345.259	90
345.487	86
345.714	74
345.942	95
346.17	95
346.397	88
346.625	77
346.853	83
347.08	100
347.308	100
347.535	97
347.763	103
347.99	86
348.218	72
348.445	81
348.673	84
348.9	98
349.128	95
349.355	93
349.583	84
349.81	101
350.037	97
350.265	83
350.492	87
350.72	91
350.947	88
351.174	80
351.402	105
351.629	76
351.856	86
352.083	82
352.311	80
352.538	86
352.765	91
352.992	79
353.22	89
353.447	71
353.674	88
353.901	84
354.128	100
354.355	86
354.583	87
354.81	88
355.037	77
355.264	85
355.491	81
355.718	84
355.945	91
356.172	96
356.399	96
356.626	86
356.853	78
357.08	99
357.307	77
357.534	84
357.761	86
357.988	75
358.215	102
358.441	109
358.668	88
358.895	80
359.122	88
359.349	80
359.576	74
359.802	83
360.029	88
360.256	91
360.483	89
360.709	91
360.936	81
361.163	87
361.39	95
361.616	92
361.843	88
362.07	83
362.296	84
362.523	101
362.749	114
362.976	110
363.203	118
363.429	110
363.656	94
363.882	99
364.109	91
364.335	126
364.562	118
364.788	99
365.015	98
365.241	85
365.468	104
365.694	99
365.92	81
366.147	89
366.373	80
366.599	88
366.826	80
367.052	93
367.278	93
367.505	84
367.731	86
367.957	78
368.184	83
368.41	100
368.636	79
368.862	82
369.089	70
369.315	81
369.541	88
369.767	86
369.993	83
370.219	78
370.445	93
370.672	92
370.898	96
371.124	90
371.35	90
371.576	86
371.802	85
372.028	98
372.254	96
372.48	86
372.706	73
372.932	90
373.158	81
373.384	98
373.61	104
373.835	110
374.061	101
374.287	103
374.513	93
374.739	108
374.965	102
375.191	98
375.416	87
375.642	92
375.868	99
376.094	98
376.319	87
376.545	95
376.771	91
376.997	98
377.222	96
377.448	96
377.674	88
377.899	84
378.125	91
378.35	88
378.576	95
378.802	76
379.027	91
379.253	104
379.478	97
379.704	85
379.929	85
380.155	81
380.38	94
380.606	92
380.831	68
381.057	101
381.282	91
381.507	99
381.733	95
381.958	94
382.184	101
382.409	104
382.634	95
382.86	103
383.085	99
383.31	90
383.535	103
383.761	92
383.986	95
384.211	85
384.436	97
384.662	89
384.887	85
385.112	102
385.337	93
385.562	90
385.787	98
386.013	110
386.238	84
386.463	96
386.688	126
386.913	91
387.138	107
387.363	83
387.588	81
387.813	100
388.038	99
388.263	105
388.488	110
388.713	98
388.938	103
389.163	102
389.387	74
389.612	77
389.837	88
390.062	94
390.287	96
390.512	98
390.736	96
390.961	70
391.186	87
391.411	87
391.636	86
391.86	85
392.085	79
392.31	89
392.534	99
392.759	97
392.984	147
393.208	178
393.433	224
393.658	199
393.882	120
394.107	95
394.331	102
394.556	114
394.78	114
395.005	95
395.229	94
395.454	91
395.678	91
395.903	115
396.127	138
396.352	141
396.576	133
396.801	201
397.025	213
397.249	141
397.474	124
397.698	95
397.922	79
398.147	91
398.371	95
398.595	83
398.82	88
399.044	87
399.268	92
399.492	93
399.717	83
399.941	87
400.165	91
400.389	87
400.613	91
400.837	76
401.062	94
401.286	89
401.51	77
401.734	96
401.958	84
402.182	96
402.406	87
402.63	90
402.854	95
403.078	83
403.302	98
403.526	74
403.75	81
403.974	78
404.198	76
404.422	104
404.645	107
404.869	113
405.093	107
405.317	106
405.541	86
405.765	85
405.988	78
406.212	95
406.436	89
406.66	93
406.883	98
407.107	84
407.331	83
407.555	90
407.778	106
408.002	106
408.226	101
408.449	87
408.673	92
408.896	100
409.12	91
409.344	99
409.567	99
409.791	100
410.014	95
410.238	99
410.461	101
410.685	99
410.908	89
411.132	81
411.355	91
411.578	73
411.802	87
412.025	84
412.249	94
412.472	81
412.695	80
412.919	81
413.142	102
413.365	82
413.589	90
413.812	89
414.035	98
414.258	75
414.482	99
414.705	78
414.928	95
415.151	89
415.374	81
415.597	88
415.821	87
416.044	74
416.267	88
416.49	96
416.713	99
416.936	90
417.159	87
417.382	95
417.605	77
417.828	84
418.051	73
418.274	82
418.497	88
418.72	93
418.943	96
419.166	100
419.389	94
419.611	94
419.834	85
420.057	80
420.28	91
420.503	111
420.726	94
420.948	94
421.171	95
421.394	97
421.617	92
421.839	120
422.062	110
422.285	167
422.507	220
422.73	318
422.953	298
423.175	206
423.398	117
423.621	103
423.843	93
424.066	89
424.288	98
424.511	98
424.733	97
424.956	96
425.178	101
425.401	88
425.623	91
425.846	86
426.068	100
426.291	88
426.513	90
426.735	93
426.958	80
427.18	110
427.402	98
427.625	100
427.847	75
428.069	98
428.292	114
428.514	143
428.736	105
428.958	107
429.181	118
429.403	92
429.625	101
429.847	122
430.069	138
430.292	140
430.514	134
430.736	125
430.958	139
431.18	77
431.402	82
431.624	92
431.846	114
432.068	109
432.29	92
432.512	88
432.734	95
432.956	101
433.178	91
433.4	93
433.622	91
433.844	86
434.066	68
434.287	88
434.509	100
434.731	87
434.953	83
435.175	79
435.397	77
435.618	87
435.84	93
436.062	77
436.284	86
436.505	90
436.727	89
436.949	88
437.17	86
437.392	94
437.614	92
437.835	59
438.057	68
438.278	96
438.5	84
438.721	90
438.943	78
439.165	81
439.386	87
439.608	99
439.829	85
440.05	87
440.272	96
440.493	96
440.715	91
440.936	80
441.158	86
441.379	97
441.6	86
441.822	90
442.043	90
442.264	98
442.486	118
442.707	150
442.928	120
443.149	112
443.371	126
443.592	207
443.813	175
444.034	110
444.255	85
444.476	90
444.698	100
444.919	99
445.14	174
445.361	182
445.582	225
445.803	198
446.024	98
446.245	84
446.466	66
446.687	86
446.908	95
447.129	103
447.35	85
447.571	88
447.792	100
448.013	82
448.234	96
448.455	83
448.675	97
448.896	96
449.117	94
449.338	71
449.559	66
449.779	100
450	101
450.221	78
450.442	77
450.662	83
450.883	98
451.104	93
451.324	90
451.545	98
451.766	81
451.986	82
452.207	73
452.428	86
452.648	90
452.869	92
453.089	90
453.31	101
453.53	105
453.751	95
453.971	84
454.192	79
454.412	87
454.633	90
454.853	90
455.073	77
455.294	90
455.514	91
455.734	82
455.955	84
456.175	79
456.395	91
456.616	78
456.836	84
457.056	95
457.276	79
457.497	89
457.717	90
457.937	97
458.157	106
458.377	110
458.598	122
458.818	117
459.038	86
459.258	78
459.478	84
459.698	75
459.918	79
460.138	64
460.358	95
460.578	90
460.798	117
461.018	120
461.238	90
461.458	87
461.678	77
461.898	86
462.118	92
462.338	82
462.558	101
462.777	93
462.997	80
463.217	85
463.437	65
463.657	103
463.876	76
464.096	93
464.316	82
464.536	79
464.755	96
464.975	80
465.195	84
465.414	87
465.634	99
465.854	89
466.073	89
466.293	80
466.512	90
466.732	94
466.951	86
467.171	98
467.391	98
467.61	96
467.829	88
468.049	87
468.268	78
468.488	98
468.707	92
468.927	85
469.146	86
469.365	91
469.585	87
469.804	88
470.023	83
470.243	92
470.462	87
470.681	85
470.901	87
471.12	86
471.339	87
471.558	80
471.777	87
471.997	92
472.216	60
472.435	74
472.654	92
472.873	88
473.092	79
473.311	91
473.53	90
473.749	95
473.968	92
474.187	86
474.406	99
474.625	91
474.844	83
475.063	104
475.282	84
475.501	91
475.72	91
475.939	84
476.158	84
476.377	83
476.596	88
476.814	95
477.033	96
477.252	89
477.471	79
477.69	90
477.908	95
478.127	94
478.346	93
478.564	90
478.783	90
479.002	87
479.22	82
479.439	90
479.658	100
479.876	92
480.095	87
480.313	81
480.532	102
480.751	93
480.969	88
481.188	98
481.406	84
481.624	86
481.843	95
482.061	88
482.28	86
482.498	89
482.717	95
482.935	86
483.153	93
483.372	100
483.59	103
483.808	98
484.027	88
484.245	103
484.463	96
484.681	104
484.9	99
485.118	96
485.336	72
485.554	99
485.772	91
485.99	98
486.209	85
486.427	93
486.645	96
486.863	89
487.081	89
487.299	104
487.517	111
487.735	106
487.953	146
488.171	139
488.389	94
488.607	92
488.825	100
489.043	83
489.261	94
489.479	92
489.696	103
489.914	89
490.132	98
490.35	91
490.568	79
490.786	104
491.003	83
491.221	94
491.439	89
491.657	92
491.874	95
492.092	84
492.31	88
492.527	85
492.745	100
492.963	83
493.18	105
493.398	110
493.615	79
493.833	94
494.05	106
494.268	88
494.485	98
494.703	95
494.92	102
495.138	94
495.355	88
495.573	100
495.79	96
496.008	103
496.225	87
496.442	103
496.66	104
496.877	96
497.094	94
497.312	99
497.529	94
497.746	103
497.963	80
498.181	104
498.398	116
498.615	105
498.832	92
499.049	96
499.267	113
499.484	101
499.701	94
499.918	99
500.135	90
500.352	89
500.569	100
500.786	98
501.003	98
501.22	93
501.437	104
501.654	102
501.871	97
502.088	103
502.305	82
502.522	79
502.739	98
502.956	82
503.172	81
503.389	89
503.606	97
503.823	94
504.04	103
504.256	142
504.473	120
504.69	86
504.907	92
505.123	102
505.34	114
505.557	100
505.773	94
505.99	81
506.207	92
506.423	92
506.64	105
506.856	83
507.073	100
507.289	88
507.506	95
507.722	89
507.939	96
508.155	98
508.372	90
508.588	89
508.805	94
509.021	81
509.238	90
509.454	92
509.67	99
509.887	83
510.103	83
510.319	84
510.536	93
510.752	97
510.968	80
511.184	92
511.401	95
511.617	88
511.833	94
512.049	97
512.265	98
512.481	95
512.698	98
512.914	100
513.13	93
513.346	77
513.562	90
513.778	102
513.994	86
514.21	99
514.426	85
514.642	116
514.858	90
515.074	106
515.29	99
515.506	88
515.721	88
515.937	106
516.153	100
516.369	97
516.585	91
516.801	86
517.016	116
517.232	96
517.448	104
517.664	120
517.879	101
518.095	80
518.311	95
518.527	105
518.742	116
518.958	144
519.173	144
519.389	114
519.605	98
519.82	93
520.036	98
520.251	100
520.467	93
520.682	99
520.898	82
521.113	95
521.329	105
521.544	97
521.76	100
521.975	85
522.19	98
522.406	87
522.621	109
522.836	78
523.052	107
523.267	102
523.482	96
523.698	101
523.913	97
524.128	91
524.343	87
524.559	107
524.774	114
524.989	93
525.204	94
525.419	95
525.634	114
525.849	118
526.064	120
526.28	187
526.495	248
526.71	276
526.925	192
527.14	244
527.355	192
527.57	117
527.785	90
527.999	105
528.214	85
528.429	98
528.644	106
528.859	111
529.074	94
529.289	98
529.503	115
529.718	94
529.933	94
530.148	100
530.363	99
530.577	99
530.792	99
531.007	109
531.221	94
531.436	96
531.651	102
531.865	92
532.08	99
532.295	108
532.509	110
532.724	116
532.938	100
533.153	117
533.367	114
533.582	120
533.796	87
534.011	110
534.225	101
534.44	99
534.654	101
534.868	129
535.083	155
535.297	150
535.511	87
535.726	95
535.94	105
536.154	93
536.369	103
536.583	90
536.797	110
537.011	108
537.225	113
537.44	114
537.654	108
537.868	117
538.082	88
538.296	118
538.51	99
538.724	107
538.938	108
539.153	111
539.367	92
539.581	106
539.795	96
540.009	101
540.222	101
540.436	102
540.65	106
540.864	95
541.078	103
541.292	99
541.506	93
541.72	107
541.934	94
542.147	110
542.361	105
542.575	101
542.789	105
543.002	104
543.216	95
543.43	94
543.644	111
543.857	119
544.071	109
544.285	121
544.498	100
544.712	101
544.925	115
545.139	102
545.352	111
545.566	110
545.779	120
545.993	117
546.206	106
546.42	123
546.633	124
546.847	120
547.06	144
547.274	153
547.487	157
547.7	159
547.914	153
548.127	173
548.34	174
548.554	187
548.767	170
548.98	164
549.193	178
549.407	198
549.62	180
549.833	220
550.046	232
550.259	241
550.473	238
550.686	241
550.899	277
551.112	301
551.325	298
551.538	338
551.751	310
551.964	312
552.177	313
552.39	312
552.603	322
552.816	308
553.029	324
553.242	312
553.455	337
553.667	346
553.88	360
554.093	399
554.306	396
554.519	410
554.732	388
554.944	355
555.157	364
555.37	366
555.583	328
555.795	321
556.008	320
556.221	282
556.433	266
556.646	272
556.859	255
557.071	228
557.284	228
557.496	213
557.709	202
557.921	206
558.134	178
558.346	223
558.559	204
558.771	181
558.984	282
559.196	332
559.409	229
559.621	288
559.833	240
560.046	268
560.258	233
560.47	236
560.683	173
560.895	126
561.107	137
561.32	130
561.532	132
561.744	131
561.956	126
562.168	129
562.381	119
562.593	134
562.805	113
563.017	126
563.229	130
563.441	114
563.653	116
563.865	124
564.077	122
564.289	112
564.501	120
564.713	117
564.925	120
565.137	90
565.349	129
565.561	115
565.773	101
565.985	109
566.197	122
566.408	95
566.62	109
566.832	117
567.044	106
567.255	118
567.467	114
567.679	131
567.891	97
568.102	118
568.314	104
568.526	106
568.737	135
568.949	116
569.161	107
569.372	122
569.584	110
569.795	115
570.007	110
570.218	116
570.43	102
570.641	115
570.853	114
571.064	110
571.276	115
571.487	120
571.698	109
571.91	110
572.121	108
572.333	114
572.544	122
572.755	123
572.966	111
573.178	111
573.389	116
573.6	114
573.811	110
574.023	102
574.234	111
574.445	97
574.656	127
574.867	101
575.078	109
575.289	97
575.501	106
575.712	98
575.923	105
576.134	90
576.345	111
576.556	95
576.767	107
576.978	102
577.188	104
577.399	107
577.61	94
577.821	88
578.032	94
578.243	97
578.454	108
578.665	98
578.875	103
579.086	102
579.297	105
579.508	90
579.718	103
579.929	91
580.14	95
580.35	111
580.561	104
580.772	102
580.982	98
581.193	104
581.403	109
581.614	95
581.825	101
582.035	96
582.246	98
582.456	96
582.667	96
582.877	100
583.087	98
583.298	120
583.508	98
