Data from 15780_2_HRD10591_00001.txt Node
Date: Mon Jan 19 14:19:04 EST 2026
User: Yrep
Spectrometer: HR+D1059
Trigger mode: 1
Integration Time (sec): 1.000000E-1
Scans to average: 1
Electric dark correction enabled: true
Nonlinearity correction enabled: false
Boxcar width: 0
XAxis mode: Wavelengths
Number of Pixels in Spectrum: 2048
>>>>>Begin Spectral Data<<<<<
223.165	-8.75
223.4	-8.75
223.635	-8.75
223.869	-17.75
224.104	-30.75
224.338	-15.75
224.573	-26.75
224.808	-8.75
225.042	-20.75
225.277	-4.75
225.511	14.25
225.746	6.25
225.98	13.25
226.215	11.25
226.449	22.25
226.683	18.25
226.918	19.25
227.152	29.25
227.387	36.25
227.621	25.25
227.856	33.25
228.09	38.25
228.324	47.25
228.559	57.25
228.793	63.25
229.027	59.25
229.262	73.25
229.496	50.25
229.73	54.25
229.964	76.25
230.199	74.25
230.433	69.25
230.667	85.25
230.901	69.25
231.136	83.25
231.37	79.25
231.604	67.25
231.838	74.25
232.072	74.25
232.306	74.25
232.541	75.25
232.775	74.25
233.009	74.25
233.243	82.25
233.477	75.25
233.711	85.25
233.945	82.25
234.179	102.25
234.413	74.25
234.647	65.25
234.881	91.25
235.115	89.25
235.349	86.25
235.583	74.25
235.817	67.25
236.051	72.25
236.285	85.25
236.519	72.25
236.753	75.25
236.987	68.25
237.221	75.25
237.455	81.25
237.689	90.25
237.922	71.25
238.156	70.25
238.39	70.25
238.624	81.25
238.858	73.25
239.091	61.25
239.325	68.25
239.559	71.25
239.793	71.25
240.027	55.25
240.26	63.25
240.494	64.25
240.728	75.25
240.961	65.25
241.195	82.25
241.429	74.25
241.662	64.25
241.896	65.25
242.13	68.25
242.363	74.25
242.597	84.25
242.83	75.25
243.064	73.25
243.298	73.25
243.531	80.25
243.765	75.25
243.998	70.25
244.232	80.25
244.465	77.25
244.699	69.25
244.932	77.25
245.166	78.25
245.399	81.25
245.633	74.25
245.866	67.25
246.099	69.25
246.333	69.25
246.566	65.25
246.8	82.25
247.033	61.25
247.266	77.25
247.5	91.25
247.733	72.25
247.966	88.25
248.2	57.25
248.433	77.25
248.666	73.25
248.899	86.25
249.133	77.25
249.366	80.25
249.599	76.25
249.832	73.25
250.066	84.25
250.299	78.25
250.532	65.25
250.765	84.25
250.998	81.25
251.231	80.25
251.465	73.25
251.698	67.25
251.931	78.25
252.164	81.25
252.397	83.25
252.63	68.25
252.863	75.25
253.096	76.25
253.329	87.25
253.562	83.25
253.795	75.25
254.028	65.25
254.261	77.25
254.494	65.25
254.727	80.25
254.96	69.25
255.193	73.25
255.426	59.25
255.659	81.25
255.892	83.25
256.124	73.25
256.357	93.25
256.59	64.25
256.823	82.25
257.056	74.25
257.289	90.25
257.521	76.25
257.754	76.25
257.987	87.25
258.22	81.25
258.452	78.25
258.685	77.25
258.918	80.25
259.151	71.25
259.383	73.25
259.616	73.25
259.849	85.25
260.081	77.25
260.314	75.25
260.547	74.25
260.779	82.25
261.012	79.25
261.244	81.25
261.477	71.25
261.71	86.25
261.942	79.25
262.175	80.25
262.407	56.25
262.64	84.25
262.872	81.25
263.105	92.25
263.337	82.25
263.57	81.25
263.802	79.25
264.035	86.25
264.267	85.25
264.499	69.25
264.732	66.25
264.964	85.25
265.197	72.25
265.429	85.25
265.661	73.25
265.894	87.25
266.126	91.25
266.358	91.25
266.591	93.25
266.823	89.25
267.055	84.25
267.287	72.25
267.52	79.25
267.752	79.25
267.984	73.25
268.216	88.25
268.448	73.25
268.681	65.25
268.913	86.25
269.145	77.25
269.377	90.25
269.609	76.25
269.841	90.25
270.073	78.25
270.306	79.25
270.538	76.25
270.77	73.25
271.002	81.25
271.234	74.25
271.466	85.25
271.698	83.25
271.93	79.25
272.162	81.25
272.394	83.25
272.626	88.25
272.858	97.25
273.09	73.25
273.322	71.25
273.553	89.25
273.785	80.25
274.017	93.25
274.249	90.25
274.481	87.25
274.713	82.25
274.945	77.25
275.176	88.25
275.408	87.25
275.64	86.25
275.872	85.25
276.104	82.25
276.335	71.25
276.567	70.25
276.799	72.25
277.031	67.25
277.262	90.25
277.494	75.25
277.726	81.25
277.957	70.25
278.189	81.25
278.421	81.25
278.652	79.25
278.884	65.25
279.115	83.25
279.347	85.25
279.579	74.25
279.81	72.25
280.042	83.25
280.273	65.25
280.505	79.25
280.736	83.25
280.968	82.25
281.199	86.25
281.431	73.25
281.662	81.25
281.894	82.25
282.125	89.25
282.356	83.25
282.588	86.25
282.819	86.25
283.051	83.25
283.282	76.25
283.513	88.25
283.745	91.25
283.976	72.25
284.207	96.25
284.439	81.25
284.67	69.25
284.901	79.25
285.132	81.25
285.364	87.25
285.595	86.25
285.826	85.25
286.057	87.25
286.288	71.25
286.52	71.25
286.751	80.25
286.982	83.25
287.213	82.25
287.444	82.25
287.675	79.25
287.906	72.25
288.138	72.25
288.369	95.25
288.6	89.25
288.831	71.25
289.062	74.25
289.293	95.25
289.524	71.25
289.755	87.25
289.986	73.25
290.217	90.25
290.448	79.25
290.679	94.25
290.91	91.25
291.141	84.25
291.371	95.25
291.602	77.25
291.833	82.25
292.064	97.25
292.295	94.25
292.526	102.25
292.757	84.25
292.987	105.25
293.218	79.25
293.449	90.25
293.68	88.25
293.91	82.25
294.141	90.25
294.372	83.25
294.603	83.25
294.833	80.25
295.064	71.25
295.295	81.25
295.525	83.25
295.756	82.25
295.987	81.25
296.217	81.25
296.448	90.25
296.679	92.25
296.909	83.25
297.14	79.25
297.37	76.25
297.601	97.25
297.831	68.25
298.062	87.25
298.292	90.25
298.523	88.25
298.753	94.25
298.984	73.25
299.214	89.25
299.445	92.25
299.675	77.25
299.905	82.25
300.136	89.25
300.366	85.25
300.597	85.25
300.827	89.25
301.057	60.25
301.288	98.25
301.518	83.25
301.748	88.25
301.979	109.25
302.209	81.25
302.439	84.25
302.669	87.25
302.9	88.25
303.13	72.25
303.36	77.25
303.59	87.25
303.82	68.25
304.051	90.25
304.281	85.25
304.511	95.25
304.741	81.25
304.971	85.25
305.201	79.25
305.431	82.25
305.661	83.25
305.891	78.25
306.121	74.25
306.352	67.25
306.582	73.25
306.812	84.25
307.042	81.25
307.272	88.25
307.502	70.25
307.731	78.25
307.961	81.25
308.191	86.25
308.421	93.25
308.651	77.25
308.881	88.25
309.111	89.25
309.341	111.25
309.571	87.25
309.8	84.25
310.03	90.25
310.26	97.25
310.49	94.25
310.72	86.25
310.949	71.25
311.179	86.25
311.409	80.25
311.639	81.25
311.868	97.25
312.098	79.25
312.328	90.25
312.557	90.25
312.787	70.25
313.017	86.25
313.246	81.25
313.476	70.25
313.706	81.25
313.935	93.25
314.165	87.25
314.394	98.25
314.624	90.25
314.853	93.25
315.083	80.25
315.312	90.25
315.542	82.25
315.771	76.25
316.001	86.25
316.23	87.25
316.46	80.25
316.689	83.25
316.919	84.25
317.148	75.25
317.377	76.25
317.607	83.25
317.836	94.25
318.065	78.25
318.295	102.25
318.524	96.25
318.753	84.25
318.983	85.25
319.212	79.25
319.441	97.25
319.67	79.25
319.9	79.25
320.129	73.25
320.358	89.25
320.587	86.25
320.816	89.25
321.046	79.25
321.275	73.25
321.504	66.25
321.733	81.25
321.962	87.25
322.191	85.25
322.42	81.25
322.649	73.25
322.878	85.25
323.108	91.25
323.337	73.25
323.566	97.25
323.795	77.25
324.024	86.25
324.253	80.25
324.482	85.25
324.71	98.25
324.939	100.25
325.168	85.25
325.397	89.25
325.626	85.25
325.855	78.25
326.084	77.25
326.313	73.25
326.542	80.25
326.77	84.25
326.999	74.25
327.228	83.25
327.457	84.25
327.686	97.25
327.914	72.25
328.143	86.25
328.372	95.25
328.6	99.25
328.829	79.25
329.058	92.25
329.287	82.25
329.515	66.25
329.744	78.25
329.972	69.25
330.201	87.25
330.43	81.25
330.658	89.25
330.887	86.25
331.115	87.25
331.344	99.25
331.572	86.25
331.801	102.25
332.03	90.25
332.258	77.25
332.486	80.25
332.715	73.25
332.943	85.25
333.172	95.25
333.4	71.25
333.629	85.25
333.857	78.25
334.085	87.25
334.314	83.25
334.542	74.25
334.771	88.25
334.999	85.25
335.227	91.25
335.455	85.25
335.684	107.25
335.912	89.25
336.14	91.25
336.369	92.25
336.597	90.25
336.825	75.25
337.053	66.25
337.281	78.25
337.51	73.25
337.738	92.25
337.966	77.25
338.194	74.25
338.422	72.25
338.65	82.25
338.878	92.25
339.106	83.25
339.334	82.25
339.562	86.25
339.79	81.25
340.018	78.25
340.246	89.25
340.474	81.25
340.702	84.25
340.93	85.25
341.158	83.25
341.386	79.25
341.614	75.25
341.842	87.25
342.07	70.25
342.298	78.25
342.526	86.25
342.754	74.25
342.981	89.25
343.209	79.25
343.437	90.25
343.665	88.25
343.893	96.25
344.12	83.25
344.348	92.25
344.576	95.25
344.804	85.25
345.031	88.25
345.259	81.25
345.487	72.25
345.714	95.25
345.942	89.25
346.17	79.25
346.397	86.25
346.625	79.25
346.853	95.25
347.08	78.25
347.308	90.25
347.535	85.25
347.763	89.25
347.99	80.25
348.218	89.25
348.445	82.25
348.673	71.25
348.9	101.25
349.128	90.25
349.355	96.25
349.583	73.25
349.81	86.25
350.037	79.25
350.265	75.25
350.492	92.25
350.72	93.25
350.947	78.25
351.174	75.25
351.402	95.25
351.629	94.25
351.856	91.25
352.083	94.25
352.311	98.25
352.538	82.25
352.765	78.25
352.992	82.25
353.22	86.25
353.447	89.25
353.674	88.25
353.901	94.25
354.128	84.25
354.355	84.25
354.583	82.25
354.81	76.25
355.037	91.25
355.264	79.25
355.491	75.25
355.718	95.25
355.945	83.25
356.172	94.25
356.399	87.25
356.626	101.25
356.853	95.25
357.08	98.25
357.307	90.25
357.534	82.25
357.761	84.25
357.988	88.25
358.215	95.25
358.441	93.25
358.668	81.25
358.895	75.25
359.122	90.25
359.349	91.25
359.576	85.25
359.802	88.25
360.029	95.25
360.256	89.25
360.483	91.25
360.709	85.25
360.936	87.25
361.163	74.25
361.39	88.25
361.616	83.25
361.843	90.25
362.07	89.25
362.296	92.25
362.523	79.25
362.749	106.25
362.976	98.25
363.203	113.25
363.429	94.25
363.656	82.25
363.882	89.25
364.109	100.25
364.335	115.25
364.562	118.25
364.788	96.25
365.015	74.25
365.241	96.25
365.468	98.25
365.694	85.25
365.92	92.25
366.147	81.25
366.373	85.25
366.599	83.25
366.826	95.25
367.052	87.25
367.278	69.25
367.505	78.25
367.731	90.25
367.957	81.25
368.184	73.25
368.41	87.25
368.636	83.25
368.862	87.25
369.089	82.25
369.315	82.25
369.541	87.25
369.767	89.25
369.993	82.25
370.219	85.25
370.445	90.25
370.672	85.25
370.898	73.25
371.124	89.25
371.35	78.25
371.576	91.25
371.802	87.25
372.028	80.25
372.254	85.25
372.48	94.25
372.706	81.25
372.932	91.25
373.158	77.25
373.384	89.25
373.61	97.25
373.835	87.25
374.061	109.25
374.287	90.25
374.513	86.25
374.739	98.25
374.965	100.25
375.191	82.25
375.416	107.25
375.642	81.25
375.868	99.25
376.094	87.25
376.319	79.25
376.545	90.25
376.771	67.25
376.997	104.25
377.222	86.25
377.448	95.25
377.674	85.25
377.899	84.25
378.125	91.25
378.35	78.25
378.576	78.25
378.802	96.25
379.027	91.25
379.253	86.25
379.478	77.25
379.704	81.25
379.929	84.25
380.155	71.25
380.38	86.25
380.606	83.25
380.831	88.25
381.057	94.25
381.282	91.25
381.507	83.25
381.733	103.25
381.958	91.25
382.184	102.25
382.409	88.25
382.634	102.25
382.86	98.25
383.085	98.25
383.31	92.25
383.535	95.25
383.761	83.25
383.986	100.25
384.211	82.25
384.436	83.25
384.662	92.25
384.887	97.25
385.112	83.25
385.337	97.25
385.562	85.25
385.787	92.25
386.013	79.25
386.238	88.25
386.463	81.25
386.688	99.25
386.913	81.25
387.138	97.25
387.363	90.25
387.588	96.25
387.813	91.25
388.038	105.25
388.263	94.25
388.488	85.25
388.713	86.25
388.938	90.25
389.163	89.25
389.387	96.25
389.612	91.25
389.837	88.25
390.062	96.25
390.287	94.25
390.512	81.25
390.736	87.25
390.961	80.25
391.186	97.25
391.411	77.25
391.636	93.25
391.86	86.25
392.085	89.25
392.31	83.25
392.534	94.25
392.759	85.25
392.984	111.25
393.208	136.25
393.433	178.25
393.658	151.25
393.882	115.25
394.107	86.25
394.331	99.25
394.556	96.25
394.78	101.25
395.005	97.25
395.229	97.25
395.454	92.25
395.678	92.25
395.903	108.25
396.127	111.25
396.352	115.25
396.576	111.25
396.801	151.25
397.025	142.25
397.249	117.25
397.474	105.25
397.698	102.25
397.922	86.25
398.147	100.25
398.371	84.25
398.595	89.25
398.82	84.25
399.044	96.25
399.268	86.25
399.492	97.25
399.717	87.25
399.941	88.25
400.165	85.25
400.389	78.25
400.613	81.25
400.837	69.25
401.062	87.25
401.286	82.25
401.51	85.25
401.734	91.25
401.958	76.25
402.182	87.25
402.406	88.25
402.63	81.25
402.854	79.25
403.078	92.25
403.302	102.25
403.526	101.25
403.75	95.25
403.974	93.25
404.198	85.25
404.422	93.25
404.645	98.25
404.869	83.25
405.093	85.25
405.317	83.25
405.541	89.25
405.765	89.25
405.988	90.25
406.212	76.25
406.436	77.25
406.66	86.25
406.883	71.25
407.107	90.25
407.331	83.25
407.555	110.25
407.778	89.25
408.002	101.25
408.226	90.25
408.449	78.25
408.673	89.25
408.896	89.25
409.12	83.25
409.344	87.25
409.567	93.25
409.791	82.25
410.014	91.25
410.238	91.25
410.461	85.25
410.685	85.25
410.908	83.25
411.132	93.25
411.355	84.25
411.578	70.25
411.802	88.25
412.025	97.25
412.249	56.25
412.472	81.25
412.695	88.25
412.919	85.25
413.142	88.25
413.365	93.25
413.589	70.25
413.812	93.25
414.035	92.25
414.258	91.25
414.482	71.25
414.705	76.25
414.928	81.25
415.151	87.25
415.374	83.25
415.597	95.25
415.821	81.25
416.044	85.25
416.267	94.25
416.49	83.25
416.713	89.25
416.936	84.25
417.159	81.25
417.382	78.25
417.605	82.25
417.828	91.25
418.051	103.25
418.274	81.25
418.497	86.25
418.72	85.25
418.943	82.25
419.166	86.25
419.389	90.25
419.611	84.25
419.834	92.25
420.057	89.25
420.28	76.25
420.503	94.25
420.726	92.25
420.948	99.25
421.171	89.25
421.394	99.25
421.617	109.25
421.839	104.25
422.062	127.25
422.285	145.25
422.507	201.25
422.73	243.25
422.953	231.25
423.175	175.25
423.398	125.25
423.621	97.25
423.843	107.25
424.066	100.25
424.288	90.25
424.511	94.25
424.733	94.25
424.956	91.25
425.178	89.25
425.401	87.25
425.623	76.25
425.846	83.25
426.068	86.25
426.291	83.25
426.513	79.25
426.735	76.25
426.958	84.25
427.18	102.25
427.402	96.25
427.625	77.25
427.847	84.25
428.069	97.25
428.292	93.25
428.514	115.25
428.736	97.25
428.958	107.25
429.181	109.25
429.403	103.25
429.625	97.25
429.847	99.25
430.069	130.25
430.292	147.25
430.514	134.25
430.736	115.25
430.958	118.25
431.18	111.25
431.402	91.25
431.624	93.25
431.846	87.25
432.068	107.25
432.29	96.25
432.512	86.25
432.734	94.25
432.956	83.25
433.178	80.25
433.4	81.25
433.622	81.25
433.844	98.25
434.066	74.25
434.287	81.25
434.509	87.25
434.731	75.25
434.953	82.25
435.175	87.25
435.397	94.25
435.618	89.25
435.84	90.25
436.062	99.25
436.284	74.25
436.505	68.25
436.727	74.25
436.949	93.25
437.17	83.25
437.392	81.25
437.614	82.25
437.835	83.25
438.057	72.25
438.278	85.25
438.5	82.25
438.721	99.25
438.943	90.25
439.165	85.25
439.386	82.25
439.608	80.25
439.829	75.25
440.05	81.25
440.272	93.25
440.493	89.25
440.715	91.25
440.936	76.25
441.158	93.25
441.379	98.25
441.6	78.25
441.822	98.25
442.043	86.25
442.264	97.25
442.486	97.25
442.707	112.25
442.928	97.25
443.149	103.25
443.371	120.25
443.592	189.25
443.813	164.25
444.034	103.25
444.255	102.25
444.476	84.25
444.698	79.25
444.919	81.25
445.14	152.25
445.361	160.25
445.582	194.25
445.803	175.25
446.024	117.25
446.245	89.25
446.466	97.25
446.687	86.25
446.908	79.25
447.129	66.25
447.35	81.25
447.571	85.25
447.792	85.25
448.013	90.25
448.234	81.25
448.455	84.25
448.675	72.25
448.896	88.25
449.117	76.25
449.338	85.25
449.559	86.25
449.779	86.25
450	89.25
450.221	86.25
450.442	86.25
450.662	79.25
450.883	85.25
451.104	82.25
451.324	86.25
451.545	72.25
451.766	89.25
451.986	85.25
452.207	104.25
452.428	94.25
452.648	89.25
452.869	91.25
453.089	89.25
453.31	92.25
453.53	96.25
453.751	85.25
453.971	91.25
454.192	90.25
454.412	81.25
454.633	72.25
454.853	89.25
455.073	81.25
455.294	78.25
455.514	77.25
455.734	91.25
455.955	92.25
456.175	91.25
456.395	85.25
456.616	85.25
456.836	81.25
457.056	82.25
457.276	87.25
457.497	86.25
457.717	72.25
457.937	96.25
458.157	113.25
458.377	108.25
458.598	95.25
458.818	105.25
459.038	108.25
459.258	86.25
459.478	75.25
459.698	79.25
459.918	95.25
460.138	81.25
460.358	77.25
460.578	94.25
460.798	111.25
461.018	98.25
461.238	86.25
461.458	102.25
461.678	86.25
461.898	91.25
462.118	74.25
462.338	83.25
462.558	83.25
462.777	93.25
462.997	79.25
463.217	85.25
463.437	89.25
463.657	96.25
463.876	79.25
464.096	93.25
464.316	83.25
464.536	77.25
464.755	86.25
464.975	81.25
465.195	79.25
465.414	83.25
465.634	90.25
465.854	73.25
466.073	73.25
466.293	90.25
466.512	73.25
466.732	81.25
466.951	98.25
467.171	86.25
467.391	81.25
467.61	91.25
467.829	89.25
468.049	85.25
468.268	93.25
468.488	83.25
468.707	89.25
468.927	75.25
469.146	93.25
469.365	86.25
469.585	85.25
469.804	81.25
470.023	92.25
470.243	87.25
470.462	90.25
470.681	81.25
470.901	81.25
471.12	89.25
471.339	67.25
471.558	81.25
471.777	74.25
471.997	93.25
472.216	74.25
472.435	90.25
472.654	97.25
472.873	95.25
473.092	87.25
473.311	95.25
473.53	95.25
473.749	84.25
473.968	100.25
474.187	98.25
474.406	84.25
474.625	83.25
474.844	83.25
475.063	61.25
475.282	89.25
475.501	74.25
475.72	76.25
475.939	95.25
476.158	95.25
476.377	86.25
476.596	80.25
476.814	91.25
477.033	69.25
477.252	92.25
477.471	75.25
477.69	99.25
477.908	94.25
478.127	106.25
478.346	79.25
478.564	79.25
478.783	83.25
479.002	80.25
479.22	81.25
479.439	88.25
479.658	86.25
479.876	84.25
480.095	77.25
480.313	89.25
480.532	75.25
480.751	97.25
480.969	95.25
481.188	75.25
481.406	87.25
481.624	97.25
481.843	97.25
482.061	79.25
482.28	92.25
482.498	91.25
482.717	87.25
482.935	88.25
483.153	90.25
483.372	93.25
483.59	79.25
483.808	85.25
484.027	79.25
484.245	90.25
484.463	106.25
484.681	97.25
484.9	95.25
485.118	89.25
485.336	77.25
485.554	73.25
485.772	102.25
485.99	89.25
486.209	85.25
486.427	87.25
486.645	73.25
486.863	88.25
487.081	98.25
487.299	87.25
487.517	94.25
487.735	104.25
487.953	146.25
488.171	117.25
488.389	93.25
488.607	87.25
488.825	91.25
489.043	94.25
489.261	101.25
489.479	96.25
489.696	88.25
489.914	95.25
490.132	88.25
490.35	88.25
490.568	90.25
490.786	82.25
491.003	93.25
491.221	91.25
491.439	97.25
491.657	86.25
491.874	97.25
492.092	97.25
492.31	90.25
492.527	85.25
492.745	95.25
492.963	89.25
493.18	86.25
493.398	78.25
493.615	100.25
493.833	98.25
494.05	89.25
494.268	84.25
494.485	82.25
494.703	98.25
494.92	90.25
495.138	98.25
495.355	93.25
495.573	91.25
495.79	98.25
496.008	85.25
496.225	105.25
496.442	97.25
496.66	96.25
496.877	82.25
497.094	96.25
497.312	101.25
497.529	93.25
497.746	100.25
497.963	92.25
498.181	94.25
498.398	97.25
498.615	88.25
498.832	92.25
499.049	95.25
499.267	99.25
499.484	109.25
499.701	99.25
499.918	86.25
500.135	103.25
500.352	93.25
500.569	81.25
500.786	102.25
501.003	90.25
501.22	85.25
501.437	97.25
501.654	100.25
501.871	90.25
502.088	91.25
502.305	94.25
502.522	74.25
502.739	95.25
502.956	94.25
503.172	96.25
503.389	101.25
503.606	91.25
503.823	101.25
504.04	102.25
504.256	123.25
504.473	133.25
504.69	95.25
504.907	97.25
505.123	89.25
505.34	81.25
505.557	105.25
505.773	83.25
505.99	77.25
506.207	82.25
506.423	92.25
506.64	76.25
506.856	77.25
507.073	97.25
507.289	85.25
507.506	93.25
507.722	81.25
507.939	108.25
508.155	87.25
508.372	101.25
508.588	83.25
508.805	81.25
509.021	82.25
509.238	95.25
509.454	85.25
509.67	98.25
509.887	93.25
510.103	82.25
510.319	80.25
510.536	81.25
510.752	86.25
510.968	98.25
511.184	91.25
511.401	89.25
511.617	89.25
511.833	86.25
512.049	98.25
512.265	90.25
512.481	102.25
512.698	100.25
512.914	82.25
513.13	94.25
513.346	91.25
513.562	86.25
513.778	89.25
513.994	95.25
514.21	97.25
514.426	87.25
514.642	88.25
514.858	96.25
515.074	100.25
515.29	93.25
515.506	91.25
515.721	94.25
515.937	88.25
516.153	95.25
516.369	79.25
516.585	81.25
516.801	100.25
517.016	78.25
517.232	97.25
517.448	91.25
517.664	88.25
517.879	94.25
518.095	86.25
518.311	91.25
518.527	111.25
518.742	91.25
