Data from 15780_2_HRD10591_00013.txt Node
Date: Mon Jan 19 14:19:10 EST 2026
User: Yrep
Spectrometer: HR+D1059
Trigger mode: 1
Integration Time (sec): 1.000000E-1
Scans to average: 1
Electric dark correction enabled: true
Nonlinearity correction enabled: false
Boxcar width: 0
XAxis mode: Wavelengths
Number of Pixels in Spectrum: 2048
>>>>>Begin Spectral Data<<<<<
223.165	-10.06
223.4	-10.06
223.635	-10.06
223.869	-22.06
224.104	-28.06
224.338	-18.06
224.573	-15.06
224.808	-12.06
225.042	-4.06
225.277	-2.06
225.511	4.94
225.746	-0.06
225.98	-6.06
226.215	13.94
226.449	25.94
226.683	22.94
226.918	16.94
227.152	32.94
227.387	31.94
227.621	32.94
227.856	37.94
228.09	36.94
228.324	48.94
228.559	51.94
228.793	67.94
229.027	69.94
229.262	63.94
229.496	57.94
229.73	60.94
229.964	76.94
230.199	75.94
230.433	65.94
230.667	66.94
230.901	59.94
231.136	73.94
231.37	72.94
231.604	73.94
231.838	87.94
232.072	86.94
232.306	84.94
232.541	76.94
232.775	80.94
233.009	76.94
233.243	91.94
233.477	79.94
233.711	82.94
233.945	77.94
234.179	81.94
234.413	77.94
234.647	76.94
234.881	82.94
235.115	76.94
235.349	78.94
235.583	84.94
235.817	90.94
236.051	88.94
236.285	82.94
236.519	76.94
236.753	78.94
236.987	81.94
237.221	73.94
237.455	73.94
237.689	77.94
237.922	80.94
238.156	79.94
238.39	74.94
238.624	69.94
238.858	61.94
239.091	65.94
239.325	72.94
239.559	76.94
239.793	85.94
240.027	87.94
240.26	77.94
240.494	74.94
240.728	74.94
240.961	67.94
241.195	71.94
241.429	64.94
241.662	68.94
241.896	92.94
242.13	80.94
242.363	84.94
242.597	77.94
242.83	81.94
243.064	70.94
243.298	83.94
243.531	82.94
243.765	68.94
243.998	89.94
244.232	81.94
244.465	68.94
244.699	66.94
244.932	64.94
245.166	84.94
245.399	84.94
245.633	79.94
245.866	79.94
246.099	85.94
246.333	82.94
246.566	70.94
246.8	89.94
247.033	73.94
247.266	77.94
247.5	81.94
247.733	73.94
247.966	71.94
248.2	71.94
248.433	71.94
248.666	76.94
248.899	73.94
249.133	78.94
249.366	87.94
249.599	77.94
249.832	83.94
250.066	87.94
250.299	70.94
250.532	81.94
250.765	84.94
250.998	73.94
251.231	83.94
251.465	87.94
251.698	84.94
251.931	88.94
252.164	76.94
252.397	76.94
252.63	70.94
252.863	64.94
253.096	73.94
253.329	84.94
253.562	75.94
253.795	84.94
254.028	84.94
254.261	93.94
254.494	72.94
254.727	77.94
254.96	81.94
255.193	77.94
255.426	68.94
255.659	74.94
255.892	84.94
256.124	81.94
256.357	71.94
256.59	77.94
256.823	103.94
257.056	83.94
257.289	80.94
257.521	87.94
257.754	73.94
257.987	69.94
258.22	80.94
258.452	78.94
258.685	76.94
258.918	77.94
259.151	88.94
259.383	78.94
259.616	88.94
259.849	81.94
260.081	69.94
260.314	67.94
260.547	77.94
260.779	82.94
261.012	75.94
261.244	71.94
261.477	77.94
261.71	80.94
261.942	78.94
262.175	86.94
262.407	72.94
262.64	71.94
262.872	64.94
263.105	80.94
263.337	80.94
263.57	85.94
263.802	84.94
264.035	80.94
264.267	77.94
264.499	69.94
264.732	80.94
264.964	81.94
265.197	77.94
265.429	75.94
265.661	95.94
265.894	88.94
266.126	78.94
266.358	75.94
266.591	77.94
266.823	76.94
267.055	73.94
267.287	80.94
267.52	73.94
267.752	76.94
267.984	83.94
268.216	87.94
268.448	75.94
268.681	89.94
268.913	87.94
269.145	91.94
269.377	87.94
269.609	78.94
269.841	68.94
270.073	79.94
270.306	70.94
270.538	67.94
270.77	81.94
271.002	91.94
271.234	80.94
271.466	87.94
271.698	69.94
271.93	81.94
272.162	87.94
272.394	83.94
272.626	89.94
272.858	83.94
273.09	83.94
273.322	86.94
273.553	89.94
273.785	77.94
274.017	83.94
274.249	85.94
274.481	96.94
274.713	72.94
274.945	90.94
275.176	83.94
275.408	95.94
275.64	76.94
275.872	77.94
276.104	76.94
276.335	77.94
276.567	75.94
276.799	75.94
277.031	78.94
277.262	83.94
277.494	84.94
277.726	82.94
277.957	81.94
278.189	74.94
278.421	77.94
278.652	83.94
278.884	76.94
279.115	91.94
279.347	80.94
279.579	91.94
279.81	83.94
280.042	91.94
280.273	81.94
280.505	69.94
280.736	74.94
280.968	92.94
281.199	87.94
281.431	80.94
281.662	91.94
281.894	83.94
282.125	91.94
282.356	60.94
282.588	88.94
282.819	86.94
283.051	85.94
283.282	81.94
283.513	76.94
283.745	85.94
283.976	90.94
284.207	75.94
284.439	83.94
284.67	88.94
284.901	71.94
285.132	85.94
285.364	88.94
285.595	93.94
285.826	76.94
286.057	89.94
286.288	87.94
286.52	75.94
286.751	75.94
286.982	87.94
287.213	84.94
287.444	82.94
287.675	67.94
287.906	80.94
288.138	77.94
288.369	70.94
288.6	81.94
288.831	95.94
289.062	84.94
289.293	84.94
289.524	86.94
289.755	85.94
289.986	92.94
290.217	79.94
290.448	92.94
290.679	83.94
290.91	91.94
291.141	81.94
291.371	92.94
291.602	80.94
291.833	91.94
292.064	85.94
292.295	79.94
292.526	83.94
292.757	83.94
292.987	87.94
293.218	91.94
293.449	84.94
293.68	89.94
293.91	72.94
294.141	86.94
294.372	83.94
294.603	82.94
294.833	85.94
295.064	67.94
295.295	76.94
295.525	78.94
295.756	97.94
295.987	67.94
296.217	83.94
296.448	85.94
296.679	84.94
296.909	83.94
297.14	71.94
297.37	84.94
297.601	69.94
297.831	83.94
298.062	82.94
298.292	80.94
298.523	93.94
298.753	72.94
298.984	94.94
299.214	101.94
299.445	90.94
299.675	77.94
299.905	83.94
300.136	82.94
300.366	85.94
300.597	94.94
300.827	98.94
301.057	96.94
301.288	95.94
301.518	89.94
301.748	99.94
301.979	98.94
302.209	89.94
302.439	74.94
302.669	91.94
302.9	74.94
303.13	81.94
303.36	81.94
303.59	86.94
303.82	74.94
304.051	93.94
304.281	99.94
304.511	85.94
304.741	77.94
304.971	85.94
305.201	88.94
305.431	88.94
305.661	91.94
305.891	93.94
306.121	101.94
306.352	76.94
306.582	99.94
306.812	86.94
307.042	92.94
307.272	87.94
307.502	90.94
307.731	75.94
307.961	97.94
308.191	90.94
308.421	81.94
308.651	81.94
308.881	91.94
309.111	84.94
309.341	87.94
309.571	95.94
309.8	80.94
310.03	84.94
310.26	95.94
310.49	88.94
310.72	91.94
310.949	75.94
311.179	89.94
311.409	95.94
311.639	85.94
311.868	87.94
312.098	91.94
312.328	88.94
312.557	69.94
312.787	83.94
313.017	99.94
313.246	73.94
313.476	74.94
313.706	72.94
313.935	72.94
314.165	73.94
314.394	79.94
314.624	77.94
314.853	89.94
315.083	84.94
315.312	82.94
315.542	77.94
315.771	82.94
316.001	100.94
316.23	73.94
316.46	89.94
316.689	86.94
316.919	75.94
317.148	76.94
317.377	97.94
317.607	83.94
317.836	96.94
318.065	73.94
318.295	90.94
318.524	83.94
318.753	76.94
318.983	89.94
319.212	81.94
319.441	83.94
319.67	89.94
319.9	90.94
320.129	79.94
320.358	93.94
320.587	87.94
320.816	95.94
321.046	86.94
321.275	97.94
321.504	81.94
321.733	76.94
321.962	75.94
322.191	80.94
322.42	79.94
322.649	77.94
322.878	96.94
323.108	96.94
323.337	78.94
323.566	87.94
323.795	70.94
324.024	93.94
324.253	91.94
324.482	86.94
324.71	74.94
324.939	83.94
325.168	88.94
325.397	81.94
325.626	87.94
325.855	84.94
326.084	77.94
326.313	75.94
326.542	89.94
326.77	93.94
326.999	99.94
327.228	66.94
327.457	81.94
327.686	88.94
327.914	98.94
328.143	78.94
328.372	79.94
328.6	85.94
328.829	76.94
329.058	90.94
329.287	84.94
329.515	89.94
329.744	75.94
329.972	73.94
330.201	84.94
330.43	83.94
330.658	93.94
330.887	79.94
331.115	91.94
331.344	80.94
331.572	79.94
331.801	85.94
332.03	79.94
332.258	80.94
332.486	71.94
332.715	86.94
332.943	75.94
333.172	87.94
333.4	75.94
333.629	67.94
333.857	75.94
334.085	92.94
334.314	85.94
334.542	83.94
334.771	77.94
334.999	89.94
335.227	84.94
335.455	96.94
335.684	86.94
335.912	84.94
336.14	94.94
336.369	80.94
336.597	92.94
336.825	88.94
337.053	73.94
337.281	83.94
337.51	82.94
337.738	84.94
337.966	82.94
338.194	70.94
338.422	69.94
338.65	67.94
338.878	69.94
339.106	81.94
339.334	92.94
339.562	75.94
339.79	86.94
340.018	80.94
340.246	69.94
340.474	73.94
340.702	70.94
340.93	98.94
341.158	85.94
341.386	85.94
341.614	89.94
341.842	88.94
342.07	76.94
342.298	94.94
342.526	79.94
342.754	86.94
342.981	89.94
343.209	82.94
343.437	116.94
343.665	95.94
343.893	99.94
344.12	86.94
344.348	87.94
344.576	88.94
344.804	78.94
345.031	79.94
345.259	87.94
345.487	85.94
345.714	89.94
345.942	93.94
346.17	88.94
346.397	73.94
346.625	84.94
346.853	71.94
347.08	87.94
347.308	78.94
347.535	85.94
347.763	85.94
347.99	102.94
348.218	89.94
348.445	90.94
348.673	89.94
348.9	88.94
349.128	84.94
349.355	95.94
349.583	95.94
349.81	83.94
350.037	88.94
350.265	93.94
350.492	77.94
350.72	79.94
350.947	83.94
351.174	83.94
351.402	76.94
351.629	85.94
351.856	76.94
352.083	87.94
352.311	87.94
352.538	85.94
352.765	84.94
352.992	89.94
353.22	92.94
353.447	98.94
353.674	77.94
353.901	85.94
354.128	87.94
354.355	67.94
354.583	82.94
354.81	85.94
355.037	77.94
355.264	84.94
355.491	93.94
355.718	78.94
355.945	79.94
356.172	84.94
356.399	93.94
356.626	97.94
356.853	75.94
357.08	84.94
357.307	81.94
357.534	97.94
357.761	85.94
357.988	91.94
358.215	98.94
358.441	85.94
358.668	89.94
358.895	93.94
359.122	84.94
359.349	94.94
359.576	99.94
359.802	75.94
360.029	84.94
360.256	99.94
360.483	76.94
360.709	91.94
360.936	84.94
361.163	75.94
361.39	67.94
361.616	73.94
361.843	97.94
362.07	97.94
362.296	99.94
362.523	82.94
362.749	93.94
362.976	98.94
363.203	108.94
363.429	78.94
363.656	103.94
363.882	96.94
364.109	102.94
364.335	102.94
364.562	92.94
364.788	100.94
365.015	89.94
365.241	89.94
365.468	85.94
365.694	95.94
365.92	81.94
366.147	89.94
366.373	84.94
366.599	82.94
366.826	91.94
367.052	92.94
367.278	93.94
367.505	81.94
367.731	99.94
367.957	94.94
368.184	81.94
368.41	89.94
368.636	82.94
368.862	87.94
369.089	97.94
369.315	76.94
369.541	77.94
369.767	85.94
369.993	79.94
370.219	89.94
370.445	90.94
370.672	92.94
370.898	77.94
371.124	72.94
371.35	73.94
371.576	100.94
371.802	100.94
372.028	96.94
372.254	87.94
372.48	91.94
372.706	97.94
372.932	84.94
373.158	85.94
373.384	84.94
373.61	93.94
373.835	91.94
374.061	99.94
374.287	86.94
374.513	90.94
374.739	93.94
374.965	81.94
375.191	104.94
375.416	91.94
375.642	83.94
375.868	97.94
376.094	97.94
376.319	84.94
376.545	82.94
376.771	80.94
376.997	78.94
377.222	81.94
377.448	74.94
377.674	88.94
377.899	73.94
378.125	81.94
378.35	83.94
378.576	88.94
378.802	84.94
379.027	98.94
379.253	77.94
379.478	87.94
379.704	83.94
379.929	99.94
380.155	76.94
380.38	97.94
380.606	80.94
380.831	87.94
381.057	89.94
381.282	80.94
381.507	89.94
381.733	83.94
381.958	86.94
382.184	90.94
382.409	91.94
382.634	103.94
382.86	92.94
383.085	98.94
383.31	100.94
383.535	90.94
383.761	98.94
383.986	108.94
384.211	76.94
384.436	90.94
384.662	77.94
384.887	88.94
385.112	87.94
385.337	83.94
385.562	82.94
385.787	85.94
386.013	91.94
386.238	89.94
386.463	96.94
386.688	88.94
386.913	83.94
387.138	95.94
387.363	103.94
387.588	95.94
387.813	99.94
388.038	92.94
388.263	97.94
388.488	83.94
388.713	87.94
388.938	79.94
389.163	84.94
389.387	100.94
389.612	82.94
389.837	91.94
390.062	77.94
390.287	87.94
390.512	90.94
390.736	81.94
390.961	78.94
391.186	80.94
391.411	93.94
391.636	88.94
391.86	87.94
392.085	96.94
392.31	98.94
392.534	86.94
392.759	107.94
392.984	125.94
393.208	155.94
393.433	209.94
393.658	180.94
393.882	110.94
394.107	96.94
394.331	108.94
394.556	96.94
394.78	106.94
395.005	80.94
395.229	85.94
395.454	93.94
395.678	79.94
395.903	106.94
396.127	118.94
396.352	113.94
396.576	129.94
396.801	158.94
397.025	169.94
397.249	128.94
397.474	108.94
397.698	73.94
397.922	84.94
398.147	82.94
398.371	73.94
398.595	75.94
398.82	89.94
399.044	76.94
399.268	85.94
399.492	80.94
399.717	81.94
399.941	84.94
400.165	56.94
400.389	93.94
400.613	73.94
400.837	88.94
401.062	77.94
401.286	84.94
401.51	91.94
401.734	91.94
401.958	80.94
402.182	66.94
402.406	63.94
402.63	76.94
402.854	88.94
403.078	84.94
403.302	85.94
403.526	70.94
403.75	76.94
403.974	83.94
404.198	83.94
404.422	84.94
404.645	89.94
404.869	92.94
405.093	84.94
405.317	73.94
405.541	69.94
405.765	82.94
405.988	75.94
406.212	89.94
406.436	74.94
406.66	76.94
406.883	79.94
407.107	93.94
407.331	101.94
407.555	89.94
407.778	99.94
408.002	112.94
408.226	81.94
408.449	84.94
408.673	72.94
408.896	89.94
409.12	85.94
409.344	90.94
409.567	86.94
409.791	90.94
410.014	91.94
410.238	85.94
410.461	88.94
410.685	88.94
410.908	69.94
411.132	96.94
411.355	80.94
411.578	88.94
411.802	88.94
412.025	83.94
412.249	76.94
412.472	69.94
412.695	85.94
412.919	84.94
413.142	81.94
413.365	88.94
413.589	77.94
413.812	94.94
414.035	83.94
414.258	72.94
414.482	80.94
414.705	88.94
414.928	75.94
415.151	93.94
415.374	79.94
415.597	85.94
415.821	95.94
416.044	83.94
416.267	84.94
416.49	94.94
416.713	81.94
416.936	82.94
417.159	88.94
417.382	84.94
417.605	91.94
417.828	87.94
418.051	76.94
418.274	88.94
418.497	76.94
418.72	83.94
418.943	80.94
419.166	95.94
419.389	83.94
419.611	82.94
419.834	78.94
420.057	82.94
420.28	74.94
420.503	83.94
420.726	89.94
420.948	81.94
421.171	75.94
421.394	80.94
421.617	97.94
421.839	86.94
422.062	114.94
422.285	131.94
422.507	196.94
422.73	272.94
422.953	259.94
423.175	154.94
423.398	98.94
423.621	99.94
423.843	108.94
424.066	76.94
424.288	94.94
424.511	104.94
424.733	81.94
424.956	77.94
425.178	81.94
425.401	90.94
425.623	93.94
425.846	83.94
426.068	92.94
426.291	80.94
426.513	88.94
426.735	75.94
426.958	74.94
427.18	88.94
427.402	99.94
427.625	79.94
427.847	86.94
428.069	93.94
428.292	100.94
428.514	100.94
428.736	94.94
428.958	108.94
429.181	114.94
429.403	78.94
429.625	82.94
429.847	105.94
430.069	130.94
430.292	129.94
430.514	120.94
430.736	97.94
430.958	117.94
431.18	89.94
431.402	88.94
431.624	91.94
431.846	90.94
432.068	109.94
432.29	87.94
432.512	88.94
432.734	90.94
432.956	79.94
433.178	79.94
433.4	83.94
433.622	76.94
433.844	87.94
434.066	83.94
434.287	89.94
434.509	85.94
434.731	94.94
434.953	85.94
435.175	82.94
435.397	84.94
435.618	82.94
435.84	89.94
436.062	87.94
436.284	79.94
436.505	66.94
436.727	76.94
436.949	82.94
437.17	95.94
437.392	85.94
437.614	97.94
437.835	84.94
438.057	95.94
438.278	90.94
438.5	85.94
438.721	84.94
438.943	83.94
439.165	84.94
439.386	77.94
439.608	75.94
439.829	97.94
440.05	89.94
440.272	81.94
440.493	80.94
440.715	82.94
440.936	79.94
441.158	92.94
441.379	89.94
441.6	89.94
441.822	89.94
442.043	76.94
442.264	91.94
442.486	98.94
442.707	124.94
442.928	105.94
443.149	103.94
443.371	92.94
443.592	155.94
443.813	143.94
444.034	89.94
444.255	95.94
444.476	82.94
444.698	84.94
444.919	101.94
445.14	163.94
445.361	152.94
445.582	189.94
445.803	152.94
446.024	105.94
446.245	99.94
446.466	81.94
446.687	73.94
446.908	88.94
447.129	85.94
447.35	69.94
447.571	81.94
447.792	99.94
448.013	68.94
448.234	88.94
448.455	99.94
448.675	73.94
448.896	87.94
449.117	81.94
449.338	79.94
449.559	86.94
449.779	92.94
450	94.94
450.221	88.94
450.442	89.94
450.662	81.94
450.883	79.94
451.104	76.94
451.324	75.94
451.545	70.94
451.766	94.94
451.986	86.94
452.207	86.94
452.428	78.94
452.648	86.94
452.869	100.94
453.089	91.94
453.31	95.94
453.53	93.94
453.751	87.94
453.971	97.94
454.192	90.94
454.412	75.94
454.633	83.94
454.853	93.94
455.073	61.94
455.294	72.94
455.514	88.94
455.734	93.94
455.955	76.94
456.175	90.94
456.395	92.94
456.616	90.94
456.836	89.94
457.056	68.94
457.276	82.94
457.497	98.94
457.717	98.94
457.937	84.94
458.157	105.94
458.377	104.94
458.598	98.94
458.818	108.94
459.038	90.94
459.258	92.94
459.478	95.94
459.698	88.94
459.918	77.94
460.138	76.94
460.358	85.94
460.578	94.94
460.798	115.94
461.018	84.94
461.238	91.94
461.458	85.94
461.678	75.94
461.898	84.94
462.118	91.94
462.338	81.94
462.558	83.94
462.777	87.94
462.997	84.94
463.217	89.94
463.437	95.94
463.657	89.94
463.876	69.94
464.096	72.94
464.316	92.94
464.536	76.94
464.755	78.94
464.975	73.94
465.195	89.94
465.414	77.94
465.634	85.94
465.854	91.94
466.073	78.94
466.293	71.94
466.512	80.94
466.732	82.94
466.951	81.94
467.171	93.94
467.391	92.94
467.61	85.94
467.829	96.94
468.049	99.94
468.268	88.94
468.488	91.94
468.707	95.94
468.927	76.94
469.146	84.94
469.365	69.94
469.585	86.94
469.804	75.94
470.023	83.94
470.243	95.94
470.462	81.94
470.681	78.94
470.901	79.94
471.12	83.94
471.339	74.94
471.558	86.94
471.777	91.94
471.997	86.94
472.216	65.94
472.435	83.94
472.654	78.94
472.873	79.94
473.092	81.94
473.311	75.94
473.53	76.94
473.749	75.94
473.968	88.94
474.187	85.94
474.406	77.94
474.625	76.94
474.844	79.94
475.063	78.94
475.282	81.94
475.501	86.94
475.72	91.94
475.939	86.94
476.158	87.94
476.377	85.94
476.596	87.94
476.814	93.94
477.033	90.94
477.252	86.94
477.471	90.94
477.69	82.94
477.908	83.94
478.127	83.94
478.346	93.94
478.564	83.94
478.783	85.94
479.002	78.94
479.22	85.94
479.439	77.94
479.658	89.94
479.876	82.94
480.095	87.94
480.313	105.94
480.532	92.94
480.751	81.94
480.969	104.94
481.188	89.94
481.406	93.94
481.624	71.94
481.843	85.94
482.061	57.94
482.28	83.94
482.498	85.94
482.717	69.94
482.935	68.94
483.153	74.94
483.372	73.94
483.59	91.94
483.808	91.94
484.027	81.94
484.245	88.94
484.463	79.94
484.681	80.94
484.9	99.94
485.118	96.94
485.336	83.94
485.554	91.94
485.772	93.94
485.99	94.94
486.209	84.94
486.427	96.94
486.645	86.94
486.863	96.94
487.081	81.94
487.299	101.94
487.517	92.94
487.735	108.94
487.953	145.94
488.171	125.94
488.389	91.94
488.607	98.94
488.825	92.94
489.043	99.94
489.261	93.94
489.479	102.94
489.696	82.94
489.914	95.94
490.132	94.94
490.35	86.94
490.568	87.94
490.786	80.94
491.003	85.94
491.221	74.94
491.439	89.94
491.657	91.94
491.874	90.94
492.092	87.94
492.31	97.94
492.527	74.94
492.745	94.94
492.963	89.94
493.18	83.94
493.398	89.94
493.615	97.94
493.833	69.94
494.05	96.94
494.268	99.94
494.485	99.94
494.703	101.94
494.92	88.94
495.138	84.94
495.355	86.94
495.573	95.94
495.79	86.94
496.008	100.94
496.225	99.94
496.442	76.94
496.66	86.94
496.877	82.94
497.094	98.94
497.312	85.94
497.529	88.94
497.746	99.94
497.963	92.94
498.181	89.94
498.398	109.94
498.615	100.94
498.832	92.94
499.049	73.94
499.267	94.94
499.484	96.94
499.701	83.94
499.918	91.94
500.135	95.94
500.352	93.94
500.569	101.94
500.786	108.94
501.003	73.94
501.22	85.94
501.437	94.94
501.654	84.94
501.871	74.94
502.088	90.94
502.305	83.94
502.522	91.94
502.739	87.94
502.956	72.94
503.172	83.94
503.389	91.94
503.606	91.94
503.823	84.94
504.04	89.94
504.256	103.94
504.473	105.94
504.69	92.94
504.907	90.94
505.123	97.94
505.34	103.94
505.557	91.94
505.773	89.94
505.99	92.94
506.207	104.94
506.423	92.94
506.64	86.94
506.856	95.94
507.073	88.94
507.289	89.94
507.506	73.94
507.722	87.94
507.939	75.94
508.155	99.94
508.372	93.94
508.588	78.94
508.805	96.94
509.021	89.94
509.238	79.94
509.454	83.94
509.67	95.94
509.887	83.94
510.103	86.94
510.319	90.94
510.536	83.94
510.752	95.94
510.968	87.94
511.184	87.94
511.401	82.94
511.617	92.94
511.833	89.94
512.049	90.94
512.265	86.94
512.481	87.94
512.698	84.94
512.914	80.94
513.13	93.94
513.346	65.94
513.562	92.94
513.778	79.94
513.994	93.94
514.21	80.94
514.426	101.94
514.642	89.94
514.858	81.94
515.074	91.94
515.29	82.94
515.506	93.94
515.721	91.94
515.937	91.94
516.153	88.94
516.369	88.94
516.585	80.94
516.801	82.94
517.016	92.94
517.232	92.94
517.448	105.94
517.664	90.94
517.879	71.94
518.095	78.94
518.311	102.94
518.527	87.94
518.742	112.94
518.958	114.94
