Data from 15780_2_HRD10591_00039.txt Node
Date: Mon Jan 19 14:19:23 EST 2026
User: Yrep
Spectrometer: HR+D1059
Trigger mode: 1
Integration Time (sec): 1.000000E-1
Scans to average: 1
Electric dark correction enabled: true
Nonlinearity correction enabled: false
Boxcar width: 0
XAxis mode: Wavelengths
Number of Pixels in Spectrum: 2048
>>>>>Begin Spectral Data<<<<<
223.165	-20.56
223.4	-20.56
223.635	-20.56
223.869	-27.56
224.104	-13.56
224.338	-26.56
224.573	-6.56
224.808	-7.56
225.042	-2.56
225.277	-12.56
225.511	8.44
225.746	1.44
225.98	-7.56
226.215	15.44
226.449	12.44
226.683	31.44
226.918	25.44
227.152	30.44
227.387	40.44
227.621	44.44
227.856	43.44
228.09	39.44
228.324	59.44
228.559	47.44
228.793	66.44
229.027	65.44
229.262	57.44
229.496	59.44
229.73	59.44
229.964	73.44
230.199	73.44
230.433	79.44
230.667	77.44
230.901	90.44
231.136	76.44
231.37	82.44
231.604	78.44
231.838	93.44
232.072	71.44
232.306	82.44
232.541	90.44
232.775	93.44
233.009	95.44
233.243	74.44
233.477	74.44
233.711	84.44
233.945	75.44
234.179	83.44
234.413	67.44
234.647	73.44
234.881	63.44
235.115	90.44
235.349	77.44
235.583	73.44
235.817	82.44
236.051	61.44
236.285	74.44
236.519	74.44
236.753	73.44
236.987	80.44
237.221	70.44
237.455	86.44
237.689	69.44
237.922	73.44
238.156	70.44
238.39	79.44
238.624	72.44
238.858	81.44
239.091	73.44
239.325	72.44
239.559	66.44
239.793	76.44
240.027	66.44
240.26	79.44
240.494	80.44
240.728	73.44
240.961	84.44
241.195	77.44
241.429	82.44
241.662	69.44
241.896	79.44
242.13	76.44
242.363	67.44
242.597	74.44
242.83	74.44
243.064	79.44
243.298	81.44
243.531	83.44
243.765	74.44
243.998	77.44
244.232	77.44
244.465	81.44
244.699	71.44
244.932	71.44
245.166	73.44
245.399	85.44
245.633	77.44
245.866	96.44
246.099	79.44
246.333	68.44
246.566	85.44
246.8	81.44
247.033	78.44
247.266	63.44
247.5	61.44
247.733	84.44
247.966	77.44
248.2	77.44
248.433	89.44
248.666	75.44
248.899	65.44
249.133	95.44
249.366	87.44
249.599	83.44
249.832	87.44
250.066	67.44
250.299	79.44
250.532	62.44
250.765	83.44
250.998	83.44
251.231	82.44
251.465	83.44
251.698	74.44
251.931	73.44
252.164	89.44
252.397	78.44
252.63	81.44
252.863	71.44
253.096	80.44
253.329	76.44
253.562	75.44
253.795	73.44
254.028	86.44
254.261	91.44
254.494	84.44
254.727	98.44
254.96	76.44
255.193	71.44
255.426	85.44
255.659	71.44
255.892	84.44
256.124	91.44
256.357	83.44
256.59	85.44
256.823	67.44
257.056	87.44
257.289	70.44
257.521	83.44
257.754	77.44
257.987	78.44
258.22	87.44
258.452	77.44
258.685	68.44
258.918	86.44
259.151	81.44
259.383	97.44
259.616	89.44
259.849	88.44
260.081	89.44
260.314	81.44
260.547	64.44
260.779	69.44
261.012	88.44
261.244	82.44
261.477	98.44
261.71	64.44
261.942	71.44
262.175	92.44
262.407	77.44
262.64	67.44
262.872	91.44
263.105	91.44
263.337	96.44
263.57	73.44
263.802	87.44
264.035	84.44
264.267	77.44
264.499	71.44
264.732	72.44
264.964	74.44
265.197	81.44
265.429	85.44
265.661	83.44
265.894	81.44
266.126	84.44
266.358	90.44
266.591	79.44
266.823	75.44
267.055	67.44
267.287	79.44
267.52	78.44
267.752	63.44
267.984	87.44
268.216	81.44
268.448	77.44
268.681	89.44
268.913	75.44
269.145	87.44
269.377	91.44
269.609	71.44
269.841	87.44
270.073	92.44
270.306	71.44
270.538	83.44
270.77	89.44
271.002	74.44
271.234	81.44
271.466	81.44
271.698	79.44
271.93	73.44
272.162	88.44
272.394	92.44
272.626	75.44
272.858	87.44
273.09	78.44
273.322	79.44
273.553	72.44
273.785	71.44
274.017	77.44
274.249	72.44
274.481	75.44
274.713	68.44
274.945	79.44
275.176	69.44
275.408	85.44
275.64	83.44
275.872	72.44
276.104	81.44
276.335	70.44
276.567	82.44
276.799	94.44
277.031	72.44
277.262	86.44
277.494	84.44
277.726	88.44
277.957	81.44
278.189	83.44
278.421	81.44
278.652	91.44
278.884	82.44
279.115	78.44
279.347	77.44
279.579	97.44
279.81	85.44
280.042	70.44
280.273	91.44
280.505	83.44
280.736	75.44
280.968	71.44
281.199	86.44
281.431	83.44
281.662	75.44
281.894	80.44
282.125	91.44
282.356	92.44
282.588	78.44
282.819	88.44
283.051	90.44
283.282	69.44
283.513	79.44
283.745	76.44
283.976	77.44
284.207	96.44
284.439	77.44
284.67	79.44
284.901	81.44
285.132	91.44
285.364	101.44
285.595	87.44
285.826	69.44
286.057	93.44
286.288	92.44
286.52	95.44
286.751	77.44
286.982	83.44
287.213	89.44
287.444	81.44
287.675	80.44
287.906	91.44
288.138	87.44
288.369	87.44
288.6	86.44
288.831	80.44
289.062	93.44
289.293	83.44
289.524	75.44
289.755	95.44
289.986	80.44
290.217	73.44
290.448	85.44
290.679	80.44
290.91	84.44
291.141	100.44
291.371	79.44
291.602	75.44
291.833	77.44
292.064	80.44
292.295	93.44
292.526	86.44
292.757	81.44
292.987	74.44
293.218	62.44
293.449	99.44
293.68	72.44
293.91	74.44
294.141	87.44
294.372	87.44
294.603	72.44
294.833	87.44
295.064	72.44
295.295	75.44
295.525	83.44
295.756	82.44
295.987	77.44
296.217	87.44
296.448	83.44
296.679	97.44
296.909	100.44
297.14	82.44
297.37	89.44
297.601	83.44
297.831	89.44
298.062	85.44
298.292	85.44
298.523	84.44
298.753	92.44
298.984	76.44
299.214	108.44
299.445	93.44
299.675	90.44
299.905	80.44
300.136	75.44
300.366	84.44
300.597	101.44
300.827	95.44
301.057	95.44
301.288	77.44
301.518	83.44
301.748	87.44
301.979	88.44
302.209	91.44
302.439	88.44
302.669	76.44
302.9	97.44
303.13	70.44
303.36	78.44
303.59	89.44
303.82	77.44
304.051	70.44
304.281	83.44
304.511	88.44
304.741	87.44
304.971	91.44
305.201	92.44
305.431	86.44
305.661	80.44
305.891	90.44
306.121	93.44
306.352	94.44
306.582	79.44
306.812	88.44
307.042	83.44
307.272	81.44
307.502	98.44
307.731	91.44
307.961	104.44
308.191	88.44
308.421	84.44
308.651	80.44
308.881	101.44
309.111	97.44
309.341	107.44
309.571	91.44
309.8	94.44
310.03	91.44
310.26	90.44
310.49	82.44
310.72	87.44
310.949	76.44
311.179	89.44
311.409	91.44
311.639	91.44
311.868	93.44
312.098	89.44
312.328	71.44
312.557	71.44
312.787	88.44
313.017	85.44
313.246	87.44
313.476	75.44
313.706	106.44
313.935	90.44
314.165	90.44
314.394	101.44
314.624	89.44
314.853	87.44
315.083	89.44
315.312	82.44
315.542	84.44
315.771	96.44
316.001	90.44
316.23	87.44
316.46	85.44
316.689	81.44
316.919	79.44
317.148	83.44
317.377	90.44
317.607	111.44
317.836	87.44
318.065	97.44
318.295	104.44
318.524	96.44
318.753	92.44
318.983	82.44
319.212	86.44
319.441	81.44
319.67	67.44
319.9	96.44
320.129	92.44
320.358	92.44
320.587	86.44
320.816	92.44
321.046	80.44
321.275	98.44
321.504	91.44
321.733	73.44
321.962	79.44
322.191	98.44
322.42	100.44
322.649	81.44
322.878	74.44
323.108	87.44
323.337	97.44
323.566	97.44
323.795	104.44
324.024	83.44
324.253	84.44
324.482	87.44
324.71	83.44
324.939	89.44
325.168	73.44
325.397	70.44
325.626	96.44
325.855	91.44
326.084	77.44
326.313	91.44
326.542	81.44
326.77	77.44
326.999	98.44
327.228	89.44
327.457	91.44
327.686	89.44
327.914	72.44
328.143	83.44
328.372	83.44
328.6	83.44
328.829	85.44
329.058	85.44
329.287	85.44
329.515	78.44
329.744	69.44
329.972	81.44
330.201	71.44
330.43	88.44
330.658	85.44
330.887	81.44
331.115	81.44
331.344	72.44
331.572	95.44
331.801	99.44
332.03	84.44
332.258	95.44
332.486	89.44
332.715	75.44
332.943	90.44
333.172	92.44
333.4	77.44
333.629	94.44
333.857	73.44
334.085	87.44
334.314	91.44
334.542	87.44
334.771	94.44
334.999	115.44
335.227	83.44
335.455	77.44
335.684	85.44
335.912	81.44
336.14	74.44
336.369	75.44
336.597	98.44
336.825	89.44
337.053	81.44
337.281	89.44
337.51	67.44
337.738	89.44
337.966	87.44
338.194	75.44
338.422	94.44
338.65	89.44
338.878	84.44
339.106	90.44
339.334	92.44
339.562	88.44
339.79	95.44
340.018	79.44
340.246	88.44
340.474	81.44
340.702	73.44
340.93	87.44
341.158	73.44
341.386	89.44
341.614	92.44
341.842	81.44
342.07	68.44
342.298	85.44
342.526	92.44
342.754	75.44
342.981	88.44
343.209	81.44
343.437	96.44
343.665	91.44
343.893	76.44
344.12	108.44
344.348	77.44
344.576	100.44
344.804	84.44
345.031	84.44
345.259	82.44
345.487	84.44
345.714	72.44
345.942	87.44
346.17	82.44
346.397	84.44
346.625	80.44
346.853	83.44
347.08	86.44
347.308	84.44
347.535	84.44
347.763	75.44
347.99	101.44
348.218	87.44
348.445	90.44
348.673	86.44
348.9	91.44
349.128	95.44
349.355	91.44
349.583	105.44
349.81	76.44
350.037	91.44
350.265	90.44
350.492	74.44
350.72	88.44
350.947	93.44
351.174	86.44
351.402	75.44
351.629	100.44
351.856	97.44
352.083	85.44
352.311	89.44
352.538	79.44
352.765	103.44
352.992	89.44
353.22	92.44
353.447	80.44
353.674	70.44
353.901	90.44
354.128	97.44
354.355	93.44
354.583	79.44
354.81	84.44
355.037	88.44
355.264	79.44
355.491	85.44
355.718	84.44
355.945	88.44
356.172	86.44
356.399	91.44
356.626	92.44
356.853	69.44
357.08	93.44
357.307	75.44
357.534	87.44
357.761	101.44
357.988	92.44
358.215	96.44
358.441	99.44
358.668	84.44
358.895	99.44
359.122	97.44
359.349	89.44
359.576	88.44
359.802	82.44
360.029	75.44
360.256	83.44
360.483	96.44
360.709	73.44
360.936	84.44
361.163	83.44
361.39	86.44
361.616	83.44
361.843	95.44
362.07	96.44
362.296	91.44
362.523	77.44
362.749	89.44
362.976	95.44
363.203	97.44
363.429	96.44
363.656	98.44
363.882	100.44
364.109	90.44
364.335	106.44
364.562	103.44
364.788	94.44
365.015	88.44
365.241	101.44
365.468	97.44
365.694	87.44
365.92	92.44
366.147	95.44
366.373	97.44
366.599	88.44
366.826	76.44
367.052	64.44
367.278	87.44
367.505	87.44
367.731	102.44
367.957	90.44
368.184	76.44
368.41	75.44
368.636	79.44
368.862	96.44
369.089	89.44
369.315	84.44
369.541	77.44
369.767	87.44
369.993	92.44
370.219	83.44
370.445	90.44
370.672	103.44
370.898	103.44
371.124	87.44
371.35	84.44
371.576	82.44
371.802	93.44
372.028	91.44
372.254	99.44
372.48	89.44
372.706	84.44
372.932	91.44
373.158	95.44
373.384	111.44
373.61	119.44
373.835	111.44
374.061	88.44
374.287	91.44
374.513	97.44
374.739	91.44
374.965	99.44
375.191	92.44
375.416	96.44
375.642	93.44
375.868	93.44
376.094	86.44
376.319	104.44
376.545	90.44
376.771	96.44
376.997	84.44
377.222	83.44
377.448	89.44
377.674	83.44
377.899	84.44
378.125	94.44
378.35	91.44
378.576	90.44
378.802	94.44
379.027	85.44
379.253	77.44
379.478	91.44
379.704	83.44
379.929	90.44
380.155	61.44
380.38	73.44
380.606	88.44
380.831	76.44
381.057	114.44
381.282	89.44
381.507	89.44
381.733	97.44
381.958	86.44
382.184	99.44
382.409	92.44
382.634	95.44
382.86	106.44
383.085	82.44
383.31	98.44
383.535	91.44
383.761	95.44
383.986	99.44
384.211	85.44
384.436	95.44
384.662	87.44
384.887	80.44
385.112	80.44
385.337	76.44
385.562	88.44
385.787	91.44
386.013	105.44
386.238	113.44
386.463	92.44
386.688	103.44
386.913	94.44
387.138	95.44
387.363	91.44
387.588	96.44
387.813	97.44
388.038	86.44
388.263	103.44
388.488	95.44
388.713	97.44
388.938	92.44
389.163	89.44
389.387	67.44
389.612	87.44
389.837	89.44
390.062	89.44
390.287	70.44
390.512	84.44
390.736	97.44
390.961	84.44
391.186	74.44
391.411	79.44
391.636	85.44
391.86	94.44
392.085	83.44
392.31	109.44
392.534	102.44
392.759	125.44
392.984	165.44
393.208	295.44
393.433	434.44
393.658	329.44
393.882	145.44
394.107	122.44
394.331	136.44
394.556	119.44
394.78	92.44
395.005	95.44
395.229	82.44
395.454	112.44
395.678	103.44
395.903	114.44
396.127	136.44
396.352	163.44
396.576	203.44
396.801	311.44
397.025	339.44
397.249	185.44
397.474	115.44
397.698	100.44
397.922	77.44
398.147	85.44
398.371	83.44
398.595	91.44
398.82	89.44
399.044	88.44
399.268	89.44
399.492	85.44
399.717	97.44
399.941	98.44
400.165	82.44
400.389	100.44
400.613	84.44
400.837	69.44
401.062	85.44
401.286	76.44
401.51	87.44
401.734	83.44
401.958	76.44
402.182	84.44
402.406	83.44
402.63	77.44
402.854	87.44
403.078	90.44
403.302	82.44
403.526	101.44
403.75	89.44
403.974	79.44
404.198	90.44
404.422	116.44
404.645	102.44
404.869	97.44
405.093	84.44
405.317	85.44
405.541	88.44
405.765	88.44
405.988	80.44
406.212	85.44
406.436	86.44
406.66	84.44
406.883	81.44
407.107	77.44
407.331	89.44
407.555	105.44
407.778	122.44
408.002	124.44
408.226	85.44
408.449	89.44
408.673	87.44
408.896	91.44
409.12	92.44
409.344	81.44
409.567	79.44
409.791	84.44
410.014	84.44
410.238	92.44
410.461	93.44
410.685	86.44
410.908	90.44
411.132	87.44
411.355	83.44
411.578	101.44
411.802	85.44
412.025	72.44
412.249	78.44
412.472	79.44
412.695	102.44
412.919	89.44
413.142	81.44
413.365	92.44
413.589	79.44
413.812	75.44
414.035	58.44
414.258	90.44
414.482	88.44
414.705	73.44
414.928	79.44
415.151	84.44
415.374	93.44
415.597	85.44
415.821	79.44
416.044	83.44
416.267	79.44
416.49	81.44
416.713	82.44
416.936	93.44
417.159	89.44
417.382	98.44
417.605	85.44
417.828	78.44
418.051	75.44
418.274	76.44
418.497	83.44
418.72	99.44
418.943	93.44
419.166	75.44
419.389	69.44
419.611	84.44
419.834	81.44
420.057	77.44
420.28	76.44
420.503	84.44
420.726	99.44
420.948	84.44
421.171	81.44
421.394	108.44
421.617	102.44
421.839	124.44
422.062	111.44
422.285	118.44
422.507	218.44
422.73	353.44
422.953	310.44
423.175	145.44
423.398	102.44
423.621	92.44
423.843	95.44
424.066	70.44
424.288	87.44
424.511	81.44
424.733	87.44
424.956	76.44
425.178	86.44
425.401	99.44
425.623	89.44
425.846	84.44
426.068	81.44
426.291	77.44
426.513	88.44
426.735	65.44
426.958	98.44
427.18	91.44
427.402	85.44
427.625	93.44
427.847	72.44
428.069	108.44
428.292	111.44
428.514	129.44
428.736	100.44
428.958	107.44
429.181	108.44
429.403	90.44
429.625	83.44
429.847	93.44
430.069	143.44
430.292	163.44
430.514	154.44
430.736	129.44
430.958	131.44
431.18	100.44
431.402	96.44
431.624	103.44
431.846	100.44
432.068	121.44
432.29	97.44
432.512	77.44
432.734	77.44
432.956	77.44
433.178	89.44
433.4	86.44
433.622	84.44
433.844	77.44
434.066	69.44
434.287	83.44
434.509	76.44
434.731	83.44
434.953	73.44
435.175	82.44
435.397	82.44
435.618	86.44
435.84	75.44
436.062	76.44
436.284	78.44
436.505	69.44
436.727	77.44
436.949	90.44
437.17	77.44
437.392	84.44
437.614	75.44
437.835	88.44
438.057	66.44
438.278	79.44
438.5	78.44
438.721	83.44
438.943	89.44
439.165	71.44
439.386	79.44
439.608	105.44
439.829	95.44
440.05	85.44
440.272	90.44
440.493	92.44
440.715	92.44
440.936	91.44
441.158	80.44
441.379	71.44
441.6	74.44
441.822	81.44
442.043	85.44
442.264	96.44
442.486	114.44
442.707	137.44
442.928	91.44
443.149	105.44
443.371	134.44
443.592	186.44
443.813	162.44
444.034	85.44
444.255	98.44
444.476	70.44
444.698	91.44
444.919	85.44
445.14	176.44
445.361	159.44
445.582	221.44
445.803	173.44
446.024	107.44
446.245	75.44
446.466	84.44
446.687	83.44
446.908	92.44
447.129	87.44
447.35	92.44
447.571	85.44
447.792	80.44
448.013	78.44
448.234	92.44
448.455	95.44
448.675	85.44
448.896	95.44
449.117	93.44
449.338	77.44
449.559	88.44
449.779	87.44
450	83.44
450.221	78.44
450.442	82.44
450.662	88.44
450.883	79.44
451.104	100.44
451.324	89.44
451.545	85.44
451.766	95.44
451.986	81.44
452.207	67.44
452.428	71.44
452.648	80.44
452.869	88.44
453.089	82.44
453.31	82.44
453.53	75.44
453.751	84.44
453.971	91.44
454.192	80.44
454.412	83.44
454.633	88.44
454.853	87.44
455.073	86.44
455.294	83.44
455.514	85.44
455.734	86.44
455.955	73.44
456.175	91.44
456.395	83.44
456.616	79.44
456.836	85.44
457.056	77.44
457.276	79.44
457.497	97.44
457.717	84.44
457.937	91.44
458.157	89.44
458.377	69.44
458.598	97.44
458.818	87.44
459.038	83.44
459.258	90.44
459.478	90.44
459.698	76.44
459.918	76.44
460.138	80.44
460.358	89.44
460.578	95.44
460.798	108.44
461.018	101.44
461.238	105.44
461.458	76.44
461.678	81.44
461.898	65.44
462.118	81.44
462.338	101.44
462.558	95.44
462.777	68.44
462.997	97.44
463.217	79.44
463.437	84.44
463.657	72.44
463.876	83.44
464.096	78.44
464.316	86.44
464.536	90.44
464.755	77.44
464.975	84.44
465.195	81.44
465.414	95.44
465.634	86.44
465.854	91.44
466.073	91.44
466.293	80.44
466.512	84.44
466.732	84.44
466.951	98.44
467.171	89.44
467.391	79.44
467.61	77.44
467.829	75.44
468.049	91.44
468.268	85.44
468.488	69.44
468.707	94.44
468.927	93.44
469.146	89.44
469.365	83.44
469.585	71.44
469.804	69.44
470.023	73.44
470.243	72.44
470.462	97.44
470.681	86.44
470.901	81.44
471.12	75.44
471.339	79.44
471.558	79.44
471.777	73.44
471.997	85.44
472.216	77.44
472.435	87.44
472.654	100.44
472.873	91.44
473.092	94.44
473.311	97.44
473.53	83.44
473.749	86.44
473.968	85.44
474.187	79.44
474.406	93.44
474.625	71.44
474.844	81.44
475.063	86.44
475.282	90.44
475.501	87.44
475.72	83.44
475.939	73.44
476.158	81.44
476.377	79.44
476.596	93.44
476.814	81.44
477.033	82.44
477.252	81.44
477.471	95.44
477.69	68.44
477.908	63.44
478.127	76.44
478.346	75.44
478.564	86.44
478.783	82.44
479.002	81.44
479.22	81.44
479.439	93.44
479.658	87.44
479.876	86.44
480.095	86.44
480.313	91.44
480.532	71.44
480.751	73.44
480.969	88.44
481.188	79.44
481.406	83.44
481.624	76.44
481.843	71.44
482.061	78.44
482.28	67.44
482.498	90.44
482.717	90.44
482.935	83.44
483.153	79.44
483.372	68.44
483.59	86.44
483.808	87.44
484.027	84.44
484.245	74.44
484.463	76.44
484.681	96.44
484.9	83.44
485.118	101.44
485.336	78.44
485.554	85.44
485.772	76.44
485.99	91.44
486.209	81.44
486.427	87.44
486.645	75.44
486.863	76.44
487.081	77.44
487.299	85.44
487.517	97.44
487.735	81.44
487.953	130.44
488.171	86.44
488.389	75.44
488.607	82.44
488.825	81.44
489.043	90.44
489.261	84.44
489.479	92.44
489.696	90.44
489.914	83.44
490.132	88.44
490.35	89.44
490.568	90.44
490.786	84.44
491.003	69.44
491.221	88.44
491.439	85.44
491.657	83.44
491.874	78.44
492.092	93.44
492.31	87.44
492.527	86.44
492.745	84.44
492.963	84.44
493.18	96.44
493.398	86.44
493.615	76.44
493.833	70.44
494.05	67.44
494.268	77.44
494.485	84.44
494.703	73.44
494.92	87.44
495.138	90.44
495.355	78.44
495.573	75.44
495.79	78.44
496.008	83.44
496.225	94.44
496.442	75.44
496.66	83.44
496.877	75.44
497.094	93.44
497.312	63.44
497.529	75.44
497.746	88.44
497.963	75.44
498.181	73.44
498.398	99.44
498.615	85.44
498.832	78.44
499.049	85.44
499.267	99.44
499.484	91.44
499.701	80.44
499.918	89.44
500.135	81.44
500.352	98.44
500.569	84.44
500.786	95.44
501.003	78.44
501.22	86.44
501.437	84.44
501.654	87.44
501.871	85.44
502.088	88.44
502.305	94.44
502.522	86.44
502.739	79.44
502.956	79.44
503.172	87.44
503.389	91.44
503.606	100.44
503.823	99.44
504.04	87.44
504.256	100.44
504.473	90.44
504.69	80.44
504.907	84.44
505.123	82.44
505.34	77.44
505.557	99.44
505.773	73.44
505.99	78.44
506.207	71.44
506.423	86.44
506.64	83.44
506.856	84.44
507.073	88.44
507.289	83.44
507.506	81.44
507.722	82.44
507.939	93.44
508.155	100.44
508.372	94.44
508.588	87.44
508.805	80.44
509.021	75.44
509.238	79.44
509.454	79.44
509.67	88.44
509.887	93.44
510.103	83.44
510.319	79.44
510.536	88.44
510.752	90.44
510.968	98.44
511.184	75.44
511.401	73.44
511.617	72.44
511.833	76.44
512.049	86.44
512.265	85.44
512.481	86.44
512.698	99.44
512.914	97.44
513.13	73.44
513.346	88.44
513.562	77.44
513.778	84.44
513.994	75.44
514.21	75.44
514.426	82.44
514.642	83.44
514.858	91.44
515.074	87.44
515.29	96.44
515.506	86.44
515.721	76.44
515.937	82.44
516.153	93.44
516.369	83.44
516.585	99.44
516.801	76.44
517.016	93.44
517.232	96.44
517.448	92.44
517.664	86.44
517.879	86.44
518.095	75.44
518.311	76.44
518.527	97.44
