Data from 15780_2_HRD10591_00031.txt Node
Date: Mon Jan 19 14:19:19 EST 2026
User: Yrep
Spectrometer: HR+D1059
Trigger mode: 1
Integration Time (sec): 1.000000E-1
Scans to average: 1
Electric dark correction enabled: true
Nonlinearity correction enabled: false
Boxcar width: 0
XAxis mode: Wavelengths
Number of Pixels in Spectrum: 2048
>>>>>Begin Spectral Data<<<<<
223.165	-13.12
223.4	-13.12
223.635	-13.12
223.869	-18.12
224.104	-27.12
224.338	-26.12
224.573	-19.12
224.808	-4.12
225.042	-7.12
225.277	-9.12
225.511	-5.12
225.746	5.88
225.98	15.88
226.215	22.88
226.449	18.88
226.683	15.88
226.918	20.88
227.152	28.88
227.387	41.88
227.621	51.88
227.856	41.88
228.09	54.88
228.324	44.88
228.559	50.88
228.793	74.88
229.027	56.88
229.262	66.88
229.496	54.88
229.73	59.88
229.964	77.88
230.199	69.88
230.433	77.88
230.667	76.88
230.901	78.88
231.136	72.88
231.37	85.88
231.604	76.88
231.838	68.88
232.072	73.88
232.306	79.88
232.541	94.88
232.775	79.88
233.009	84.88
233.243	68.88
233.477	75.88
233.711	91.88
233.945	86.88
234.179	75.88
234.413	83.88
234.647	81.88
234.881	77.88
235.115	89.88
235.349	72.88
235.583	74.88
235.817	81.88
236.051	74.88
236.285	56.88
236.519	69.88
236.753	73.88
236.987	84.88
237.221	84.88
237.455	64.88
237.689	72.88
237.922	77.88
238.156	75.88
238.39	89.88
238.624	68.88
238.858	78.88
239.091	89.88
239.325	78.88
239.559	87.88
239.793	70.88
240.027	79.88
240.26	73.88
240.494	82.88
240.728	72.88
240.961	72.88
241.195	80.88
241.429	82.88
241.662	67.88
241.896	85.88
242.13	66.88
242.363	86.88
242.597	80.88
242.83	80.88
243.064	64.88
243.298	87.88
243.531	74.88
243.765	88.88
243.998	84.88
244.232	81.88
244.465	80.88
244.699	75.88
244.932	83.88
245.166	84.88
245.399	88.88
245.633	83.88
245.866	79.88
246.099	84.88
246.333	66.88
246.566	86.88
246.8	71.88
247.033	72.88
247.266	76.88
247.5	72.88
247.733	82.88
247.966	80.88
248.2	73.88
248.433	90.88
248.666	93.88
248.899	75.88
249.133	61.88
249.366	90.88
249.599	79.88
249.832	82.88
250.066	73.88
250.299	85.88
250.532	85.88
250.765	67.88
250.998	84.88
251.231	71.88
251.465	79.88
251.698	83.88
251.931	74.88
252.164	73.88
252.397	79.88
252.63	79.88
252.863	86.88
253.096	70.88
253.329	73.88
253.562	78.88
253.795	84.88
254.028	82.88
254.261	82.88
254.494	82.88
254.727	77.88
254.96	64.88
255.193	64.88
255.426	74.88
255.659	69.88
255.892	74.88
256.124	76.88
256.357	82.88
256.59	80.88
256.823	76.88
257.056	88.88
257.289	91.88
257.521	85.88
257.754	78.88
257.987	82.88
258.22	88.88
258.452	98.88
258.685	83.88
258.918	77.88
259.151	76.88
259.383	83.88
259.616	88.88
259.849	91.88
260.081	92.88
260.314	85.88
260.547	80.88
260.779	93.88
261.012	70.88
261.244	76.88
261.477	79.88
261.71	80.88
261.942	92.88
262.175	97.88
262.407	85.88
262.64	89.88
262.872	81.88
263.105	64.88
263.337	83.88
263.57	72.88
263.802	89.88
264.035	80.88
264.267	83.88
264.499	81.88
264.732	97.88
264.964	88.88
265.197	76.88
265.429	88.88
265.661	84.88
265.894	76.88
266.126	75.88
266.358	86.88
266.591	78.88
266.823	86.88
267.055	72.88
267.287	82.88
267.52	86.88
267.752	68.88
267.984	81.88
268.216	90.88
268.448	83.88
268.681	90.88
268.913	84.88
269.145	75.88
269.377	82.88
269.609	71.88
269.841	86.88
270.073	94.88
270.306	88.88
270.538	89.88
270.77	85.88
271.002	81.88
271.234	75.88
271.466	85.88
271.698	85.88
271.93	76.88
272.162	87.88
272.394	90.88
272.626	77.88
272.858	95.88
273.09	79.88
273.322	79.88
273.553	91.88
273.785	84.88
274.017	89.88
274.249	82.88
274.481	83.88
274.713	81.88
274.945	100.88
275.176	74.88
275.408	94.88
275.64	89.88
275.872	74.88
276.104	66.88
276.335	85.88
276.567	85.88
276.799	86.88
277.031	90.88
277.262	75.88
277.494	76.88
277.726	91.88
277.957	78.88
278.189	85.88
278.421	83.88
278.652	86.88
278.884	84.88
279.115	85.88
279.347	93.88
279.579	86.88
279.81	82.88
280.042	92.88
280.273	93.88
280.505	88.88
280.736	92.88
280.968	76.88
281.199	68.88
281.431	87.88
281.662	70.88
281.894	78.88
282.125	76.88
282.356	71.88
282.588	81.88
282.819	81.88
283.051	83.88
283.282	78.88
283.513	90.88
283.745	78.88
283.976	85.88
284.207	71.88
284.439	90.88
284.67	84.88
284.901	93.88
285.132	74.88
285.364	73.88
285.595	92.88
285.826	101.88
286.057	84.88
286.288	82.88
286.52	61.88
286.751	78.88
286.982	94.88
287.213	78.88
287.444	81.88
287.675	74.88
287.906	92.88
288.138	94.88
288.369	87.88
288.6	87.88
288.831	97.88
289.062	89.88
289.293	86.88
289.524	79.88
289.755	79.88
289.986	94.88
290.217	84.88
290.448	92.88
290.679	78.88
290.91	98.88
291.141	74.88
291.371	72.88
291.602	75.88
291.833	85.88
292.064	86.88
292.295	83.88
292.526	84.88
292.757	82.88
292.987	94.88
293.218	96.88
293.449	88.88
293.68	109.88
293.91	99.88
294.141	92.88
294.372	91.88
294.603	74.88
294.833	73.88
295.064	78.88
295.295	77.88
295.525	79.88
295.756	76.88
295.987	62.88
296.217	89.88
296.448	91.88
296.679	83.88
296.909	86.88
297.14	92.88
297.37	80.88
297.601	83.88
297.831	73.88
298.062	89.88
298.292	73.88
298.523	96.88
298.753	82.88
298.984	91.88
299.214	82.88
299.445	94.88
299.675	90.88
299.905	91.88
300.136	87.88
300.366	77.88
300.597	92.88
300.827	82.88
301.057	94.88
301.288	84.88
301.518	77.88
301.748	88.88
301.979	102.88
302.209	94.88
302.439	71.88
302.669	84.88
302.9	86.88
303.13	85.88
303.36	79.88
303.59	75.88
303.82	87.88
304.051	91.88
304.281	93.88
304.511	89.88
304.741	85.88
304.971	85.88
305.201	88.88
305.431	76.88
305.661	95.88
305.891	76.88
306.121	78.88
306.352	91.88
306.582	83.88
306.812	75.88
307.042	87.88
307.272	90.88
307.502	88.88
307.731	86.88
307.961	67.88
308.191	91.88
308.421	99.88
308.651	93.88
308.881	77.88
309.111	86.88
309.341	93.88
309.571	101.88
309.8	100.88
310.03	88.88
310.26	97.88
310.49	75.88
310.72	83.88
310.949	90.88
311.179	82.88
311.409	91.88
311.639	81.88
311.868	80.88
312.098	84.88
312.328	99.88
312.557	91.88
312.787	87.88
313.017	73.88
313.246	76.88
313.476	92.88
313.706	75.88
313.935	72.88
314.165	82.88
314.394	86.88
314.624	81.88
314.853	89.88
315.083	89.88
315.312	69.88
315.542	68.88
315.771	85.88
316.001	88.88
316.23	82.88
316.46	86.88
316.689	76.88
316.919	75.88
317.148	88.88
317.377	87.88
317.607	97.88
317.836	85.88
318.065	90.88
318.295	85.88
318.524	76.88
318.753	92.88
318.983	86.88
319.212	81.88
319.441	81.88
319.67	80.88
319.9	84.88
320.129	86.88
320.358	84.88
320.587	92.88
320.816	83.88
321.046	82.88
321.275	108.88
321.504	76.88
321.733	74.88
321.962	79.88
322.191	89.88
322.42	82.88
322.649	83.88
322.878	105.88
323.108	95.88
323.337	90.88
323.566	87.88
323.795	74.88
324.024	84.88
324.253	80.88
324.482	77.88
324.71	104.88
324.939	88.88
325.168	76.88
325.397	100.88
325.626	84.88
325.855	86.88
326.084	86.88
326.313	81.88
326.542	89.88
326.77	85.88
326.999	100.88
327.228	61.88
327.457	96.88
327.686	98.88
327.914	89.88
328.143	82.88
328.372	88.88
328.6	74.88
328.829	78.88
329.058	88.88
329.287	100.88
329.515	80.88
329.744	102.88
329.972	77.88
330.201	95.88
330.43	83.88
330.658	81.88
330.887	89.88
331.115	83.88
331.344	93.88
331.572	74.88
331.801	86.88
332.03	91.88
332.258	93.88
332.486	71.88
332.715	92.88
332.943	88.88
333.172	85.88
333.4	88.88
333.629	78.88
333.857	84.88
334.085	101.88
334.314	93.88
334.542	81.88
334.771	97.88
334.999	84.88
335.227	84.88
335.455	104.88
335.684	87.88
335.912	102.88
336.14	95.88
336.369	80.88
336.597	80.88
336.825	85.88
337.053	87.88
337.281	98.88
337.51	88.88
337.738	93.88
337.966	93.88
338.194	74.88
338.422	78.88
338.65	88.88
338.878	85.88
339.106	94.88
339.334	81.88
339.562	98.88
339.79	86.88
340.018	102.88
340.246	94.88
340.474	78.88
340.702	85.88
340.93	84.88
341.158	86.88
341.386	74.88
341.614	81.88
341.842	76.88
342.07	90.88
342.298	73.88
342.526	86.88
342.754	77.88
342.981	86.88
343.209	88.88
343.437	88.88
343.665	72.88
343.893	79.88
344.12	82.88
344.348	91.88
344.576	84.88
344.804	75.88
345.031	86.88
345.259	79.88
345.487	93.88
345.714	81.88
345.942	75.88
346.17	87.88
346.397	73.88
346.625	84.88
346.853	93.88
347.08	82.88
347.308	83.88
347.535	83.88
347.763	91.88
347.99	87.88
348.218	77.88
348.445	66.88
348.673	83.88
348.9	80.88
349.128	70.88
349.355	77.88
349.583	78.88
349.81	81.88
350.037	92.88
350.265	92.88
350.492	82.88
350.72	89.88
350.947	92.88
351.174	99.88
351.402	79.88
351.629	82.88
351.856	87.88
352.083	81.88
352.311	83.88
352.538	82.88
352.765	75.88
352.992	82.88
353.22	88.88
353.447	82.88
353.674	88.88
353.901	76.88
354.128	78.88
354.355	72.88
354.583	76.88
354.81	88.88
355.037	78.88
355.264	70.88
355.491	76.88
355.718	72.88
355.945	92.88
356.172	92.88
356.399	104.88
356.626	84.88
356.853	101.88
357.08	87.88
357.307	78.88
357.534	80.88
357.761	84.88
357.988	82.88
358.215	68.88
358.441	67.88
358.668	78.88
358.895	86.88
359.122	93.88
359.349	93.88
359.576	77.88
359.802	72.88
360.029	81.88
360.256	82.88
360.483	79.88
360.709	78.88
360.936	74.88
361.163	77.88
361.39	82.88
361.616	81.88
361.843	97.88
362.07	86.88
362.296	79.88
362.523	97.88
362.749	91.88
362.976	109.88
363.203	106.88
363.429	82.88
363.656	83.88
363.882	97.88
364.109	91.88
364.335	92.88
364.562	96.88
364.788	90.88
365.015	97.88
365.241	98.88
365.468	86.88
365.694	69.88
365.92	86.88
366.147	84.88
366.373	88.88
366.599	103.88
366.826	87.88
367.052	68.88
367.278	85.88
367.505	76.88
367.731	78.88
367.957	81.88
368.184	78.88
368.41	86.88
368.636	66.88
368.862	82.88
369.089	78.88
369.315	76.88
369.541	95.88
369.767	74.88
369.993	92.88
370.219	84.88
370.445	81.88
370.672	98.88
370.898	83.88
371.124	80.88
371.35	84.88
371.576	100.88
371.802	72.88
372.028	73.88
372.254	89.88
372.48	89.88
372.706	85.88
372.932	74.88
373.158	89.88
373.384	98.88
373.61	96.88
373.835	93.88
374.061	82.88
374.287	88.88
374.513	91.88
374.739	92.88
374.965	99.88
375.191	90.88
375.416	94.88
375.642	81.88
375.868	80.88
376.094	85.88
376.319	86.88
376.545	89.88
376.771	77.88
376.997	88.88
377.222	101.88
377.448	85.88
377.674	88.88
377.899	75.88
378.125	84.88
378.35	80.88
378.576	69.88
378.802	97.88
379.027	90.88
379.253	82.88
379.478	82.88
379.704	80.88
379.929	81.88
380.155	88.88
380.38	79.88
380.606	75.88
380.831	80.88
381.057	82.88
381.282	90.88
381.507	96.88
381.733	88.88
381.958	77.88
382.184	91.88
382.409	94.88
382.634	87.88
382.86	85.88
383.085	92.88
383.31	90.88
383.535	93.88
383.761	66.88
383.986	79.88
384.211	83.88
384.436	86.88
384.662	96.88
384.887	99.88
385.112	75.88
385.337	90.88
385.562	90.88
385.787	70.88
386.013	72.88
386.238	70.88
386.463	73.88
386.688	104.88
386.913	90.88
387.138	86.88
387.363	98.88
387.588	81.88
387.813	81.88
388.038	86.88
388.263	87.88
388.488	95.88
388.713	86.88
388.938	83.88
389.163	72.88
389.387	78.88
389.612	81.88
389.837	93.88
390.062	94.88
390.287	98.88
390.512	82.88
390.736	93.88
390.961	82.88
391.186	84.88
391.411	75.88
391.636	96.88
391.86	79.88
392.085	78.88
392.31	86.88
392.534	83.88
392.759	105.88
392.984	133.88
393.208	183.88
393.433	236.88
393.658	212.88
393.882	105.88
394.107	97.88
394.331	117.88
394.556	97.88
394.78	96.88
395.005	82.88
395.229	72.88
395.454	98.88
395.678	93.88
395.903	110.88
396.127	114.88
396.352	123.88
396.576	134.88
396.801	175.88
397.025	174.88
397.249	122.88
397.474	102.88
397.698	95.88
397.922	76.88
398.147	87.88
398.371	80.88
398.595	76.88
398.82	84.88
399.044	76.88
399.268	87.88
399.492	84.88
399.717	74.88
399.941	72.88
400.165	91.88
400.389	82.88
400.613	84.88
400.837	86.88
401.062	88.88
401.286	76.88
401.51	70.88
401.734	82.88
401.958	81.88
402.182	88.88
402.406	84.88
402.63	68.88
402.854	85.88
403.078	64.88
403.302	73.88
403.526	79.88
403.75	73.88
403.974	71.88
404.198	79.88
404.422	86.88
404.645	92.88
404.869	96.88
405.093	81.88
405.317	93.88
405.541	71.88
405.765	97.88
405.988	78.88
406.212	93.88
406.436	79.88
406.66	70.88
406.883	74.88
407.107	85.88
407.331	94.88
407.555	86.88
407.778	93.88
408.002	96.88
408.226	94.88
408.449	90.88
408.673	88.88
408.896	89.88
409.12	72.88
409.344	87.88
409.567	86.88
409.791	87.88
410.014	88.88
410.238	84.88
410.461	88.88
410.685	69.88
410.908	83.88
411.132	93.88
411.355	90.88
411.578	90.88
411.802	78.88
412.025	80.88
412.249	86.88
412.472	85.88
412.695	73.88
412.919	76.88
413.142	70.88
413.365	84.88
413.589	97.88
413.812	84.88
414.035	96.88
414.258	84.88
414.482	90.88
414.705	91.88
414.928	89.88
415.151	76.88
415.374	80.88
415.597	97.88
415.821	87.88
416.044	82.88
416.267	83.88
416.49	93.88
416.713	87.88
416.936	89.88
417.159	70.88
417.382	71.88
417.605	85.88
417.828	72.88
418.051	76.88
418.274	79.88
418.497	89.88
418.72	80.88
418.943	67.88
419.166	93.88
419.389	75.88
419.611	96.88
419.834	90.88
420.057	64.88
420.28	75.88
420.503	79.88
420.726	71.88
420.948	84.88
421.171	77.88
421.394	93.88
421.617	93.88
421.839	96.88
422.062	105.88
422.285	101.88
422.507	163.88
422.73	209.88
422.953	180.88
423.175	115.88
423.398	102.88
423.621	82.88
423.843	84.88
424.066	86.88
424.288	89.88
424.511	87.88
424.733	89.88
424.956	87.88
425.178	71.88
425.401	83.88
425.623	92.88
425.846	81.88
426.068	86.88
426.291	89.88
426.513	86.88
426.735	86.88
426.958	81.88
427.18	76.88
427.402	73.88
427.625	83.88
427.847	70.88
428.069	73.88
428.292	100.88
428.514	92.88
428.736	97.88
428.958	94.88
429.181	96.88
429.403	84.88
429.625	85.88
429.847	103.88
430.069	129.88
430.292	126.88
430.514	127.88
430.736	116.88
430.958	104.88
431.18	82.88
431.402	90.88
431.624	93.88
431.846	102.88
432.068	102.88
432.29	83.88
432.512	88.88
432.734	92.88
432.956	91.88
433.178	89.88
433.4	92.88
433.622	84.88
433.844	86.88
434.066	78.88
434.287	81.88
434.509	85.88
434.731	71.88
434.953	88.88
435.175	86.88
435.397	85.88
435.618	87.88
435.84	84.88
436.062	83.88
436.284	90.88
436.505	82.88
436.727	72.88
436.949	89.88
437.17	84.88
437.392	72.88
437.614	86.88
437.835	89.88
438.057	74.88
438.278	70.88
438.5	78.88
438.721	84.88
438.943	92.88
439.165	92.88
439.386	76.88
439.608	93.88
439.829	98.88
440.05	76.88
440.272	68.88
440.493	101.88
440.715	88.88
440.936	92.88
441.158	88.88
441.379	79.88
441.6	77.88
441.822	88.88
442.043	99.88
442.264	97.88
442.486	89.88
442.707	119.88
442.928	108.88
443.149	84.88
443.371	109.88
443.592	131.88
443.813	132.88
444.034	91.88
444.255	84.88
444.476	89.88
444.698	74.88
444.919	86.88
445.14	178.88
445.361	145.88
445.582	170.88
445.803	139.88
446.024	104.88
446.245	82.88
446.466	73.88
446.687	91.88
446.908	93.88
447.129	88.88
447.35	88.88
447.571	77.88
447.792	84.88
448.013	74.88
448.234	85.88
448.455	73.88
448.675	78.88
448.896	78.88
449.117	89.88
449.338	86.88
449.559	86.88
449.779	91.88
450	84.88
450.221	78.88
450.442	78.88
450.662	86.88
450.883	91.88
451.104	81.88
451.324	72.88
451.545	78.88
451.766	91.88
451.986	66.88
452.207	74.88
452.428	81.88
452.648	88.88
452.869	85.88
453.089	95.88
453.31	87.88
453.53	78.88
453.751	90.88
453.971	82.88
454.192	86.88
454.412	96.88
454.633	81.88
454.853	78.88
455.073	70.88
455.294	85.88
455.514	75.88
455.734	73.88
455.955	88.88
456.175	89.88
456.395	76.88
456.616	86.88
456.836	84.88
457.056	77.88
457.276	87.88
457.497	79.88
457.717	94.88
457.937	91.88
458.157	97.88
458.377	96.88
458.598	112.88
458.818	105.88
459.038	91.88
459.258	87.88
459.478	83.88
459.698	71.88
459.918	84.88
460.138	74.88
460.358	80.88
460.578	102.88
460.798	93.88
461.018	96.88
461.238	77.88
461.458	74.88
461.678	89.88
461.898	91.88
462.118	91.88
462.338	79.88
462.558	85.88
462.777	80.88
462.997	90.88
463.217	79.88
463.437	78.88
463.657	84.88
463.876	92.88
464.096	86.88
464.316	71.88
464.536	79.88
464.755	90.88
464.975	95.88
465.195	83.88
465.414	83.88
465.634	94.88
465.854	90.88
466.073	81.88
466.293	92.88
466.512	75.88
466.732	78.88
466.951	89.88
467.171	75.88
467.391	89.88
467.61	89.88
467.829	93.88
468.049	82.88
468.268	79.88
468.488	90.88
468.707	87.88
468.927	76.88
469.146	87.88
469.365	82.88
469.585	74.88
469.804	77.88
470.023	82.88
470.243	88.88
470.462	78.88
470.681	88.88
470.901	82.88
471.12	84.88
471.339	76.88
471.558	78.88
471.777	85.88
471.997	90.88
472.216	97.88
472.435	87.88
472.654	71.88
472.873	84.88
473.092	85.88
473.311	75.88
473.53	75.88
473.749	75.88
473.968	88.88
474.187	82.88
474.406	87.88
474.625	88.88
474.844	86.88
475.063	92.88
475.282	73.88
475.501	84.88
475.72	87.88
475.939	92.88
476.158	90.88
476.377	86.88
476.596	76.88
476.814	86.88
477.033	76.88
477.252	86.88
477.471	90.88
477.69	82.88
477.908	74.88
478.127	88.88
478.346	87.88
478.564	92.88
478.783	78.88
479.002	94.88
479.22	90.88
479.439	83.88
479.658	78.88
479.876	77.88
480.095	92.88
480.313	89.88
480.532	84.88
480.751	84.88
480.969	73.88
481.188	76.88
481.406	85.88
481.624	77.88
481.843	86.88
482.061	85.88
482.28	85.88
482.498	82.88
482.717	89.88
482.935	81.88
483.153	91.88
483.372	77.88
483.59	83.88
483.808	79.88
484.027	84.88
484.245	93.88
484.463	99.88
484.681	85.88
484.9	86.88
485.118	81.88
485.336	93.88
485.554	68.88
485.772	83.88
485.99	95.88
486.209	91.88
486.427	88.88
486.645	81.88
486.863	89.88
487.081	84.88
487.299	82.88
487.517	86.88
487.735	91.88
487.953	119.88
488.171	111.88
488.389	91.88
488.607	85.88
488.825	79.88
489.043	68.88
489.261	84.88
489.479	82.88
489.696	92.88
489.914	72.88
490.132	88.88
490.35	98.88
490.568	93.88
490.786	87.88
491.003	86.88
491.221	78.88
491.439	77.88
491.657	101.88
491.874	92.88
492.092	104.88
492.31	78.88
492.527	84.88
492.745	86.88
492.963	97.88
493.18	68.88
493.398	82.88
493.615	84.88
493.833	84.88
494.05	76.88
494.268	86.88
494.485	87.88
494.703	88.88
494.92	101.88
495.138	86.88
495.355	100.88
495.573	78.88
495.79	87.88
496.008	85.88
496.225	90.88
496.442	90.88
496.66	91.88
496.877	94.88
497.094	92.88
497.312	89.88
497.529	92.88
497.746	80.88
497.963	84.88
498.181	96.88
498.398	91.88
498.615	87.88
498.832	89.88
499.049	82.88
499.267	84.88
499.484	96.88
499.701	90.88
499.918	85.88
500.135	96.88
500.352	89.88
500.569	95.88
500.786	96.88
501.003	82.88
501.22	114.88
501.437	91.88
501.654	86.88
501.871	85.88
502.088	95.88
502.305	82.88
502.522	84.88
502.739	88.88
502.956	89.88
503.172	88.88
503.389	75.88
503.606	87.88
503.823	104.88
504.04	85.88
504.256	107.88
504.473	108.88
504.69	84.88
504.907	86.88
505.123	92.88
505.34	78.88
505.557	84.88
505.773	74.88
505.99	84.88
506.207	86.88
506.423	78.88
506.64	75.88
506.856	89.88
507.073	98.88
507.289	93.88
507.506	86.88
507.722	77.88
507.939	84.88
508.155	92.88
508.372	94.88
508.588	97.88
508.805	75.88
509.021	77.88
509.238	93.88
509.454	79.88
509.67	86.88
509.887	78.88
510.103	80.88
510.319	84.88
510.536	90.88
510.752	84.88
510.968	84.88
511.184	83.88
511.401	86.88
511.617	87.88
511.833	86.88
512.049	88.88
512.265	88.88
512.481	92.88
512.698	82.88
512.914	95.88
513.13	94.88
513.346	82.88
513.562	88.88
513.778	87.88
513.994	92.88
514.21	92.88
514.426	77.88
514.642	89.88
514.858	70.88
515.074	80.88
515.29	98.88
515.506	75.88
515.721	89.88
515.937	89.88
516.153	89.88
516.369	91.88
516.585	82.88
516.801	88.88
517.016	85.88
517.232	78.88
517.448	92.88
517.664	91.88
517.879	81.88
518.095	82.88
518.311	85.88
518.527	89.88
518.742	106.88
518.958	100.88
519.173	122.88
