Data from 15780_2_HRD10591_00014.txt Node
Date: Mon Jan 19 14:19:10 EST 2026
User: Yrep
Spectrometer: HR+D1059
Trigger mode: 1
Integration Time (sec): 1.000000E-1
Scans to average: 1
Electric dark correction enabled: true
Nonlinearity correction enabled: false
Boxcar width: 0
XAxis mode: Wavelengths
Number of Pixels in Spectrum: 2048
>>>>>Begin Spectral Data<<<<<
223.165	-23.69
223.4	-23.69
223.635	-23.69
223.869	-24.69
224.104	-11.69
224.338	-28.69
224.573	-20.69
224.808	-10.69
225.042	-0.69
225.277	4.31
225.511	8.31
225.746	4.31
225.98	10.31
226.215	16.31
226.449	-1.69
226.683	21.31
226.918	31.31
227.152	26.31
227.387	39.31
227.621	42.31
227.856	29.31
228.09	55.31
228.324	60.31
228.559	58.31
228.793	67.31
229.027	66.31
229.262	68.31
229.496	55.31
229.73	84.31
229.964	75.31
230.199	73.31
230.433	86.31
230.667	90.31
230.901	84.31
231.136	77.31
231.37	84.31
231.604	82.31
231.838	81.31
232.072	81.31
232.306	84.31
232.541	88.31
232.775	98.31
233.009	91.31
233.243	74.31
233.477	74.31
233.711	71.31
233.945	76.31
234.179	79.31
234.413	70.31
234.647	76.31
234.881	89.31
235.115	76.31
235.349	82.31
235.583	66.31
235.817	74.31
236.051	85.31
236.285	86.31
236.519	85.31
236.753	76.31
236.987	86.31
237.221	72.31
237.455	89.31
237.689	75.31
237.922	61.31
238.156	84.31
238.39	77.31
238.624	80.31
238.858	88.31
239.091	76.31
239.325	64.31
239.559	61.31
239.793	80.31
240.027	80.31
240.26	77.31
240.494	72.31
240.728	67.31
240.961	74.31
241.195	84.31
241.429	72.31
241.662	75.31
241.896	70.31
242.13	73.31
242.363	74.31
242.597	82.31
242.83	70.31
243.064	85.31
243.298	82.31
243.531	75.31
243.765	79.31
243.998	72.31
244.232	83.31
244.465	64.31
244.699	80.31
244.932	84.31
245.166	77.31
245.399	82.31
245.633	95.31
245.866	78.31
246.099	68.31
246.333	80.31
246.566	77.31
246.8	79.31
247.033	80.31
247.266	83.31
247.5	89.31
247.733	87.31
247.966	76.31
248.2	76.31
248.433	87.31
248.666	64.31
248.899	76.31
249.133	79.31
249.366	86.31
249.599	60.31
249.832	79.31
250.066	76.31
250.299	93.31
250.532	75.31
250.765	81.31
250.998	80.31
251.231	79.31
251.465	78.31
251.698	82.31
251.931	86.31
252.164	84.31
252.397	86.31
252.63	70.31
252.863	80.31
253.096	84.31
253.329	95.31
253.562	82.31
253.795	79.31
254.028	66.31
254.261	80.31
254.494	77.31
254.727	89.31
254.96	82.31
255.193	74.31
255.426	89.31
255.659	92.31
255.892	95.31
256.124	73.31
256.357	83.31
256.59	89.31
256.823	88.31
257.056	89.31
257.289	72.31
257.521	76.31
257.754	77.31
257.987	80.31
258.22	84.31
258.452	93.31
258.685	75.31
258.918	90.31
259.151	74.31
259.383	74.31
259.616	90.31
259.849	86.31
260.081	86.31
260.314	71.31
260.547	84.31
260.779	83.31
261.012	79.31
261.244	96.31
261.477	92.31
261.71	78.31
261.942	78.31
262.175	84.31
262.407	94.31
262.64	84.31
262.872	88.31
263.105	87.31
263.337	60.31
263.57	82.31
263.802	75.31
264.035	89.31
264.267	86.31
264.499	76.31
264.732	74.31
264.964	85.31
265.197	90.31
265.429	88.31
265.661	82.31
265.894	80.31
266.126	95.31
266.358	84.31
266.591	86.31
266.823	90.31
267.055	89.31
267.287	75.31
267.52	84.31
267.752	99.31
267.984	80.31
268.216	94.31
268.448	75.31
268.681	83.31
268.913	88.31
269.145	78.31
269.377	86.31
269.609	73.31
269.841	78.31
270.073	72.31
270.306	71.31
270.538	87.31
270.77	84.31
271.002	88.31
271.234	83.31
271.466	96.31
271.698	80.31
271.93	82.31
272.162	92.31
272.394	76.31
272.626	94.31
272.858	94.31
273.09	87.31
273.322	85.31
273.553	79.31
273.785	92.31
274.017	81.31
274.249	69.31
274.481	67.31
274.713	84.31
274.945	80.31
275.176	79.31
275.408	105.31
275.64	90.31
275.872	76.31
276.104	78.31
276.335	69.31
276.567	78.31
276.799	91.31
277.031	78.31
277.262	84.31
277.494	97.31
277.726	95.31
277.957	84.31
278.189	83.31
278.421	93.31
278.652	100.31
278.884	79.31
279.115	96.31
279.347	96.31
279.579	97.31
279.81	95.31
280.042	77.31
280.273	84.31
280.505	92.31
280.736	90.31
280.968	81.31
281.199	76.31
281.431	84.31
281.662	88.31
281.894	84.31
282.125	102.31
282.356	87.31
282.588	84.31
282.819	80.31
283.051	69.31
283.282	80.31
283.513	96.31
283.745	84.31
283.976	82.31
284.207	100.31
284.439	76.31
284.67	85.31
284.901	92.31
285.132	78.31
285.364	89.31
285.595	90.31
285.826	85.31
286.057	86.31
286.288	76.31
286.52	98.31
286.751	87.31
286.982	88.31
287.213	89.31
287.444	88.31
287.675	87.31
287.906	88.31
288.138	92.31
288.369	84.31
288.6	92.31
288.831	78.31
289.062	86.31
289.293	90.31
289.524	97.31
289.755	86.31
289.986	92.31
290.217	85.31
290.448	92.31
290.679	101.31
290.91	90.31
291.141	92.31
291.371	88.31
291.602	83.31
291.833	80.31
292.064	84.31
292.295	68.31
292.526	84.31
292.757	72.31
292.987	74.31
293.218	84.31
293.449	95.31
293.68	88.31
293.91	85.31
294.141	86.31
294.372	94.31
294.603	97.31
294.833	86.31
295.064	82.31
295.295	78.31
295.525	80.31
295.756	84.31
295.987	77.31
296.217	89.31
296.448	76.31
296.679	91.31
296.909	90.31
297.14	84.31
297.37	84.31
297.601	81.31
297.831	88.31
298.062	84.31
298.292	88.31
298.523	78.31
298.753	86.31
298.984	84.31
299.214	73.31
299.445	83.31
299.675	86.31
299.905	87.31
300.136	89.31
300.366	90.31
300.597	77.31
300.827	91.31
301.057	84.31
301.288	78.31
301.518	87.31
301.748	92.31
301.979	89.31
302.209	97.31
302.439	107.31
302.669	92.31
302.9	90.31
303.13	83.31
303.36	67.31
303.59	96.31
303.82	84.31
304.051	93.31
304.281	84.31
304.511	94.31
304.741	88.31
304.971	82.31
305.201	82.31
305.431	75.31
305.661	98.31
305.891	88.31
306.121	84.31
306.352	77.31
306.582	88.31
306.812	79.31
307.042	93.31
307.272	93.31
307.502	83.31
307.731	83.31
307.961	88.31
308.191	99.31
308.421	89.31
308.651	84.31
308.881	82.31
309.111	92.31
309.341	84.31
309.571	72.31
309.8	84.31
310.03	86.31
310.26	84.31
310.49	78.31
310.72	88.31
310.949	96.31
311.179	85.31
311.409	81.31
311.639	89.31
311.868	86.31
312.098	106.31
312.328	82.31
312.557	86.31
312.787	87.31
313.017	74.31
313.246	85.31
313.476	84.31
313.706	90.31
313.935	86.31
314.165	84.31
314.394	82.31
314.624	80.31
314.853	82.31
315.083	99.31
315.312	71.31
315.542	74.31
315.771	80.31
316.001	88.31
316.23	80.31
316.46	97.31
316.689	81.31
316.919	84.31
317.148	94.31
317.377	96.31
317.607	94.31
317.836	88.31
318.065	97.31
318.295	76.31
318.524	81.31
318.753	88.31
318.983	93.31
319.212	85.31
319.441	78.31
319.67	84.31
319.9	89.31
320.129	90.31
320.358	85.31
320.587	83.31
320.816	92.31
321.046	93.31
321.275	79.31
321.504	83.31
321.733	97.31
321.962	79.31
322.191	92.31
322.42	89.31
322.649	97.31
322.878	96.31
323.108	95.31
323.337	86.31
323.566	92.31
323.795	90.31
324.024	86.31
324.253	84.31
324.482	95.31
324.71	85.31
324.939	87.31
325.168	87.31
325.397	83.31
325.626	92.31
325.855	81.31
326.084	94.31
326.313	76.31
326.542	89.31
326.77	91.31
326.999	89.31
327.228	85.31
327.457	86.31
327.686	83.31
327.914	75.31
328.143	92.31
328.372	84.31
328.6	81.31
328.829	88.31
329.058	79.31
329.287	89.31
329.515	87.31
329.744	108.31
329.972	77.31
330.201	102.31
330.43	80.31
330.658	85.31
330.887	77.31
331.115	85.31
331.344	87.31
331.572	90.31
331.801	77.31
332.03	95.31
332.258	88.31
332.486	88.31
332.715	85.31
332.943	84.31
333.172	86.31
333.4	99.31
333.629	91.31
333.857	87.31
334.085	96.31
334.314	92.31
334.542	100.31
334.771	84.31
334.999	76.31
335.227	100.31
335.455	90.31
335.684	104.31
335.912	90.31
336.14	80.31
336.369	96.31
336.597	95.31
336.825	96.31
337.053	84.31
337.281	88.31
337.51	93.31
337.738	99.31
337.966	84.31
338.194	72.31
338.422	94.31
338.65	97.31
338.878	84.31
339.106	81.31
339.334	85.31
339.562	96.31
339.79	75.31
340.018	97.31
340.246	82.31
340.474	86.31
340.702	100.31
340.93	91.31
341.158	96.31
341.386	94.31
341.614	98.31
341.842	89.31
342.07	78.31
342.298	97.31
342.526	83.31
342.754	89.31
342.981	88.31
343.209	76.31
343.437	100.31
343.665	93.31
343.893	73.31
344.12	81.31
344.348	84.31
344.576	93.31
344.804	98.31
345.031	84.31
345.259	76.31
345.487	82.31
345.714	90.31
345.942	82.31
346.17	86.31
346.397	89.31
346.625	79.31
346.853	81.31
347.08	86.31
347.308	88.31
347.535	90.31
347.763	85.31
347.99	86.31
348.218	87.31
348.445	76.31
348.673	79.31
348.9	82.31
349.128	98.31
349.355	84.31
349.583	96.31
349.81	75.31
350.037	82.31
350.265	90.31
350.492	78.31
350.72	88.31
350.947	90.31
351.174	88.31
351.402	85.31
351.629	76.31
351.856	84.31
352.083	90.31
352.311	83.31
352.538	79.31
352.765	96.31
352.992	89.31
353.22	82.31
353.447	79.31
353.674	87.31
353.901	95.31
354.128	89.31
354.355	84.31
354.583	92.31
354.81	87.31
355.037	73.31
355.264	84.31
355.491	92.31
355.718	91.31
355.945	104.31
356.172	103.31
356.399	85.31
356.626	84.31
356.853	88.31
357.08	75.31
357.307	70.31
357.534	83.31
357.761	88.31
357.988	95.31
358.215	95.31
358.441	91.31
358.668	84.31
358.895	73.31
359.122	86.31
359.349	98.31
359.576	92.31
359.802	96.31
360.029	84.31
360.256	79.31
360.483	82.31
360.709	108.31
360.936	84.31
361.163	94.31
361.39	88.31
361.616	70.31
361.843	77.31
362.07	87.31
362.296	93.31
362.523	81.31
362.749	91.31
362.976	81.31
363.203	92.31
363.429	95.31
363.656	87.31
363.882	85.31
364.109	82.31
364.335	70.31
364.562	90.31
364.788	93.31
365.015	95.31
365.241	86.31
365.468	92.31
365.694	87.31
365.92	82.31
366.147	93.31
366.373	95.31
366.599	81.31
366.826	83.31
367.052	85.31
367.278	94.31
367.505	96.31
367.731	79.31
367.957	94.31
368.184	90.31
368.41	109.31
368.636	70.31
368.862	94.31
369.089	88.31
369.315	86.31
369.541	77.31
369.767	94.31
369.993	84.31
370.219	77.31
370.445	70.31
370.672	96.31
370.898	83.31
371.124	83.31
371.35	90.31
371.576	86.31
371.802	85.31
372.028	94.31
372.254	77.31
372.48	87.31
372.706	80.31
372.932	84.31
373.158	93.31
373.384	78.31
373.61	83.31
373.835	90.31
374.061	87.31
374.287	89.31
374.513	83.31
374.739	77.31
374.965	93.31
375.191	96.31
375.416	75.31
375.642	96.31
375.868	84.31
376.094	91.31
376.319	77.31
376.545	88.31
376.771	89.31
376.997	77.31
377.222	88.31
377.448	89.31
377.674	89.31
377.899	86.31
378.125	84.31
378.35	82.31
378.576	77.31
378.802	78.31
379.027	83.31
379.253	82.31
379.478	67.31
379.704	90.31
379.929	80.31
380.155	73.31
380.38	86.31
380.606	64.31
380.831	77.31
381.057	94.31
381.282	75.31
381.507	87.31
381.733	87.31
381.958	86.31
382.184	90.31
382.409	79.31
382.634	93.31
382.86	87.31
383.085	90.31
383.31	82.31
383.535	100.31
383.761	96.31
383.986	93.31
384.211	89.31
384.436	85.31
384.662	75.31
384.887	90.31
385.112	88.31
385.337	76.31
385.562	99.31
385.787	92.31
386.013	96.31
386.238	96.31
386.463	84.31
386.688	92.31
386.913	92.31
387.138	82.31
387.363	63.31
387.588	94.31
387.813	96.31
388.038	82.31
388.263	91.31
388.488	98.31
388.713	89.31
388.938	74.31
389.163	90.31
389.387	77.31
389.612	88.31
389.837	84.31
390.062	71.31
390.287	96.31
390.512	85.31
390.736	88.31
390.961	89.31
391.186	92.31
391.411	102.31
391.636	99.31
391.86	88.31
392.085	82.31
392.31	102.31
392.534	89.31
392.759	76.31
392.984	70.31
393.208	105.31
393.433	128.31
393.658	121.31
393.882	96.31
394.107	82.31
394.331	87.31
394.556	91.31
394.78	97.31
395.005	100.31
395.229	75.31
395.454	92.31
395.678	98.31
395.903	112.31
396.127	99.31
396.352	96.31
396.576	97.31
396.801	112.31
397.025	120.31
397.249	102.31
397.474	100.31
397.698	97.31
397.922	86.31
398.147	89.31
398.371	78.31
398.595	73.31
398.82	77.31
399.044	75.31
399.268	77.31
399.492	72.31
399.717	78.31
399.941	88.31
400.165	70.31
400.389	73.31
400.613	80.31
400.837	80.31
401.062	94.31
401.286	67.31
401.51	79.31
401.734	68.31
401.958	84.31
402.182	85.31
402.406	87.31
402.63	78.31
402.854	86.31
403.078	77.31
403.302	86.31
403.526	102.31
403.75	88.31
403.974	84.31
404.198	84.31
404.422	90.31
404.645	82.31
404.869	77.31
405.093	80.31
405.317	92.31
405.541	92.31
405.765	78.31
405.988	82.31
406.212	65.31
406.436	84.31
406.66	83.31
406.883	84.31
407.107	86.31
407.331	83.31
407.555	81.31
407.778	96.31
408.002	85.31
408.226	84.31
408.449	78.31
408.673	87.31
408.896	91.31
409.12	91.31
409.344	88.31
409.567	76.31
409.791	80.31
410.014	77.31
410.238	80.31
410.461	88.31
410.685	79.31
410.908	86.31
411.132	80.31
411.355	88.31
411.578	91.31
411.802	78.31
412.025	93.31
412.249	69.31
412.472	80.31
412.695	92.31
412.919	89.31
413.142	82.31
413.365	84.31
413.589	78.31
413.812	70.31
414.035	86.31
414.258	76.31
414.482	89.31
414.705	70.31
414.928	88.31
415.151	92.31
415.374	63.31
415.597	77.31
415.821	91.31
416.044	84.31
416.267	78.31
416.49	92.31
416.713	76.31
416.936	93.31
417.159	83.31
417.382	88.31
417.605	81.31
417.828	93.31
418.051	68.31
418.274	89.31
418.497	89.31
418.72	77.31
418.943	87.31
419.166	73.31
419.389	65.31
419.611	84.31
419.834	78.31
420.057	77.31
420.28	90.31
420.503	78.31
420.726	79.31
420.948	67.31
421.171	88.31
421.394	87.31
421.617	87.31
421.839	87.31
422.062	85.31
422.285	114.31
422.507	125.31
422.73	167.31
422.953	163.31
423.175	116.31
423.398	91.31
423.621	94.31
423.843	73.31
424.066	103.31
424.288	81.31
424.511	78.31
424.733	85.31
424.956	75.31
425.178	85.31
425.401	85.31
425.623	79.31
425.846	83.31
426.068	84.31
426.291	77.31
426.513	94.31
426.735	103.31
426.958	85.31
427.18	74.31
427.402	77.31
427.625	73.31
427.847	76.31
428.069	87.31
428.292	87.31
428.514	97.31
428.736	86.31
428.958	100.31
429.181	105.31
429.403	93.31
429.625	84.31
429.847	92.31
430.069	88.31
430.292	112.31
430.514	110.31
430.736	94.31
430.958	92.31
431.18	68.31
431.402	73.31
431.624	97.31
431.846	82.31
432.068	98.31
432.29	84.31
432.512	96.31
432.734	97.31
432.956	78.31
433.178	81.31
433.4	76.31
433.622	88.31
433.844	79.31
434.066	88.31
434.287	68.31
434.509	75.31
434.731	84.31
434.953	86.31
435.175	68.31
435.397	82.31
435.618	88.31
435.84	76.31
436.062	86.31
436.284	86.31
436.505	67.31
436.727	71.31
436.949	109.31
437.17	84.31
437.392	78.31
437.614	88.31
437.835	82.31
438.057	76.31
438.278	73.31
438.5	83.31
438.721	81.31
438.943	80.31
439.165	79.31
439.386	86.31
439.608	85.31
439.829	86.31
440.05	82.31
440.272	82.31
440.493	84.31
440.715	84.31
440.936	76.31
441.158	92.31
441.379	72.31
441.6	85.31
441.822	77.31
442.043	76.31
442.264	78.31
442.486	86.31
442.707	114.31
442.928	96.31
443.149	89.31
443.371	107.31
443.592	123.31
443.813	104.31
444.034	89.31
444.255	96.31
444.476	88.31
444.698	74.31
444.919	88.31
445.14	176.31
445.361	139.31
445.582	130.31
445.803	112.31
446.024	86.31
446.245	82.31
446.466	88.31
446.687	85.31
446.908	80.31
447.129	70.31
447.35	98.31
447.571	97.31
447.792	80.31
448.013	89.31
448.234	84.31
448.455	76.31
448.675	75.31
448.896	73.31
449.117	69.31
449.338	84.31
449.559	88.31
449.779	77.31
450	80.31
450.221	69.31
450.442	92.31
450.662	76.31
450.883	81.31
451.104	79.31
451.324	87.31
451.545	77.31
451.766	82.31
451.986	80.31
452.207	91.31
452.428	79.31
452.648	88.31
452.869	79.31
453.089	100.31
453.31	91.31
453.53	93.31
453.751	96.31
453.971	82.31
454.192	86.31
454.412	72.31
454.633	75.31
454.853	80.31
455.073	82.31
455.294	73.31
455.514	76.31
455.734	92.31
455.955	97.31
456.175	79.31
456.395	77.31
456.616	83.31
456.836	82.31
457.056	91.31
457.276	77.31
457.497	86.31
457.717	68.31
457.937	93.31
458.157	88.31
458.377	96.31
458.598	80.31
458.818	93.31
459.038	69.31
459.258	87.31
459.478	86.31
459.698	72.31
459.918	91.31
460.138	88.31
460.358	91.31
460.578	86.31
460.798	99.31
461.018	89.31
461.238	77.31
461.458	95.31
461.678	86.31
461.898	98.31
462.118	82.31
462.338	73.31
462.558	86.31
462.777	87.31
462.997	76.31
463.217	77.31
463.437	64.31
463.657	90.31
463.876	81.31
464.096	78.31
464.316	66.31
464.536	87.31
464.755	76.31
464.975	76.31
465.195	84.31
465.414	85.31
465.634	82.31
465.854	85.31
466.073	87.31
466.293	97.31
466.512	83.31
466.732	81.31
466.951	90.31
467.171	84.31
467.391	79.31
467.61	83.31
467.829	63.31
468.049	81.31
468.268	73.31
468.488	71.31
468.707	94.31
468.927	106.31
469.146	96.31
469.365	82.31
469.585	73.31
469.804	84.31
470.023	82.31
470.243	88.31
470.462	73.31
470.681	79.31
470.901	78.31
471.12	89.31
471.339	94.31
471.558	91.31
471.777	83.31
471.997	75.31
472.216	75.31
472.435	84.31
472.654	79.31
472.873	84.31
473.092	84.31
473.311	93.31
473.53	92.31
473.749	82.31
473.968	84.31
474.187	81.31
474.406	82.31
474.625	83.31
474.844	76.31
475.063	76.31
475.282	92.31
475.501	77.31
475.72	98.31
475.939	71.31
476.158	78.31
476.377	74.31
476.596	57.31
476.814	75.31
477.033	76.31
477.252	88.31
477.471	90.31
477.69	78.31
477.908	75.31
478.127	88.31
478.346	90.31
478.564	81.31
478.783	88.31
479.002	73.31
479.22	82.31
479.439	91.31
479.658	75.31
479.876	89.31
480.095	75.31
480.313	88.31
480.532	100.31
480.751	75.31
480.969	79.31
481.188	86.31
481.406	91.31
481.624	87.31
481.843	77.31
482.061	102.31
482.28	88.31
482.498	84.31
482.717	88.31
482.935	91.31
483.153	94.31
483.372	80.31
483.59	84.31
483.808	78.31
484.027	92.31
484.245	91.31
484.463	97.31
484.681	99.31
484.9	80.31
485.118	104.31
485.336	79.31
485.554	74.31
485.772	85.31
485.99	67.31
486.209	90.31
486.427	83.31
486.645	80.31
486.863	83.31
487.081	88.31
487.299	108.31
487.517	89.31
487.735	90.31
487.953	107.31
488.171	93.31
488.389	88.31
488.607	68.31
488.825	86.31
489.043	81.31
489.261	84.31
489.479	77.31
489.696	80.31
489.914	109.31
490.132	88.31
490.35	87.31
490.568	88.31
490.786	83.31
491.003	86.31
491.221	82.31
491.439	92.31
491.657	89.31
491.874	90.31
492.092	84.31
492.31	102.31
492.527	97.31
492.745	87.31
492.963	73.31
493.18	87.31
493.398	86.31
493.615	92.31
493.833	88.31
494.05	94.31
494.268	88.31
494.485	87.31
494.703	68.31
494.92	82.31
495.138	72.31
495.355	82.31
495.573	93.31
495.79	76.31
496.008	93.31
496.225	86.31
496.442	84.31
496.66	98.31
496.877	84.31
497.094	97.31
497.312	90.31
497.529	84.31
497.746	84.31
497.963	71.31
498.181	84.31
498.398	91.31
498.615	94.31
498.832	86.31
499.049	96.31
499.267	91.31
499.484	98.31
499.701	94.31
499.918	86.31
500.135	82.31
500.352	96.31
500.569	79.31
500.786	77.31
501.003	92.31
501.22	107.31
501.437	87.31
501.654	92.31
501.871	84.31
502.088	91.31
502.305	92.31
502.522	79.31
502.739	88.31
502.956	91.31
503.172	100.31
503.389	82.31
503.606	82.31
503.823	84.31
504.04	99.31
504.256	104.31
504.473	100.31
504.69	88.31
504.907	97.31
505.123	84.31
505.34	87.31
505.557	86.31
505.773	80.31
505.99	84.31
506.207	76.31
506.423	92.31
506.64	84.31
506.856	82.31
507.073	92.31
507.289	86.31
507.506	82.31
507.722	75.31
507.939	93.31
508.155	77.31
508.372	87.31
508.588	82.31
508.805	91.31
509.021	85.31
509.238	92.31
509.454	88.31
509.67	84.31
509.887	88.31
510.103	79.31
510.319	85.31
510.536	90.31
510.752	78.31
510.968	79.31
511.184	89.31
511.401	94.31
511.617	86.31
511.833	71.31
512.049	88.31
512.265	85.31
512.481	71.31
512.698	93.31
512.914	92.31
513.13	84.31
513.346	80.31
513.562	76.31
513.778	89.31
513.994	80.31
514.21	69.31
514.426	76.31
514.642	96.31
514.858	83.31
515.074	89.31
515.29	97.31
515.506	100.31
515.721	75.31
515.937	87.31
516.153	86.31
516.369	74.31
516.585	86.31
516.801	93.31
517.016	98.31
517.232	108.31
517.448	92.31
517.664	78.31
517.879	76.31
518.095	94.31
518.311	87.31
518.527	91.31
518.742	97.31
518.958	96.31
519.173	105.31
519.389	80.31
