Data from 15780_2_HRD10591_00025.txt Node
Date: Mon Jan 19 14:19:16 EST 2026
User: Yrep
Spectrometer: HR+D1059
Trigger mode: 1
Integration Time (sec): 1.000000E-1
Scans to average: 1
Electric dark correction enabled: true
Nonlinearity correction enabled: false
Boxcar width: 0
XAxis mode: Wavelengths
Number of Pixels in Spectrum: 2048
>>>>>Begin Spectral Data<<<<<
223.165	-7.44
223.4	-7.44
223.635	-7.44
223.869	-17.44
224.104	-18.44
224.338	1.56
224.573	-22.44
224.808	-21.44
225.042	-7.44
225.277	-4.44
225.511	-0.44
225.746	-0.44
225.98	5.56
226.215	22.56
226.449	9.56
226.683	10.56
226.918	19.56
227.152	30.56
227.387	57.56
227.621	30.56
227.856	52.56
228.09	53.56
228.324	53.56
228.559	65.56
228.793	62.56
229.027	64.56
229.262	80.56
229.496	54.56
229.73	60.56
229.964	76.56
230.199	77.56
230.433	74.56
230.667	69.56
230.901	72.56
231.136	75.56
231.37	92.56
231.604	88.56
231.838	83.56
232.072	80.56
232.306	80.56
232.541	78.56
232.775	78.56
233.009	68.56
233.243	69.56
233.477	90.56
233.711	82.56
233.945	94.56
234.179	83.56
234.413	103.56
234.647	86.56
234.881	75.56
235.115	83.56
235.349	101.56
235.583	80.56
235.817	72.56
236.051	78.56
236.285	93.56
236.519	61.56
236.753	83.56
236.987	74.56
237.221	81.56
237.455	82.56
237.689	73.56
237.922	72.56
238.156	70.56
238.39	70.56
238.624	83.56
238.858	60.56
239.091	77.56
239.325	82.56
239.559	95.56
239.793	90.56
240.027	70.56
240.26	77.56
240.494	78.56
240.728	59.56
240.961	72.56
241.195	88.56
241.429	88.56
241.662	83.56
241.896	73.56
242.13	67.56
242.363	79.56
242.597	76.56
242.83	68.56
243.064	66.56
243.298	81.56
243.531	68.56
243.765	82.56
243.998	66.56
244.232	78.56
244.465	83.56
244.699	74.56
244.932	76.56
245.166	86.56
245.399	82.56
245.633	62.56
245.866	76.56
246.099	68.56
246.333	78.56
246.566	84.56
246.8	83.56
247.033	83.56
247.266	75.56
247.5	63.56
247.733	79.56
247.966	86.56
248.2	84.56
248.433	88.56
248.666	76.56
248.899	71.56
249.133	55.56
249.366	72.56
249.599	83.56
249.832	74.56
250.066	83.56
250.299	74.56
250.532	76.56
250.765	88.56
250.998	68.56
251.231	79.56
251.465	72.56
251.698	80.56
251.931	63.56
252.164	82.56
252.397	70.56
252.63	85.56
252.863	77.56
253.096	75.56
253.329	86.56
253.562	84.56
253.795	77.56
254.028	84.56
254.261	78.56
254.494	77.56
254.727	74.56
254.96	82.56
255.193	78.56
255.426	76.56
255.659	98.56
255.892	78.56
256.124	74.56
256.357	88.56
256.59	85.56
256.823	73.56
257.056	85.56
257.289	96.56
257.521	86.56
257.754	92.56
257.987	81.56
258.22	80.56
258.452	79.56
258.685	73.56
258.918	66.56
259.151	82.56
259.383	86.56
259.616	81.56
259.849	72.56
260.081	79.56
260.314	86.56
260.547	66.56
260.779	72.56
261.012	83.56
261.244	90.56
261.477	90.56
261.71	81.56
261.942	65.56
262.175	70.56
262.407	86.56
262.64	66.56
262.872	72.56
263.105	80.56
263.337	78.56
263.57	85.56
263.802	84.56
264.035	87.56
264.267	77.56
264.499	88.56
264.732	87.56
264.964	90.56
265.197	79.56
265.429	69.56
265.661	86.56
265.894	64.56
266.126	84.56
266.358	72.56
266.591	87.56
266.823	92.56
267.055	70.56
267.287	85.56
267.52	88.56
267.752	86.56
267.984	78.56
268.216	88.56
268.448	82.56
268.681	91.56
268.913	72.56
269.145	84.56
269.377	75.56
269.609	78.56
269.841	81.56
270.073	79.56
270.306	85.56
270.538	75.56
270.77	80.56
271.002	85.56
271.234	76.56
271.466	76.56
271.698	88.56
271.93	81.56
272.162	88.56
272.394	74.56
272.626	89.56
272.858	92.56
273.09	86.56
273.322	77.56
273.553	90.56
273.785	90.56
274.017	72.56
274.249	90.56
274.481	71.56
274.713	74.56
274.945	77.56
275.176	79.56
275.408	72.56
275.64	82.56
275.872	94.56
276.104	86.56
276.335	86.56
276.567	79.56
276.799	70.56
277.031	88.56
277.262	84.56
277.494	88.56
277.726	87.56
277.957	89.56
278.189	74.56
278.421	84.56
278.652	81.56
278.884	66.56
279.115	75.56
279.347	88.56
279.579	88.56
279.81	89.56
280.042	81.56
280.273	78.56
280.505	82.56
280.736	88.56
280.968	65.56
281.199	84.56
281.431	96.56
281.662	81.56
281.894	88.56
282.125	80.56
282.356	78.56
282.588	82.56
282.819	73.56
283.051	75.56
283.282	86.56
283.513	98.56
283.745	67.56
283.976	81.56
284.207	84.56
284.439	80.56
284.67	90.56
284.901	89.56
285.132	84.56
285.364	74.56
285.595	78.56
285.826	96.56
286.057	80.56
286.288	83.56
286.52	86.56
286.751	90.56
286.982	79.56
287.213	87.56
287.444	78.56
287.675	88.56
287.906	76.56
288.138	74.56
288.369	85.56
288.6	86.56
288.831	90.56
289.062	89.56
289.293	104.56
289.524	81.56
289.755	83.56
289.986	79.56
290.217	75.56
290.448	84.56
290.679	88.56
290.91	89.56
291.141	88.56
291.371	86.56
291.602	72.56
291.833	76.56
292.064	82.56
292.295	94.56
292.526	88.56
292.757	84.56
292.987	73.56
293.218	84.56
293.449	69.56
293.68	66.56
293.91	85.56
294.141	92.56
294.372	64.56
294.603	97.56
294.833	84.56
295.064	92.56
295.295	83.56
295.525	77.56
295.756	84.56
295.987	78.56
296.217	70.56
296.448	90.56
296.679	74.56
296.909	76.56
297.14	92.56
297.37	83.56
297.601	85.56
297.831	92.56
298.062	91.56
298.292	100.56
298.523	87.56
298.753	82.56
298.984	94.56
299.214	96.56
299.445	80.56
299.675	80.56
299.905	90.56
300.136	75.56
300.366	78.56
300.597	86.56
300.827	81.56
301.057	83.56
301.288	93.56
301.518	93.56
301.748	85.56
301.979	86.56
302.209	76.56
302.439	78.56
302.669	86.56
302.9	84.56
303.13	104.56
303.36	82.56
303.59	97.56
303.82	79.56
304.051	96.56
304.281	89.56
304.511	79.56
304.741	90.56
304.971	76.56
305.201	82.56
305.431	81.56
305.661	76.56
305.891	82.56
306.121	83.56
306.352	81.56
306.582	86.56
306.812	90.56
307.042	77.56
307.272	84.56
307.502	77.56
307.731	88.56
307.961	72.56
308.191	78.56
308.421	72.56
308.651	93.56
308.881	90.56
309.111	72.56
309.341	88.56
309.571	89.56
309.8	75.56
310.03	92.56
310.26	82.56
310.49	76.56
310.72	84.56
310.949	81.56
311.179	84.56
311.409	84.56
311.639	87.56
311.868	97.56
312.098	94.56
312.328	80.56
312.557	76.56
312.787	86.56
313.017	96.56
313.246	85.56
313.476	87.56
313.706	98.56
313.935	78.56
314.165	88.56
314.394	88.56
314.624	102.56
314.853	78.56
315.083	78.56
315.312	77.56
315.542	89.56
315.771	107.56
316.001	95.56
316.23	84.56
316.46	76.56
316.689	83.56
316.919	88.56
317.148	87.56
317.377	97.56
317.607	83.56
317.836	94.56
318.065	84.56
318.295	101.56
318.524	83.56
318.753	72.56
318.983	73.56
319.212	88.56
319.441	98.56
319.67	90.56
319.9	92.56
320.129	90.56
320.358	79.56
320.587	86.56
320.816	85.56
321.046	86.56
321.275	78.56
321.504	77.56
321.733	86.56
321.962	79.56
322.191	90.56
322.42	92.56
322.649	75.56
322.878	85.56
323.108	83.56
323.337	76.56
323.566	87.56
323.795	86.56
324.024	83.56
324.253	77.56
324.482	71.56
324.71	92.56
324.939	73.56
325.168	92.56
325.397	84.56
325.626	85.56
325.855	78.56
326.084	76.56
326.313	84.56
326.542	83.56
326.77	93.56
326.999	81.56
327.228	92.56
327.457	81.56
327.686	84.56
327.914	88.56
328.143	87.56
328.372	88.56
328.6	78.56
328.829	93.56
329.058	95.56
329.287	72.56
329.515	80.56
329.744	79.56
329.972	84.56
330.201	79.56
330.43	78.56
330.658	72.56
330.887	67.56
331.115	74.56
331.344	80.56
331.572	96.56
331.801	88.56
332.03	93.56
332.258	83.56
332.486	68.56
332.715	84.56
332.943	90.56
333.172	86.56
333.4	86.56
333.629	92.56
333.857	83.56
334.085	73.56
334.314	83.56
334.542	82.56
334.771	93.56
334.999	74.56
335.227	81.56
335.455	82.56
335.684	91.56
335.912	91.56
336.14	99.56
336.369	84.56
336.597	76.56
336.825	86.56
337.053	84.56
337.281	84.56
337.51	75.56
337.738	85.56
337.966	79.56
338.194	72.56
338.422	75.56
338.65	90.56
338.878	79.56
339.106	73.56
339.334	74.56
339.562	90.56
339.79	74.56
340.018	73.56
340.246	78.56
340.474	91.56
340.702	83.56
340.93	73.56
341.158	77.56
341.386	85.56
341.614	79.56
341.842	84.56
342.07	85.56
342.298	82.56
342.526	87.56
342.754	83.56
342.981	92.56
343.209	81.56
343.437	87.56
343.665	85.56
343.893	80.56
344.12	88.56
344.348	89.56
344.576	76.56
344.804	73.56
345.031	67.56
345.259	92.56
345.487	74.56
345.714	88.56
345.942	94.56
346.17	78.56
346.397	87.56
346.625	75.56
346.853	91.56
347.08	92.56
347.308	75.56
347.535	70.56
347.763	87.56
347.99	74.56
348.218	73.56
348.445	84.56
348.673	72.56
348.9	97.56
349.128	92.56
349.355	72.56
349.583	78.56
349.81	87.56
350.037	100.56
350.265	83.56
350.492	85.56
350.72	76.56
350.947	94.56
351.174	82.56
351.402	78.56
351.629	99.56
351.856	84.56
352.083	71.56
352.311	74.56
352.538	84.56
352.765	75.56
352.992	92.56
353.22	80.56
353.447	73.56
353.674	89.56
353.901	107.56
354.128	77.56
354.355	83.56
354.583	83.56
354.81	85.56
355.037	85.56
355.264	82.56
355.491	82.56
355.718	92.56
355.945	89.56
356.172	74.56
356.399	82.56
356.626	82.56
356.853	82.56
357.08	96.56
357.307	92.56
357.534	62.56
357.761	80.56
357.988	100.56
358.215	92.56
358.441	74.56
358.668	88.56
358.895	93.56
359.122	71.56
359.349	84.56
359.576	88.56
359.802	81.56
360.029	90.56
360.256	90.56
360.483	88.56
360.709	82.56
360.936	82.56
361.163	85.56
361.39	96.56
361.616	82.56
361.843	82.56
362.07	72.56
362.296	89.56
362.523	87.56
362.749	91.56
362.976	92.56
363.203	101.56
363.429	87.56
363.656	94.56
363.882	82.56
364.109	83.56
364.335	92.56
364.562	91.56
364.788	80.56
365.015	90.56
365.241	96.56
365.468	79.56
365.694	94.56
365.92	72.56
366.147	72.56
366.373	77.56
366.599	76.56
366.826	89.56
367.052	78.56
367.278	92.56
367.505	69.56
367.731	88.56
367.957	76.56
368.184	72.56
368.41	81.56
368.636	80.56
368.862	91.56
369.089	88.56
369.315	78.56
369.541	88.56
369.767	84.56
369.993	89.56
370.219	82.56
370.445	87.56
370.672	84.56
370.898	57.56
371.124	94.56
371.35	91.56
371.576	81.56
371.802	82.56
372.028	90.56
372.254	73.56
372.48	78.56
372.706	78.56
372.932	74.56
373.158	89.56
373.384	78.56
373.61	94.56
373.835	92.56
374.061	80.56
374.287	79.56
374.513	81.56
374.739	93.56
374.965	74.56
375.191	94.56
375.416	91.56
375.642	76.56
375.868	88.56
376.094	88.56
376.319	92.56
376.545	81.56
376.771	74.56
376.997	93.56
377.222	94.56
377.448	89.56
377.674	98.56
377.899	84.56
378.125	83.56
378.35	88.56
378.576	84.56
378.802	84.56
379.027	79.56
379.253	81.56
379.478	82.56
379.704	83.56
379.929	76.56
380.155	87.56
380.38	89.56
380.606	88.56
380.831	85.56
381.057	84.56
381.282	77.56
381.507	84.56
381.733	90.56
381.958	87.56
382.184	79.56
382.409	74.56
382.634	88.56
382.86	85.56
383.085	70.56
383.31	77.56
383.535	90.56
383.761	80.56
383.986	86.56
384.211	71.56
384.436	81.56
384.662	74.56
384.887	77.56
385.112	82.56
385.337	88.56
385.562	90.56
385.787	71.56
386.013	88.56
386.238	87.56
386.463	82.56
386.688	83.56
386.913	85.56
387.138	89.56
387.363	79.56
387.588	70.56
387.813	89.56
388.038	91.56
388.263	104.56
388.488	90.56
388.713	69.56
388.938	76.56
389.163	84.56
389.387	81.56
389.612	74.56
389.837	77.56
390.062	82.56
390.287	88.56
390.512	88.56
390.736	101.56
390.961	88.56
391.186	79.56
391.411	97.56
391.636	75.56
391.86	95.56
392.085	90.56
392.31	81.56
392.534	76.56
392.759	96.56
392.984	111.56
393.208	170.56
393.433	243.56
393.658	183.56
393.882	103.56
394.107	89.56
394.331	98.56
394.556	114.56
394.78	101.56
395.005	76.56
395.229	84.56
395.454	93.56
395.678	94.56
395.903	108.56
396.127	104.56
396.352	110.56
396.576	128.56
396.801	173.56
397.025	197.56
397.249	107.56
397.474	90.56
397.698	76.56
397.922	84.56
398.147	98.56
398.371	85.56
398.595	77.56
398.82	86.56
399.044	78.56
399.268	75.56
399.492	81.56
399.717	75.56
399.941	87.56
400.165	91.56
400.389	87.56
400.613	88.56
400.837	81.56
401.062	72.56
401.286	95.56
401.51	86.56
401.734	84.56
401.958	73.56
402.182	82.56
402.406	84.56
402.63	61.56
402.854	94.56
403.078	81.56
403.302	84.56
403.526	93.56
403.75	93.56
403.974	74.56
404.198	101.56
404.422	72.56
404.645	95.56
404.869	100.56
405.093	79.56
405.317	89.56
405.541	82.56
405.765	80.56
405.988	85.56
406.212	88.56
406.436	74.56
406.66	80.56
406.883	81.56
407.107	86.56
407.331	84.56
407.555	91.56
407.778	97.56
408.002	105.56
408.226	100.56
408.449	81.56
408.673	82.56
408.896	83.56
409.12	72.56
409.344	90.56
409.567	86.56
409.791	83.56
410.014	86.56
410.238	75.56
410.461	72.56
410.685	82.56
410.908	74.56
411.132	83.56
411.355	82.56
411.578	70.56
411.802	88.56
412.025	86.56
412.249	83.56
412.472	76.56
412.695	95.56
412.919	84.56
413.142	91.56
413.365	66.56
413.589	72.56
413.812	69.56
414.035	82.56
414.258	80.56
414.482	82.56
414.705	93.56
414.928	84.56
415.151	84.56
415.374	81.56
415.597	77.56
415.821	70.56
416.044	91.56
416.267	82.56
416.49	86.56
416.713	84.56
416.936	77.56
417.159	91.56
417.382	88.56
417.605	73.56
417.828	77.56
418.051	85.56
418.274	92.56
418.497	98.56
418.72	72.56
418.943	78.56
419.166	73.56
419.389	69.56
419.611	89.56
419.834	92.56
420.057	92.56
420.28	83.56
420.503	88.56
420.726	75.56
420.948	83.56
421.171	75.56
421.394	89.56
421.617	96.56
421.839	105.56
422.062	99.56
422.285	104.56
422.507	152.56
422.73	231.56
422.953	234.56
423.175	113.56
423.398	77.56
423.621	101.56
423.843	92.56
424.066	85.56
424.288	75.56
424.511	79.56
424.733	76.56
424.956	89.56
425.178	78.56
425.401	80.56
425.623	96.56
425.846	73.56
426.068	90.56
426.291	92.56
426.513	82.56
426.735	95.56
426.958	76.56
427.18	68.56
427.402	82.56
427.625	72.56
427.847	79.56
428.069	72.56
428.292	74.56
428.514	100.56
428.736	85.56
428.958	100.56
429.181	98.56
429.403	88.56
429.625	92.56
429.847	106.56
430.069	112.56
430.292	123.56
430.514	117.56
430.736	107.56
430.958	106.56
431.18	86.56
431.402	81.56
431.624	75.56
431.846	90.56
432.068	108.56
432.29	78.56
432.512	78.56
432.734	92.56
432.956	72.56
433.178	80.56
433.4	81.56
433.622	78.56
433.844	88.56
434.066	84.56
434.287	88.56
434.509	78.56
434.731	89.56
434.953	93.56
435.175	93.56
435.397	88.56
435.618	95.56
435.84	74.56
436.062	72.56
436.284	89.56
436.505	75.56
436.727	75.56
436.949	89.56
437.17	84.56
437.392	84.56
437.614	87.56
437.835	86.56
438.057	89.56
438.278	85.56
438.5	89.56
438.721	83.56
438.943	94.56
439.165	82.56
439.386	82.56
439.608	98.56
439.829	84.56
440.05	74.56
440.272	70.56
440.493	81.56
440.715	78.56
440.936	84.56
441.158	84.56
441.379	78.56
441.6	88.56
441.822	78.56
442.043	81.56
442.264	85.56
442.486	84.56
442.707	108.56
442.928	94.56
443.149	80.56
443.371	100.56
443.592	122.56
443.813	130.56
444.034	91.56
444.255	80.56
444.476	88.56
444.698	73.56
444.919	89.56
445.14	180.56
445.361	137.56
445.582	157.56
445.803	139.56
446.024	88.56
446.245	72.56
446.466	83.56
446.687	79.56
446.908	71.56
447.129	83.56
447.35	78.56
447.571	92.56
447.792	84.56
448.013	76.56
448.234	68.56
448.455	85.56
448.675	97.56
448.896	84.56
449.117	85.56
449.338	86.56
449.559	86.56
449.779	87.56
450	84.56
450.221	86.56
450.442	79.56
450.662	82.56
450.883	76.56
451.104	88.56
451.324	75.56
451.545	74.56
451.766	77.56
451.986	68.56
452.207	82.56
452.428	82.56
452.648	82.56
452.869	77.56
453.089	93.56
453.31	90.56
453.53	92.56
453.751	91.56
453.971	88.56
454.192	93.56
454.412	77.56
454.633	74.56
454.853	88.56
455.073	87.56
455.294	95.56
455.514	79.56
455.734	85.56
455.955	91.56
456.175	74.56
456.395	86.56
456.616	77.56
456.836	77.56
457.056	91.56
457.276	85.56
457.497	72.56
457.717	89.56
457.937	93.56
458.157	89.56
458.377	82.56
458.598	81.56
458.818	91.56
459.038	92.56
459.258	88.56
459.478	74.56
459.698	89.56
459.918	82.56
460.138	79.56
460.358	89.56
460.578	77.56
460.798	97.56
461.018	90.56
461.238	82.56
461.458	81.56
461.678	72.56
461.898	77.56
462.118	88.56
462.338	78.56
462.558	75.56
462.777	96.56
462.997	70.56
463.217	73.56
463.437	87.56
463.657	83.56
463.876	89.56
464.096	78.56
464.316	93.56
464.536	83.56
464.755	76.56
464.975	88.56
465.195	85.56
465.414	92.56
465.634	76.56
465.854	78.56
466.073	77.56
466.293	83.56
466.512	85.56
466.732	86.56
466.951	83.56
467.171	71.56
467.391	77.56
467.61	92.56
467.829	68.56
468.049	76.56
468.268	78.56
468.488	82.56
468.707	85.56
468.927	71.56
469.146	90.56
469.365	76.56
469.585	80.56
469.804	83.56
470.023	94.56
470.243	69.56
470.462	77.56
470.681	74.56
470.901	97.56
471.12	84.56
471.339	86.56
471.558	75.56
471.777	78.56
471.997	91.56
472.216	73.56
472.435	87.56
472.654	88.56
472.873	85.56
473.092	84.56
473.311	86.56
473.53	82.56
473.749	93.56
473.968	88.56
474.187	76.56
474.406	76.56
474.625	91.56
474.844	78.56
475.063	77.56
475.282	76.56
475.501	76.56
475.72	81.56
475.939	97.56
476.158	87.56
476.377	84.56
476.596	78.56
476.814	80.56
477.033	77.56
477.252	81.56
477.471	80.56
477.69	83.56
477.908	84.56
478.127	91.56
478.346	74.56
478.564	84.56
478.783	93.56
479.002	69.56
479.22	78.56
479.439	93.56
479.658	82.56
479.876	75.56
480.095	85.56
480.313	79.56
480.532	85.56
480.751	78.56
480.969	80.56
481.188	86.56
481.406	87.56
481.624	98.56
481.843	88.56
482.061	78.56
482.28	77.56
482.498	89.56
482.717	102.56
482.935	88.56
483.153	78.56
483.372	86.56
483.59	82.56
483.808	82.56
484.027	90.56
484.245	82.56
484.463	91.56
484.681	82.56
484.9	71.56
485.118	98.56
485.336	82.56
485.554	91.56
485.772	86.56
485.99	78.56
486.209	82.56
486.427	85.56
486.645	78.56
486.863	82.56
487.081	88.56
487.299	73.56
487.517	86.56
487.735	98.56
487.953	104.56
488.171	84.56
488.389	72.56
488.607	85.56
488.825	81.56
489.043	86.56
489.261	95.56
489.479	64.56
489.696	92.56
489.914	87.56
490.132	84.56
490.35	84.56
490.568	69.56
490.786	80.56
491.003	80.56
491.221	82.56
491.439	98.56
491.657	77.56
491.874	89.56
492.092	72.56
492.31	88.56
492.527	91.56
492.745	96.56
492.963	90.56
493.18	77.56
493.398	96.56
493.615	83.56
493.833	78.56
494.05	76.56
494.268	96.56
494.485	88.56
494.703	75.56
494.92	83.56
495.138	96.56
495.355	100.56
495.573	88.56
495.79	99.56
496.008	89.56
496.225	84.56
496.442	89.56
496.66	90.56
496.877	89.56
497.094	93.56
497.312	80.56
497.529	88.56
497.746	79.56
497.963	75.56
498.181	86.56
498.398	88.56
498.615	90.56
498.832	86.56
499.049	85.56
499.267	88.56
499.484	76.56
499.701	86.56
499.918	104.56
500.135	88.56
500.352	79.56
500.569	93.56
500.786	91.56
501.003	93.56
501.22	93.56
501.437	95.56
501.654	86.56
501.871	78.56
502.088	86.56
502.305	84.56
502.522	87.56
502.739	91.56
502.956	84.56
503.172	88.56
503.389	82.56
503.606	84.56
503.823	87.56
504.04	96.56
504.256	98.56
504.473	86.56
504.69	83.56
504.907	79.56
505.123	86.56
505.34	77.56
505.557	87.56
505.773	92.56
505.99	72.56
506.207	85.56
506.423	70.56
506.64	90.56
506.856	87.56
507.073	88.56
507.289	79.56
507.506	102.56
507.722	94.56
507.939	68.56
508.155	78.56
508.372	91.56
508.588	84.56
508.805	75.56
509.021	96.56
509.238	77.56
509.454	91.56
509.67	91.56
509.887	84.56
510.103	78.56
510.319	82.56
510.536	75.56
510.752	74.56
510.968	88.56
511.184	79.56
511.401	84.56
511.617	90.56
511.833	78.56
512.049	75.56
512.265	89.56
512.481	82.56
512.698	85.56
512.914	82.56
513.13	88.56
513.346	86.56
513.562	86.56
513.778	95.56
513.994	76.56
514.21	69.56
514.426	82.56
514.642	86.56
514.858	85.56
515.074	89.56
515.29	86.56
515.506	83.56
515.721	77.56
515.937	76.56
516.153	90.56
516.369	94.56
516.585	77.56
516.801	81.56
517.016	92.56
517.232	83.56
517.448	84.56
517.664	87.56
517.879	79.56
518.095	97.56
518.311	83.56
518.527	81.56
518.742	90.56
518.958	100.56
519.173	104.56
519.389	88.56
