Data from 15780_2_HRD10591_00048.txt Node
Date: Mon Jan 19 14:19:27 EST 2026
User: Yrep
Spectrometer: HR+D1059
Trigger mode: 1
Integration Time (sec): 1.000000E-1
Scans to average: 1
Electric dark correction enabled: true
Nonlinearity correction enabled: false
Boxcar width: 0
XAxis mode: Wavelengths
Number of Pixels in Spectrum: 2048
>>>>>Begin Spectral Data<<<<<
223.165	-27.25
223.4	-27.25
223.635	-27.25
223.869	-20.25
224.104	-15.25
224.338	-25.25
224.573	-9.25
224.808	-22.25
225.042	4.75
225.277	-4.25
225.511	-15.25
225.746	-1.25
225.98	10.75
226.215	24.75
226.449	17.75
226.683	23.75
226.918	29.75
227.152	28.75
227.387	22.75
227.621	43.75
227.856	46.75
228.09	52.75
228.324	48.75
228.559	57.75
228.793	65.75
229.027	57.75
229.262	75.75
229.496	81.75
229.73	68.75
229.964	71.75
230.199	64.75
230.433	74.75
230.667	82.75
230.901	73.75
231.136	73.75
231.37	79.75
231.604	78.75
231.838	67.75
232.072	90.75
232.306	98.75
232.541	83.75
232.775	61.75
233.009	70.75
233.243	79.75
233.477	66.75
233.711	92.75
233.945	89.75
234.179	80.75
234.413	76.75
234.647	82.75
234.881	82.75
235.115	75.75
235.349	78.75
235.583	77.75
235.817	71.75
236.051	79.75
236.285	82.75
236.519	73.75
236.753	82.75
236.987	92.75
237.221	73.75
237.455	84.75
237.689	76.75
237.922	71.75
238.156	90.75
238.39	74.75
238.624	94.75
238.858	86.75
239.091	82.75
239.325	81.75
239.559	74.75
239.793	68.75
240.027	77.75
240.26	86.75
240.494	78.75
240.728	64.75
240.961	77.75
241.195	76.75
241.429	62.75
241.662	81.75
241.896	73.75
242.13	85.75
242.363	78.75
242.597	69.75
242.83	74.75
243.064	71.75
243.298	80.75
243.531	70.75
243.765	77.75
243.998	71.75
244.232	66.75
244.465	79.75
244.699	85.75
244.932	70.75
245.166	72.75
245.399	81.75
245.633	86.75
245.866	82.75
246.099	69.75
246.333	89.75
246.566	64.75
246.8	74.75
247.033	80.75
247.266	81.75
247.5	74.75
247.733	81.75
247.966	82.75
248.2	73.75
248.433	76.75
248.666	75.75
248.899	84.75
249.133	84.75
249.366	78.75
249.599	78.75
249.832	81.75
250.066	83.75
250.299	85.75
250.532	81.75
250.765	79.75
250.998	88.75
251.231	91.75
251.465	81.75
251.698	75.75
251.931	78.75
252.164	58.75
252.397	71.75
252.63	64.75
252.863	81.75
253.096	76.75
253.329	80.75
253.562	66.75
253.795	89.75
254.028	78.75
254.261	74.75
254.494	73.75
254.727	76.75
254.96	75.75
255.193	76.75
255.426	68.75
255.659	94.75
255.892	65.75
256.124	72.75
256.357	73.75
256.59	87.75
256.823	88.75
257.056	89.75
257.289	92.75
257.521	75.75
257.754	75.75
257.987	83.75
258.22	85.75
258.452	82.75
258.685	68.75
258.918	87.75
259.151	84.75
259.383	75.75
259.616	82.75
259.849	66.75
260.081	85.75
260.314	82.75
260.547	75.75
260.779	72.75
261.012	93.75
261.244	86.75
261.477	74.75
261.71	72.75
261.942	71.75
262.175	76.75
262.407	84.75
262.64	96.75
262.872	76.75
263.105	90.75
263.337	73.75
263.57	76.75
263.802	87.75
264.035	76.75
264.267	86.75
264.499	79.75
264.732	78.75
264.964	74.75
265.197	80.75
265.429	81.75
265.661	75.75
265.894	98.75
266.126	78.75
266.358	75.75
266.591	83.75
266.823	98.75
267.055	81.75
267.287	76.75
267.52	79.75
267.752	80.75
267.984	72.75
268.216	84.75
268.448	82.75
268.681	76.75
268.913	86.75
269.145	74.75
269.377	76.75
269.609	75.75
269.841	80.75
270.073	90.75
270.306	80.75
270.538	83.75
270.77	89.75
271.002	90.75
271.234	77.75
271.466	80.75
271.698	68.75
271.93	92.75
272.162	83.75
272.394	83.75
272.626	88.75
272.858	82.75
273.09	78.75
273.322	91.75
273.553	75.75
273.785	88.75
274.017	90.75
274.249	90.75
274.481	88.75
274.713	91.75
274.945	80.75
275.176	85.75
275.408	81.75
275.64	78.75
275.872	82.75
276.104	86.75
276.335	79.75
276.567	77.75
276.799	94.75
277.031	69.75
277.262	86.75
277.494	91.75
277.726	82.75
277.957	88.75
278.189	83.75
278.421	82.75
278.652	85.75
278.884	80.75
279.115	92.75
279.347	75.75
279.579	88.75
279.81	94.75
280.042	83.75
280.273	84.75
280.505	81.75
280.736	65.75
280.968	84.75
281.199	74.75
281.431	78.75
281.662	74.75
281.894	92.75
282.125	88.75
282.356	82.75
282.588	91.75
282.819	86.75
283.051	97.75
283.282	94.75
283.513	81.75
283.745	77.75
283.976	64.75
284.207	76.75
284.439	84.75
284.67	88.75
284.901	92.75
285.132	82.75
285.364	82.75
285.595	90.75
285.826	94.75
286.057	86.75
286.288	88.75
286.52	83.75
286.751	86.75
286.982	82.75
287.213	82.75
287.444	80.75
287.675	89.75
287.906	94.75
288.138	78.75
288.369	84.75
288.6	92.75
288.831	93.75
289.062	98.75
289.293	88.75
289.524	80.75
289.755	81.75
289.986	91.75
290.217	82.75
290.448	68.75
290.679	87.75
290.91	99.75
291.141	101.75
291.371	93.75
291.602	88.75
291.833	70.75
292.064	85.75
292.295	75.75
292.526	86.75
292.757	80.75
292.987	90.75
293.218	83.75
293.449	86.75
293.68	96.75
293.91	90.75
294.141	84.75
294.372	84.75
294.603	93.75
294.833	84.75
295.064	83.75
295.295	95.75
295.525	82.75
295.756	95.75
295.987	78.75
296.217	83.75
296.448	76.75
296.679	91.75
296.909	89.75
297.14	94.75
297.37	89.75
297.601	91.75
297.831	76.75
298.062	84.75
298.292	98.75
298.523	83.75
298.753	98.75
298.984	98.75
299.214	72.75
299.445	83.75
299.675	86.75
299.905	79.75
300.136	96.75
300.366	83.75
300.597	73.75
300.827	86.75
301.057	95.75
301.288	72.75
301.518	92.75
301.748	85.75
301.979	95.75
302.209	91.75
302.439	80.75
302.669	86.75
302.9	81.75
303.13	94.75
303.36	84.75
303.59	79.75
303.82	82.75
304.051	90.75
304.281	91.75
304.511	89.75
304.741	75.75
304.971	96.75
305.201	74.75
305.431	79.75
305.661	91.75
305.891	78.75
306.121	82.75
306.352	96.75
306.582	98.75
306.812	79.75
307.042	80.75
307.272	86.75
307.502	66.75
307.731	78.75
307.961	82.75
308.191	66.75
308.421	97.75
308.651	94.75
308.881	89.75
309.111	92.75
309.341	103.75
309.571	72.75
309.8	84.75
310.03	86.75
310.26	86.75
310.49	89.75
310.72	83.75
310.949	86.75
311.179	80.75
311.409	83.75
311.639	94.75
311.868	97.75
312.098	76.75
312.328	89.75
312.557	88.75
312.787	81.75
313.017	89.75
313.246	79.75
313.476	86.75
313.706	73.75
313.935	94.75
314.165	78.75
314.394	87.75
314.624	82.75
314.853	87.75
315.083	92.75
315.312	68.75
315.542	82.75
315.771	93.75
316.001	95.75
316.23	77.75
316.46	92.75
316.689	81.75
316.919	78.75
317.148	87.75
317.377	79.75
317.607	82.75
317.836	90.75
318.065	91.75
318.295	88.75
318.524	82.75
318.753	89.75
318.983	83.75
319.212	74.75
319.441	99.75
319.67	85.75
319.9	74.75
320.129	89.75
320.358	75.75
320.587	76.75
320.816	84.75
321.046	86.75
321.275	98.75
321.504	92.75
321.733	94.75
321.962	96.75
322.191	87.75
322.42	96.75
322.649	92.75
322.878	102.75
323.108	89.75
323.337	90.75
323.566	91.75
323.795	76.75
324.024	89.75
324.253	106.75
324.482	72.75
324.71	90.75
324.939	89.75
325.168	88.75
325.397	96.75
325.626	85.75
325.855	76.75
326.084	82.75
326.313	96.75
326.542	84.75
326.77	81.75
326.999	98.75
327.228	78.75
327.457	79.75
327.686	95.75
327.914	81.75
328.143	92.75
328.372	81.75
328.6	65.75
328.829	84.75
329.058	93.75
329.287	97.75
329.515	73.75
329.744	95.75
329.972	60.75
330.201	84.75
330.43	74.75
330.658	75.75
330.887	97.75
331.115	85.75
331.344	84.75
331.572	98.75
331.801	81.75
332.03	70.75
332.258	78.75
332.486	81.75
332.715	89.75
332.943	76.75
333.172	82.75
333.4	76.75
333.629	95.75
333.857	76.75
334.085	92.75
334.314	94.75
334.542	80.75
334.771	87.75
334.999	91.75
335.227	85.75
335.455	83.75
335.684	101.75
335.912	95.75
336.14	89.75
336.369	74.75
336.597	87.75
336.825	72.75
337.053	88.75
337.281	87.75
337.51	74.75
337.738	82.75
337.966	77.75
338.194	73.75
338.422	84.75
338.65	98.75
338.878	83.75
339.106	78.75
339.334	80.75
339.562	98.75
339.79	90.75
340.018	83.75
340.246	80.75
340.474	75.75
340.702	87.75
340.93	83.75
341.158	91.75
341.386	76.75
341.614	75.75
341.842	87.75
342.07	76.75
342.298	83.75
342.526	75.75
342.754	74.75
342.981	76.75
343.209	83.75
343.437	98.75
343.665	85.75
343.893	71.75
344.12	97.75
344.348	77.75
344.576	74.75
344.804	75.75
345.031	90.75
345.259	99.75
345.487	84.75
345.714	82.75
345.942	77.75
346.17	84.75
346.397	76.75
346.625	82.75
346.853	84.75
347.08	77.75
347.308	80.75
347.535	88.75
347.763	86.75
347.99	93.75
348.218	75.75
348.445	87.75
348.673	81.75
348.9	78.75
349.128	86.75
349.355	90.75
349.583	87.75
349.81	77.75
350.037	89.75
350.265	95.75
350.492	70.75
350.72	79.75
350.947	82.75
351.174	90.75
351.402	88.75
351.629	86.75
351.856	90.75
352.083	74.75
352.311	78.75
352.538	87.75
352.765	73.75
352.992	89.75
353.22	84.75
353.447	97.75
353.674	83.75
353.901	98.75
354.128	89.75
354.355	82.75
354.583	87.75
354.81	88.75
355.037	76.75
355.264	86.75
355.491	84.75
355.718	91.75
355.945	83.75
356.172	94.75
356.399	84.75
356.626	92.75
356.853	75.75
357.08	88.75
357.307	75.75
357.534	74.75
357.761	84.75
357.988	100.75
358.215	89.75
358.441	100.75
358.668	92.75
358.895	83.75
359.122	72.75
359.349	78.75
359.576	75.75
359.802	79.75
360.029	75.75
360.256	86.75
360.483	94.75
360.709	84.75
360.936	85.75
361.163	92.75
361.39	88.75
361.616	91.75
361.843	83.75
362.07	86.75
362.296	97.75
362.523	96.75
362.749	91.75
362.976	101.75
363.203	91.75
363.429	87.75
363.656	94.75
363.882	90.75
364.109	110.75
364.335	103.75
364.562	108.75
364.788	90.75
365.015	92.75
365.241	75.75
365.468	90.75
365.694	74.75
365.92	82.75
366.147	82.75
366.373	90.75
366.599	90.75
366.826	94.75
367.052	79.75
367.278	77.75
367.505	76.75
367.731	87.75
367.957	92.75
368.184	84.75
368.41	82.75
368.636	86.75
368.862	80.75
369.089	83.75
369.315	75.75
369.541	91.75
369.767	89.75
369.993	86.75
370.219	86.75
370.445	97.75
370.672	92.75
370.898	78.75
371.124	85.75
371.35	82.75
371.576	87.75
371.802	78.75
372.028	80.75
372.254	83.75
372.48	90.75
372.706	73.75
372.932	80.75
373.158	96.75
373.384	100.75
373.61	96.75
373.835	106.75
374.061	74.75
374.287	87.75
374.513	94.75
374.739	97.75
374.965	105.75
375.191	81.75
375.416	81.75
375.642	79.75
375.868	82.75
376.094	76.75
376.319	77.75
376.545	87.75
376.771	75.75
376.997	81.75
377.222	86.75
377.448	74.75
377.674	68.75
377.899	70.75
378.125	86.75
378.35	90.75
378.576	82.75
378.802	83.75
379.027	94.75
379.253	92.75
379.478	77.75
379.704	84.75
379.929	80.75
380.155	82.75
380.38	70.75
380.606	84.75
380.831	82.75
381.057	83.75
381.282	78.75
381.507	75.75
381.733	92.75
381.958	92.75
382.184	81.75
382.409	89.75
382.634	87.75
382.86	91.75
383.085	89.75
383.31	77.75
383.535	84.75
383.761	95.75
383.986	87.75
384.211	91.75
384.436	69.75
384.662	79.75
384.887	94.75
385.112	100.75
385.337	76.75
385.562	90.75
385.787	94.75
386.013	98.75
386.238	102.75
386.463	87.75
386.688	103.75
386.913	85.75
387.138	88.75
387.363	83.75
387.588	110.75
387.813	84.75
388.038	90.75
388.263	93.75
388.488	85.75
388.713	95.75
388.938	76.75
389.163	82.75
389.387	78.75
389.612	88.75
389.837	89.75
390.062	74.75
390.287	92.75
390.512	74.75
390.736	82.75
390.961	86.75
391.186	77.75
391.411	82.75
391.636	96.75
391.86	86.75
392.085	79.75
392.31	86.75
392.534	92.75
392.759	98.75
392.984	135.75
393.208	218.75
393.433	295.75
393.658	225.75
393.882	121.75
394.107	106.75
394.331	92.75
394.556	122.75
394.78	101.75
395.005	89.75
395.229	94.75
395.454	76.75
395.678	90.75
395.903	95.75
396.127	122.75
396.352	129.75
396.576	154.75
396.801	226.75
397.025	236.75
397.249	160.75
397.474	99.75
397.698	89.75
397.922	87.75
398.147	78.75
398.371	79.75
398.595	85.75
398.82	77.75
399.044	80.75
399.268	90.75
399.492	92.75
399.717	91.75
399.941	88.75
400.165	102.75
400.389	91.75
400.613	81.75
400.837	89.75
401.062	81.75
401.286	63.75
401.51	83.75
401.734	81.75
401.958	80.75
402.182	75.75
402.406	88.75
402.63	76.75
402.854	87.75
403.078	75.75
403.302	99.75
403.526	73.75
403.75	77.75
403.974	91.75
404.198	87.75
404.422	114.75
404.645	121.75
404.869	104.75
405.093	93.75
405.317	82.75
405.541	82.75
405.765	88.75
405.988	89.75
406.212	74.75
406.436	93.75
406.66	67.75
406.883	92.75
407.107	80.75
407.331	80.75
407.555	89.75
407.778	101.75
408.002	107.75
408.226	95.75
408.449	76.75
408.673	69.75
408.896	89.75
409.12	86.75
409.344	94.75
409.567	74.75
409.791	100.75
410.014	101.75
410.238	86.75
410.461	94.75
410.685	85.75
410.908	80.75
411.132	97.75
411.355	83.75
411.578	80.75
411.802	95.75
412.025	75.75
412.249	97.75
412.472	74.75
412.695	61.75
412.919	89.75
413.142	75.75
413.365	85.75
413.589	85.75
413.812	67.75
414.035	81.75
414.258	100.75
414.482	87.75
414.705	88.75
414.928	80.75
415.151	89.75
415.374	78.75
415.597	85.75
415.821	99.75
416.044	80.75
416.267	88.75
416.49	76.75
416.713	82.75
416.936	90.75
417.159	88.75
417.382	73.75
417.605	84.75
417.828	76.75
418.051	75.75
418.274	85.75
418.497	85.75
418.72	76.75
418.943	88.75
419.166	82.75
419.389	75.75
419.611	83.75
419.834	99.75
420.057	74.75
420.28	94.75
420.503	80.75
420.726	79.75
420.948	94.75
421.171	80.75
421.394	91.75
421.617	107.75
421.839	106.75
422.062	103.75
422.285	133.75
422.507	228.75
422.73	353.75
422.953	288.75
423.175	168.75
423.398	98.75
423.621	98.75
423.843	80.75
424.066	84.75
424.288	82.75
424.511	76.75
424.733	80.75
424.956	82.75
425.178	77.75
425.401	78.75
425.623	75.75
425.846	82.75
426.068	83.75
426.291	89.75
426.513	74.75
426.735	90.75
426.958	79.75
427.18	73.75
427.402	95.75
427.625	87.75
427.847	87.75
428.069	87.75
428.292	123.75
428.514	112.75
428.736	90.75
428.958	110.75
429.181	115.75
429.403	90.75
429.625	83.75
429.847	119.75
430.069	129.75
430.292	162.75
430.514	145.75
430.736	125.75
430.958	126.75
431.18	96.75
431.402	90.75
431.624	94.75
431.846	110.75
432.068	106.75
432.29	86.75
432.512	103.75
432.734	86.75
432.956	85.75
433.178	80.75
433.4	72.75
433.622	84.75
433.844	85.75
434.066	78.75
434.287	79.75
434.509	86.75
434.731	81.75
434.953	96.75
435.175	75.75
435.397	76.75
435.618	85.75
435.84	83.75
436.062	77.75
436.284	93.75
436.505	84.75
436.727	74.75
436.949	76.75
437.17	83.75
437.392	84.75
437.614	95.75
437.835	86.75
438.057	83.75
438.278	94.75
438.5	67.75
438.721	78.75
438.943	82.75
439.165	72.75
439.386	82.75
439.608	83.75
439.829	84.75
440.05	81.75
440.272	70.75
440.493	80.75
440.715	71.75
440.936	74.75
441.158	94.75
441.379	84.75
441.6	91.75
441.822	85.75
442.043	96.75
442.264	87.75
442.486	101.75
442.707	139.75
442.928	88.75
443.149	81.75
443.371	119.75
443.592	196.75
443.813	168.75
444.034	94.75
444.255	82.75
444.476	86.75
444.698	92.75
444.919	84.75
445.14	155.75
445.361	160.75
445.582	231.75
445.803	187.75
446.024	96.75
446.245	86.75
446.466	77.75
446.687	89.75
446.908	79.75
447.129	73.75
447.35	88.75
447.571	79.75
447.792	81.75
448.013	87.75
448.234	87.75
448.455	72.75
448.675	77.75
448.896	98.75
449.117	84.75
449.338	103.75
449.559	84.75
449.779	83.75
450	98.75
450.221	84.75
450.442	91.75
450.662	76.75
450.883	86.75
451.104	84.75
451.324	91.75
451.545	79.75
451.766	90.75
451.986	86.75
452.207	88.75
452.428	81.75
452.648	82.75
452.869	89.75
453.089	75.75
453.31	74.75
453.53	93.75
453.751	88.75
453.971	82.75
454.192	82.75
454.412	80.75
454.633	84.75
454.853	97.75
455.073	87.75
455.294	78.75
455.514	98.75
455.734	86.75
455.955	80.75
456.175	86.75
456.395	74.75
456.616	81.75
456.836	76.75
457.056	86.75
457.276	77.75
457.497	75.75
457.717	81.75
457.937	88.75
458.157	110.75
458.377	84.75
458.598	94.75
458.818	101.75
459.038	84.75
459.258	90.75
459.478	73.75
459.698	80.75
459.918	94.75
460.138	98.75
460.358	84.75
460.578	99.75
460.798	112.75
461.018	103.75
461.238	77.75
461.458	87.75
461.678	83.75
461.898	92.75
462.118	85.75
462.338	85.75
462.558	85.75
462.777	76.75
462.997	80.75
463.217	82.75
463.437	74.75
463.657	90.75
463.876	79.75
464.096	94.75
464.316	97.75
464.536	71.75
464.755	75.75
464.975	82.75
465.195	88.75
465.414	72.75
465.634	76.75
465.854	84.75
466.073	71.75
466.293	75.75
466.512	77.75
466.732	77.75
466.951	76.75
467.171	84.75
467.391	80.75
467.61	84.75
467.829	70.75
468.049	84.75
468.268	91.75
468.488	77.75
468.707	81.75
468.927	90.75
469.146	81.75
469.365	86.75
469.585	85.75
469.804	68.75
470.023	86.75
470.243	86.75
470.462	87.75
470.681	75.75
470.901	74.75
471.12	89.75
471.339	75.75
471.558	82.75
471.777	82.75
471.997	84.75
472.216	79.75
472.435	91.75
472.654	86.75
472.873	76.75
473.092	87.75
473.311	71.75
473.53	82.75
473.749	80.75
473.968	84.75
474.187	86.75
474.406	84.75
474.625	77.75
474.844	88.75
475.063	76.75
475.282	87.75
475.501	86.75
475.72	74.75
475.939	77.75
476.158	84.75
476.377	95.75
476.596	84.75
476.814	80.75
477.033	73.75
477.252	72.75
477.471	80.75
477.69	86.75
477.908	85.75
478.127	92.75
478.346	85.75
478.564	82.75
478.783	75.75
479.002	92.75
479.22	80.75
479.439	86.75
479.658	74.75
479.876	72.75
480.095	89.75
480.313	83.75
480.532	93.75
480.751	88.75
480.969	80.75
481.188	86.75
481.406	89.75
481.624	59.75
481.843	87.75
482.061	72.75
482.28	95.75
482.498	63.75
482.717	90.75
482.935	90.75
483.153	90.75
483.372	85.75
483.59	81.75
483.808	89.75
484.027	98.75
484.245	82.75
484.463	84.75
484.681	101.75
484.9	82.75
485.118	74.75
485.336	89.75
485.554	83.75
485.772	91.75
485.99	86.75
486.209	77.75
486.427	78.75
486.645	89.75
486.863	86.75
487.081	78.75
487.299	83.75
487.517	94.75
487.735	96.75
487.953	116.75
488.171	111.75
488.389	89.75
488.607	79.75
488.825	85.75
489.043	92.75
489.261	81.75
489.479	91.75
489.696	82.75
489.914	71.75
490.132	84.75
490.35	78.75
490.568	84.75
490.786	82.75
491.003	84.75
491.221	79.75
491.439	86.75
491.657	79.75
491.874	74.75
492.092	97.75
492.31	88.75
492.527	77.75
492.745	75.75
492.963	82.75
493.18	90.75
493.398	79.75
493.615	92.75
493.833	92.75
494.05	77.75
494.268	85.75
494.485	74.75
494.703	87.75
494.92	78.75
495.138	88.75
495.355	84.75
495.573	81.75
495.79	78.75
496.008	94.75
496.225	90.75
496.442	99.75
496.66	80.75
496.877	84.75
497.094	102.75
497.312	97.75
497.529	80.75
497.746	86.75
497.963	85.75
498.181	73.75
498.398	94.75
498.615	92.75
498.832	73.75
499.049	94.75
499.267	80.75
499.484	75.75
499.701	86.75
499.918	91.75
500.135	102.75
500.352	93.75
500.569	78.75
500.786	73.75
501.003	84.75
501.22	88.75
501.437	83.75
501.654	90.75
501.871	94.75
502.088	91.75
502.305	90.75
502.522	92.75
502.739	87.75
502.956	83.75
503.172	96.75
503.389	89.75
503.606	78.75
503.823	84.75
504.04	108.75
504.256	107.75
504.473	98.75
504.69	94.75
504.907	91.75
505.123	82.75
505.34	75.75
505.557	91.75
505.773	86.75
505.99	97.75
506.207	86.75
506.423	74.75
506.64	82.75
506.856	94.75
507.073	98.75
507.289	94.75
507.506	88.75
507.722	75.75
507.939	84.75
508.155	76.75
508.372	83.75
508.588	95.75
508.805	79.75
509.021	80.75
509.238	81.75
509.454	86.75
509.67	87.75
509.887	91.75
510.103	80.75
510.319	90.75
510.536	88.75
510.752	76.75
510.968	70.75
511.184	84.75
511.401	80.75
511.617	91.75
511.833	88.75
512.049	90.75
512.265	99.75
512.481	80.75
512.698	80.75
512.914	90.75
513.13	92.75
513.346	67.75
513.562	81.75
513.778	90.75
513.994	93.75
514.21	93.75
514.426	95.75
514.642	79.75
514.858	70.75
515.074	82.75
515.29	73.75
515.506	90.75
515.721	69.75
515.937	80.75
516.153	74.75
516.369	83.75
516.585	88.75
516.801	67.75
517.016	87.75
517.232	67.75
517.448	90.75
517.664	81.75
517.879	86.75
518.095	82.75
518.311	83.75
518.527	86.75
518.742	79.75
518.958	99.75
519.173	103.75
