Data from 15780_2_HRD10591_00019.txt Node
Date: Mon Jan 19 14:19:13 EST 2026
User: Yrep
Spectrometer: HR+D1059
Trigger mode: 1
Integration Time (sec): 1.000000E-1
Scans to average: 1
Electric dark correction enabled: true
Nonlinearity correction enabled: false
Boxcar width: 0
XAxis mode: Wavelengths
Number of Pixels in Spectrum: 2048
>>>>>Begin Spectral Data<<<<<
223.165	-24.94
223.4	-24.94
223.635	-24.94
223.869	-11.94
224.104	-8.94
224.338	-25.94
224.573	-24.94
224.808	-35.94
225.042	-3.94
225.277	-13.94
225.511	0.06
225.746	-0.94
225.98	6.06
226.215	8.06
226.449	24.06
226.683	36.06
226.918	38.06
227.152	39.06
227.387	40.06
227.621	43.06
227.856	38.06
228.09	34.06
228.324	49.06
228.559	53.06
228.793	45.06
229.027	71.06
229.262	61.06
229.496	70.06
229.73	70.06
229.964	61.06
230.199	71.06
230.433	62.06
230.667	62.06
230.901	76.06
231.136	76.06
231.37	84.06
231.604	83.06
231.838	84.06
232.072	82.06
232.306	83.06
232.541	96.06
232.775	88.06
233.009	63.06
233.243	81.06
233.477	84.06
233.711	77.06
233.945	75.06
234.179	79.06
234.413	80.06
234.647	69.06
234.881	73.06
235.115	74.06
235.349	94.06
235.583	80.06
235.817	70.06
236.051	83.06
236.285	76.06
236.519	75.06
236.753	67.06
236.987	61.06
237.221	75.06
237.455	78.06
237.689	86.06
237.922	77.06
238.156	83.06
238.39	86.06
238.624	83.06
238.858	83.06
239.091	60.06
239.325	74.06
239.559	69.06
239.793	58.06
240.027	71.06
240.26	71.06
240.494	80.06
240.728	82.06
240.961	83.06
241.195	70.06
241.429	70.06
241.662	67.06
241.896	73.06
242.13	82.06
242.363	83.06
242.597	84.06
242.83	75.06
243.064	81.06
243.298	79.06
243.531	85.06
243.765	84.06
243.998	74.06
244.232	71.06
244.465	73.06
244.699	74.06
244.932	77.06
245.166	76.06
245.399	89.06
245.633	83.06
245.866	72.06
246.099	68.06
246.333	84.06
246.566	79.06
246.8	65.06
247.033	79.06
247.266	70.06
247.5	73.06
247.733	70.06
247.966	77.06
248.2	87.06
248.433	76.06
248.666	81.06
248.899	77.06
249.133	99.06
249.366	101.06
249.599	90.06
249.832	87.06
250.066	79.06
250.299	97.06
250.532	66.06
250.765	84.06
250.998	93.06
251.231	73.06
251.465	81.06
251.698	79.06
251.931	81.06
252.164	83.06
252.397	90.06
252.63	79.06
252.863	78.06
253.096	72.06
253.329	82.06
253.562	81.06
253.795	70.06
254.028	77.06
254.261	87.06
254.494	71.06
254.727	80.06
254.96	78.06
255.193	78.06
255.426	90.06
255.659	81.06
255.892	70.06
256.124	76.06
256.357	71.06
256.59	85.06
256.823	71.06
257.056	65.06
257.289	73.06
257.521	93.06
257.754	85.06
257.987	75.06
258.22	73.06
258.452	81.06
258.685	89.06
258.918	79.06
259.151	83.06
259.383	84.06
259.616	87.06
259.849	82.06
260.081	73.06
260.314	81.06
260.547	80.06
260.779	80.06
261.012	88.06
261.244	65.06
261.477	91.06
261.71	87.06
261.942	92.06
262.175	64.06
262.407	78.06
262.64	78.06
262.872	83.06
263.105	79.06
263.337	82.06
263.57	76.06
263.802	67.06
264.035	85.06
264.267	84.06
264.499	86.06
264.732	77.06
264.964	90.06
265.197	91.06
265.429	85.06
265.661	86.06
265.894	88.06
266.126	87.06
266.358	84.06
266.591	80.06
266.823	76.06
267.055	86.06
267.287	91.06
267.52	85.06
267.752	67.06
267.984	79.06
268.216	88.06
268.448	87.06
268.681	91.06
268.913	89.06
269.145	87.06
269.377	70.06
269.609	95.06
269.841	73.06
270.073	66.06
270.306	76.06
270.538	76.06
270.77	84.06
271.002	79.06
271.234	77.06
271.466	77.06
271.698	70.06
271.93	78.06
272.162	92.06
272.394	82.06
272.626	84.06
272.858	91.06
273.09	77.06
273.322	72.06
273.553	79.06
273.785	83.06
274.017	84.06
274.249	77.06
274.481	87.06
274.713	81.06
274.945	89.06
275.176	89.06
275.408	80.06
275.64	94.06
275.872	69.06
276.104	82.06
276.335	83.06
276.567	91.06
276.799	89.06
277.031	75.06
277.262	86.06
277.494	82.06
277.726	86.06
277.957	88.06
278.189	96.06
278.421	86.06
278.652	73.06
278.884	69.06
279.115	75.06
279.347	83.06
279.579	69.06
279.81	91.06
280.042	81.06
280.273	86.06
280.505	79.06
280.736	79.06
280.968	85.06
281.199	74.06
281.431	91.06
281.662	84.06
281.894	89.06
282.125	87.06
282.356	71.06
282.588	77.06
282.819	83.06
283.051	81.06
283.282	65.06
283.513	90.06
283.745	93.06
283.976	89.06
284.207	97.06
284.439	91.06
284.67	86.06
284.901	80.06
285.132	74.06
285.364	83.06
285.595	95.06
285.826	98.06
286.057	99.06
286.288	91.06
286.52	89.06
286.751	74.06
286.982	72.06
287.213	78.06
287.444	87.06
287.675	87.06
287.906	85.06
288.138	90.06
288.369	72.06
288.6	85.06
288.831	83.06
289.062	77.06
289.293	90.06
289.524	87.06
289.755	83.06
289.986	79.06
290.217	101.06
290.448	76.06
290.679	81.06
290.91	85.06
291.141	85.06
291.371	72.06
291.602	86.06
291.833	87.06
292.064	87.06
292.295	84.06
292.526	74.06
292.757	72.06
292.987	73.06
293.218	72.06
293.449	80.06
293.68	87.06
293.91	80.06
294.141	80.06
294.372	87.06
294.603	93.06
294.833	90.06
295.064	80.06
295.295	82.06
295.525	87.06
295.756	97.06
295.987	91.06
296.217	89.06
296.448	83.06
296.679	92.06
296.909	84.06
297.14	74.06
297.37	78.06
297.601	90.06
297.831	93.06
298.062	105.06
298.292	101.06
298.523	87.06
298.753	94.06
298.984	90.06
299.214	80.06
299.445	90.06
299.675	75.06
299.905	83.06
300.136	83.06
300.366	85.06
300.597	79.06
300.827	87.06
301.057	74.06
301.288	78.06
301.518	86.06
301.748	91.06
301.979	94.06
302.209	91.06
302.439	90.06
302.669	97.06
302.9	72.06
303.13	73.06
303.36	73.06
303.59	74.06
303.82	85.06
304.051	83.06
304.281	89.06
304.511	89.06
304.741	69.06
304.971	83.06
305.201	71.06
305.431	90.06
305.661	83.06
305.891	90.06
306.121	106.06
306.352	91.06
306.582	93.06
306.812	93.06
307.042	76.06
307.272	74.06
307.502	92.06
307.731	66.06
307.961	94.06
308.191	88.06
308.421	83.06
308.651	87.06
308.881	99.06
309.111	83.06
309.341	87.06
309.571	93.06
309.8	74.06
310.03	81.06
310.26	69.06
310.49	100.06
310.72	84.06
310.949	94.06
311.179	89.06
311.409	76.06
311.639	78.06
311.868	92.06
312.098	98.06
312.328	77.06
312.557	85.06
312.787	83.06
313.017	80.06
313.246	95.06
313.476	88.06
313.706	85.06
313.935	88.06
314.165	88.06
314.394	81.06
314.624	79.06
314.853	85.06
315.083	89.06
315.312	89.06
315.542	100.06
315.771	84.06
316.001	86.06
316.23	83.06
316.46	94.06
316.689	90.06
316.919	86.06
317.148	79.06
317.377	79.06
317.607	96.06
317.836	93.06
318.065	86.06
318.295	84.06
318.524	63.06
318.753	89.06
318.983	83.06
319.212	99.06
319.441	82.06
319.67	102.06
319.9	81.06
320.129	84.06
320.358	90.06
320.587	79.06
320.816	79.06
321.046	71.06
321.275	89.06
321.504	76.06
321.733	90.06
321.962	81.06
322.191	87.06
322.42	82.06
322.649	100.06
322.878	92.06
323.108	73.06
323.337	94.06
323.566	92.06
323.795	81.06
324.024	99.06
324.253	92.06
324.482	79.06
324.71	99.06
324.939	86.06
325.168	84.06
325.397	77.06
325.626	97.06
325.855	78.06
326.084	81.06
326.313	79.06
326.542	83.06
326.77	82.06
326.999	93.06
327.228	85.06
327.457	82.06
327.686	88.06
327.914	85.06
328.143	89.06
328.372	97.06
328.6	85.06
328.829	83.06
329.058	86.06
329.287	92.06
329.515	92.06
329.744	87.06
329.972	82.06
330.201	96.06
330.43	91.06
330.658	83.06
330.887	77.06
331.115	85.06
331.344	78.06
331.572	86.06
331.801	90.06
332.03	90.06
332.258	87.06
332.486	83.06
332.715	78.06
332.943	84.06
333.172	100.06
333.4	99.06
333.629	82.06
333.857	93.06
334.085	94.06
334.314	91.06
334.542	102.06
334.771	79.06
334.999	89.06
335.227	86.06
335.455	95.06
335.684	91.06
335.912	89.06
336.14	91.06
336.369	93.06
336.597	90.06
336.825	91.06
337.053	74.06
337.281	93.06
337.51	87.06
337.738	86.06
337.966	94.06
338.194	83.06
338.422	88.06
338.65	100.06
338.878	86.06
339.106	108.06
339.334	75.06
339.562	91.06
339.79	84.06
340.018	92.06
340.246	86.06
340.474	77.06
340.702	80.06
340.93	91.06
341.158	89.06
341.386	91.06
341.614	94.06
341.842	83.06
342.07	103.06
342.298	75.06
342.526	85.06
342.754	92.06
342.981	67.06
343.209	73.06
343.437	92.06
343.665	79.06
343.893	79.06
344.12	88.06
344.348	77.06
344.576	78.06
344.804	87.06
345.031	88.06
345.259	87.06
345.487	83.06
345.714	86.06
345.942	83.06
346.17	82.06
346.397	93.06
346.625	89.06
346.853	92.06
347.08	94.06
347.308	91.06
347.535	80.06
347.763	91.06
347.99	95.06
348.218	93.06
348.445	80.06
348.673	72.06
348.9	99.06
349.128	97.06
349.355	74.06
349.583	85.06
349.81	81.06
350.037	83.06
350.265	74.06
350.492	83.06
350.72	93.06
350.947	86.06
351.174	85.06
351.402	77.06
351.629	85.06
351.856	81.06
352.083	83.06
352.311	82.06
352.538	77.06
352.765	85.06
352.992	92.06
353.22	83.06
353.447	98.06
353.674	86.06
353.901	75.06
354.128	77.06
354.355	87.06
354.583	66.06
354.81	75.06
355.037	87.06
355.264	84.06
355.491	86.06
355.718	83.06
355.945	70.06
356.172	97.06
356.399	91.06
356.626	87.06
356.853	105.06
357.08	95.06
357.307	98.06
357.534	92.06
357.761	87.06
357.988	86.06
358.215	89.06
358.441	88.06
358.668	86.06
358.895	82.06
359.122	104.06
359.349	75.06
359.576	86.06
359.802	94.06
360.029	79.06
360.256	72.06
360.483	79.06
360.709	90.06
360.936	97.06
361.163	86.06
361.39	93.06
361.616	86.06
361.843	88.06
362.07	103.06
362.296	93.06
362.523	93.06
362.749	81.06
362.976	111.06
363.203	91.06
363.429	89.06
363.656	95.06
363.882	90.06
364.109	85.06
364.335	90.06
364.562	107.06
364.788	96.06
365.015	93.06
365.241	89.06
365.468	86.06
365.694	94.06
365.92	84.06
366.147	80.06
366.373	73.06
366.599	75.06
366.826	101.06
367.052	89.06
367.278	80.06
367.505	90.06
367.731	94.06
367.957	88.06
368.184	78.06
368.41	84.06
368.636	88.06
368.862	62.06
369.089	91.06
369.315	100.06
369.541	75.06
369.767	97.06
369.993	81.06
370.219	85.06
370.445	83.06
370.672	84.06
370.898	78.06
371.124	75.06
371.35	79.06
371.576	93.06
371.802	77.06
372.028	78.06
372.254	79.06
372.48	82.06
372.706	91.06
372.932	78.06
373.158	80.06
373.384	79.06
373.61	101.06
373.835	102.06
374.061	90.06
374.287	95.06
374.513	105.06
374.739	105.06
374.965	87.06
375.191	92.06
375.416	71.06
375.642	81.06
375.868	90.06
376.094	82.06
376.319	90.06
376.545	82.06
376.771	68.06
376.997	79.06
377.222	75.06
377.448	90.06
377.674	75.06
377.899	77.06
378.125	92.06
378.35	87.06
378.576	80.06
378.802	83.06
379.027	90.06
379.253	90.06
379.478	94.06
379.704	81.06
379.929	81.06
380.155	81.06
380.38	78.06
380.606	86.06
380.831	72.06
381.057	87.06
381.282	99.06
381.507	99.06
381.733	97.06
381.958	94.06
382.184	89.06
382.409	93.06
382.634	88.06
382.86	107.06
383.085	93.06
383.31	77.06
383.535	89.06
383.761	99.06
383.986	95.06
384.211	97.06
384.436	99.06
384.662	94.06
384.887	89.06
385.112	91.06
385.337	91.06
385.562	94.06
385.787	88.06
386.013	93.06
386.238	86.06
386.463	90.06
386.688	91.06
386.913	83.06
387.138	89.06
387.363	91.06
387.588	96.06
387.813	93.06
388.038	86.06
388.263	97.06
388.488	89.06
388.713	81.06
388.938	85.06
389.163	93.06
389.387	72.06
389.612	83.06
389.837	86.06
390.062	89.06
390.287	87.06
390.512	83.06
390.736	80.06
390.961	80.06
391.186	86.06
391.411	84.06
391.636	86.06
391.86	84.06
392.085	86.06
392.31	84.06
392.534	100.06
392.759	88.06
392.984	94.06
393.208	117.06
393.433	171.06
393.658	135.06
393.882	98.06
394.107	87.06
394.331	103.06
394.556	98.06
394.78	88.06
395.005	81.06
395.229	77.06
395.454	82.06
395.678	97.06
395.903	101.06
396.127	110.06
396.352	118.06
396.576	114.06
396.801	138.06
397.025	164.06
397.249	107.06
397.474	109.06
397.698	85.06
397.922	107.06
398.147	81.06
398.371	97.06
398.595	93.06
398.82	74.06
399.044	83.06
399.268	71.06
399.492	88.06
399.717	91.06
399.941	94.06
400.165	85.06
400.389	91.06
400.613	92.06
400.837	72.06
401.062	83.06
401.286	84.06
401.51	80.06
401.734	94.06
401.958	92.06
402.182	82.06
402.406	84.06
402.63	75.06
402.854	83.06
403.078	88.06
403.302	94.06
403.526	83.06
403.75	71.06
403.974	85.06
404.198	72.06
404.422	84.06
404.645	82.06
404.869	75.06
405.093	77.06
405.317	88.06
405.541	76.06
405.765	85.06
405.988	81.06
406.212	80.06
406.436	77.06
406.66	79.06
406.883	80.06
407.107	81.06
407.331	76.06
407.555	78.06
407.778	97.06
408.002	81.06
408.226	74.06
408.449	93.06
408.673	83.06
408.896	78.06
409.12	79.06
409.344	87.06
409.567	89.06
409.791	84.06
410.014	93.06
410.238	79.06
410.461	85.06
410.685	78.06
410.908	78.06
411.132	86.06
411.355	87.06
411.578	83.06
411.802	79.06
412.025	80.06
412.249	78.06
412.472	83.06
412.695	78.06
412.919	84.06
413.142	74.06
413.365	89.06
413.589	69.06
413.812	96.06
414.035	92.06
414.258	82.06
414.482	93.06
414.705	83.06
414.928	101.06
415.151	77.06
415.374	93.06
415.597	64.06
415.821	89.06
416.044	81.06
416.267	84.06
416.49	78.06
416.713	83.06
416.936	67.06
417.159	85.06
417.382	79.06
417.605	83.06
417.828	85.06
418.051	88.06
418.274	89.06
418.497	86.06
418.72	76.06
418.943	79.06
419.166	85.06
419.389	83.06
419.611	74.06
419.834	79.06
420.057	78.06
420.28	75.06
420.503	98.06
420.726	78.06
420.948	83.06
421.171	89.06
421.394	87.06
421.617	82.06
421.839	94.06
422.062	97.06
422.285	97.06
422.507	134.06
422.73	194.06
422.953	186.06
423.175	102.06
423.398	96.06
423.621	102.06
423.843	78.06
424.066	75.06
424.288	104.06
424.511	87.06
424.733	78.06
424.956	81.06
425.178	83.06
425.401	92.06
425.623	90.06
425.846	86.06
426.068	75.06
426.291	90.06
426.513	76.06
426.735	82.06
426.958	84.06
427.18	100.06
427.402	79.06
427.625	85.06
427.847	72.06
428.069	84.06
428.292	106.06
428.514	99.06
428.736	90.06
428.958	99.06
429.181	99.06
429.403	89.06
429.625	82.06
429.847	90.06
430.069	106.06
430.292	99.06
430.514	95.06
430.736	97.06
430.958	103.06
431.18	90.06
431.402	89.06
431.624	85.06
431.846	84.06
432.068	103.06
432.29	91.06
432.512	78.06
432.734	79.06
432.956	84.06
433.178	80.06
433.4	88.06
433.622	88.06
433.844	83.06
434.066	82.06
434.287	93.06
434.509	79.06
434.731	84.06
434.953	69.06
435.175	75.06
435.397	78.06
435.618	78.06
435.84	80.06
436.062	65.06
436.284	72.06
436.505	98.06
436.727	69.06
436.949	72.06
437.17	84.06
437.392	87.06
437.614	75.06
437.835	87.06
438.057	69.06
438.278	80.06
438.5	79.06
438.721	89.06
438.943	78.06
439.165	89.06
439.386	65.06
439.608	97.06
439.829	89.06
440.05	75.06
440.272	87.06
440.493	77.06
440.715	86.06
440.936	92.06
441.158	93.06
441.379	79.06
441.6	94.06
441.822	91.06
442.043	89.06
442.264	79.06
442.486	102.06
442.707	108.06
442.928	101.06
443.149	98.06
443.371	104.06
443.592	146.06
443.813	119.06
444.034	67.06
444.255	71.06
444.476	78.06
444.698	101.06
444.919	93.06
445.14	169.06
445.361	152.06
445.582	144.06
445.803	132.06
446.024	110.06
446.245	89.06
446.466	77.06
446.687	84.06
446.908	75.06
447.129	85.06
447.35	67.06
447.571	81.06
447.792	77.06
448.013	68.06
448.234	76.06
448.455	79.06
448.675	83.06
448.896	73.06
449.117	84.06
449.338	74.06
449.559	85.06
449.779	89.06
450	79.06
450.221	87.06
450.442	77.06
450.662	82.06
450.883	75.06
451.104	77.06
451.324	85.06
451.545	102.06
451.766	81.06
451.986	78.06
452.207	62.06
452.428	93.06
452.648	99.06
452.869	80.06
453.089	69.06
453.31	81.06
453.53	85.06
453.751	90.06
453.971	98.06
454.192	80.06
454.412	83.06
454.633	78.06
454.853	87.06
455.073	81.06
455.294	71.06
455.514	75.06
455.734	70.06
455.955	81.06
456.175	82.06
456.395	85.06
456.616	97.06
456.836	85.06
457.056	85.06
457.276	79.06
457.497	85.06
457.717	93.06
457.937	93.06
458.157	90.06
458.377	102.06
458.598	80.06
458.818	91.06
459.038	79.06
459.258	86.06
459.478	75.06
459.698	76.06
459.918	85.06
460.138	91.06
460.358	89.06
460.578	92.06
460.798	83.06
461.018	97.06
461.238	90.06
461.458	88.06
461.678	87.06
461.898	87.06
462.118	92.06
462.338	74.06
462.558	83.06
462.777	85.06
462.997	80.06
463.217	100.06
463.437	97.06
463.657	80.06
463.876	85.06
464.096	76.06
464.316	93.06
464.536	80.06
464.755	87.06
464.975	89.06
465.195	90.06
465.414	77.06
465.634	90.06
465.854	85.06
466.073	81.06
466.293	81.06
466.512	72.06
466.732	83.06
466.951	94.06
467.171	76.06
467.391	77.06
467.61	90.06
467.829	75.06
468.049	91.06
468.268	77.06
468.488	85.06
468.707	72.06
468.927	93.06
469.146	91.06
469.365	87.06
469.585	73.06
469.804	79.06
470.023	70.06
470.243	73.06
470.462	95.06
470.681	95.06
470.901	92.06
471.12	80.06
471.339	85.06
471.558	71.06
471.777	74.06
471.997	81.06
472.216	83.06
472.435	69.06
472.654	77.06
472.873	74.06
473.092	86.06
473.311	79.06
473.53	74.06
473.749	93.06
473.968	79.06
474.187	96.06
474.406	70.06
474.625	75.06
474.844	79.06
475.063	86.06
475.282	80.06
475.501	83.06
475.72	97.06
475.939	77.06
476.158	75.06
476.377	89.06
476.596	76.06
476.814	80.06
477.033	79.06
477.252	91.06
477.471	69.06
477.69	91.06
477.908	72.06
478.127	87.06
478.346	85.06
478.564	74.06
478.783	88.06
479.002	88.06
479.22	85.06
479.439	101.06
479.658	92.06
479.876	70.06
480.095	82.06
480.313	81.06
480.532	76.06
480.751	82.06
480.969	89.06
481.188	77.06
481.406	73.06
481.624	85.06
481.843	70.06
482.061	75.06
482.28	65.06
482.498	87.06
482.717	77.06
482.935	75.06
483.153	75.06
483.372	84.06
483.59	92.06
483.808	97.06
484.027	86.06
484.245	90.06
484.463	86.06
484.681	84.06
484.9	92.06
485.118	83.06
485.336	91.06
485.554	87.06
485.772	76.06
485.99	75.06
486.209	74.06
486.427	92.06
486.645	79.06
486.863	87.06
487.081	85.06
487.299	84.06
487.517	88.06
487.735	82.06
487.953	103.06
488.171	79.06
488.389	85.06
488.607	71.06
488.825	84.06
489.043	80.06
489.261	85.06
489.479	70.06
489.696	73.06
489.914	72.06
490.132	70.06
490.35	90.06
490.568	91.06
490.786	77.06
491.003	78.06
491.221	87.06
491.439	83.06
491.657	109.06
491.874	79.06
492.092	83.06
492.31	79.06
492.527	77.06
492.745	80.06
492.963	91.06
493.18	89.06
493.398	77.06
493.615	87.06
493.833	89.06
494.05	84.06
494.268	80.06
494.485	78.06
494.703	89.06
494.92	93.06
495.138	89.06
495.355	95.06
495.573	97.06
495.79	75.06
496.008	97.06
496.225	83.06
496.442	88.06
496.66	91.06
496.877	91.06
497.094	82.06
497.312	82.06
497.529	84.06
497.746	84.06
497.963	72.06
498.181	75.06
498.398	95.06
498.615	73.06
498.832	83.06
499.049	67.06
499.267	87.06
499.484	92.06
499.701	76.06
499.918	75.06
500.135	91.06
500.352	84.06
500.569	82.06
500.786	87.06
501.003	80.06
501.22	88.06
501.437	72.06
501.654	73.06
501.871	91.06
502.088	68.06
502.305	87.06
502.522	91.06
502.739	103.06
502.956	101.06
503.172	91.06
503.389	77.06
503.606	93.06
503.823	107.06
504.04	78.06
504.256	90.06
504.473	101.06
504.69	91.06
504.907	108.06
505.123	96.06
505.34	77.06
505.557	78.06
505.773	90.06
505.99	85.06
506.207	92.06
506.423	77.06
506.64	88.06
506.856	85.06
507.073	88.06
507.289	83.06
507.506	90.06
507.722	80.06
507.939	84.06
508.155	89.06
508.372	73.06
508.588	91.06
508.805	93.06
509.021	95.06
509.238	90.06
509.454	83.06
509.67	88.06
509.887	87.06
510.103	80.06
510.319	83.06
510.536	90.06
510.752	76.06
510.968	93.06
511.184	71.06
511.401	77.06
511.617	85.06
511.833	97.06
512.049	87.06
512.265	90.06
512.481	81.06
512.698	90.06
512.914	77.06
513.13	101.06
513.346	89.06
513.562	84.06
513.778	98.06
513.994	91.06
514.21	86.06
514.426	78.06
514.642	84.06
514.858	87.06
515.074	87.06
515.29	89.06
515.506	73.06
515.721	86.06
515.937	71.06
516.153	85.06
516.369	76.06
516.585	93.06
516.801	90.06
517.016	90.06
517.232	80.06
517.448	80.06
517.664	80.06
517.879	79.06
518.095	93.06
518.311	75.06
518.527	95.06
518.742	94.06
518.958	97.06
519.173	110.06
