Data from 15780_2_HRD10591_00034.txt Node
Date: Mon Jan 19 14:19:20 EST 2026
User: Yrep
Spectrometer: HR+D1059
Trigger mode: 1
Integration Time (sec): 1.000000E-1
Scans to average: 1
Electric dark correction enabled: true
Nonlinearity correction enabled: false
Boxcar width: 0
XAxis mode: Wavelengths
Number of Pixels in Spectrum: 2048
>>>>>Begin Spectral Data<<<<<
223.165	-16.62
223.4	-16.62
223.635	-16.62
223.869	-16.62
224.104	-18.62
224.338	-20.62
224.573	-22.62
224.808	-7.62
225.042	2.38
225.277	-15.62
225.511	-9.62
225.746	6.38
225.98	13.38
226.215	-2.62
226.449	24.38
226.683	21.38
226.918	21.38
227.152	41.38
227.387	34.38
227.621	40.38
227.856	51.38
228.09	50.38
228.324	67.38
228.559	56.38
228.793	60.38
229.027	62.38
229.262	64.38
229.496	65.38
229.73	70.38
229.964	61.38
230.199	68.38
230.433	67.38
230.667	80.38
230.901	77.38
231.136	84.38
231.37	76.38
231.604	78.38
231.838	73.38
232.072	83.38
232.306	80.38
232.541	98.38
232.775	72.38
233.009	101.38
233.243	86.38
233.477	92.38
233.711	82.38
233.945	76.38
234.179	79.38
234.413	75.38
234.647	87.38
234.881	82.38
235.115	87.38
235.349	80.38
235.583	71.38
235.817	82.38
236.051	86.38
236.285	71.38
236.519	54.38
236.753	78.38
236.987	82.38
237.221	103.38
237.455	78.38
237.689	70.38
237.922	73.38
238.156	74.38
238.39	79.38
238.624	77.38
238.858	89.38
239.091	61.38
239.325	74.38
239.559	91.38
239.793	84.38
240.027	73.38
240.26	76.38
240.494	84.38
240.728	77.38
240.961	77.38
241.195	87.38
241.429	80.38
241.662	86.38
241.896	70.38
242.13	72.38
242.363	81.38
242.597	66.38
242.83	81.38
243.064	84.38
243.298	82.38
243.531	70.38
243.765	68.38
243.998	86.38
244.232	76.38
244.465	84.38
244.699	69.38
244.932	86.38
245.166	89.38
245.399	78.38
245.633	74.38
245.866	69.38
246.099	63.38
246.333	75.38
246.566	90.38
246.8	81.38
247.033	72.38
247.266	88.38
247.5	77.38
247.733	83.38
247.966	82.38
248.2	66.38
248.433	78.38
248.666	90.38
248.899	73.38
249.133	77.38
249.366	82.38
249.599	78.38
249.832	76.38
250.066	79.38
250.299	72.38
250.532	85.38
250.765	87.38
250.998	78.38
251.231	81.38
251.465	89.38
251.698	91.38
251.931	76.38
252.164	74.38
252.397	86.38
252.63	84.38
252.863	75.38
253.096	70.38
253.329	84.38
253.562	87.38
253.795	94.38
254.028	85.38
254.261	95.38
254.494	75.38
254.727	78.38
254.96	86.38
255.193	82.38
255.426	70.38
255.659	93.38
255.892	88.38
256.124	71.38
256.357	89.38
256.59	96.38
256.823	79.38
257.056	90.38
257.289	76.38
257.521	72.38
257.754	79.38
257.987	79.38
258.22	90.38
258.452	84.38
258.685	77.38
258.918	79.38
259.151	94.38
259.383	85.38
259.616	88.38
259.849	91.38
260.081	73.38
260.314	85.38
260.547	71.38
260.779	81.38
261.012	81.38
261.244	81.38
261.477	77.38
261.71	90.38
261.942	77.38
262.175	77.38
262.407	82.38
262.64	99.38
262.872	86.38
263.105	92.38
263.337	89.38
263.57	85.38
263.802	86.38
264.035	84.38
264.267	75.38
264.499	78.38
264.732	72.38
264.964	79.38
265.197	72.38
265.429	81.38
265.661	84.38
265.894	95.38
266.126	82.38
266.358	76.38
266.591	78.38
266.823	88.38
267.055	84.38
267.287	79.38
267.52	82.38
267.752	80.38
267.984	86.38
268.216	87.38
268.448	75.38
268.681	96.38
268.913	86.38
269.145	84.38
269.377	97.38
269.609	81.38
269.841	71.38
270.073	90.38
270.306	72.38
270.538	93.38
270.77	86.38
271.002	86.38
271.234	79.38
271.466	92.38
271.698	97.38
271.93	86.38
272.162	84.38
272.394	86.38
272.626	91.38
272.858	80.38
273.09	92.38
273.322	86.38
273.553	66.38
273.785	83.38
274.017	71.38
274.249	70.38
274.481	87.38
274.713	90.38
274.945	90.38
275.176	81.38
275.408	80.38
275.64	72.38
275.872	84.38
276.104	93.38
276.335	92.38
276.567	86.38
276.799	78.38
277.031	76.38
277.262	79.38
277.494	78.38
277.726	95.38
277.957	76.38
278.189	76.38
278.421	83.38
278.652	80.38
278.884	96.38
279.115	87.38
279.347	88.38
279.579	92.38
279.81	92.38
280.042	90.38
280.273	93.38
280.505	82.38
280.736	78.38
280.968	91.38
281.199	79.38
281.431	78.38
281.662	90.38
281.894	89.38
282.125	86.38
282.356	76.38
282.588	84.38
282.819	93.38
283.051	71.38
283.282	87.38
283.513	87.38
283.745	83.38
283.976	78.38
284.207	88.38
284.439	96.38
284.67	87.38
284.901	88.38
285.132	84.38
285.364	83.38
285.595	87.38
285.826	83.38
286.057	82.38
286.288	95.38
286.52	82.38
286.751	93.38
286.982	84.38
287.213	84.38
287.444	98.38
287.675	88.38
287.906	90.38
288.138	88.38
288.369	93.38
288.6	78.38
288.831	92.38
289.062	88.38
289.293	81.38
289.524	94.38
289.755	84.38
289.986	99.38
290.217	84.38
290.448	79.38
290.679	84.38
290.91	101.38
291.141	83.38
291.371	80.38
291.602	85.38
291.833	78.38
292.064	100.38
292.295	80.38
292.526	89.38
292.757	84.38
292.987	88.38
293.218	94.38
293.449	90.38
293.68	84.38
293.91	85.38
294.141	86.38
294.372	97.38
294.603	84.38
294.833	91.38
295.064	88.38
295.295	91.38
295.525	97.38
295.756	81.38
295.987	72.38
296.217	92.38
296.448	91.38
296.679	92.38
296.909	89.38
297.14	87.38
297.37	93.38
297.601	95.38
297.831	83.38
298.062	84.38
298.292	90.38
298.523	79.38
298.753	86.38
298.984	92.38
299.214	81.38
299.445	81.38
299.675	94.38
299.905	93.38
300.136	83.38
300.366	81.38
300.597	88.38
300.827	102.38
301.057	99.38
301.288	87.38
301.518	80.38
301.748	90.38
301.979	87.38
302.209	91.38
302.439	72.38
302.669	92.38
302.9	94.38
303.13	101.38
303.36	95.38
303.59	98.38
303.82	94.38
304.051	86.38
304.281	93.38
304.511	87.38
304.741	89.38
304.971	84.38
305.201	94.38
305.431	92.38
305.661	80.38
305.891	83.38
306.121	94.38
306.352	72.38
306.582	75.38
306.812	94.38
307.042	79.38
307.272	86.38
307.502	71.38
307.731	97.38
307.961	86.38
308.191	91.38
308.421	101.38
308.651	89.38
308.881	94.38
309.111	95.38
309.341	101.38
309.571	80.38
309.8	81.38
310.03	79.38
310.26	85.38
310.49	88.38
310.72	92.38
310.949	97.38
311.179	88.38
311.409	89.38
311.639	81.38
311.868	95.38
312.098	100.38
312.328	86.38
312.557	85.38
312.787	85.38
313.017	84.38
313.246	102.38
313.476	84.38
313.706	72.38
313.935	88.38
314.165	73.38
314.394	90.38
314.624	91.38
314.853	94.38
315.083	91.38
315.312	74.38
315.542	77.38
315.771	86.38
316.001	82.38
316.23	81.38
316.46	95.38
316.689	85.38
316.919	91.38
317.148	89.38
317.377	90.38
317.607	86.38
317.836	78.38
318.065	93.38
318.295	106.38
318.524	72.38
318.753	86.38
318.983	94.38
319.212	71.38
319.441	85.38
319.67	86.38
319.9	78.38
320.129	85.38
320.358	86.38
320.587	92.38
320.816	77.38
321.046	98.38
321.275	84.38
321.504	88.38
321.733	79.38
321.962	93.38
322.191	90.38
322.42	84.38
322.649	88.38
322.878	96.38
323.108	83.38
323.337	69.38
323.566	82.38
323.795	79.38
324.024	84.38
324.253	81.38
324.482	84.38
324.71	84.38
324.939	88.38
325.168	96.38
325.397	88.38
325.626	82.38
325.855	103.38
326.084	91.38
326.313	92.38
326.542	75.38
326.77	84.38
326.999	71.38
327.228	76.38
327.457	80.38
327.686	88.38
327.914	91.38
328.143	100.38
328.372	88.38
328.6	86.38
328.829	87.38
329.058	96.38
329.287	92.38
329.515	86.38
329.744	84.38
329.972	79.38
330.201	94.38
330.43	92.38
330.658	92.38
330.887	89.38
331.115	94.38
331.344	93.38
331.572	83.38
331.801	88.38
332.03	80.38
332.258	104.38
332.486	91.38
332.715	74.38
332.943	86.38
333.172	77.38
333.4	91.38
333.629	94.38
333.857	79.38
334.085	84.38
334.314	87.38
334.542	90.38
334.771	73.38
334.999	87.38
335.227	91.38
335.455	94.38
335.684	81.38
335.912	83.38
336.14	77.38
336.369	70.38
336.597	93.38
336.825	93.38
337.053	89.38
337.281	97.38
337.51	83.38
337.738	79.38
337.966	94.38
338.194	80.38
338.422	82.38
338.65	100.38
338.878	85.38
339.106	75.38
339.334	95.38
339.562	83.38
339.79	80.38
340.018	89.38
340.246	76.38
340.474	79.38
340.702	83.38
340.93	84.38
341.158	82.38
341.386	89.38
341.614	87.38
341.842	90.38
342.07	83.38
342.298	78.38
342.526	92.38
342.754	70.38
342.981	84.38
343.209	84.38
343.437	99.38
343.665	80.38
343.893	100.38
344.12	83.38
344.348	86.38
344.576	71.38
344.804	88.38
345.031	75.38
345.259	86.38
345.487	86.38
345.714	91.38
345.942	81.38
346.17	75.38
346.397	79.38
346.625	74.38
346.853	92.38
347.08	88.38
347.308	83.38
347.535	85.38
347.763	85.38
347.99	86.38
348.218	87.38
348.445	92.38
348.673	78.38
348.9	84.38
349.128	84.38
349.355	80.38
349.583	78.38
349.81	85.38
350.037	89.38
350.265	90.38
350.492	80.38
350.72	91.38
350.947	102.38
351.174	84.38
351.402	86.38
351.629	81.38
351.856	83.38
352.083	91.38
352.311	88.38
352.538	68.38
352.765	89.38
352.992	92.38
353.22	88.38
353.447	88.38
353.674	78.38
353.901	87.38
354.128	91.38
354.355	85.38
354.583	93.38
354.81	72.38
355.037	88.38
355.264	102.38
355.491	86.38
355.718	74.38
355.945	82.38
356.172	78.38
356.399	85.38
356.626	96.38
356.853	93.38
357.08	104.38
357.307	93.38
357.534	95.38
357.761	81.38
357.988	100.38
358.215	100.38
358.441	80.38
358.668	80.38
358.895	82.38
359.122	83.38
359.349	85.38
359.576	100.38
359.802	73.38
360.029	88.38
360.256	85.38
360.483	70.38
360.709	78.38
360.936	84.38
361.163	73.38
361.39	86.38
361.616	78.38
361.843	93.38
362.07	85.38
362.296	99.38
362.523	90.38
362.749	92.38
362.976	92.38
363.203	87.38
363.429	75.38
363.656	78.38
363.882	79.38
364.109	82.38
364.335	95.38
364.562	102.38
364.788	95.38
365.015	97.38
365.241	86.38
365.468	86.38
365.694	89.38
365.92	94.38
366.147	101.38
366.373	79.38
366.599	78.38
366.826	83.38
367.052	69.38
367.278	86.38
367.505	84.38
367.731	96.38
367.957	91.38
368.184	75.38
368.41	87.38
368.636	98.38
368.862	98.38
369.089	78.38
369.315	80.38
369.541	81.38
369.767	98.38
369.993	86.38
370.219	85.38
370.445	87.38
370.672	90.38
370.898	89.38
371.124	86.38
371.35	78.38
371.576	88.38
371.802	90.38
372.028	101.38
372.254	66.38
372.48	86.38
372.706	96.38
372.932	98.38
373.158	92.38
373.384	95.38
373.61	91.38
373.835	88.38
374.061	95.38
374.287	93.38
374.513	87.38
374.739	83.38
374.965	98.38
375.191	88.38
375.416	78.38
375.642	90.38
375.868	91.38
376.094	91.38
376.319	75.38
376.545	75.38
376.771	84.38
376.997	78.38
377.222	83.38
377.448	73.38
377.674	84.38
377.899	79.38
378.125	92.38
378.35	78.38
378.576	91.38
378.802	76.38
379.027	86.38
379.253	92.38
379.478	73.38
379.704	84.38
379.929	84.38
380.155	84.38
380.38	75.38
380.606	87.38
380.831	80.38
381.057	82.38
381.282	100.38
381.507	78.38
381.733	91.38
381.958	86.38
382.184	86.38
382.409	91.38
382.634	80.38
382.86	83.38
383.085	90.38
383.31	72.38
383.535	96.38
383.761	72.38
383.986	85.38
384.211	81.38
384.436	80.38
384.662	89.38
384.887	84.38
385.112	80.38
385.337	81.38
385.562	67.38
385.787	86.38
386.013	93.38
386.238	96.38
386.463	80.38
386.688	103.38
386.913	69.38
387.138	87.38
387.363	90.38
387.588	90.38
387.813	80.38
388.038	92.38
388.263	94.38
388.488	89.38
388.713	97.38
388.938	94.38
389.163	75.38
389.387	91.38
389.612	77.38
389.837	71.38
390.062	83.38
390.287	86.38
390.512	80.38
390.736	87.38
390.961	69.38
391.186	104.38
391.411	85.38
391.636	89.38
391.86	84.38
392.085	78.38
392.31	92.38
392.534	91.38
392.759	91.38
392.984	122.38
393.208	160.38
393.433	203.38
393.658	161.38
393.882	104.38
394.107	100.38
394.331	103.38
394.556	101.38
394.78	86.38
395.005	83.38
395.229	91.38
395.454	94.38
395.678	93.38
395.903	98.38
396.127	102.38
396.352	124.38
396.576	122.38
396.801	143.38
397.025	163.38
397.249	114.38
397.474	86.38
397.698	95.38
397.922	88.38
398.147	94.38
398.371	80.38
398.595	90.38
398.82	89.38
399.044	71.38
399.268	85.38
399.492	89.38
399.717	89.38
399.941	87.38
400.165	77.38
400.389	80.38
400.613	81.38
400.837	88.38
401.062	67.38
401.286	86.38
401.51	78.38
401.734	89.38
401.958	84.38
402.182	98.38
402.406	96.38
402.63	79.38
402.854	83.38
403.078	91.38
403.302	78.38
403.526	94.38
403.75	73.38
403.974	78.38
404.198	76.38
404.422	96.38
404.645	111.38
404.869	104.38
405.093	110.38
405.317	83.38
405.541	74.38
405.765	84.38
405.988	89.38
406.212	75.38
406.436	89.38
406.66	86.38
406.883	88.38
407.107	81.38
407.331	95.38
407.555	82.38
407.778	95.38
408.002	95.38
408.226	92.38
408.449	91.38
408.673	95.38
408.896	86.38
409.12	88.38
409.344	94.38
409.567	96.38
409.791	101.38
410.014	95.38
410.238	90.38
410.461	97.38
410.685	76.38
410.908	81.38
411.132	107.38
411.355	97.38
411.578	81.38
411.802	79.38
412.025	88.38
412.249	69.38
412.472	89.38
412.695	77.38
412.919	76.38
413.142	94.38
413.365	78.38
413.589	82.38
413.812	90.38
414.035	83.38
414.258	84.38
414.482	86.38
414.705	76.38
414.928	75.38
415.151	76.38
415.374	107.38
415.597	88.38
415.821	94.38
416.044	77.38
416.267	86.38
416.49	79.38
416.713	97.38
416.936	81.38
417.159	93.38
417.382	78.38
417.605	72.38
417.828	82.38
418.051	93.38
418.274	95.38
418.497	91.38
418.72	72.38
418.943	79.38
419.166	99.38
419.389	79.38
419.611	98.38
419.834	89.38
420.057	80.38
420.28	84.38
420.503	84.38
420.726	78.38
420.948	76.38
421.171	80.38
421.394	80.38
421.617	87.38
421.839	92.38
422.062	90.38
422.285	126.38
422.507	160.38
422.73	233.38
422.953	203.38
423.175	117.38
423.398	91.38
423.621	91.38
423.843	80.38
424.066	83.38
424.288	100.38
424.511	85.38
424.733	88.38
424.956	78.38
425.178	85.38
425.401	85.38
425.623	75.38
425.846	89.38
426.068	83.38
426.291	81.38
426.513	96.38
426.735	95.38
426.958	70.38
427.18	88.38
427.402	86.38
427.625	86.38
427.847	80.38
428.069	78.38
428.292	102.38
428.514	101.38
428.736	89.38
428.958	99.38
429.181	100.38
429.403	90.38
429.625	81.38
429.847	103.38
430.069	117.38
430.292	128.38
430.514	125.38
430.736	98.38
430.958	107.38
431.18	86.38
431.402	79.38
431.624	85.38
431.846	78.38
432.068	92.38
432.29	91.38
432.512	87.38
432.734	91.38
432.956	84.38
433.178	83.38
433.4	70.38
433.622	87.38
433.844	92.38
434.066	75.38
434.287	75.38
434.509	74.38
434.731	81.38
434.953	89.38
435.175	89.38
435.397	84.38
435.618	74.38
435.84	76.38
436.062	78.38
436.284	77.38
436.505	81.38
436.727	77.38
436.949	86.38
437.17	79.38
437.392	70.38
437.614	75.38
437.835	77.38
438.057	83.38
438.278	72.38
438.5	87.38
438.721	73.38
438.943	78.38
439.165	76.38
439.386	71.38
439.608	78.38
439.829	99.38
440.05	78.38
440.272	81.38
440.493	90.38
440.715	77.38
440.936	85.38
441.158	80.38
441.379	84.38
441.6	93.38
441.822	88.38
442.043	73.38
442.264	90.38
442.486	89.38
442.707	107.38
442.928	99.38
443.149	109.38
443.371	106.38
443.592	143.38
443.813	135.38
444.034	95.38
444.255	101.38
444.476	114.38
444.698	94.38
444.919	75.38
445.14	156.38
445.361	139.38
445.582	175.38
445.803	139.38
446.024	83.38
446.245	78.38
446.466	90.38
446.687	84.38
446.908	83.38
447.129	95.38
447.35	79.38
447.571	71.38
447.792	89.38
448.013	82.38
448.234	95.38
448.455	85.38
448.675	95.38
448.896	72.38
449.117	89.38
449.338	88.38
449.559	104.38
449.779	83.38
450	81.38
450.221	93.38
450.442	85.38
450.662	79.38
450.883	87.38
451.104	81.38
451.324	83.38
451.545	86.38
451.766	81.38
451.986	93.38
452.207	83.38
452.428	98.38
452.648	84.38
452.869	85.38
453.089	86.38
453.31	81.38
453.53	98.38
453.751	93.38
453.971	82.38
454.192	96.38
454.412	84.38
454.633	78.38
454.853	93.38
455.073	75.38
455.294	96.38
455.514	96.38
455.734	79.38
455.955	94.38
456.175	76.38
456.395	90.38
456.616	95.38
456.836	94.38
457.056	91.38
457.276	74.38
457.497	82.38
457.717	76.38
457.937	94.38
458.157	96.38
458.377	103.38
458.598	83.38
458.818	95.38
459.038	73.38
459.258	75.38
459.478	86.38
459.698	62.38
459.918	85.38
460.138	93.38
460.358	81.38
460.578	81.38
460.798	100.38
461.018	105.38
461.238	80.38
461.458	98.38
461.678	88.38
461.898	71.38
462.118	88.38
462.338	79.38
462.558	86.38
462.777	86.38
462.997	99.38
463.217	72.38
463.437	87.38
463.657	94.38
463.876	82.38
464.096	71.38
464.316	73.38
464.536	78.38
464.755	90.38
464.975	69.38
465.195	86.38
465.414	76.38
465.634	86.38
465.854	80.38
466.073	80.38
466.293	93.38
466.512	81.38
466.732	85.38
466.951	75.38
467.171	88.38
467.391	78.38
467.61	79.38
467.829	78.38
468.049	84.38
468.268	91.38
468.488	95.38
468.707	67.38
468.927	93.38
469.146	86.38
469.365	89.38
469.585	91.38
469.804	72.38
470.023	80.38
470.243	80.38
470.462	82.38
470.681	96.38
470.901	76.38
471.12	91.38
471.339	90.38
471.558	95.38
471.777	79.38
471.997	111.38
472.216	81.38
472.435	86.38
472.654	89.38
472.873	86.38
473.092	69.38
473.311	90.38
473.53	75.38
473.749	82.38
473.968	92.38
474.187	87.38
474.406	88.38
474.625	80.38
474.844	79.38
475.063	97.38
475.282	92.38
475.501	76.38
475.72	96.38
475.939	98.38
476.158	92.38
476.377	91.38
476.596	93.38
476.814	84.38
477.033	87.38
477.252	90.38
477.471	86.38
477.69	85.38
477.908	88.38
478.127	92.38
478.346	92.38
478.564	80.38
478.783	89.38
479.002	82.38
479.22	68.38
479.439	87.38
479.658	84.38
479.876	77.38
480.095	86.38
480.313	93.38
480.532	89.38
480.751	87.38
480.969	93.38
481.188	90.38
481.406	74.38
481.624	95.38
481.843	92.38
482.061	75.38
482.28	86.38
482.498	92.38
482.717	76.38
482.935	74.38
483.153	88.38
483.372	74.38
483.59	79.38
483.808	101.38
484.027	79.38
484.245	83.38
484.463	64.38
484.681	94.38
484.9	83.38
485.118	88.38
485.336	102.38
485.554	86.38
485.772	98.38
485.99	76.38
486.209	83.38
486.427	84.38
486.645	68.38
486.863	60.38
487.081	80.38
487.299	79.38
487.517	96.38
487.735	95.38
487.953	123.38
488.171	89.38
488.389	91.38
488.607	95.38
488.825	92.38
489.043	99.38
489.261	80.38
489.479	78.38
489.696	76.38
489.914	88.38
490.132	86.38
490.35	66.38
490.568	68.38
490.786	88.38
491.003	78.38
491.221	90.38
491.439	87.38
491.657	82.38
491.874	84.38
492.092	80.38
492.31	78.38
492.527	80.38
492.745	88.38
492.963	85.38
493.18	96.38
493.398	90.38
493.615	80.38
493.833	97.38
494.05	86.38
494.268	77.38
494.485	92.38
494.703	90.38
494.92	66.38
495.138	84.38
495.355	93.38
495.573	80.38
495.79	96.38
496.008	79.38
496.225	85.38
496.442	90.38
496.66	84.38
496.877	84.38
497.094	99.38
497.312	74.38
497.529	75.38
497.746	68.38
497.963	81.38
498.181	77.38
498.398	88.38
498.615	90.38
498.832	87.38
499.049	94.38
499.267	81.38
499.484	77.38
499.701	85.38
499.918	92.38
500.135	80.38
500.352	91.38
500.569	91.38
500.786	81.38
501.003	86.38
501.22	104.38
501.437	93.38
501.654	92.38
501.871	87.38
502.088	98.38
502.305	88.38
502.522	92.38
502.739	78.38
502.956	82.38
503.172	77.38
503.389	95.38
503.606	95.38
503.823	90.38
504.04	78.38
504.256	89.38
504.473	95.38
504.69	90.38
504.907	79.38
505.123	84.38
505.34	87.38
505.557	85.38
505.773	90.38
505.99	81.38
506.207	91.38
506.423	88.38
506.64	81.38
506.856	99.38
507.073	84.38
507.289	100.38
507.506	80.38
507.722	72.38
507.939	77.38
508.155	83.38
508.372	83.38
508.588	81.38
508.805	104.38
509.021	76.38
509.238	83.38
509.454	70.38
509.67	93.38
509.887	100.38
510.103	98.38
510.319	77.38
510.536	87.38
510.752	74.38
510.968	89.38
511.184	95.38
511.401	86.38
511.617	85.38
511.833	84.38
512.049	97.38
512.265	83.38
512.481	89.38
512.698	85.38
512.914	98.38
513.13	95.38
513.346	80.38
513.562	84.38
513.778	84.38
513.994	87.38
514.21	77.38
514.426	87.38
514.642	81.38
514.858	86.38
515.074	82.38
515.29	93.38
515.506	88.38
515.721	92.38
515.937	88.38
516.153	94.38
516.369	79.38
516.585	87.38
516.801	79.38
517.016	81.38
517.232	91.38
517.448	81.38
517.664	84.38
517.879	89.38
518.095	85.38
518.311	88.38
518.527	86.38
518.742	85.38
518.958	111.38
