Data from 15780_2_HRD10591_00044.txt Node
Date: Mon Jan 19 14:19:25 EST 2026
User: Yrep
Spectrometer: HR+D1059
Trigger mode: 1
Integration Time (sec): 1.000000E-1
Scans to average: 1
Electric dark correction enabled: true
Nonlinearity correction enabled: false
Boxcar width: 0
XAxis mode: Wavelengths
Number of Pixels in Spectrum: 2048
>>>>>Begin Spectral Data<<<<<
223.165	-22.19
223.4	-22.19
223.635	-22.19
223.869	-8.19
224.104	-25.19
224.338	-14.19
224.573	-24.19
224.808	-16.19
225.042	-3.19
225.277	0.81
225.511	7.81
225.746	13.81
225.98	6.81
226.215	0.81
226.449	11.81
226.683	19.81
226.918	13.81
227.152	37.81
227.387	22.81
227.621	51.81
227.856	52.81
228.09	50.81
228.324	56.81
228.559	56.81
228.793	66.81
229.027	60.81
229.262	61.81
229.496	90.81
229.73	65.81
229.964	65.81
230.199	69.81
230.433	85.81
230.667	74.81
230.901	89.81
231.136	74.81
231.37	83.81
231.604	88.81
231.838	74.81
232.072	71.81
232.306	89.81
232.541	75.81
232.775	93.81
233.009	93.81
233.243	67.81
233.477	83.81
233.711	88.81
233.945	75.81
234.179	78.81
234.413	89.81
234.647	84.81
234.881	80.81
235.115	78.81
235.349	76.81
235.583	81.81
235.817	67.81
236.051	69.81
236.285	66.81
236.519	72.81
236.753	63.81
236.987	90.81
237.221	79.81
237.455	76.81
237.689	62.81
237.922	57.81
238.156	74.81
238.39	67.81
238.624	64.81
238.858	86.81
239.091	65.81
239.325	82.81
239.559	73.81
239.793	77.81
240.027	87.81
240.26	77.81
240.494	85.81
240.728	81.81
240.961	81.81
241.195	69.81
241.429	75.81
241.662	89.81
241.896	79.81
242.13	91.81
242.363	67.81
242.597	77.81
242.83	67.81
243.064	85.81
243.298	89.81
243.531	68.81
243.765	74.81
243.998	75.81
244.232	65.81
244.465	75.81
244.699	83.81
244.932	64.81
245.166	79.81
245.399	77.81
245.633	85.81
245.866	74.81
246.099	71.81
246.333	70.81
246.566	88.81
246.8	69.81
247.033	78.81
247.266	75.81
247.5	85.81
247.733	85.81
247.966	89.81
248.2	91.81
248.433	76.81
248.666	81.81
248.899	76.81
249.133	67.81
249.366	85.81
249.599	85.81
249.832	68.81
250.066	80.81
250.299	85.81
250.532	70.81
250.765	67.81
250.998	69.81
251.231	82.81
251.465	74.81
251.698	74.81
251.931	72.81
252.164	89.81
252.397	86.81
252.63	97.81
252.863	81.81
253.096	81.81
253.329	76.81
253.562	71.81
253.795	81.81
254.028	93.81
254.261	81.81
254.494	70.81
254.727	75.81
254.96	78.81
255.193	73.81
255.426	79.81
255.659	90.81
255.892	90.81
256.124	91.81
256.357	91.81
256.59	76.81
256.823	77.81
257.056	68.81
257.289	69.81
257.521	71.81
257.754	88.81
257.987	88.81
258.22	69.81
258.452	71.81
258.685	82.81
258.918	71.81
259.151	88.81
259.383	81.81
259.616	81.81
259.849	93.81
260.081	81.81
260.314	86.81
260.547	80.81
260.779	82.81
261.012	74.81
261.244	85.81
261.477	83.81
261.71	86.81
261.942	77.81
262.175	89.81
262.407	71.81
262.64	92.81
262.872	93.81
263.105	86.81
263.337	84.81
263.57	69.81
263.802	72.81
264.035	74.81
264.267	68.81
264.499	73.81
264.732	95.81
264.964	93.81
265.197	72.81
265.429	82.81
265.661	81.81
265.894	82.81
266.126	89.81
266.358	86.81
266.591	81.81
266.823	74.81
267.055	87.81
267.287	79.81
267.52	79.81
267.752	87.81
267.984	74.81
268.216	77.81
268.448	86.81
268.681	71.81
268.913	92.81
269.145	89.81
269.377	67.81
269.609	75.81
269.841	71.81
270.073	71.81
270.306	93.81
270.538	100.81
270.77	79.81
271.002	77.81
271.234	74.81
271.466	85.81
271.698	81.81
271.93	73.81
272.162	78.81
272.394	99.81
272.626	103.81
272.858	83.81
273.09	85.81
273.322	82.81
273.553	76.81
273.785	87.81
274.017	77.81
274.249	79.81
274.481	94.81
274.713	81.81
274.945	80.81
275.176	82.81
275.408	101.81
275.64	81.81
275.872	78.81
276.104	72.81
276.335	86.81
276.567	76.81
276.799	89.81
277.031	92.81
277.262	84.81
277.494	75.81
277.726	74.81
277.957	79.81
278.189	69.81
278.421	95.81
278.652	75.81
278.884	83.81
279.115	84.81
279.347	87.81
279.579	94.81
279.81	80.81
280.042	84.81
280.273	82.81
280.505	96.81
280.736	83.81
280.968	91.81
281.199	83.81
281.431	82.81
281.662	82.81
281.894	90.81
282.125	82.81
282.356	84.81
282.588	78.81
282.819	79.81
283.051	77.81
283.282	73.81
283.513	79.81
283.745	78.81
283.976	80.81
284.207	71.81
284.439	92.81
284.67	73.81
284.901	81.81
285.132	94.81
285.364	87.81
285.595	93.81
285.826	87.81
286.057	86.81
286.288	85.81
286.52	92.81
286.751	92.81
286.982	84.81
287.213	87.81
287.444	77.81
287.675	80.81
287.906	76.81
288.138	83.81
288.369	82.81
288.6	79.81
288.831	77.81
289.062	73.81
289.293	87.81
289.524	77.81
289.755	82.81
289.986	73.81
290.217	99.81
290.448	68.81
290.679	93.81
290.91	95.81
291.141	84.81
291.371	83.81
291.602	93.81
291.833	92.81
292.064	85.81
292.295	71.81
292.526	89.81
292.757	77.81
292.987	92.81
293.218	81.81
293.449	88.81
293.68	88.81
293.91	80.81
294.141	80.81
294.372	84.81
294.603	92.81
294.833	85.81
295.064	73.81
295.295	76.81
295.525	80.81
295.756	93.81
295.987	80.81
296.217	79.81
296.448	84.81
296.679	81.81
296.909	73.81
297.14	97.81
297.37	83.81
297.601	88.81
297.831	67.81
298.062	91.81
298.292	91.81
298.523	84.81
298.753	89.81
298.984	92.81
299.214	94.81
299.445	85.81
299.675	84.81
299.905	98.81
300.136	87.81
300.366	89.81
300.597	87.81
300.827	92.81
301.057	73.81
301.288	82.81
301.518	79.81
301.748	93.81
301.979	111.81
302.209	87.81
302.439	84.81
302.669	105.81
302.9	75.81
303.13	66.81
303.36	86.81
303.59	74.81
303.82	96.81
304.051	71.81
304.281	83.81
304.511	93.81
304.741	82.81
304.971	83.81
305.201	72.81
305.431	87.81
305.661	97.81
305.891	72.81
306.121	89.81
306.352	78.81
306.582	96.81
306.812	81.81
307.042	80.81
307.272	87.81
307.502	101.81
307.731	87.81
307.961	91.81
308.191	93.81
308.421	105.81
308.651	95.81
308.881	102.81
309.111	87.81
309.341	104.81
309.571	101.81
309.8	91.81
310.03	75.81
310.26	95.81
310.49	84.81
310.72	79.81
310.949	88.81
311.179	83.81
311.409	89.81
311.639	73.81
311.868	85.81
312.098	88.81
312.328	68.81
312.557	85.81
312.787	95.81
313.017	83.81
313.246	86.81
313.476	82.81
313.706	70.81
313.935	81.81
314.165	86.81
314.394	95.81
314.624	88.81
314.853	92.81
315.083	96.81
315.312	85.81
315.542	77.81
315.771	90.81
316.001	92.81
316.23	98.81
316.46	84.81
316.689	94.81
316.919	83.81
317.148	95.81
317.377	85.81
317.607	100.81
317.836	116.81
318.065	109.81
318.295	100.81
318.524	83.81
318.753	92.81
318.983	75.81
319.212	87.81
319.441	101.81
319.67	95.81
319.9	89.81
320.129	79.81
320.358	84.81
320.587	76.81
320.816	85.81
321.046	89.81
321.275	92.81
321.504	93.81
321.733	95.81
321.962	93.81
322.191	85.81
322.42	85.81
322.649	81.81
322.878	99.81
323.108	105.81
323.337	107.81
323.566	103.81
323.795	97.81
324.024	82.81
324.253	70.81
324.482	87.81
324.71	87.81
324.939	98.81
325.168	86.81
325.397	98.81
325.626	94.81
325.855	87.81
326.084	77.81
326.313	83.81
326.542	83.81
326.77	82.81
326.999	76.81
327.228	95.81
327.457	83.81
327.686	95.81
327.914	94.81
328.143	85.81
328.372	87.81
328.6	81.81
328.829	85.81
329.058	92.81
329.287	73.81
329.515	69.81
329.744	83.81
329.972	77.81
330.201	92.81
330.43	97.81
330.658	80.81
330.887	90.81
331.115	78.81
331.344	89.81
331.572	87.81
331.801	82.81
332.03	83.81
332.258	105.81
332.486	95.81
332.715	77.81
332.943	85.81
333.172	79.81
333.4	94.81
333.629	96.81
333.857	88.81
334.085	101.81
334.314	97.81
334.542	89.81
334.771	85.81
334.999	96.81
335.227	99.81
335.455	90.81
335.684	97.81
335.912	99.81
336.14	97.81
336.369	94.81
336.597	84.81
336.825	96.81
337.053	90.81
337.281	82.81
337.51	94.81
337.738	78.81
337.966	89.81
338.194	77.81
338.422	85.81
338.65	88.81
338.878	73.81
339.106	87.81
339.334	75.81
339.562	87.81
339.79	86.81
340.018	90.81
340.246	96.81
340.474	86.81
340.702	78.81
340.93	88.81
341.158	95.81
341.386	69.81
341.614	78.81
341.842	81.81
342.07	85.81
342.298	92.81
342.526	83.81
342.754	90.81
342.981	84.81
343.209	86.81
343.437	89.81
343.665	107.81
343.893	95.81
344.12	84.81
344.348	98.81
344.576	85.81
344.804	74.81
345.031	99.81
345.259	83.81
345.487	81.81
345.714	85.81
345.942	100.81
346.17	92.81
346.397	83.81
346.625	90.81
346.853	89.81
347.08	77.81
347.308	83.81
347.535	83.81
347.763	82.81
347.99	85.81
348.218	102.81
348.445	99.81
348.673	86.81
348.9	93.81
349.128	92.81
349.355	81.81
349.583	101.81
349.81	73.81
350.037	89.81
350.265	91.81
350.492	97.81
350.72	87.81
350.947	89.81
351.174	86.81
351.402	92.81
351.629	91.81
351.856	79.81
352.083	81.81
352.311	90.81
352.538	81.81
352.765	85.81
352.992	89.81
353.22	97.81
353.447	84.81
353.674	78.81
353.901	84.81
354.128	82.81
354.355	84.81
354.583	92.81
354.81	90.81
355.037	83.81
355.264	80.81
355.491	81.81
355.718	81.81
355.945	91.81
356.172	88.81
356.399	84.81
356.626	84.81
356.853	93.81
357.08	98.81
357.307	89.81
357.534	91.81
357.761	91.81
357.988	104.81
358.215	98.81
358.441	103.81
358.668	89.81
358.895	87.81
359.122	87.81
359.349	72.81
359.576	85.81
359.802	93.81
360.029	92.81
360.256	80.81
360.483	87.81
360.709	90.81
360.936	83.81
361.163	91.81
361.39	88.81
361.616	83.81
361.843	101.81
362.07	92.81
362.296	99.81
362.523	105.81
362.749	108.81
362.976	108.81
363.203	113.81
363.429	93.81
363.656	105.81
363.882	87.81
364.109	102.81
364.335	116.81
364.562	123.81
364.788	118.81
365.015	99.81
365.241	97.81
365.468	107.81
365.694	68.81
365.92	85.81
366.147	82.81
366.373	76.81
366.599	81.81
366.826	73.81
367.052	98.81
367.278	77.81
367.505	91.81
367.731	93.81
367.957	85.81
368.184	78.81
368.41	90.81
368.636	89.81
368.862	88.81
369.089	79.81
369.315	96.81
369.541	86.81
369.767	72.81
369.993	82.81
370.219	102.81
370.445	90.81
370.672	95.81
370.898	89.81
371.124	75.81
371.35	92.81
371.576	71.81
371.802	83.81
372.028	95.81
372.254	87.81
372.48	94.81
372.706	78.81
372.932	81.81
373.158	98.81
373.384	115.81
373.61	127.81
373.835	129.81
374.061	105.81
374.287	85.81
374.513	90.81
374.739	99.81
374.965	102.81
375.191	102.81
375.416	93.81
375.642	91.81
375.868	107.81
376.094	96.81
376.319	94.81
376.545	101.81
376.771	110.81
376.997	81.81
377.222	75.81
377.448	96.81
377.674	80.81
377.899	89.81
378.125	81.81
378.35	71.81
378.576	79.81
378.802	91.81
379.027	89.81
379.253	82.81
379.478	87.81
379.704	91.81
379.929	95.81
380.155	98.81
380.38	83.81
380.606	91.81
380.831	100.81
381.057	97.81
381.282	90.81
381.507	103.81
381.733	105.81
381.958	95.81
382.184	87.81
382.409	103.81
382.634	91.81
382.86	89.81
383.085	111.81
383.31	99.81
383.535	111.81
383.761	99.81
383.986	107.81
384.211	99.81
384.436	84.81
384.662	77.81
384.887	93.81
385.112	93.81
385.337	103.81
385.562	92.81
385.787	95.81
386.013	103.81
386.238	96.81
386.463	79.81
386.688	113.81
386.913	91.81
387.138	86.81
387.363	90.81
387.588	104.81
387.813	91.81
388.038	98.81
388.263	99.81
388.488	111.81
388.713	92.81
388.938	95.81
389.163	85.81
389.387	83.81
389.612	89.81
389.837	83.81
390.062	88.81
390.287	89.81
390.512	94.81
390.736	89.81
390.961	85.81
391.186	83.81
391.411	88.81
391.636	96.81
391.86	96.81
392.085	87.81
392.31	89.81
392.534	107.81
392.759	122.81
392.984	206.81
393.208	357.81
393.433	499.81
393.658	388.81
393.882	169.81
394.107	123.81
394.331	133.81
394.556	147.81
394.78	121.81
395.005	91.81
395.229	85.81
395.454	96.81
395.678	100.81
395.903	130.81
396.127	168.81
396.352	195.81
396.576	202.81
396.801	379.81
397.025	403.81
397.249	196.81
397.474	134.81
397.698	95.81
397.922	85.81
398.147	97.81
398.371	72.81
398.595	89.81
398.82	92.81
399.044	92.81
399.268	88.81
399.492	90.81
399.717	97.81
399.941	88.81
400.165	91.81
400.389	83.81
400.613	89.81
400.837	88.81
401.062	91.81
401.286	71.81
401.51	78.81
401.734	78.81
401.958	82.81
402.182	77.81
402.406	78.81
402.63	82.81
402.854	78.81
403.078	81.81
403.302	92.81
403.526	88.81
403.75	76.81
403.974	79.81
404.198	86.81
404.422	115.81
404.645	135.81
404.869	101.81
405.093	93.81
405.317	81.81
405.541	72.81
405.765	81.81
405.988	86.81
406.212	83.81
406.436	83.81
406.66	73.81
406.883	91.81
407.107	97.81
407.331	75.81
407.555	119.81
407.778	128.81
408.002	120.81
408.226	97.81
408.449	92.81
408.673	92.81
408.896	76.81
409.12	78.81
409.344	105.81
409.567	108.81
409.791	108.81
410.014	103.81
410.238	91.81
410.461	83.81
410.685	80.81
410.908	76.81
411.132	89.81
411.355	90.81
411.578	92.81
411.802	93.81
412.025	80.81
412.249	94.81
412.472	82.81
412.695	67.81
412.919	80.81
413.142	94.81
413.365	92.81
413.589	72.81
413.812	86.81
414.035	86.81
414.258	95.81
414.482	91.81
414.705	77.81
414.928	76.81
415.151	78.81
415.374	92.81
415.597	85.81
415.821	90.81
416.044	83.81
416.267	87.81
416.49	78.81
416.713	79.81
416.936	63.81
417.159	61.81
417.382	75.81
417.605	87.81
417.828	81.81
418.051	89.81
418.274	83.81
418.497	96.81
418.72	83.81
418.943	67.81
419.166	90.81
419.389	89.81
419.611	86.81
419.834	84.81
420.057	87.81
420.28	88.81
420.503	84.81
420.726	89.81
420.948	89.81
421.171	75.81
421.394	103.81
421.617	129.81
421.839	123.81
422.062	123.81
422.285	140.81
422.507	257.81
422.73	385.81
422.953	362.81
423.175	164.81
423.398	115.81
423.621	95.81
423.843	93.81
424.066	93.81
424.288	100.81
424.511	91.81
424.733	85.81
424.956	95.81
425.178	89.81
425.401	94.81
425.623	103.81
425.846	83.81
426.068	85.81
426.291	100.81
426.513	77.81
426.735	82.81
426.958	79.81
427.18	90.81
427.402	97.81
427.625	78.81
427.847	97.81
428.069	92.81
428.292	117.81
428.514	143.81
428.736	103.81
428.958	129.81
429.181	137.81
429.403	98.81
429.625	106.81
429.847	131.81
430.069	148.81
430.292	183.81
430.514	175.81
430.736	138.81
430.958	141.81
431.18	104.81
431.402	93.81
431.624	84.81
431.846	115.81
432.068	130.81
432.29	103.81
432.512	93.81
432.734	89.81
432.956	89.81
433.178	86.81
433.4	90.81
433.622	87.81
433.844	90.81
434.066	77.81
434.287	84.81
434.509	77.81
434.731	73.81
434.953	93.81
435.175	89.81
435.397	82.81
435.618	90.81
435.84	93.81
436.062	90.81
436.284	90.81
436.505	89.81
436.727	81.81
436.949	85.81
437.17	74.81
437.392	79.81
437.614	78.81
437.835	92.81
438.057	98.81
438.278	76.81
438.5	94.81
438.721	83.81
438.943	78.81
439.165	82.81
439.386	74.81
439.608	93.81
439.829	96.81
440.05	97.81
440.272	81.81
440.493	90.81
440.715	93.81
440.936	95.81
441.158	84.81
441.379	75.81
441.6	70.81
441.822	84.81
442.043	93.81
442.264	104.81
442.486	116.81
442.707	172.81
442.928	107.81
443.149	95.81
443.371	156.81
443.592	232.81
443.813	197.81
444.034	125.81
444.255	92.81
444.476	90.81
444.698	92.81
444.919	80.81
445.14	162.81
445.361	194.81
445.582	307.81
445.803	240.81
446.024	124.81
446.245	93.81
446.466	73.81
446.687	77.81
446.908	93.81
447.129	87.81
447.35	79.81
447.571	80.81
447.792	77.81
448.013	84.81
448.234	89.81
448.455	81.81
448.675	77.81
448.896	82.81
449.117	77.81
449.338	81.81
449.559	79.81
449.779	96.81
450	91.81
450.221	79.81
450.442	77.81
450.662	79.81
450.883	102.81
451.104	85.81
451.324	87.81
451.545	81.81
451.766	75.81
451.986	66.81
452.207	75.81
452.428	78.81
452.648	81.81
452.869	90.81
453.089	102.81
453.31	92.81
453.53	99.81
453.751	92.81
453.971	102.81
454.192	65.81
454.412	81.81
454.633	80.81
454.853	92.81
455.073	74.81
455.294	87.81
455.514	83.81
455.734	88.81
455.955	76.81
456.175	78.81
456.395	84.81
456.616	77.81
456.836	91.81
457.056	89.81
457.276	81.81
457.497	83.81
457.717	88.81
457.937	85.81
458.157	96.81
458.377	103.81
458.598	105.81
458.818	107.81
459.038	95.81
459.258	98.81
459.478	79.81
459.698	88.81
459.918	89.81
460.138	78.81
460.358	97.81
460.578	78.81
460.798	113.81
461.018	126.81
461.238	92.81
461.458	88.81
461.678	85.81
461.898	81.81
462.118	88.81
462.338	86.81
462.558	90.81
462.777	85.81
462.997	85.81
463.217	83.81
463.437	82.81
463.657	81.81
463.876	89.81
464.096	77.81
464.316	84.81
464.536	93.81
464.755	87.81
464.975	82.81
465.195	84.81
465.414	74.81
465.634	90.81
465.854	72.81
466.073	76.81
466.293	90.81
466.512	74.81
466.732	105.81
466.951	81.81
467.171	80.81
467.391	87.81
467.61	85.81
467.829	88.81
468.049	82.81
468.268	93.81
468.488	81.81
468.707	79.81
468.927	69.81
469.146	72.81
469.365	85.81
469.585	85.81
469.804	82.81
470.023	84.81
470.243	63.81
470.462	79.81
470.681	91.81
470.901	83.81
471.12	81.81
471.339	89.81
471.558	73.81
471.777	80.81
471.997	71.81
472.216	75.81
472.435	77.81
472.654	91.81
472.873	77.81
473.092	91.81
473.311	85.81
473.53	90.81
473.749	84.81
473.968	79.81
474.187	75.81
474.406	67.81
474.625	85.81
474.844	88.81
475.063	70.81
475.282	85.81
475.501	73.81
475.72	96.81
475.939	96.81
476.158	96.81
476.377	96.81
476.596	77.81
476.814	79.81
477.033	85.81
477.252	86.81
477.471	76.81
477.69	64.81
477.908	103.81
478.127	79.81
478.346	78.81
478.564	81.81
478.783	97.81
479.002	73.81
479.22	87.81
479.439	78.81
479.658	91.81
479.876	83.81
480.095	78.81
480.313	87.81
480.532	86.81
480.751	78.81
480.969	77.81
481.188	90.81
481.406	90.81
481.624	81.81
481.843	67.81
482.061	75.81
482.28	79.81
482.498	84.81
482.717	83.81
482.935	76.81
483.153	87.81
483.372	88.81
483.59	83.81
483.808	75.81
484.027	84.81
484.245	81.81
484.463	80.81
484.681	98.81
484.9	83.81
485.118	101.81
485.336	81.81
485.554	72.81
485.772	81.81
485.99	78.81
486.209	66.81
486.427	80.81
486.645	92.81
486.863	83.81
487.081	88.81
487.299	87.81
487.517	80.81
487.735	114.81
487.953	135.81
488.171	121.81
488.389	113.81
488.607	101.81
488.825	93.81
489.043	95.81
489.261	92.81
489.479	75.81
489.696	103.81
489.914	84.81
490.132	92.81
490.35	83.81
490.568	81.81
490.786	90.81
491.003	83.81
491.221	86.81
491.439	76.81
491.657	78.81
491.874	90.81
492.092	83.81
492.31	95.81
492.527	73.81
492.745	87.81
492.963	91.81
493.18	102.81
493.398	87.81
493.615	86.81
493.833	81.81
494.05	93.81
494.268	86.81
494.485	71.81
494.703	74.81
494.92	91.81
495.138	96.81
495.355	71.81
495.573	74.81
495.79	84.81
496.008	89.81
496.225	96.81
496.442	84.81
496.66	109.81
496.877	82.81
497.094	91.81
497.312	75.81
497.529	98.81
497.746	92.81
497.963	94.81
498.181	101.81
498.398	105.81
498.615	88.81
498.832	86.81
499.049	75.81
499.267	100.81
499.484	91.81
499.701	87.81
499.918	100.81
500.135	96.81
500.352	103.81
500.569	102.81
500.786	99.81
501.003	89.81
501.22	83.81
501.437	97.81
501.654	89.81
501.871	100.81
502.088	84.81
502.305	99.81
502.522	86.81
502.739	82.81
502.956	92.81
503.172	78.81
503.389	73.81
503.606	94.81
503.823	93.81
504.04	92.81
504.256	123.81
504.473	119.81
504.69	98.81
504.907	93.81
505.123	94.81
505.34	73.81
505.557	74.81
505.773	85.81
505.99	103.81
506.207	86.81
506.423	83.81
506.64	89.81
506.856	80.81
507.073	92.81
507.289	80.81
507.506	84.81
507.722	72.81
507.939	72.81
508.155	92.81
508.372	94.81
508.588	83.81
508.805	87.81
509.021	87.81
509.238	87.81
509.454	91.81
509.67	78.81
509.887	76.81
510.103	92.81
510.319	75.81
510.536	99.81
510.752	87.81
510.968	78.81
511.184	79.81
511.401	77.81
511.617	83.81
511.833	81.81
512.049	84.81
512.265	92.81
512.481	99.81
512.698	85.81
512.914	84.81
513.13	66.81
513.346	84.81
513.562	76.81
513.778	95.81
513.994	72.81
514.21	77.81
514.426	102.81
514.642	99.81
514.858	90.81
515.074	86.81
515.29	99.81
515.506	98.81
515.721	78.81
515.937	94.81
516.153	99.81
516.369	79.81
516.585	90.81
516.801	88.81
517.016	86.81
517.232	92.81
517.448	89.81
517.664	85.81
517.879	87.81
518.095	98.81
