Data from 15780_2_HRD10591_00015.txt Node
Date: Mon Jan 19 14:19:11 EST 2026
User: Yrep
Spectrometer: HR+D1059
Trigger mode: 1
Integration Time (sec): 1.000000E-1
Scans to average: 1
Electric dark correction enabled: true
Nonlinearity correction enabled: false
Boxcar width: 0
XAxis mode: Wavelengths
Number of Pixels in Spectrum: 2048
>>>>>Begin Spectral Data<<<<<
223.165	-9.5
223.4	-9.5
223.635	-9.5
223.869	-23.5
224.104	-21.5
224.338	-17.5
224.573	1.5
224.808	-15.5
225.042	-9.5
225.277	-10.5
225.511	-0.5
225.746	-14.5
225.98	-7.5
226.215	7.5
226.449	13.5
226.683	27.5
226.918	39.5
227.152	40.5
227.387	39.5
227.621	24.5
227.856	49.5
228.09	46.5
228.324	48.5
228.559	49.5
228.793	71.5
229.027	64.5
229.262	57.5
229.496	67.5
229.73	64.5
229.964	60.5
230.199	70.5
230.433	77.5
230.667	76.5
230.901	88.5
231.136	78.5
231.37	75.5
231.604	85.5
231.838	81.5
232.072	78.5
232.306	91.5
232.541	67.5
232.775	73.5
233.009	77.5
233.243	67.5
233.477	86.5
233.711	78.5
233.945	72.5
234.179	76.5
234.413	83.5
234.647	75.5
234.881	82.5
235.115	67.5
235.349	73.5
235.583	72.5
235.817	89.5
236.051	71.5
236.285	80.5
236.519	70.5
236.753	72.5
236.987	79.5
237.221	74.5
237.455	80.5
237.689	88.5
237.922	88.5
238.156	76.5
238.39	71.5
238.624	80.5
238.858	70.5
239.091	62.5
239.325	72.5
239.559	72.5
239.793	61.5
240.027	84.5
240.26	80.5
240.494	82.5
240.728	84.5
240.961	85.5
241.195	82.5
241.429	83.5
241.662	75.5
241.896	83.5
242.13	82.5
242.363	68.5
242.597	69.5
242.83	71.5
243.064	71.5
243.298	86.5
243.531	82.5
243.765	80.5
243.998	79.5
244.232	92.5
244.465	84.5
244.699	76.5
244.932	74.5
245.166	79.5
245.399	90.5
245.633	78.5
245.866	90.5
246.099	80.5
246.333	81.5
246.566	76.5
246.8	64.5
247.033	80.5
247.266	97.5
247.5	80.5
247.733	66.5
247.966	85.5
248.2	76.5
248.433	61.5
248.666	78.5
248.899	73.5
249.133	90.5
249.366	72.5
249.599	73.5
249.832	84.5
250.066	88.5
250.299	74.5
250.532	96.5
250.765	86.5
250.998	74.5
251.231	87.5
251.465	64.5
251.698	84.5
251.931	86.5
252.164	74.5
252.397	79.5
252.63	70.5
252.863	68.5
253.096	81.5
253.329	86.5
253.562	59.5
253.795	78.5
254.028	84.5
254.261	60.5
254.494	91.5
254.727	81.5
254.96	61.5
255.193	75.5
255.426	82.5
255.659	88.5
255.892	74.5
256.124	67.5
256.357	73.5
256.59	78.5
256.823	77.5
257.056	78.5
257.289	79.5
257.521	82.5
257.754	76.5
257.987	86.5
258.22	92.5
258.452	83.5
258.685	82.5
258.918	74.5
259.151	81.5
259.383	91.5
259.616	88.5
259.849	85.5
260.081	86.5
260.314	84.5
260.547	88.5
260.779	82.5
261.012	80.5
261.244	81.5
261.477	74.5
261.71	77.5
261.942	66.5
262.175	78.5
262.407	76.5
262.64	77.5
262.872	84.5
263.105	68.5
263.337	68.5
263.57	81.5
263.802	88.5
264.035	76.5
264.267	83.5
264.499	94.5
264.732	82.5
264.964	71.5
265.197	86.5
265.429	74.5
265.661	75.5
265.894	92.5
266.126	82.5
266.358	83.5
266.591	76.5
266.823	96.5
267.055	78.5
267.287	81.5
267.52	81.5
267.752	99.5
267.984	77.5
268.216	79.5
268.448	96.5
268.681	94.5
268.913	83.5
269.145	94.5
269.377	74.5
269.609	80.5
269.841	85.5
270.073	85.5
270.306	86.5
270.538	88.5
270.77	70.5
271.002	81.5
271.234	74.5
271.466	87.5
271.698	74.5
271.93	82.5
272.162	96.5
272.394	82.5
272.626	89.5
272.858	83.5
273.09	84.5
273.322	88.5
273.553	93.5
273.785	95.5
274.017	85.5
274.249	96.5
274.481	96.5
274.713	89.5
274.945	86.5
275.176	76.5
275.408	80.5
275.64	75.5
275.872	98.5
276.104	72.5
276.335	83.5
276.567	77.5
276.799	99.5
277.031	79.5
277.262	77.5
277.494	81.5
277.726	85.5
277.957	73.5
278.189	82.5
278.421	74.5
278.652	61.5
278.884	65.5
279.115	84.5
279.347	68.5
279.579	83.5
279.81	84.5
280.042	85.5
280.273	87.5
280.505	74.5
280.736	84.5
280.968	91.5
281.199	76.5
281.431	69.5
281.662	97.5
281.894	90.5
282.125	78.5
282.356	90.5
282.588	85.5
282.819	81.5
283.051	95.5
283.282	82.5
283.513	89.5
283.745	75.5
283.976	80.5
284.207	88.5
284.439	96.5
284.67	87.5
284.901	76.5
285.132	85.5
285.364	78.5
285.595	78.5
285.826	78.5
286.057	77.5
286.288	79.5
286.52	86.5
286.751	80.5
286.982	86.5
287.213	98.5
287.444	81.5
287.675	93.5
287.906	66.5
288.138	76.5
288.369	90.5
288.6	84.5
288.831	92.5
289.062	88.5
289.293	79.5
289.524	86.5
289.755	76.5
289.986	82.5
290.217	81.5
290.448	76.5
290.679	72.5
290.91	89.5
291.141	83.5
291.371	92.5
291.602	91.5
291.833	90.5
292.064	78.5
292.295	80.5
292.526	79.5
292.757	76.5
292.987	75.5
293.218	92.5
293.449	82.5
293.68	78.5
293.91	78.5
294.141	76.5
294.372	82.5
294.603	84.5
294.833	90.5
295.064	88.5
295.295	94.5
295.525	90.5
295.756	75.5
295.987	89.5
296.217	93.5
296.448	93.5
296.679	87.5
296.909	82.5
297.14	93.5
297.37	80.5
297.601	92.5
297.831	72.5
298.062	71.5
298.292	78.5
298.523	101.5
298.753	80.5
298.984	92.5
299.214	77.5
299.445	90.5
299.675	92.5
299.905	89.5
300.136	98.5
300.366	87.5
300.597	65.5
300.827	83.5
301.057	84.5
301.288	82.5
301.518	92.5
301.748	84.5
301.979	96.5
302.209	95.5
302.439	98.5
302.669	91.5
302.9	98.5
303.13	84.5
303.36	76.5
303.59	84.5
303.82	84.5
304.051	81.5
304.281	97.5
304.511	98.5
304.741	78.5
304.971	78.5
305.201	89.5
305.431	74.5
305.661	84.5
305.891	98.5
306.121	95.5
306.352	90.5
306.582	76.5
306.812	83.5
307.042	88.5
307.272	87.5
307.502	82.5
307.731	79.5
307.961	84.5
308.191	102.5
308.421	87.5
308.651	78.5
308.881	98.5
309.111	76.5
309.341	94.5
309.571	90.5
309.8	93.5
310.03	82.5
310.26	77.5
310.49	90.5
310.72	92.5
310.949	84.5
311.179	84.5
311.409	89.5
311.639	73.5
311.868	79.5
312.098	60.5
312.328	85.5
312.557	109.5
312.787	91.5
313.017	97.5
313.246	83.5
313.476	76.5
313.706	84.5
313.935	104.5
314.165	91.5
314.394	106.5
314.624	85.5
314.853	85.5
315.083	83.5
315.312	75.5
315.542	96.5
315.771	81.5
316.001	85.5
316.23	71.5
316.46	84.5
316.689	79.5
316.919	83.5
317.148	74.5
317.377	98.5
317.607	91.5
317.836	83.5
318.065	90.5
318.295	74.5
318.524	74.5
318.753	88.5
318.983	83.5
319.212	88.5
319.441	90.5
319.67	65.5
319.9	91.5
320.129	90.5
320.358	79.5
320.587	84.5
320.816	77.5
321.046	96.5
321.275	88.5
321.504	85.5
321.733	109.5
321.962	86.5
322.191	90.5
322.42	75.5
322.649	84.5
322.878	101.5
323.108	84.5
323.337	77.5
323.566	77.5
323.795	76.5
324.024	91.5
324.253	87.5
324.482	89.5
324.71	81.5
324.939	100.5
325.168	93.5
325.397	86.5
325.626	93.5
325.855	97.5
326.084	100.5
326.313	77.5
326.542	88.5
326.77	97.5
326.999	85.5
327.228	73.5
327.457	86.5
327.686	101.5
327.914	91.5
328.143	83.5
328.372	85.5
328.6	96.5
328.829	80.5
329.058	83.5
329.287	86.5
329.515	94.5
329.744	88.5
329.972	81.5
330.201	94.5
330.43	85.5
330.658	78.5
330.887	82.5
331.115	80.5
331.344	83.5
331.572	96.5
331.801	93.5
332.03	78.5
332.258	92.5
332.486	92.5
332.715	82.5
332.943	91.5
333.172	78.5
333.4	84.5
333.629	92.5
333.857	87.5
334.085	80.5
334.314	90.5
334.542	72.5
334.771	77.5
334.999	101.5
335.227	88.5
335.455	84.5
335.684	98.5
335.912	78.5
336.14	84.5
336.369	102.5
336.597	93.5
336.825	88.5
337.053	78.5
337.281	96.5
337.51	90.5
337.738	76.5
337.966	88.5
338.194	70.5
338.422	79.5
338.65	82.5
338.878	66.5
339.106	70.5
339.334	77.5
339.562	76.5
339.79	85.5
340.018	99.5
340.246	76.5
340.474	77.5
340.702	77.5
340.93	78.5
341.158	90.5
341.386	82.5
341.614	91.5
341.842	86.5
342.07	107.5
342.298	84.5
342.526	73.5
342.754	76.5
342.981	86.5
343.209	80.5
343.437	86.5
343.665	75.5
343.893	97.5
344.12	86.5
344.348	87.5
344.576	82.5
344.804	78.5
345.031	92.5
345.259	89.5
345.487	92.5
345.714	84.5
345.942	96.5
346.17	81.5
346.397	88.5
346.625	85.5
346.853	72.5
347.08	72.5
347.308	78.5
347.535	96.5
347.763	82.5
347.99	106.5
348.218	90.5
348.445	102.5
348.673	88.5
348.9	92.5
349.128	101.5
349.355	97.5
349.583	78.5
349.81	74.5
350.037	76.5
350.265	92.5
350.492	92.5
350.72	91.5
350.947	72.5
351.174	94.5
351.402	77.5
351.629	96.5
351.856	97.5
352.083	96.5
352.311	82.5
352.538	87.5
352.765	83.5
352.992	91.5
353.22	89.5
353.447	91.5
353.674	70.5
353.901	99.5
354.128	93.5
354.355	85.5
354.583	91.5
354.81	85.5
355.037	94.5
355.264	83.5
355.491	96.5
355.718	85.5
355.945	88.5
356.172	80.5
356.399	93.5
356.626	84.5
356.853	93.5
357.08	98.5
357.307	99.5
357.534	84.5
357.761	75.5
357.988	88.5
358.215	95.5
358.441	81.5
358.668	102.5
358.895	88.5
359.122	82.5
359.349	87.5
359.576	92.5
359.802	96.5
360.029	85.5
360.256	86.5
360.483	89.5
360.709	88.5
360.936	88.5
361.163	81.5
361.39	94.5
361.616	76.5
361.843	95.5
362.07	90.5
362.296	93.5
362.523	84.5
362.749	89.5
362.976	85.5
363.203	105.5
363.429	89.5
363.656	82.5
363.882	86.5
364.109	92.5
364.335	102.5
364.562	107.5
364.788	106.5
365.015	97.5
365.241	86.5
365.468	103.5
365.694	97.5
365.92	85.5
366.147	91.5
366.373	84.5
366.599	93.5
366.826	84.5
367.052	89.5
367.278	68.5
367.505	82.5
367.731	91.5
367.957	89.5
368.184	89.5
368.41	94.5
368.636	93.5
368.862	77.5
369.089	83.5
369.315	83.5
369.541	77.5
369.767	75.5
369.993	84.5
370.219	88.5
370.445	96.5
370.672	87.5
370.898	85.5
371.124	90.5
371.35	87.5
371.576	100.5
371.802	79.5
372.028	82.5
372.254	94.5
372.48	74.5
372.706	84.5
372.932	74.5
373.158	78.5
373.384	89.5
373.61	91.5
373.835	104.5
374.061	99.5
374.287	97.5
374.513	69.5
374.739	99.5
374.965	84.5
375.191	97.5
375.416	90.5
375.642	94.5
375.868	86.5
376.094	85.5
376.319	88.5
376.545	82.5
376.771	85.5
376.997	88.5
377.222	77.5
377.448	94.5
377.674	105.5
377.899	74.5
378.125	70.5
378.35	74.5
378.576	79.5
378.802	82.5
379.027	85.5
379.253	96.5
379.478	78.5
379.704	98.5
379.929	83.5
380.155	100.5
380.38	98.5
380.606	72.5
380.831	90.5
381.057	88.5
381.282	79.5
381.507	84.5
381.733	82.5
381.958	72.5
382.184	86.5
382.409	97.5
382.634	85.5
382.86	94.5
383.085	92.5
383.31	76.5
383.535	91.5
383.761	71.5
383.986	72.5
384.211	95.5
384.436	91.5
384.662	85.5
384.887	84.5
385.112	84.5
385.337	88.5
385.562	91.5
385.787	88.5
386.013	95.5
386.238	88.5
386.463	86.5
386.688	74.5
386.913	99.5
387.138	72.5
387.363	82.5
387.588	90.5
387.813	100.5
388.038	81.5
388.263	92.5
388.488	79.5
388.713	88.5
388.938	92.5
389.163	94.5
389.387	84.5
389.612	96.5
389.837	96.5
390.062	79.5
390.287	93.5
390.512	72.5
390.736	101.5
390.961	79.5
391.186	101.5
391.411	83.5
391.636	77.5
391.86	72.5
392.085	94.5
392.31	81.5
392.534	100.5
392.759	94.5
392.984	125.5
393.208	171.5
393.433	225.5
393.658	185.5
393.882	96.5
394.107	100.5
394.331	79.5
394.556	104.5
394.78	90.5
395.005	97.5
395.229	103.5
395.454	95.5
395.678	89.5
395.903	94.5
396.127	108.5
396.352	118.5
396.576	118.5
396.801	166.5
397.025	192.5
397.249	124.5
397.474	98.5
397.698	87.5
397.922	83.5
398.147	97.5
398.371	76.5
398.595	72.5
398.82	78.5
399.044	77.5
399.268	78.5
399.492	77.5
399.717	90.5
399.941	104.5
400.165	93.5
400.389	88.5
400.613	91.5
400.837	84.5
401.062	78.5
401.286	88.5
401.51	70.5
401.734	89.5
401.958	88.5
402.182	76.5
402.406	84.5
402.63	88.5
402.854	82.5
403.078	89.5
403.302	97.5
403.526	79.5
403.75	86.5
403.974	75.5
404.198	76.5
404.422	94.5
404.645	80.5
404.869	95.5
405.093	104.5
405.317	87.5
405.541	83.5
405.765	85.5
405.988	97.5
406.212	78.5
406.436	96.5
406.66	78.5
406.883	99.5
407.107	93.5
407.331	95.5
407.555	95.5
407.778	98.5
408.002	102.5
408.226	84.5
408.449	74.5
408.673	82.5
408.896	73.5
409.12	92.5
409.344	90.5
409.567	87.5
409.791	85.5
410.014	78.5
410.238	76.5
410.461	78.5
410.685	75.5
410.908	91.5
411.132	77.5
411.355	79.5
411.578	76.5
411.802	84.5
412.025	92.5
412.249	72.5
412.472	90.5
412.695	98.5
412.919	86.5
413.142	79.5
413.365	98.5
413.589	84.5
413.812	96.5
414.035	81.5
414.258	101.5
414.482	102.5
414.705	93.5
414.928	81.5
415.151	70.5
415.374	84.5
415.597	90.5
415.821	82.5
416.044	102.5
416.267	104.5
416.49	83.5
416.713	97.5
416.936	88.5
417.159	78.5
417.382	68.5
417.605	75.5
417.828	91.5
418.051	78.5
418.274	96.5
418.497	88.5
418.72	84.5
418.943	78.5
419.166	89.5
419.389	96.5
419.611	85.5
419.834	84.5
420.057	78.5
420.28	81.5
420.503	82.5
420.726	77.5
420.948	85.5
421.171	86.5
421.394	86.5
421.617	102.5
421.839	109.5
422.062	101.5
422.285	109.5
422.507	134.5
422.73	264.5
422.953	227.5
423.175	129.5
423.398	99.5
423.621	96.5
423.843	82.5
424.066	92.5
424.288	87.5
424.511	76.5
424.733	79.5
424.956	77.5
425.178	82.5
425.401	96.5
425.623	97.5
425.846	88.5
426.068	76.5
426.291	79.5
426.513	92.5
426.735	72.5
426.958	88.5
427.18	81.5
427.402	86.5
427.625	88.5
427.847	81.5
428.069	90.5
428.292	108.5
428.514	108.5
428.736	86.5
428.958	92.5
429.181	93.5
429.403	84.5
429.625	79.5
429.847	94.5
430.069	117.5
430.292	130.5
430.514	117.5
430.736	107.5
430.958	124.5
431.18	101.5
431.402	72.5
431.624	88.5
431.846	106.5
432.068	89.5
432.29	90.5
432.512	97.5
432.734	86.5
432.956	83.5
433.178	88.5
433.4	86.5
433.622	86.5
433.844	76.5
434.066	85.5
434.287	85.5
434.509	90.5
434.731	90.5
434.953	74.5
435.175	70.5
435.397	93.5
435.618	80.5
435.84	79.5
436.062	83.5
436.284	90.5
436.505	79.5
436.727	88.5
436.949	85.5
437.17	82.5
437.392	72.5
437.614	75.5
437.835	84.5
438.057	79.5
438.278	106.5
438.5	104.5
438.721	95.5
438.943	90.5
439.165	75.5
439.386	82.5
439.608	84.5
439.829	91.5
440.05	103.5
440.272	84.5
440.493	89.5
440.715	90.5
440.936	93.5
441.158	78.5
441.379	79.5
441.6	80.5
441.822	79.5
442.043	82.5
442.264	88.5
442.486	118.5
442.707	124.5
442.928	105.5
443.149	78.5
443.371	98.5
443.592	128.5
443.813	131.5
444.034	91.5
444.255	86.5
444.476	79.5
444.698	83.5
444.919	89.5
445.14	179.5
445.361	140.5
445.582	141.5
445.803	156.5
446.024	96.5
446.245	94.5
446.466	79.5
446.687	67.5
446.908	79.5
447.129	69.5
447.35	88.5
447.571	80.5
447.792	72.5
448.013	75.5
448.234	80.5
448.455	85.5
448.675	91.5
448.896	81.5
449.117	85.5
449.338	91.5
449.559	88.5
449.779	86.5
450	92.5
450.221	82.5
450.442	88.5
450.662	65.5
450.883	88.5
451.104	94.5
451.324	106.5
451.545	81.5
451.766	77.5
451.986	89.5
452.207	84.5
452.428	104.5
452.648	84.5
452.869	89.5
453.089	92.5
453.31	98.5
453.53	68.5
453.751	88.5
453.971	68.5
454.192	83.5
454.412	92.5
454.633	82.5
454.853	77.5
455.073	84.5
455.294	89.5
455.514	78.5
455.734	82.5
455.955	85.5
456.175	77.5
456.395	69.5
456.616	84.5
456.836	105.5
457.056	82.5
457.276	90.5
457.497	71.5
457.717	84.5
457.937	82.5
458.157	96.5
458.377	89.5
458.598	89.5
458.818	92.5
459.038	88.5
459.258	72.5
459.478	78.5
459.698	93.5
459.918	83.5
460.138	88.5
460.358	78.5
460.578	92.5
460.798	110.5
461.018	107.5
461.238	86.5
461.458	74.5
461.678	72.5
461.898	70.5
462.118	86.5
462.338	78.5
462.558	96.5
462.777	75.5
462.997	77.5
463.217	80.5
463.437	78.5
463.657	82.5
463.876	78.5
464.096	65.5
464.316	82.5
464.536	90.5
464.755	76.5
464.975	92.5
465.195	91.5
465.414	88.5
465.634	84.5
465.854	89.5
466.073	87.5
466.293	76.5
466.512	83.5
466.732	74.5
466.951	84.5
467.171	94.5
467.391	92.5
467.61	77.5
467.829	75.5
468.049	70.5
468.268	81.5
468.488	72.5
468.707	74.5
468.927	87.5
469.146	94.5
469.365	84.5
469.585	89.5
469.804	74.5
470.023	71.5
470.243	77.5
470.462	88.5
470.681	82.5
470.901	68.5
471.12	90.5
471.339	85.5
471.558	75.5
471.777	88.5
471.997	79.5
472.216	98.5
472.435	96.5
472.654	77.5
472.873	81.5
473.092	83.5
473.311	77.5
473.53	82.5
473.749	81.5
473.968	85.5
474.187	90.5
474.406	87.5
474.625	78.5
474.844	75.5
475.063	84.5
475.282	87.5
475.501	103.5
475.72	90.5
475.939	78.5
476.158	79.5
476.377	93.5
476.596	85.5
476.814	85.5
477.033	101.5
477.252	92.5
477.471	98.5
477.69	77.5
477.908	78.5
478.127	85.5
478.346	76.5
478.564	73.5
478.783	69.5
479.002	90.5
479.22	79.5
479.439	88.5
479.658	80.5
479.876	78.5
480.095	82.5
480.313	81.5
480.532	90.5
480.751	91.5
480.969	75.5
481.188	77.5
481.406	78.5
481.624	97.5
481.843	79.5
482.061	93.5
482.28	86.5
482.498	71.5
482.717	90.5
482.935	90.5
483.153	92.5
483.372	88.5
483.59	88.5
483.808	89.5
484.027	78.5
484.245	88.5
484.463	79.5
484.681	98.5
484.9	84.5
485.118	98.5
485.336	87.5
485.554	78.5
485.772	87.5
485.99	91.5
486.209	73.5
486.427	81.5
486.645	80.5
486.863	84.5
487.081	89.5
487.299	105.5
487.517	79.5
487.735	105.5
487.953	102.5
488.171	97.5
488.389	83.5
488.607	88.5
488.825	96.5
489.043	84.5
489.261	90.5
489.479	78.5
489.696	89.5
489.914	76.5
490.132	72.5
490.35	99.5
490.568	99.5
490.786	86.5
491.003	82.5
491.221	85.5
491.439	76.5
491.657	92.5
491.874	91.5
492.092	78.5
492.31	90.5
492.527	87.5
492.745	89.5
492.963	80.5
493.18	94.5
493.398	91.5
493.615	97.5
493.833	94.5
494.05	86.5
494.268	82.5
494.485	87.5
494.703	93.5
494.92	83.5
495.138	89.5
495.355	85.5
495.573	91.5
495.79	98.5
496.008	82.5
496.225	79.5
496.442	77.5
496.66	87.5
496.877	87.5
497.094	86.5
497.312	78.5
497.529	88.5
497.746	100.5
497.963	94.5
498.181	105.5
498.398	81.5
498.615	86.5
498.832	92.5
499.049	91.5
499.267	94.5
499.484	84.5
499.701	90.5
499.918	97.5
500.135	108.5
500.352	90.5
500.569	88.5
500.786	103.5
501.003	88.5
501.22	92.5
501.437	90.5
501.654	87.5
501.871	94.5
502.088	98.5
502.305	92.5
502.522	92.5
502.739	90.5
502.956	88.5
503.172	95.5
503.389	87.5
503.606	80.5
503.823	92.5
504.04	77.5
504.256	103.5
504.473	98.5
504.69	86.5
504.907	93.5
505.123	85.5
505.34	93.5
505.557	74.5
505.773	76.5
505.99	95.5
506.207	89.5
506.423	92.5
506.64	94.5
506.856	91.5
507.073	77.5
507.289	69.5
507.506	101.5
507.722	93.5
507.939	98.5
508.155	93.5
508.372	83.5
508.588	79.5
508.805	76.5
509.021	86.5
509.238	96.5
509.454	103.5
509.67	95.5
509.887	88.5
510.103	92.5
510.319	84.5
510.536	101.5
510.752	76.5
510.968	85.5
511.184	92.5
511.401	81.5
511.617	76.5
511.833	77.5
512.049	89.5
512.265	100.5
512.481	94.5
512.698	90.5
512.914	101.5
513.13	90.5
513.346	82.5
513.562	94.5
513.778	84.5
513.994	84.5
514.21	84.5
514.426	96.5
514.642	92.5
514.858	89.5
515.074	72.5
515.29	81.5
515.506	94.5
515.721	94.5
515.937	85.5
516.153	88.5
516.369	87.5
516.585	92.5
516.801	99.5
517.016	84.5
517.232	78.5
517.448	92.5
517.664	79.5
517.879	89.5
518.095	86.5
518.311	90.5
518.527	92.5
518.742	93.5
518.958	114.5
519.173	118.5
519.389	110.5
519.605	96.5
519.82	102.5
520.036	102.5
520.251	87.5
520.467	104.5
520.682	89.5
520.898	81.5
521.113	82.5
521.329	85.5
521.544	95.5
521.76	85.5
521.975	87.5
522.19	78.5
522.406	90.5
522.621	102.5
522.836	94.5
523.052	97.5
523.267	95.5
523.482	93.5
523.698	97.5
523.913	94.5
524.128	91.5
524.343	96.5
524.559	97.5
524.774	94.5
524.989	77.5
525.204	84.5
525.419	87.5
525.634	105.5
525.849	104.5
526.064	97.5
526.28	137.5
526.495	161.5
526.71	157.5
526.925	111.5
527.14	168.5
527.355	146.5
527.57	104.5
527.785	98.5
527.999	99.5
528.214	107.5
528.429	89.5
528.644	84.5
528.859	64.5
529.074	94.5
529.289	94.5
529.503	94.5
529.718	98.5
529.933	93.5
530.148	91.5
530.363	86.5
530.577	86.5
530.792	107.5
531.007	107.5
531.221	90.5
531.436	83.5
531.651	124.5
531.865	104.5
532.08	79.5
532.295	89.5
532.509	96.5
532.724	75.5
532.938	94.5
533.153	103.5
533.367	83.5
533.582	106.5
533.796	92.5
534.011	84.5
534.225	89.5
534.44	89.5
534.654	95.5
534.868	103.5
535.083	107.5
535.297	118.5
535.511	104.5
535.726	102.5
535.94	86.5
536.154	104.5
536.369	106.5
536.583	96.5
536.797	100.5
537.011	83.5
537.225	109.5
537.44	93.5
537.654	86.5
537.868	89.5
538.082	96.5
538.296	97.5
538.51	90.5
538.724	95.5
