Data from 15780_2_HRD10591_00033.txt Node
Date: Mon Jan 19 14:19:20 EST 2026
User: Yrep
Spectrometer: HR+D1059
Trigger mode: 1
Integration Time (sec): 1.000000E-1
Scans to average: 1
Electric dark correction enabled: true
Nonlinearity correction enabled: false
Boxcar width: 0
XAxis mode: Wavelengths
Number of Pixels in Spectrum: 2048
>>>>>Begin Spectral Data<<<<<
223.165	-14.5
223.4	-14.5
223.635	-14.5
223.869	-20.5
224.104	-20.5
224.338	-11.5
224.573	-29.5
224.808	-12.5
225.042	-2.5
225.277	-0.5
225.511	-0.5
225.746	-1.5
225.98	9.5
226.215	21.5
226.449	3.5
226.683	15.5
226.918	33.5
227.152	30.5
227.387	24.5
227.621	25.5
227.856	38.5
228.09	48.5
228.324	41.5
228.559	59.5
228.793	65.5
229.027	64.5
229.262	60.5
229.496	67.5
229.73	68.5
229.964	79.5
230.199	69.5
230.433	65.5
230.667	63.5
230.901	77.5
231.136	92.5
231.37	79.5
231.604	79.5
231.838	79.5
232.072	82.5
232.306	66.5
232.541	86.5
232.775	78.5
233.009	84.5
233.243	83.5
233.477	74.5
233.711	67.5
233.945	73.5
234.179	81.5
234.413	66.5
234.647	82.5
234.881	65.5
235.115	83.5
235.349	73.5
235.583	81.5
235.817	72.5
236.051	81.5
236.285	91.5
236.519	74.5
236.753	79.5
236.987	69.5
237.221	61.5
237.455	83.5
237.689	66.5
237.922	67.5
238.156	67.5
238.39	87.5
238.624	67.5
238.858	75.5
239.091	60.5
239.325	79.5
239.559	75.5
239.793	75.5
240.027	88.5
240.26	64.5
240.494	86.5
240.728	73.5
240.961	70.5
241.195	66.5
241.429	78.5
241.662	73.5
241.896	89.5
242.13	78.5
242.363	69.5
242.597	74.5
242.83	70.5
243.064	72.5
243.298	69.5
243.531	71.5
243.765	63.5
243.998	70.5
244.232	74.5
244.465	76.5
244.699	70.5
244.932	75.5
245.166	79.5
245.399	73.5
245.633	71.5
245.866	80.5
246.099	76.5
246.333	81.5
246.566	88.5
246.8	77.5
247.033	79.5
247.266	80.5
247.5	80.5
247.733	67.5
247.966	70.5
248.2	74.5
248.433	61.5
248.666	79.5
248.899	71.5
249.133	83.5
249.366	73.5
249.599	77.5
249.832	67.5
250.066	95.5
250.299	79.5
250.532	76.5
250.765	70.5
250.998	55.5
251.231	64.5
251.465	68.5
251.698	77.5
251.931	69.5
252.164	75.5
252.397	77.5
252.63	82.5
252.863	87.5
253.096	65.5
253.329	77.5
253.562	81.5
253.795	75.5
254.028	77.5
254.261	71.5
254.494	75.5
254.727	75.5
254.96	78.5
255.193	57.5
255.426	67.5
255.659	79.5
255.892	57.5
256.124	65.5
256.357	85.5
256.59	81.5
256.823	67.5
257.056	63.5
257.289	74.5
257.521	61.5
257.754	79.5
257.987	80.5
258.22	87.5
258.452	87.5
258.685	74.5
258.918	71.5
259.151	71.5
259.383	74.5
259.616	76.5
259.849	73.5
260.081	75.5
260.314	65.5
260.547	76.5
260.779	83.5
261.012	87.5
261.244	76.5
261.477	89.5
261.71	72.5
261.942	74.5
262.175	86.5
262.407	99.5
262.64	71.5
262.872	82.5
263.105	79.5
263.337	75.5
263.57	89.5
263.802	85.5
264.035	73.5
264.267	72.5
264.499	97.5
264.732	75.5
264.964	69.5
265.197	69.5
265.429	83.5
265.661	89.5
265.894	68.5
266.126	77.5
266.358	76.5
266.591	79.5
266.823	87.5
267.055	89.5
267.287	70.5
267.52	61.5
267.752	73.5
267.984	61.5
268.216	74.5
268.448	84.5
268.681	87.5
268.913	85.5
269.145	74.5
269.377	64.5
269.609	71.5
269.841	87.5
270.073	90.5
270.306	83.5
270.538	78.5
270.77	76.5
271.002	78.5
271.234	75.5
271.466	81.5
271.698	73.5
271.93	66.5
272.162	75.5
272.394	80.5
272.626	83.5
272.858	70.5
273.09	73.5
273.322	71.5
273.553	81.5
273.785	81.5
274.017	82.5
274.249	85.5
274.481	75.5
274.713	84.5
274.945	73.5
275.176	76.5
275.408	75.5
275.64	93.5
275.872	79.5
276.104	90.5
276.335	83.5
276.567	80.5
276.799	70.5
277.031	86.5
277.262	78.5
277.494	88.5
277.726	76.5
277.957	90.5
278.189	76.5
278.421	73.5
278.652	79.5
278.884	79.5
279.115	79.5
279.347	83.5
279.579	94.5
279.81	87.5
280.042	89.5
280.273	85.5
280.505	83.5
280.736	83.5
280.968	83.5
281.199	74.5
281.431	91.5
281.662	75.5
281.894	81.5
282.125	81.5
282.356	73.5
282.588	72.5
282.819	73.5
283.051	78.5
283.282	82.5
283.513	72.5
283.745	85.5
283.976	77.5
284.207	78.5
284.439	89.5
284.67	89.5
284.901	82.5
285.132	80.5
285.364	92.5
285.595	79.5
285.826	78.5
286.057	77.5
286.288	85.5
286.52	83.5
286.751	75.5
286.982	85.5
287.213	73.5
287.444	83.5
287.675	87.5
287.906	81.5
288.138	79.5
288.369	85.5
288.6	86.5
288.831	89.5
289.062	85.5
289.293	91.5
289.524	73.5
289.755	81.5
289.986	86.5
290.217	93.5
290.448	78.5
290.679	91.5
290.91	81.5
291.141	75.5
291.371	79.5
291.602	67.5
291.833	80.5
292.064	73.5
292.295	85.5
292.526	79.5
292.757	82.5
292.987	81.5
293.218	74.5
293.449	93.5
293.68	82.5
293.91	73.5
294.141	78.5
294.372	89.5
294.603	96.5
294.833	79.5
295.064	79.5
295.295	98.5
295.525	99.5
295.756	94.5
295.987	84.5
296.217	90.5
296.448	67.5
296.679	82.5
296.909	86.5
297.14	95.5
297.37	85.5
297.601	80.5
297.831	75.5
298.062	89.5
298.292	84.5
298.523	87.5
298.753	69.5
298.984	77.5
299.214	84.5
299.445	85.5
299.675	86.5
299.905	65.5
300.136	77.5
300.366	83.5
300.597	80.5
300.827	89.5
301.057	90.5
301.288	70.5
301.518	82.5
301.748	95.5
301.979	96.5
302.209	88.5
302.439	76.5
302.669	84.5
302.9	89.5
303.13	96.5
303.36	85.5
303.59	87.5
303.82	82.5
304.051	93.5
304.281	77.5
304.511	90.5
304.741	85.5
304.971	76.5
305.201	101.5
305.431	84.5
305.661	70.5
305.891	94.5
306.121	89.5
306.352	91.5
306.582	80.5
306.812	80.5
307.042	83.5
307.272	82.5
307.502	89.5
307.731	88.5
307.961	82.5
308.191	92.5
308.421	76.5
308.651	92.5
308.881	88.5
309.111	93.5
309.341	65.5
309.571	71.5
309.8	87.5
310.03	91.5
310.26	68.5
310.49	77.5
310.72	79.5
310.949	71.5
311.179	62.5
311.409	76.5
311.639	86.5
311.868	82.5
312.098	92.5
312.328	79.5
312.557	89.5
312.787	83.5
313.017	85.5
313.246	79.5
313.476	81.5
313.706	80.5
313.935	91.5
314.165	89.5
314.394	68.5
314.624	82.5
314.853	73.5
315.083	63.5
315.312	77.5
315.542	78.5
315.771	75.5
316.001	71.5
316.23	80.5
316.46	82.5
316.689	88.5
316.919	90.5
317.148	82.5
317.377	88.5
317.607	95.5
317.836	88.5
318.065	93.5
318.295	94.5
318.524	79.5
318.753	96.5
318.983	77.5
319.212	91.5
319.441	87.5
319.67	79.5
319.9	80.5
320.129	89.5
320.358	84.5
320.587	90.5
320.816	89.5
321.046	90.5
321.275	70.5
321.504	89.5
321.733	76.5
321.962	88.5
322.191	91.5
322.42	88.5
322.649	81.5
322.878	75.5
323.108	86.5
323.337	73.5
323.566	79.5
323.795	81.5
324.024	79.5
324.253	84.5
324.482	85.5
324.71	79.5
324.939	94.5
325.168	89.5
325.397	84.5
325.626	82.5
325.855	79.5
326.084	79.5
326.313	69.5
326.542	83.5
326.77	84.5
326.999	86.5
327.228	77.5
327.457	83.5
327.686	89.5
327.914	73.5
328.143	75.5
328.372	84.5
328.6	76.5
328.829	81.5
329.058	87.5
329.287	72.5
329.515	75.5
329.744	78.5
329.972	81.5
330.201	98.5
330.43	86.5
330.658	81.5
330.887	76.5
331.115	81.5
331.344	82.5
331.572	77.5
331.801	89.5
332.03	77.5
332.258	86.5
332.486	83.5
332.715	83.5
332.943	69.5
333.172	79.5
333.4	94.5
333.629	73.5
333.857	69.5
334.085	95.5
334.314	75.5
334.542	99.5
334.771	81.5
334.999	91.5
335.227	82.5
335.455	83.5
335.684	74.5
335.912	83.5
336.14	73.5
336.369	90.5
336.597	78.5
336.825	72.5
337.053	84.5
337.281	90.5
337.51	77.5
337.738	87.5
337.966	86.5
338.194	82.5
338.422	84.5
338.65	75.5
338.878	81.5
339.106	95.5
339.334	79.5
339.562	89.5
339.79	110.5
340.018	89.5
340.246	89.5
340.474	96.5
340.702	79.5
340.93	81.5
341.158	84.5
341.386	77.5
341.614	80.5
341.842	75.5
342.07	85.5
342.298	82.5
342.526	75.5
342.754	79.5
342.981	73.5
343.209	71.5
343.437	85.5
343.665	81.5
343.893	98.5
344.12	89.5
344.348	85.5
344.576	76.5
344.804	80.5
345.031	90.5
345.259	87.5
345.487	80.5
345.714	67.5
345.942	75.5
346.17	98.5
346.397	79.5
346.625	84.5
346.853	72.5
347.08	81.5
347.308	89.5
347.535	78.5
347.763	71.5
347.99	85.5
348.218	88.5
348.445	80.5
348.673	79.5
348.9	101.5
349.128	79.5
349.355	78.5
349.583	81.5
349.81	88.5
350.037	81.5
350.265	78.5
350.492	86.5
350.72	81.5
350.947	94.5
351.174	81.5
351.402	85.5
351.629	81.5
351.856	73.5
352.083	83.5
352.311	88.5
352.538	70.5
352.765	89.5
352.992	89.5
353.22	89.5
353.447	94.5
353.674	96.5
353.901	75.5
354.128	83.5
354.355	75.5
354.583	89.5
354.81	91.5
355.037	81.5
355.264	70.5
355.491	85.5
355.718	71.5
355.945	75.5
356.172	86.5
356.399	89.5
356.626	88.5
356.853	78.5
357.08	93.5
357.307	86.5
357.534	82.5
357.761	87.5
357.988	86.5
358.215	76.5
358.441	95.5
358.668	74.5
358.895	77.5
359.122	83.5
359.349	88.5
359.576	79.5
359.802	93.5
360.029	77.5
360.256	82.5
360.483	85.5
360.709	69.5
360.936	75.5
361.163	81.5
361.39	80.5
361.616	86.5
361.843	67.5
362.07	74.5
362.296	85.5
362.523	80.5
362.749	89.5
362.976	91.5
363.203	114.5
363.429	85.5
363.656	83.5
363.882	93.5
364.109	89.5
364.335	89.5
364.562	113.5
364.788	96.5
365.015	89.5
365.241	69.5
365.468	97.5
365.694	90.5
365.92	84.5
366.147	89.5
366.373	85.5
366.599	84.5
366.826	93.5
367.052	77.5
367.278	85.5
367.505	78.5
367.731	83.5
367.957	74.5
368.184	81.5
368.41	73.5
368.636	76.5
368.862	81.5
369.089	73.5
369.315	81.5
369.541	89.5
369.767	75.5
369.993	72.5
370.219	72.5
370.445	78.5
370.672	83.5
370.898	85.5
371.124	82.5
371.35	69.5
371.576	79.5
371.802	81.5
372.028	81.5
372.254	80.5
372.48	103.5
372.706	69.5
372.932	103.5
373.158	91.5
373.384	94.5
373.61	89.5
373.835	88.5
374.061	88.5
374.287	89.5
374.513	84.5
374.739	87.5
374.965	82.5
375.191	82.5
375.416	81.5
375.642	85.5
375.868	91.5
376.094	84.5
376.319	77.5
376.545	81.5
376.771	76.5
376.997	69.5
377.222	87.5
377.448	77.5
377.674	72.5
377.899	82.5
378.125	83.5
378.35	92.5
378.576	80.5
378.802	93.5
379.027	84.5
379.253	84.5
379.478	83.5
379.704	91.5
379.929	86.5
380.155	72.5
380.38	87.5
380.606	75.5
380.831	78.5
381.057	68.5
381.282	83.5
381.507	85.5
381.733	87.5
381.958	90.5
382.184	91.5
382.409	99.5
382.634	79.5
382.86	93.5
383.085	87.5
383.31	98.5
383.535	101.5
383.761	99.5
383.986	83.5
384.211	84.5
384.436	84.5
384.662	89.5
384.887	68.5
385.112	82.5
385.337	87.5
385.562	87.5
385.787	88.5
386.013	99.5
386.238	84.5
386.463	87.5
386.688	91.5
386.913	80.5
387.138	82.5
387.363	73.5
387.588	83.5
387.813	93.5
388.038	89.5
388.263	96.5
388.488	92.5
388.713	78.5
388.938	92.5
389.163	85.5
389.387	80.5
389.612	77.5
389.837	83.5
390.062	89.5
390.287	93.5
390.512	78.5
390.736	85.5
390.961	73.5
391.186	90.5
391.411	78.5
391.636	70.5
391.86	84.5
392.085	89.5
392.31	75.5
392.534	86.5
392.759	99.5
392.984	119.5
393.208	184.5
393.433	235.5
393.658	199.5
393.882	125.5
394.107	111.5
394.331	101.5
394.556	109.5
394.78	103.5
395.005	87.5
395.229	88.5
395.454	77.5
395.678	98.5
395.903	112.5
396.127	111.5
396.352	127.5
396.576	138.5
396.801	190.5
397.025	191.5
397.249	127.5
397.474	98.5
397.698	89.5
397.922	86.5
398.147	88.5
398.371	81.5
398.595	87.5
398.82	82.5
399.044	81.5
399.268	78.5
399.492	89.5
399.717	94.5
399.941	83.5
400.165	85.5
400.389	85.5
400.613	82.5
400.837	80.5
401.062	83.5
401.286	71.5
401.51	82.5
401.734	85.5
401.958	87.5
402.182	74.5
402.406	77.5
402.63	85.5
402.854	71.5
403.078	85.5
403.302	87.5
403.526	82.5
403.75	89.5
403.974	94.5
404.198	91.5
404.422	99.5
404.645	103.5
404.869	85.5
405.093	89.5
405.317	80.5
405.541	81.5
405.765	88.5
405.988	81.5
406.212	84.5
406.436	74.5
406.66	87.5
406.883	86.5
407.107	84.5
407.331	94.5
407.555	87.5
407.778	107.5
408.002	87.5
408.226	83.5
408.449	81.5
408.673	93.5
408.896	78.5
409.12	78.5
409.344	86.5
409.567	81.5
409.791	92.5
410.014	80.5
410.238	83.5
410.461	74.5
410.685	90.5
410.908	80.5
411.132	81.5
411.355	84.5
411.578	62.5
411.802	72.5
412.025	67.5
412.249	84.5
412.472	71.5
412.695	79.5
412.919	76.5
413.142	81.5
413.365	86.5
413.589	81.5
413.812	81.5
414.035	78.5
414.258	76.5
414.482	83.5
414.705	93.5
414.928	65.5
415.151	83.5
415.374	77.5
415.597	66.5
415.821	69.5
416.044	67.5
416.267	83.5
416.49	95.5
416.713	82.5
416.936	85.5
417.159	87.5
417.382	83.5
417.605	80.5
417.828	74.5
418.051	73.5
418.274	80.5
418.497	67.5
418.72	76.5
418.943	76.5
419.166	97.5
419.389	94.5
419.611	69.5
419.834	79.5
420.057	84.5
420.28	75.5
420.503	84.5
420.726	77.5
420.948	89.5
421.171	97.5
421.394	97.5
421.617	80.5
421.839	95.5
422.062	89.5
422.285	105.5
422.507	148.5
422.73	261.5
422.953	221.5
423.175	144.5
423.398	87.5
423.621	81.5
423.843	81.5
424.066	81.5
424.288	84.5
424.511	87.5
424.733	82.5
424.956	73.5
425.178	79.5
425.401	92.5
425.623	76.5
425.846	79.5
426.068	74.5
426.291	79.5
426.513	79.5
426.735	78.5
426.958	74.5
427.18	82.5
427.402	76.5
427.625	76.5
427.847	89.5
428.069	89.5
428.292	105.5
428.514	98.5
428.736	84.5
428.958	89.5
429.181	97.5
429.403	94.5
429.625	89.5
429.847	107.5
430.069	117.5
430.292	139.5
430.514	121.5
430.736	104.5
430.958	99.5
431.18	98.5
431.402	79.5
431.624	90.5
431.846	97.5
432.068	101.5
432.29	96.5
432.512	91.5
432.734	73.5
432.956	71.5
433.178	83.5
433.4	86.5
433.622	95.5
433.844	92.5
434.066	86.5
434.287	78.5
434.509	84.5
434.731	83.5
434.953	70.5
435.175	69.5
435.397	73.5
435.618	74.5
435.84	72.5
436.062	86.5
436.284	88.5
436.505	76.5
436.727	81.5
436.949	71.5
437.17	76.5
437.392	74.5
437.614	77.5
437.835	85.5
438.057	63.5
438.278	69.5
438.5	99.5
438.721	101.5
438.943	82.5
439.165	86.5
439.386	83.5
439.608	92.5
439.829	70.5
440.05	86.5
440.272	87.5
440.493	90.5
440.715	82.5
440.936	83.5
441.158	74.5
441.379	89.5
441.6	76.5
441.822	75.5
442.043	85.5
442.264	88.5
442.486	103.5
442.707	127.5
442.928	98.5
443.149	87.5
443.371	143.5
443.592	178.5
443.813	162.5
444.034	79.5
444.255	82.5
444.476	84.5
444.698	83.5
444.919	81.5
445.14	197.5
445.361	178.5
445.582	207.5
445.803	174.5
446.024	103.5
446.245	85.5
446.466	72.5
446.687	85.5
446.908	85.5
447.129	64.5
447.35	83.5
447.571	78.5
447.792	67.5
448.013	72.5
448.234	89.5
448.455	88.5
448.675	86.5
448.896	91.5
449.117	83.5
449.338	84.5
449.559	92.5
449.779	81.5
450	81.5
450.221	74.5
450.442	83.5
450.662	68.5
450.883	86.5
451.104	87.5
451.324	82.5
451.545	85.5
451.766	87.5
451.986	87.5
452.207	85.5
452.428	89.5
452.648	74.5
452.869	85.5
453.089	89.5
453.31	100.5
453.53	104.5
453.751	85.5
453.971	87.5
454.192	83.5
454.412	89.5
454.633	84.5
454.853	82.5
455.073	83.5
455.294	83.5
455.514	93.5
455.734	81.5
455.955	75.5
456.175	77.5
456.395	80.5
456.616	78.5
456.836	83.5
457.056	82.5
457.276	70.5
457.497	60.5
457.717	84.5
457.937	85.5
458.157	91.5
458.377	97.5
458.598	88.5
458.818	98.5
459.038	73.5
459.258	74.5
459.478	91.5
459.698	86.5
459.918	79.5
460.138	69.5
460.358	65.5
460.578	84.5
460.798	93.5
461.018	95.5
461.238	91.5
461.458	81.5
461.678	92.5
461.898	83.5
462.118	79.5
462.338	83.5
462.558	86.5
462.777	83.5
462.997	90.5
463.217	87.5
463.437	77.5
463.657	75.5
463.876	79.5
464.096	79.5
464.316	69.5
464.536	85.5
464.755	87.5
464.975	78.5
465.195	86.5
465.414	80.5
465.634	82.5
465.854	96.5
466.073	83.5
466.293	81.5
466.512	66.5
466.732	90.5
466.951	76.5
467.171	81.5
467.391	80.5
467.61	73.5
467.829	81.5
468.049	75.5
468.268	80.5
468.488	70.5
468.707	91.5
468.927	91.5
469.146	96.5
469.365	81.5
469.585	93.5
469.804	83.5
470.023	88.5
470.243	79.5
470.462	85.5
470.681	85.5
470.901	78.5
471.12	92.5
471.339	82.5
471.558	85.5
471.777	76.5
471.997	88.5
472.216	68.5
472.435	97.5
472.654	81.5
472.873	80.5
473.092	71.5
473.311	89.5
473.53	70.5
473.749	78.5
473.968	93.5
474.187	79.5
474.406	85.5
474.625	91.5
474.844	89.5
475.063	79.5
475.282	79.5
475.501	84.5
475.72	84.5
475.939	88.5
476.158	81.5
476.377	82.5
476.596	83.5
476.814	85.5
477.033	75.5
477.252	75.5
477.471	89.5
477.69	93.5
477.908	85.5
478.127	75.5
478.346	82.5
478.564	75.5
478.783	84.5
479.002	95.5
479.22	99.5
479.439	88.5
479.658	83.5
479.876	79.5
480.095	76.5
480.313	89.5
480.532	68.5
480.751	83.5
480.969	82.5
481.188	72.5
481.406	84.5
481.624	90.5
481.843	93.5
482.061	80.5
482.28	87.5
482.498	94.5
482.717	83.5
482.935	77.5
483.153	95.5
483.372	85.5
483.59	82.5
483.808	90.5
484.027	96.5
484.245	91.5
484.463	92.5
484.681	89.5
484.9	86.5
485.118	86.5
485.336	81.5
485.554	91.5
485.772	79.5
485.99	89.5
486.209	78.5
486.427	87.5
486.645	81.5
486.863	79.5
487.081	93.5
487.299	86.5
487.517	81.5
487.735	97.5
487.953	125.5
488.171	95.5
488.389	89.5
488.607	74.5
488.825	71.5
489.043	89.5
489.261	84.5
489.479	79.5
489.696	65.5
489.914	76.5
490.132	85.5
490.35	87.5
490.568	75.5
490.786	86.5
491.003	79.5
491.221	84.5
491.439	86.5
491.657	93.5
491.874	87.5
492.092	83.5
492.31	91.5
492.527	76.5
492.745	91.5
492.963	81.5
493.18	78.5
493.398	79.5
493.615	101.5
493.833	82.5
494.05	93.5
494.268	64.5
494.485	88.5
494.703	85.5
494.92	79.5
495.138	75.5
495.355	79.5
495.573	79.5
495.79	87.5
496.008	86.5
496.225	74.5
496.442	75.5
496.66	85.5
496.877	79.5
497.094	84.5
497.312	86.5
497.529	71.5
497.746	75.5
497.963	85.5
498.181	77.5
498.398	99.5
498.615	94.5
498.832	87.5
499.049	81.5
499.267	93.5
499.484	81.5
499.701	77.5
499.918	88.5
500.135	76.5
500.352	76.5
500.569	72.5
500.786	89.5
501.003	95.5
501.22	83.5
501.437	80.5
501.654	93.5
501.871	89.5
502.088	86.5
502.305	95.5
502.522	64.5
502.739	85.5
502.956	75.5
503.172	81.5
503.389	87.5
503.606	92.5
503.823	89.5
504.04	89.5
504.256	106.5
504.473	103.5
504.69	84.5
504.907	96.5
505.123	97.5
505.34	73.5
505.557	85.5
505.773	80.5
505.99	80.5
506.207	78.5
506.423	76.5
506.64	78.5
506.856	75.5
507.073	88.5
507.289	81.5
507.506	86.5
507.722	91.5
507.939	78.5
508.155	84.5
508.372	69.5
508.588	78.5
508.805	84.5
509.021	83.5
509.238	89.5
509.454	70.5
509.67	87.5
509.887	75.5
510.103	85.5
510.319	81.5
510.536	90.5
510.752	89.5
510.968	82.5
511.184	89.5
511.401	98.5
511.617	73.5
511.833	73.5
512.049	89.5
512.265	82.5
512.481	75.5
512.698	78.5
512.914	67.5
513.13	87.5
513.346	79.5
513.562	93.5
513.778	84.5
513.994	85.5
514.21	70.5
514.426	93.5
514.642	81.5
514.858	81.5
515.074	94.5
515.29	97.5
515.506	73.5
515.721	83.5
515.937	85.5
516.153	75.5
516.369	85.5
516.585	77.5
516.801	76.5
517.016	83.5
517.232	93.5
517.448	94.5
517.664	93.5
517.879	78.5
518.095	73.5
518.311	69.5
518.527	89.5
518.742	89.5
518.958	103.5
519.173	117.5
519.389	83.5
519.605	87.5
519.82	77.5
520.036	70.5
520.251	66.5
520.467	69.5
520.682	85.5
520.898	78.5
521.113	82.5
521.329	65.5
521.544	83.5
521.76	93.5
521.975	88.5
522.19	83.5
522.406	73.5
522.621	77.5
522.836	79.5
523.052	93.5
523.267	83.5
523.482	86.5
523.698	73.5
523.913	75.5
524.128	85.5
524.343	97.5
524.559	85.5
524.774	87.5
524.989	80.5
525.204	82.5
525.419	82.5
525.634	88.5
525.849	98.5
526.064	106.5
526.28	155.5
526.495	197.5
526.71	193.5
526.925	145.5
527.14	182.5
527.355	165.5
527.57	85.5
527.785	79.5
527.999	75.5
528.214	86.5
528.429	80.5
528.644	97.5
528.859	81.5
529.074	84.5
529.289	78.5
529.503	97.5
529.718	98.5
529.933	83.5
530.148	78.5
530.363	77.5
530.577	83.5
530.792	83.5
531.007	73.5
531.221	94.5
531.436	89.5
531.651	91.5
531.865	87.5
532.08	88.5
532.295	68.5
532.509	83.5
532.724	71.5
532.938	75.5
533.153	97.5
533.367	76.5
533.582	93.5
533.796	85.5
534.011	85.5
534.225	70.5
534.44	78.5
534.654	98.5
534.868	95.5
535.083	120.5
535.297	117.5
535.511	94.5
535.726	77.5
535.94	75.5
536.154	66.5
536.369	83.5
536.583	76.5
536.797	73.5
537.011	73.5
537.225	88.5
537.44	97.5
537.654	89.5
537.868	77.5
538.082	88.5
538.296	80.5
538.51	84.5
538.724	90.5
538.938	83.5
539.153	88.5
539.367	100.5
539.581	90.5
