Data from 15780_2_HRD10591_00040.txt Node
Date: Mon Jan 19 14:19:23 EST 2026
User: Yrep
Spectrometer: HR+D1059
Trigger mode: 1
Integration Time (sec): 1.000000E-1
Scans to average: 1
Electric dark correction enabled: true
Nonlinearity correction enabled: false
Boxcar width: 0
XAxis mode: Wavelengths
Number of Pixels in Spectrum: 2048
>>>>>Begin Spectral Data<<<<<
223.165	-20.88
223.4	-20.88
223.635	-20.88
223.869	-3.88
224.104	-8.88
224.338	-8.88
224.573	-10.88
224.808	-26.88
225.042	-5.88
225.277	-6.88
225.511	-0.88
225.746	5.12
225.98	-1.88
226.215	3.12
226.449	12.12
226.683	25.12
226.918	22.12
227.152	28.12
227.387	29.12
227.621	39.12
227.856	41.12
228.09	45.12
228.324	51.12
228.559	71.12
228.793	71.12
229.027	60.12
229.262	62.12
229.496	67.12
229.73	63.12
229.964	81.12
230.199	79.12
230.433	83.12
230.667	67.12
230.901	65.12
231.136	79.12
231.37	74.12
231.604	71.12
231.838	85.12
232.072	87.12
232.306	84.12
232.541	69.12
232.775	67.12
233.009	83.12
233.243	77.12
233.477	81.12
233.711	85.12
233.945	82.12
234.179	89.12
234.413	77.12
234.647	81.12
234.881	89.12
235.115	92.12
235.349	90.12
235.583	76.12
235.817	92.12
236.051	76.12
236.285	77.12
236.519	82.12
236.753	64.12
236.987	57.12
237.221	67.12
237.455	64.12
237.689	83.12
237.922	89.12
238.156	78.12
238.39	73.12
238.624	75.12
238.858	78.12
239.091	71.12
239.325	77.12
239.559	63.12
239.793	75.12
240.027	66.12
240.26	76.12
240.494	74.12
240.728	73.12
240.961	60.12
241.195	82.12
241.429	71.12
241.662	76.12
241.896	69.12
242.13	74.12
242.363	76.12
242.597	83.12
242.83	77.12
243.064	82.12
243.298	83.12
243.531	67.12
243.765	76.12
243.998	74.12
244.232	81.12
244.465	69.12
244.699	77.12
244.932	84.12
245.166	69.12
245.399	76.12
245.633	77.12
245.866	77.12
246.099	83.12
246.333	73.12
246.566	71.12
246.8	63.12
247.033	84.12
247.266	83.12
247.5	77.12
247.733	61.12
247.966	78.12
248.2	60.12
248.433	71.12
248.666	63.12
248.899	75.12
249.133	74.12
249.366	80.12
249.599	70.12
249.832	85.12
250.066	67.12
250.299	61.12
250.532	79.12
250.765	68.12
250.998	72.12
251.231	71.12
251.465	83.12
251.698	83.12
251.931	83.12
252.164	78.12
252.397	77.12
252.63	85.12
252.863	73.12
253.096	84.12
253.329	92.12
253.562	80.12
253.795	77.12
254.028	85.12
254.261	100.12
254.494	78.12
254.727	96.12
254.96	74.12
255.193	90.12
255.426	70.12
255.659	72.12
255.892	100.12
256.124	76.12
256.357	80.12
256.59	76.12
256.823	71.12
257.056	87.12
257.289	67.12
257.521	81.12
257.754	66.12
257.987	63.12
258.22	81.12
258.452	75.12
258.685	83.12
258.918	80.12
259.151	85.12
259.383	74.12
259.616	75.12
259.849	68.12
260.081	79.12
260.314	81.12
260.547	86.12
260.779	85.12
261.012	78.12
261.244	88.12
261.477	87.12
261.71	83.12
261.942	88.12
262.175	73.12
262.407	71.12
262.64	87.12
262.872	88.12
263.105	69.12
263.337	87.12
263.57	68.12
263.802	74.12
264.035	79.12
264.267	91.12
264.499	85.12
264.732	75.12
264.964	77.12
265.197	75.12
265.429	81.12
265.661	75.12
265.894	66.12
266.126	84.12
266.358	83.12
266.591	95.12
266.823	81.12
267.055	84.12
267.287	76.12
267.52	87.12
267.752	91.12
267.984	88.12
268.216	75.12
268.448	100.12
268.681	95.12
268.913	72.12
269.145	79.12
269.377	81.12
269.609	88.12
269.841	84.12
270.073	91.12
270.306	91.12
270.538	103.12
270.77	88.12
271.002	78.12
271.234	95.12
271.466	78.12
271.698	83.12
271.93	79.12
272.162	86.12
272.394	83.12
272.626	79.12
272.858	89.12
273.09	88.12
273.322	74.12
273.553	78.12
273.785	81.12
274.017	72.12
274.249	74.12
274.481	89.12
274.713	84.12
274.945	63.12
275.176	83.12
275.408	83.12
275.64	79.12
275.872	88.12
276.104	81.12
276.335	77.12
276.567	75.12
276.799	83.12
277.031	78.12
277.262	76.12
277.494	79.12
277.726	82.12
277.957	88.12
278.189	73.12
278.421	72.12
278.652	77.12
278.884	98.12
279.115	85.12
279.347	95.12
279.579	91.12
279.81	94.12
280.042	91.12
280.273	73.12
280.505	76.12
280.736	79.12
280.968	89.12
281.199	92.12
281.431	91.12
281.662	69.12
281.894	83.12
282.125	80.12
282.356	85.12
282.588	73.12
282.819	83.12
283.051	76.12
283.282	89.12
283.513	96.12
283.745	91.12
283.976	76.12
284.207	77.12
284.439	92.12
284.67	85.12
284.901	82.12
285.132	81.12
285.364	91.12
285.595	73.12
285.826	72.12
286.057	76.12
286.288	82.12
286.52	78.12
286.751	91.12
286.982	81.12
287.213	68.12
287.444	86.12
287.675	92.12
287.906	84.12
288.138	71.12
288.369	79.12
288.6	88.12
288.831	80.12
289.062	79.12
289.293	93.12
289.524	79.12
289.755	83.12
289.986	76.12
290.217	73.12
290.448	77.12
290.679	73.12
290.91	85.12
291.141	80.12
291.371	92.12
291.602	88.12
291.833	67.12
292.064	79.12
292.295	88.12
292.526	92.12
292.757	92.12
292.987	96.12
293.218	91.12
293.449	77.12
293.68	89.12
293.91	89.12
294.141	97.12
294.372	80.12
294.603	78.12
294.833	82.12
295.064	80.12
295.295	67.12
295.525	90.12
295.756	87.12
295.987	92.12
296.217	82.12
296.448	87.12
296.679	86.12
296.909	77.12
297.14	86.12
297.37	84.12
297.601	90.12
297.831	83.12
298.062	85.12
298.292	103.12
298.523	90.12
298.753	98.12
298.984	75.12
299.214	87.12
299.445	73.12
299.675	96.12
299.905	83.12
300.136	85.12
300.366	74.12
300.597	79.12
300.827	81.12
301.057	92.12
301.288	84.12
301.518	87.12
301.748	77.12
301.979	97.12
302.209	88.12
302.439	91.12
302.669	80.12
302.9	95.12
303.13	80.12
303.36	80.12
303.59	88.12
303.82	90.12
304.051	86.12
304.281	83.12
304.511	74.12
304.741	85.12
304.971	91.12
305.201	84.12
305.431	84.12
305.661	96.12
305.891	81.12
306.121	83.12
306.352	85.12
306.582	84.12
306.812	80.12
307.042	70.12
307.272	81.12
307.502	74.12
307.731	92.12
307.961	88.12
308.191	89.12
308.421	78.12
308.651	73.12
308.881	78.12
309.111	99.12
309.341	102.12
309.571	88.12
309.8	84.12
310.03	90.12
310.26	88.12
310.49	82.12
310.72	75.12
310.949	78.12
311.179	79.12
311.409	80.12
311.639	85.12
311.868	86.12
312.098	83.12
312.328	80.12
312.557	84.12
312.787	82.12
313.017	88.12
313.246	85.12
313.476	79.12
313.706	81.12
313.935	80.12
314.165	87.12
314.394	81.12
314.624	79.12
314.853	89.12
315.083	86.12
315.312	74.12
315.542	95.12
315.771	91.12
316.001	84.12
316.23	89.12
316.46	87.12
316.689	84.12
316.919	87.12
317.148	89.12
317.377	93.12
317.607	90.12
317.836	84.12
318.065	95.12
318.295	83.12
318.524	92.12
318.753	88.12
318.983	90.12
319.212	98.12
319.441	84.12
319.67	90.12
319.9	72.12
320.129	95.12
320.358	96.12
320.587	94.12
320.816	92.12
321.046	83.12
321.275	87.12
321.504	82.12
321.733	82.12
321.962	78.12
322.191	90.12
322.42	81.12
322.649	79.12
322.878	74.12
323.108	81.12
323.337	97.12
323.566	83.12
323.795	87.12
324.024	77.12
324.253	95.12
324.482	84.12
324.71	72.12
324.939	87.12
325.168	78.12
325.397	77.12
325.626	85.12
325.855	84.12
326.084	77.12
326.313	76.12
326.542	75.12
326.77	91.12
326.999	81.12
327.228	77.12
327.457	74.12
327.686	83.12
327.914	78.12
328.143	83.12
328.372	80.12
328.6	84.12
328.829	99.12
329.058	83.12
329.287	100.12
329.515	94.12
329.744	74.12
329.972	83.12
330.201	81.12
330.43	99.12
330.658	79.12
330.887	85.12
331.115	62.12
331.344	83.12
331.572	86.12
331.801	70.12
332.03	75.12
332.258	86.12
332.486	85.12
332.715	78.12
332.943	77.12
333.172	89.12
333.4	82.12
333.629	85.12
333.857	86.12
334.085	83.12
334.314	82.12
334.542	79.12
334.771	95.12
334.999	98.12
335.227	97.12
335.455	72.12
335.684	81.12
335.912	91.12
336.14	100.12
336.369	93.12
336.597	95.12
336.825	103.12
337.053	91.12
337.281	96.12
337.51	79.12
337.738	98.12
337.966	93.12
338.194	85.12
338.422	74.12
338.65	77.12
338.878	85.12
339.106	90.12
339.334	91.12
339.562	70.12
339.79	78.12
340.018	72.12
340.246	88.12
340.474	75.12
340.702	68.12
340.93	72.12
341.158	88.12
341.386	92.12
341.614	92.12
341.842	78.12
342.07	87.12
342.298	80.12
342.526	84.12
342.754	91.12
342.981	80.12
343.209	81.12
343.437	94.12
343.665	97.12
343.893	87.12
344.12	85.12
344.348	81.12
344.576	91.12
344.804	93.12
345.031	82.12
345.259	78.12
345.487	68.12
345.714	79.12
345.942	84.12
346.17	78.12
346.397	87.12
346.625	94.12
346.853	88.12
347.08	91.12
347.308	84.12
347.535	93.12
347.763	94.12
347.99	85.12
348.218	90.12
348.445	92.12
348.673	88.12
348.9	74.12
349.128	89.12
349.355	89.12
349.583	82.12
349.81	105.12
350.037	86.12
350.265	87.12
350.492	83.12
350.72	72.12
350.947	83.12
351.174	76.12
351.402	60.12
351.629	77.12
351.856	90.12
352.083	86.12
352.311	78.12
352.538	92.12
352.765	92.12
352.992	93.12
353.22	86.12
353.447	68.12
353.674	73.12
353.901	95.12
354.128	86.12
354.355	85.12
354.583	86.12
354.81	85.12
355.037	76.12
355.264	83.12
355.491	100.12
355.718	91.12
355.945	87.12
356.172	86.12
356.399	90.12
356.626	79.12
356.853	74.12
357.08	81.12
357.307	82.12
357.534	77.12
357.761	90.12
357.988	90.12
358.215	95.12
358.441	93.12
358.668	91.12
358.895	88.12
359.122	88.12
359.349	83.12
359.576	88.12
359.802	83.12
360.029	73.12
360.256	81.12
360.483	89.12
360.709	84.12
360.936	88.12
361.163	82.12
361.39	81.12
361.616	80.12
361.843	79.12
362.07	72.12
362.296	79.12
362.523	93.12
362.749	92.12
362.976	86.12
363.203	90.12
363.429	86.12
363.656	91.12
363.882	88.12
364.109	82.12
364.335	108.12
364.562	96.12
364.788	89.12
365.015	83.12
365.241	88.12
365.468	73.12
365.694	76.12
365.92	81.12
366.147	81.12
366.373	75.12
366.599	84.12
366.826	81.12
367.052	73.12
367.278	87.12
367.505	88.12
367.731	84.12
367.957	85.12
368.184	77.12
368.41	85.12
368.636	80.12
368.862	88.12
369.089	88.12
369.315	88.12
369.541	91.12
369.767	81.12
369.993	81.12
370.219	80.12
370.445	107.12
370.672	101.12
370.898	89.12
371.124	85.12
371.35	85.12
371.576	89.12
371.802	91.12
372.028	99.12
372.254	100.12
372.48	98.12
372.706	84.12
372.932	89.12
373.158	86.12
373.384	92.12
373.61	103.12
373.835	113.12
374.061	97.12
374.287	87.12
374.513	82.12
374.739	95.12
374.965	103.12
375.191	101.12
375.416	95.12
375.642	94.12
375.868	89.12
376.094	85.12
376.319	70.12
376.545	75.12
376.771	93.12
376.997	75.12
377.222	75.12
377.448	85.12
377.674	93.12
377.899	78.12
378.125	82.12
378.35	77.12
378.576	99.12
378.802	86.12
379.027	76.12
379.253	87.12
379.478	81.12
379.704	89.12
379.929	94.12
380.155	71.12
380.38	88.12
380.606	89.12
380.831	83.12
381.057	107.12
381.282	96.12
381.507	86.12
381.733	83.12
381.958	91.12
382.184	84.12
382.409	98.12
382.634	97.12
382.86	93.12
383.085	97.12
383.31	99.12
383.535	95.12
383.761	85.12
383.986	87.12
384.211	97.12
384.436	87.12
384.662	86.12
384.887	88.12
385.112	103.12
385.337	84.12
385.562	92.12
385.787	96.12
386.013	106.12
386.238	93.12
386.463	86.12
386.688	116.12
386.913	93.12
387.138	96.12
387.363	99.12
387.588	107.12
387.813	105.12
388.038	86.12
388.263	105.12
388.488	97.12
388.713	80.12
388.938	92.12
389.163	105.12
389.387	94.12
389.612	93.12
389.837	77.12
390.062	83.12
390.287	77.12
390.512	75.12
390.736	88.12
390.961	82.12
391.186	75.12
391.411	101.12
391.636	90.12
391.86	73.12
392.085	89.12
392.31	78.12
392.534	92.12
392.759	112.12
392.984	149.12
393.208	254.12
393.433	378.12
393.658	293.12
393.882	132.12
394.107	113.12
394.331	111.12
394.556	116.12
394.78	97.12
395.005	102.12
395.229	83.12
395.454	85.12
395.678	97.12
395.903	93.12
396.127	132.12
396.352	154.12
396.576	165.12
396.801	276.12
397.025	308.12
397.249	152.12
397.474	95.12
397.698	85.12
397.922	79.12
398.147	84.12
398.371	90.12
398.595	72.12
398.82	76.12
399.044	76.12
399.268	90.12
399.492	83.12
399.717	80.12
399.941	83.12
400.165	96.12
400.389	93.12
400.613	81.12
400.837	77.12
401.062	83.12
401.286	72.12
401.51	85.12
401.734	75.12
401.958	80.12
402.182	72.12
402.406	85.12
402.63	68.12
402.854	76.12
403.078	76.12
403.302	76.12
403.526	89.12
403.75	86.12
403.974	89.12
404.198	84.12
404.422	101.12
404.645	106.12
404.869	96.12
405.093	75.12
405.317	79.12
405.541	79.12
405.765	86.12
405.988	91.12
406.212	69.12
406.436	83.12
406.66	81.12
406.883	86.12
407.107	65.12
407.331	98.12
407.555	89.12
407.778	108.12
408.002	99.12
408.226	81.12
408.449	86.12
408.673	66.12
408.896	82.12
409.12	84.12
409.344	75.12
409.567	76.12
409.791	73.12
410.014	82.12
410.238	90.12
410.461	72.12
410.685	87.12
410.908	79.12
411.132	77.12
411.355	81.12
411.578	90.12
411.802	73.12
412.025	73.12
412.249	78.12
412.472	87.12
412.695	85.12
412.919	86.12
413.142	82.12
413.365	87.12
413.589	87.12
413.812	85.12
414.035	100.12
414.258	81.12
414.482	72.12
414.705	98.12
414.928	74.12
415.151	64.12
415.374	78.12
415.597	81.12
415.821	69.12
416.044	100.12
416.267	74.12
416.49	82.12
416.713	85.12
416.936	81.12
417.159	81.12
417.382	80.12
417.605	72.12
417.828	82.12
418.051	81.12
418.274	89.12
418.497	81.12
418.72	80.12
418.943	87.12
419.166	70.12
419.389	67.12
419.611	83.12
419.834	82.12
420.057	86.12
420.28	87.12
420.503	90.12
420.726	92.12
420.948	79.12
421.171	83.12
421.394	83.12
421.617	103.12
421.839	109.12
422.062	98.12
422.285	119.12
422.507	188.12
422.73	309.12
422.953	278.12
423.175	121.12
423.398	97.12
423.621	96.12
423.843	87.12
424.066	86.12
424.288	77.12
424.511	83.12
424.733	91.12
424.956	77.12
425.178	91.12
425.401	90.12
425.623	80.12
425.846	90.12
426.068	78.12
426.291	71.12
426.513	85.12
426.735	95.12
426.958	99.12
427.18	88.12
427.402	84.12
427.625	78.12
427.847	90.12
428.069	91.12
428.292	97.12
428.514	107.12
428.736	93.12
428.958	119.12
429.181	97.12
429.403	91.12
429.625	87.12
429.847	108.12
430.069	127.12
430.292	151.12
430.514	139.12
430.736	117.12
430.958	112.12
431.18	92.12
431.402	88.12
431.624	74.12
431.846	101.12
432.068	112.12
432.29	85.12
432.512	86.12
432.734	81.12
432.956	89.12
433.178	82.12
433.4	84.12
433.622	73.12
433.844	83.12
434.066	80.12
434.287	91.12
434.509	71.12
434.731	72.12
434.953	74.12
435.175	88.12
435.397	86.12
435.618	68.12
435.84	83.12
436.062	93.12
436.284	87.12
436.505	74.12
436.727	81.12
436.949	77.12
437.17	82.12
437.392	86.12
437.614	72.12
437.835	77.12
438.057	82.12
438.278	75.12
438.5	84.12
438.721	81.12
438.943	95.12
439.165	85.12
439.386	73.12
439.608	89.12
439.829	84.12
440.05	95.12
440.272	69.12
440.493	94.12
440.715	89.12
440.936	87.12
441.158	90.12
441.379	70.12
441.6	77.12
441.822	90.12
442.043	84.12
442.264	78.12
442.486	97.12
442.707	122.12
442.928	102.12
443.149	99.12
443.371	139.12
443.592	168.12
443.813	147.12
444.034	95.12
444.255	83.12
444.476	93.12
444.698	89.12
444.919	93.12
445.14	180.12
445.361	159.12
445.582	195.12
445.803	163.12
446.024	98.12
446.245	85.12
446.466	78.12
446.687	91.12
446.908	93.12
447.129	94.12
447.35	88.12
447.571	79.12
447.792	92.12
448.013	77.12
448.234	86.12
448.455	81.12
448.675	79.12
448.896	85.12
449.117	81.12
449.338	70.12
449.559	81.12
449.779	83.12
450	82.12
450.221	80.12
450.442	82.12
450.662	87.12
450.883	91.12
451.104	78.12
451.324	85.12
451.545	85.12
451.766	69.12
451.986	77.12
452.207	61.12
452.428	88.12
452.648	89.12
452.869	82.12
453.089	84.12
453.31	84.12
453.53	88.12
453.751	84.12
453.971	71.12
454.192	91.12
454.412	86.12
454.633	92.12
454.853	83.12
455.073	69.12
455.294	81.12
455.514	86.12
455.734	81.12
455.955	80.12
456.175	72.12
456.395	87.12
456.616	76.12
456.836	79.12
457.056	83.12
457.276	84.12
457.497	76.12
457.717	73.12
457.937	94.12
458.157	70.12
458.377	101.12
458.598	95.12
458.818	101.12
459.038	69.12
459.258	83.12
459.478	82.12
459.698	82.12
459.918	84.12
460.138	92.12
460.358	83.12
460.578	97.12
460.798	101.12
461.018	113.12
461.238	85.12
461.458	91.12
461.678	70.12
461.898	78.12
462.118	79.12
462.338	77.12
462.558	89.12
462.777	82.12
462.997	79.12
463.217	76.12
463.437	76.12
463.657	81.12
463.876	71.12
464.096	95.12
464.316	75.12
464.536	66.12
464.755	86.12
464.975	93.12
465.195	92.12
465.414	75.12
465.634	80.12
465.854	75.12
466.073	79.12
466.293	82.12
466.512	90.12
466.732	87.12
466.951	78.12
467.171	92.12
467.391	74.12
467.61	80.12
467.829	83.12
468.049	86.12
468.268	84.12
468.488	84.12
468.707	86.12
468.927	82.12
469.146	80.12
469.365	86.12
469.585	67.12
469.804	72.12
470.023	73.12
470.243	75.12
470.462	71.12
470.681	83.12
470.901	83.12
471.12	76.12
471.339	99.12
471.558	73.12
471.777	79.12
471.997	90.12
472.216	82.12
472.435	84.12
472.654	71.12
472.873	89.12
473.092	76.12
473.311	68.12
473.53	87.12
473.749	87.12
473.968	89.12
474.187	79.12
474.406	72.12
474.625	79.12
474.844	87.12
475.063	84.12
475.282	85.12
475.501	89.12
475.72	84.12
475.939	77.12
476.158	84.12
476.377	85.12
476.596	76.12
476.814	94.12
477.033	76.12
477.252	74.12
477.471	70.12
477.69	71.12
477.908	75.12
478.127	87.12
478.346	89.12
478.564	90.12
478.783	65.12
479.002	85.12
479.22	81.12
479.439	88.12
479.658	77.12
479.876	83.12
480.095	69.12
480.313	83.12
480.532	87.12
480.751	99.12
480.969	78.12
481.188	87.12
481.406	80.12
481.624	81.12
481.843	85.12
482.061	72.12
482.28	91.12
482.498	85.12
482.717	56.12
482.935	74.12
483.153	78.12
483.372	79.12
483.59	96.12
483.808	90.12
484.027	79.12
484.245	86.12
484.463	89.12
484.681	83.12
484.9	83.12
485.118	78.12
485.336	71.12
485.554	80.12
485.772	91.12
485.99	74.12
486.209	85.12
486.427	81.12
486.645	88.12
486.863	86.12
487.081	93.12
487.299	84.12
487.517	84.12
487.735	94.12
487.953	100.12
488.171	105.12
488.389	91.12
488.607	99.12
488.825	81.12
489.043	90.12
489.261	93.12
489.479	84.12
489.696	96.12
489.914	77.12
490.132	84.12
490.35	87.12
490.568	73.12
490.786	96.12
491.003	74.12
491.221	92.12
491.439	88.12
491.657	84.12
491.874	83.12
492.092	77.12
492.31	68.12
492.527	83.12
492.745	83.12
492.963	99.12
493.18	84.12
493.398	81.12
493.615	80.12
493.833	76.12
494.05	73.12
494.268	77.12
494.485	91.12
494.703	90.12
494.92	97.12
495.138	90.12
495.355	83.12
495.573	103.12
495.79	87.12
496.008	89.12
496.225	79.12
496.442	80.12
496.66	89.12
496.877	79.12
497.094	93.12
497.312	87.12
497.529	94.12
497.746	85.12
497.963	75.12
498.181	91.12
498.398	91.12
498.615	78.12
498.832	89.12
499.049	83.12
499.267	85.12
499.484	77.12
499.701	79.12
499.918	85.12
500.135	78.12
500.352	80.12
500.569	84.12
500.786	85.12
501.003	91.12
501.22	95.12
501.437	93.12
501.654	83.12
501.871	77.12
502.088	86.12
502.305	99.12
502.522	84.12
502.739	87.12
502.956	82.12
503.172	91.12
503.389	91.12
503.606	91.12
503.823	88.12
504.04	84.12
504.256	95.12
504.473	98.12
504.69	86.12
504.907	93.12
505.123	88.12
505.34	81.12
505.557	80.12
505.773	98.12
505.99	91.12
506.207	80.12
506.423	91.12
506.64	96.12
506.856	72.12
507.073	83.12
507.289	73.12
507.506	82.12
507.722	91.12
507.939	83.12
508.155	86.12
508.372	89.12
508.588	85.12
508.805	86.12
509.021	87.12
509.238	71.12
509.454	88.12
509.67	82.12
509.887	79.12
510.103	80.12
510.319	85.12
510.536	83.12
510.752	79.12
510.968	84.12
511.184	95.12
511.401	77.12
511.617	78.12
511.833	76.12
512.049	94.12
512.265	71.12
512.481	89.12
512.698	77.12
512.914	72.12
513.13	95.12
513.346	76.12
513.562	82.12
513.778	79.12
513.994	79.12
514.21	84.12
514.426	78.12
514.642	77.12
514.858	88.12
515.074	100.12
515.29	82.12
515.506	93.12
515.721	81.12
515.937	72.12
516.153	83.12
516.369	83.12
516.585	91.12
516.801	80.12
517.016	81.12
517.232	100.12
517.448	104.12
517.664	82.12
517.879	83.12
518.095	102.12
518.311	83.12
518.527	98.12
518.742	97.12
518.958	91.12
519.173	103.12
