Data from 15780_2_HRD10591_00018.txt Node
Date: Mon Jan 19 14:19:12 EST 2026
User: Yrep
Spectrometer: HR+D1059
Trigger mode: 1
Integration Time (sec): 1.000000E-1
Scans to average: 1
Electric dark correction enabled: true
Nonlinearity correction enabled: false
Boxcar width: 0
XAxis mode: Wavelengths
Number of Pixels in Spectrum: 2048
>>>>>Begin Spectral Data<<<<<
223.165	-19.19
223.4	-19.19
223.635	-19.19
223.869	-24.19
224.104	-24.19
224.338	-14.19
224.573	-9.19
224.808	-14.19
225.042	-18.19
225.277	16.81
225.511	-1.19
225.746	11.81
225.98	7.81
226.215	9.81
226.449	10.81
226.683	21.81
226.918	13.81
227.152	31.81
227.387	37.81
227.621	39.81
227.856	46.81
228.09	52.81
228.324	55.81
228.559	58.81
228.793	54.81
229.027	61.81
229.262	61.81
229.496	72.81
229.73	65.81
229.964	57.81
230.199	68.81
230.433	81.81
230.667	73.81
230.901	83.81
231.136	71.81
231.37	90.81
231.604	86.81
231.838	72.81
232.072	74.81
232.306	75.81
232.541	79.81
232.775	76.81
233.009	79.81
233.243	86.81
233.477	67.81
233.711	62.81
233.945	79.81
234.179	84.81
234.413	83.81
234.647	93.81
234.881	93.81
235.115	77.81
235.349	81.81
235.583	80.81
235.817	71.81
236.051	75.81
236.285	77.81
236.519	76.81
236.753	63.81
236.987	85.81
237.221	83.81
237.455	72.81
237.689	64.81
237.922	83.81
238.156	85.81
238.39	92.81
238.624	76.81
238.858	71.81
239.091	69.81
239.325	70.81
239.559	87.81
239.793	82.81
240.027	79.81
240.26	72.81
240.494	71.81
240.728	60.81
240.961	81.81
241.195	73.81
241.429	79.81
241.662	95.81
241.896	62.81
242.13	67.81
242.363	71.81
242.597	75.81
242.83	62.81
243.064	75.81
243.298	75.81
243.531	73.81
243.765	73.81
243.998	74.81
244.232	73.81
244.465	65.81
244.699	72.81
244.932	79.81
245.166	67.81
245.399	70.81
245.633	65.81
245.866	75.81
246.099	70.81
246.333	65.81
246.566	95.81
246.8	79.81
247.033	82.81
247.266	90.81
247.5	89.81
247.733	71.81
247.966	80.81
248.2	81.81
248.433	90.81
248.666	87.81
248.899	83.81
249.133	83.81
249.366	75.81
249.599	83.81
249.832	69.81
250.066	74.81
250.299	64.81
250.532	85.81
250.765	76.81
250.998	82.81
251.231	67.81
251.465	74.81
251.698	91.81
251.931	71.81
252.164	73.81
252.397	71.81
252.63	96.81
252.863	74.81
253.096	81.81
253.329	77.81
253.562	75.81
253.795	77.81
254.028	76.81
254.261	71.81
254.494	77.81
254.727	86.81
254.96	83.81
255.193	67.81
255.426	76.81
255.659	73.81
255.892	85.81
256.124	70.81
256.357	93.81
256.59	79.81
256.823	85.81
257.056	87.81
257.289	78.81
257.521	81.81
257.754	84.81
257.987	79.81
258.22	83.81
258.452	97.81
258.685	76.81
258.918	87.81
259.151	85.81
259.383	83.81
259.616	83.81
259.849	63.81
260.081	93.81
260.314	82.81
260.547	70.81
260.779	90.81
261.012	81.81
261.244	79.81
261.477	80.81
261.71	83.81
261.942	69.81
262.175	86.81
262.407	73.81
262.64	75.81
262.872	70.81
263.105	88.81
263.337	85.81
263.57	81.81
263.802	68.81
264.035	73.81
264.267	89.81
264.499	83.81
264.732	83.81
264.964	75.81
265.197	86.81
265.429	85.81
265.661	73.81
265.894	88.81
266.126	65.81
266.358	71.81
266.591	76.81
266.823	79.81
267.055	79.81
267.287	74.81
267.52	70.81
267.752	83.81
267.984	82.81
268.216	63.81
268.448	77.81
268.681	82.81
268.913	93.81
269.145	83.81
269.377	83.81
269.609	79.81
269.841	86.81
270.073	75.81
270.306	82.81
270.538	99.81
270.77	73.81
271.002	83.81
271.234	79.81
271.466	94.81
271.698	95.81
271.93	79.81
272.162	82.81
272.394	84.81
272.626	70.81
272.858	74.81
273.09	81.81
273.322	86.81
273.553	81.81
273.785	83.81
274.017	80.81
274.249	82.81
274.481	79.81
274.713	91.81
274.945	89.81
275.176	88.81
275.408	76.81
275.64	91.81
275.872	84.81
276.104	79.81
276.335	71.81
276.567	72.81
276.799	85.81
277.031	67.81
277.262	100.81
277.494	77.81
277.726	74.81
277.957	78.81
278.189	93.81
278.421	72.81
278.652	81.81
278.884	93.81
279.115	81.81
279.347	81.81
279.579	78.81
279.81	79.81
280.042	82.81
280.273	82.81
280.505	78.81
280.736	84.81
280.968	94.81
281.199	85.81
281.431	86.81
281.662	80.81
281.894	86.81
282.125	81.81
282.356	95.81
282.588	88.81
282.819	80.81
283.051	73.81
283.282	83.81
283.513	74.81
283.745	83.81
283.976	77.81
284.207	94.81
284.439	66.81
284.67	84.81
284.901	72.81
285.132	81.81
285.364	72.81
285.595	74.81
285.826	75.81
286.057	73.81
286.288	86.81
286.52	83.81
286.751	83.81
286.982	83.81
287.213	81.81
287.444	93.81
287.675	79.81
287.906	87.81
288.138	82.81
288.369	91.81
288.6	95.81
288.831	102.81
289.062	81.81
289.293	80.81
289.524	86.81
289.755	95.81
289.986	78.81
290.217	73.81
290.448	87.81
290.679	63.81
290.91	93.81
291.141	88.81
291.371	90.81
291.602	65.81
291.833	81.81
292.064	83.81
292.295	72.81
292.526	67.81
292.757	87.81
292.987	75.81
293.218	79.81
293.449	81.81
293.68	73.81
293.91	89.81
294.141	84.81
294.372	74.81
294.603	87.81
294.833	85.81
295.064	93.81
295.295	88.81
295.525	84.81
295.756	69.81
295.987	81.81
296.217	81.81
296.448	88.81
296.679	81.81
296.909	87.81
297.14	73.81
297.37	94.81
297.601	94.81
297.831	85.81
298.062	83.81
298.292	87.81
298.523	83.81
298.753	87.81
298.984	84.81
299.214	81.81
299.445	80.81
299.675	75.81
299.905	77.81
300.136	88.81
300.366	79.81
300.597	89.81
300.827	83.81
301.057	79.81
301.288	87.81
301.518	89.81
301.748	77.81
301.979	105.81
302.209	96.81
302.439	70.81
302.669	73.81
302.9	88.81
303.13	75.81
303.36	79.81
303.59	81.81
303.82	75.81
304.051	79.81
304.281	71.81
304.511	88.81
304.741	82.81
304.971	78.81
305.201	81.81
305.431	87.81
305.661	100.81
305.891	81.81
306.121	80.81
306.352	90.81
306.582	80.81
306.812	92.81
307.042	92.81
307.272	95.81
307.502	86.81
307.731	70.81
307.961	81.81
308.191	104.81
308.421	89.81
308.651	80.81
308.881	83.81
309.111	86.81
309.341	74.81
309.571	79.81
309.8	89.81
310.03	91.81
310.26	87.81
310.49	83.81
310.72	90.81
310.949	83.81
311.179	90.81
311.409	73.81
311.639	89.81
311.868	94.81
312.098	85.81
312.328	78.81
312.557	89.81
312.787	73.81
313.017	80.81
313.246	99.81
313.476	78.81
313.706	87.81
313.935	97.81
314.165	73.81
314.394	93.81
314.624	83.81
314.853	88.81
315.083	85.81
315.312	93.81
315.542	83.81
315.771	91.81
316.001	92.81
316.23	81.81
316.46	83.81
316.689	93.81
316.919	75.81
317.148	79.81
317.377	97.81
317.607	89.81
317.836	84.81
318.065	93.81
318.295	91.81
318.524	76.81
318.753	75.81
318.983	73.81
319.212	74.81
319.441	80.81
319.67	87.81
319.9	79.81
320.129	78.81
320.358	76.81
320.587	78.81
320.816	78.81
321.046	76.81
321.275	80.81
321.504	76.81
321.733	85.81
321.962	82.81
322.191	71.81
322.42	86.81
322.649	79.81
322.878	83.81
323.108	81.81
323.337	82.81
323.566	81.81
323.795	87.81
324.024	86.81
324.253	82.81
324.482	83.81
324.71	102.81
324.939	86.81
325.168	81.81
325.397	61.81
325.626	69.81
325.855	62.81
326.084	69.81
326.313	78.81
326.542	77.81
326.77	82.81
326.999	86.81
327.228	95.81
327.457	85.81
327.686	79.81
327.914	75.81
328.143	86.81
328.372	85.81
328.6	81.81
328.829	79.81
329.058	82.81
329.287	79.81
329.515	80.81
329.744	87.81
329.972	88.81
330.201	87.81
330.43	93.81
330.658	98.81
330.887	85.81
331.115	61.81
331.344	76.81
331.572	78.81
331.801	96.81
332.03	79.81
332.258	81.81
332.486	97.81
332.715	82.81
332.943	77.81
333.172	84.81
333.4	76.81
333.629	81.81
333.857	79.81
334.085	80.81
334.314	77.81
334.542	71.81
334.771	87.81
334.999	90.81
335.227	78.81
335.455	75.81
335.684	87.81
335.912	85.81
336.14	83.81
336.369	74.81
336.597	91.81
336.825	67.81
337.053	83.81
337.281	102.81
337.51	89.81
337.738	79.81
337.966	87.81
338.194	69.81
338.422	87.81
338.65	83.81
338.878	87.81
339.106	83.81
339.334	83.81
339.562	88.81
339.79	90.81
340.018	95.81
340.246	82.81
340.474	86.81
340.702	85.81
340.93	80.81
341.158	81.81
341.386	83.81
341.614	79.81
341.842	80.81
342.07	79.81
342.298	83.81
342.526	85.81
342.754	76.81
342.981	82.81
343.209	79.81
343.437	111.81
343.665	86.81
343.893	71.81
344.12	101.81
344.348	83.81
344.576	85.81
344.804	84.81
345.031	89.81
345.259	84.81
345.487	79.81
345.714	77.81
345.942	79.81
346.17	91.81
346.397	71.81
346.625	76.81
346.853	74.81
347.08	82.81
347.308	78.81
347.535	93.81
347.763	74.81
347.99	83.81
348.218	84.81
348.445	77.81
348.673	74.81
348.9	85.81
349.128	94.81
349.355	83.81
349.583	90.81
349.81	87.81
350.037	77.81
350.265	69.81
350.492	76.81
350.72	78.81
350.947	80.81
351.174	83.81
351.402	70.81
351.629	68.81
351.856	83.81
352.083	79.81
352.311	91.81
352.538	76.81
352.765	87.81
352.992	79.81
353.22	89.81
353.447	88.81
353.674	81.81
353.901	70.81
354.128	81.81
354.355	72.81
354.583	79.81
354.81	98.81
355.037	89.81
355.264	85.81
355.491	77.81
355.718	79.81
355.945	73.81
356.172	99.81
356.399	83.81
356.626	93.81
356.853	85.81
357.08	98.81
357.307	109.81
357.534	97.81
357.761	89.81
357.988	90.81
358.215	98.81
358.441	79.81
358.668	81.81
358.895	84.81
359.122	104.81
359.349	84.81
359.576	74.81
359.802	81.81
360.029	82.81
360.256	94.81
360.483	74.81
360.709	94.81
360.936	82.81
361.163	75.81
361.39	88.81
361.616	79.81
361.843	86.81
362.07	94.81
362.296	92.81
362.523	93.81
362.749	90.81
362.976	64.81
363.203	83.81
363.429	83.81
363.656	91.81
363.882	83.81
364.109	111.81
364.335	85.81
364.562	89.81
364.788	103.81
365.015	79.81
365.241	77.81
365.468	76.81
365.694	86.81
365.92	75.81
366.147	89.81
366.373	73.81
366.599	77.81
366.826	87.81
367.052	89.81
367.278	79.81
367.505	79.81
367.731	85.81
367.957	81.81
368.184	77.81
368.41	89.81
368.636	85.81
368.862	84.81
369.089	79.81
369.315	81.81
369.541	83.81
369.767	79.81
369.993	91.81
370.219	83.81
370.445	87.81
370.672	94.81
370.898	93.81
371.124	81.81
371.35	76.81
371.576	84.81
371.802	88.81
372.028	88.81
372.254	84.81
372.48	82.81
372.706	87.81
372.932	87.81
373.158	96.81
373.384	97.81
373.61	109.81
373.835	97.81
374.061	90.81
374.287	85.81
374.513	93.81
374.739	74.81
374.965	95.81
375.191	93.81
375.416	82.81
375.642	85.81
375.868	85.81
376.094	83.81
376.319	99.81
376.545	69.81
376.771	86.81
376.997	70.81
377.222	89.81
377.448	86.81
377.674	85.81
377.899	87.81
378.125	91.81
378.35	86.81
378.576	79.81
378.802	87.81
379.027	98.81
379.253	84.81
379.478	82.81
379.704	76.81
379.929	75.81
380.155	83.81
380.38	88.81
380.606	82.81
380.831	80.81
381.057	96.81
381.282	74.81
381.507	83.81
381.733	85.81
381.958	87.81
382.184	91.81
382.409	93.81
382.634	86.81
382.86	89.81
383.085	90.81
383.31	87.81
383.535	93.81
383.761	90.81
383.986	95.81
384.211	89.81
384.436	81.81
384.662	80.81
384.887	76.81
385.112	71.81
385.337	74.81
385.562	82.81
385.787	88.81
386.013	76.81
386.238	84.81
386.463	90.81
386.688	83.81
386.913	88.81
387.138	96.81
387.363	92.81
387.588	89.81
387.813	97.81
388.038	84.81
388.263	91.81
388.488	81.81
388.713	85.81
388.938	110.81
389.163	87.81
389.387	84.81
389.612	78.81
389.837	88.81
390.062	93.81
390.287	79.81
390.512	83.81
390.736	81.81
390.961	88.81
391.186	86.81
391.411	73.81
391.636	74.81
391.86	76.81
392.085	85.81
392.31	95.81
392.534	85.81
392.759	93.81
392.984	109.81
393.208	183.81
393.433	225.81
393.658	182.81
393.882	93.81
394.107	83.81
394.331	93.81
394.556	96.81
394.78	92.81
395.005	95.81
395.229	82.81
395.454	80.81
395.678	69.81
395.903	81.81
396.127	121.81
396.352	135.81
396.576	127.81
396.801	194.81
397.025	182.81
397.249	118.81
397.474	103.81
397.698	84.81
397.922	69.81
398.147	83.81
398.371	80.81
398.595	83.81
398.82	74.81
399.044	90.81
399.268	81.81
399.492	88.81
399.717	80.81
399.941	74.81
400.165	77.81
400.389	82.81
400.613	98.81
400.837	89.81
401.062	79.81
401.286	69.81
401.51	75.81
401.734	84.81
401.958	74.81
402.182	88.81
402.406	66.81
402.63	73.81
402.854	80.81
403.078	88.81
403.302	87.81
403.526	81.81
403.75	81.81
403.974	76.81
404.198	78.81
404.422	93.81
404.645	87.81
404.869	80.81
405.093	74.81
405.317	74.81
405.541	81.81
405.765	68.81
405.988	75.81
406.212	86.81
406.436	87.81
406.66	91.81
406.883	81.81
407.107	76.81
407.331	75.81
407.555	92.81
407.778	87.81
408.002	85.81
408.226	75.81
408.449	87.81
408.673	79.81
408.896	88.81
409.12	80.81
409.344	85.81
409.567	75.81
409.791	85.81
410.014	91.81
410.238	85.81
410.461	87.81
410.685	84.81
410.908	91.81
411.132	88.81
411.355	92.81
411.578	109.81
411.802	81.81
412.025	87.81
412.249	83.81
412.472	89.81
412.695	85.81
412.919	75.81
413.142	74.81
413.365	81.81
413.589	81.81
413.812	84.81
414.035	73.81
414.258	83.81
414.482	80.81
414.705	69.81
414.928	81.81
415.151	83.81
415.374	75.81
415.597	83.81
415.821	75.81
416.044	76.81
416.267	81.81
416.49	71.81
416.713	74.81
416.936	76.81
417.159	85.81
417.382	70.81
417.605	62.81
417.828	69.81
418.051	74.81
418.274	79.81
418.497	93.81
418.72	83.81
418.943	80.81
419.166	83.81
419.389	80.81
419.611	84.81
419.834	74.81
420.057	73.81
420.28	81.81
420.503	85.81
420.726	76.81
420.948	96.81
421.171	80.81
421.394	85.81
421.617	101.81
421.839	96.81
422.062	96.81
422.285	113.81
422.507	177.81
422.73	271.81
422.953	254.81
423.175	134.81
423.398	81.81
423.621	85.81
423.843	86.81
424.066	89.81
424.288	89.81
424.511	87.81
424.733	87.81
424.956	75.81
425.178	69.81
425.401	87.81
425.623	78.81
425.846	89.81
426.068	87.81
426.291	85.81
426.513	75.81
426.735	80.81
426.958	94.81
427.18	98.81
427.402	80.81
427.625	75.81
427.847	87.81
428.069	90.81
428.292	102.81
428.514	104.81
428.736	83.81
428.958	105.81
429.181	91.81
429.403	81.81
429.625	86.81
429.847	94.81
430.069	109.81
430.292	129.81
430.514	112.81
430.736	95.81
430.958	104.81
431.18	114.81
431.402	73.81
431.624	76.81
431.846	101.81
432.068	102.81
432.29	74.81
432.512	81.81
432.734	78.81
432.956	69.81
433.178	86.81
433.4	72.81
433.622	77.81
433.844	65.81
434.066	90.81
434.287	80.81
434.509	88.81
434.731	84.81
434.953	74.81
435.175	86.81
435.397	77.81
435.618	97.81
435.84	83.81
436.062	79.81
436.284	81.81
436.505	74.81
436.727	79.81
436.949	81.81
437.17	77.81
437.392	67.81
437.614	75.81
437.835	87.81
438.057	82.81
438.278	87.81
438.5	81.81
438.721	85.81
438.943	79.81
439.165	84.81
439.386	71.81
439.608	87.81
439.829	79.81
440.05	87.81
440.272	80.81
440.493	83.81
440.715	80.81
440.936	74.81
441.158	73.81
441.379	70.81
441.6	84.81
441.822	89.81
442.043	81.81
442.264	98.81
442.486	90.81
442.707	115.81
442.928	103.81
443.149	83.81
443.371	105.81
443.592	157.81
443.813	121.81
444.034	87.81
444.255	81.81
444.476	82.81
444.698	89.81
444.919	84.81
445.14	184.81
445.361	169.81
445.582	174.81
445.803	143.81
446.024	100.81
446.245	85.81
446.466	69.81
446.687	81.81
446.908	75.81
447.129	93.81
447.35	83.81
447.571	86.81
447.792	87.81
448.013	74.81
448.234	85.81
448.455	75.81
448.675	81.81
448.896	82.81
449.117	71.81
449.338	75.81
449.559	85.81
449.779	69.81
450	73.81
450.221	74.81
450.442	76.81
450.662	84.81
450.883	75.81
451.104	96.81
451.324	81.81
451.545	83.81
451.766	85.81
451.986	73.81
452.207	80.81
452.428	69.81
452.648	92.81
452.869	75.81
453.089	85.81
453.31	80.81
453.53	97.81
453.751	81.81
453.971	82.81
454.192	70.81
454.412	67.81
454.633	77.81
454.853	69.81
455.073	73.81
455.294	82.81
455.514	72.81
455.734	67.81
455.955	80.81
456.175	61.81
456.395	82.81
456.616	88.81
456.836	94.81
457.056	78.81
457.276	94.81
457.497	85.81
457.717	83.81
457.937	85.81
458.157	96.81
458.377	92.81
458.598	83.81
458.818	88.81
459.038	73.81
459.258	75.81
459.478	77.81
459.698	79.81
459.918	88.81
460.138	92.81
460.358	87.81
460.578	90.81
460.798	105.81
461.018	101.81
461.238	87.81
461.458	89.81
461.678	91.81
461.898	94.81
462.118	82.81
462.338	86.81
462.558	82.81
462.777	79.81
462.997	72.81
463.217	90.81
463.437	74.81
463.657	84.81
463.876	69.81
464.096	67.81
464.316	70.81
464.536	81.81
464.755	82.81
464.975	87.81
465.195	70.81
465.414	69.81
465.634	81.81
465.854	89.81
466.073	78.81
466.293	83.81
466.512	74.81
466.732	81.81
466.951	62.81
467.171	84.81
467.391	78.81
467.61	78.81
467.829	76.81
468.049	70.81
468.268	65.81
468.488	72.81
468.707	84.81
468.927	83.81
469.146	86.81
469.365	59.81
469.585	90.81
469.804	87.81
470.023	88.81
470.243	75.81
470.462	83.81
470.681	72.81
470.901	83.81
471.12	76.81
471.339	83.81
471.558	85.81
471.777	78.81
471.997	73.81
472.216	77.81
472.435	96.81
472.654	74.81
472.873	81.81
473.092	89.81
473.311	86.81
473.53	83.81
473.749	64.81
473.968	87.81
474.187	69.81
474.406	68.81
474.625	88.81
474.844	88.81
475.063	94.81
475.282	80.81
475.501	84.81
475.72	81.81
475.939	70.81
476.158	71.81
476.377	81.81
476.596	79.81
476.814	86.81
477.033	71.81
477.252	89.81
477.471	101.81
477.69	86.81
477.908	82.81
478.127	90.81
478.346	90.81
478.564	74.81
478.783	73.81
479.002	89.81
479.22	86.81
479.439	88.81
479.658	85.81
479.876	72.81
480.095	86.81
480.313	73.81
480.532	78.81
480.751	77.81
480.969	80.81
481.188	79.81
481.406	91.81
481.624	91.81
481.843	86.81
482.061	94.81
482.28	68.81
482.498	79.81
482.717	81.81
482.935	65.81
483.153	74.81
483.372	85.81
483.59	78.81
483.808	84.81
484.027	97.81
484.245	80.81
484.463	79.81
484.681	79.81
484.9	82.81
485.118	90.81
485.336	83.81
485.554	73.81
485.772	87.81
485.99	87.81
486.209	88.81
486.427	74.81
486.645	79.81
486.863	81.81
487.081	85.81
487.299	85.81
487.517	97.81
487.735	88.81
487.953	111.81
488.171	100.81
488.389	99.81
488.607	66.81
488.825	67.81
489.043	79.81
489.261	89.81
489.479	86.81
489.696	85.81
489.914	69.81
490.132	87.81
490.35	79.81
490.568	87.81
490.786	86.81
491.003	77.81
491.221	83.81
491.439	73.81
491.657	88.81
491.874	89.81
492.092	79.81
492.31	93.81
492.527	94.81
492.745	73.81
492.963	91.81
493.18	77.81
493.398	81.81
493.615	80.81
493.833	84.81
494.05	103.81
494.268	96.81
494.485	80.81
494.703	82.81
494.92	79.81
495.138	78.81
495.355	90.81
495.573	84.81
495.79	91.81
496.008	85.81
496.225	80.81
496.442	59.81
496.66	84.81
496.877	73.81
497.094	89.81
497.312	73.81
497.529	86.81
497.746	68.81
497.963	96.81
498.181	86.81
498.398	92.81
498.615	85.81
498.832	89.81
499.049	99.81
499.267	77.81
499.484	84.81
499.701	93.81
499.918	75.81
500.135	87.81
500.352	108.81
500.569	87.81
500.786	91.81
501.003	73.81
501.22	75.81
501.437	81.81
501.654	76.81
501.871	73.81
502.088	82.81
502.305	87.81
502.522	85.81
502.739	81.81
502.956	81.81
503.172	72.81
503.389	82.81
503.606	82.81
503.823	80.81
504.04	89.81
504.256	111.81
504.473	103.81
504.69	79.81
504.907	85.81
505.123	77.81
505.34	88.81
505.557	71.81
505.773	91.81
505.99	83.81
506.207	80.81
506.423	77.81
506.64	96.81
506.856	74.81
507.073	81.81
507.289	86.81
507.506	85.81
507.722	71.81
507.939	71.81
508.155	94.81
508.372	75.81
508.588	75.81
508.805	86.81
509.021	63.81
509.238	88.81
509.454	85.81
509.67	90.81
509.887	87.81
510.103	74.81
510.319	87.81
510.536	85.81
510.752	91.81
510.968	79.81
511.184	86.81
511.401	85.81
511.617	75.81
511.833	80.81
512.049	93.81
512.265	83.81
512.481	92.81
512.698	76.81
512.914	94.81
513.13	81.81
513.346	83.81
513.562	89.81
513.778	85.81
513.994	98.81
514.21	87.81
514.426	88.81
514.642	84.81
514.858	85.81
515.074	80.81
515.29	98.81
515.506	93.81
515.721	94.81
515.937	82.81
516.153	87.81
516.369	101.81
516.585	93.81
516.801	76.81
517.016	109.81
517.232	78.81
517.448	93.81
517.664	89.81
517.879	82.81
518.095	90.81
518.311	84.81
518.527	88.81
518.742	85.81
518.958	101.81
519.173	126.81
519.389	87.81
