Data from 15780_2_HRD10591_00008.txt Node
Date: Mon Jan 19 14:19:07 EST 2026
User: Yrep
Spectrometer: HR+D1059
Trigger mode: 1
Integration Time (sec): 1.000000E-1
Scans to average: 1
Electric dark correction enabled: true
Nonlinearity correction enabled: false
Boxcar width: 0
XAxis mode: Wavelengths
Number of Pixels in Spectrum: 2048
>>>>>Begin Spectral Data<<<<<
223.165	-18.38
223.4	-18.38
223.635	-18.38
223.869	-13.38
224.104	-21.38
224.338	-16.38
224.573	-20.38
224.808	-12.38
225.042	-27.38
225.277	-5.38
225.511	0.62
225.746	11.62
225.98	9.62
226.215	22.62
226.449	14.62
226.683	16.62
226.918	32.62
227.152	26.62
227.387	37.62
227.621	34.62
227.856	38.62
228.09	38.62
228.324	40.62
228.559	67.62
228.793	58.62
229.027	49.62
229.262	82.62
229.496	56.62
229.73	67.62
229.964	66.62
230.199	53.62
230.433	75.62
230.667	78.62
230.901	68.62
231.136	81.62
231.37	74.62
231.604	83.62
231.838	80.62
232.072	79.62
232.306	89.62
232.541	81.62
232.775	83.62
233.009	89.62
233.243	73.62
233.477	87.62
233.711	77.62
233.945	82.62
234.179	95.62
234.413	81.62
234.647	72.62
234.881	84.62
235.115	84.62
235.349	69.62
235.583	86.62
235.817	66.62
236.051	85.62
236.285	86.62
236.519	81.62
236.753	81.62
236.987	73.62
237.221	73.62
237.455	62.62
237.689	70.62
237.922	75.62
238.156	72.62
238.39	72.62
238.624	67.62
238.858	82.62
239.091	85.62
239.325	68.62
239.559	65.62
239.793	68.62
240.027	71.62
240.26	69.62
240.494	87.62
240.728	73.62
240.961	62.62
241.195	61.62
241.429	69.62
241.662	73.62
241.896	62.62
242.13	58.62
242.363	73.62
242.597	80.62
242.83	78.62
243.064	80.62
243.298	83.62
243.531	72.62
243.765	74.62
243.998	72.62
244.232	94.62
244.465	69.62
244.699	71.62
244.932	82.62
245.166	76.62
245.399	93.62
245.633	89.62
245.866	62.62
246.099	68.62
246.333	76.62
246.566	72.62
246.8	90.62
247.033	76.62
247.266	77.62
247.5	83.62
247.733	76.62
247.966	73.62
248.2	65.62
248.433	80.62
248.666	66.62
248.899	69.62
249.133	67.62
249.366	87.62
249.599	76.62
249.832	70.62
250.066	81.62
250.299	82.62
250.532	90.62
250.765	70.62
250.998	80.62
251.231	79.62
251.465	66.62
251.698	78.62
251.931	74.62
252.164	77.62
252.397	74.62
252.63	74.62
252.863	76.62
253.096	65.62
253.329	87.62
253.562	73.62
253.795	76.62
254.028	88.62
254.261	85.62
254.494	89.62
254.727	76.62
254.96	82.62
255.193	75.62
255.426	69.62
255.659	62.62
255.892	72.62
256.124	81.62
256.357	77.62
256.59	79.62
256.823	77.62
257.056	71.62
257.289	81.62
257.521	63.62
257.754	81.62
257.987	87.62
258.22	61.62
258.452	82.62
258.685	77.62
258.918	69.62
259.151	71.62
259.383	74.62
259.616	68.62
259.849	78.62
260.081	76.62
260.314	73.62
260.547	75.62
260.779	94.62
261.012	65.62
261.244	75.62
261.477	76.62
261.71	94.62
261.942	86.62
262.175	83.62
262.407	74.62
262.64	65.62
262.872	80.62
263.105	68.62
263.337	86.62
263.57	97.62
263.802	85.62
264.035	80.62
264.267	81.62
264.499	68.62
264.732	85.62
264.964	89.62
265.197	77.62
265.429	98.62
265.661	74.62
265.894	74.62
266.126	76.62
266.358	80.62
266.591	80.62
266.823	94.62
267.055	78.62
267.287	92.62
267.52	82.62
267.752	93.62
267.984	82.62
268.216	73.62
268.448	72.62
268.681	76.62
268.913	98.62
269.145	79.62
269.377	59.62
269.609	72.62
269.841	75.62
270.073	84.62
270.306	81.62
270.538	63.62
270.77	89.62
271.002	74.62
271.234	88.62
271.466	83.62
271.698	85.62
271.93	81.62
272.162	87.62
272.394	91.62
272.626	79.62
272.858	71.62
273.09	80.62
273.322	81.62
273.553	78.62
273.785	87.62
274.017	73.62
274.249	80.62
274.481	75.62
274.713	90.62
274.945	89.62
275.176	95.62
275.408	87.62
275.64	102.62
275.872	89.62
276.104	81.62
276.335	74.62
276.567	72.62
276.799	88.62
277.031	71.62
277.262	78.62
277.494	77.62
277.726	79.62
277.957	66.62
278.189	68.62
278.421	81.62
278.652	70.62
278.884	84.62
279.115	90.62
279.347	84.62
279.579	76.62
279.81	76.62
280.042	80.62
280.273	74.62
280.505	84.62
280.736	75.62
280.968	75.62
281.199	92.62
281.431	71.62
281.662	81.62
281.894	81.62
282.125	85.62
282.356	84.62
282.588	80.62
282.819	78.62
283.051	78.62
283.282	69.62
283.513	69.62
283.745	71.62
283.976	93.62
284.207	79.62
284.439	78.62
284.67	73.62
284.901	72.62
285.132	81.62
285.364	71.62
285.595	79.62
285.826	82.62
286.057	70.62
286.288	94.62
286.52	85.62
286.751	80.62
286.982	90.62
287.213	68.62
287.444	87.62
287.675	79.62
287.906	93.62
288.138	81.62
288.369	63.62
288.6	77.62
288.831	84.62
289.062	87.62
289.293	74.62
289.524	77.62
289.755	88.62
289.986	71.62
290.217	94.62
290.448	72.62
290.679	69.62
290.91	89.62
291.141	85.62
291.371	81.62
291.602	81.62
291.833	79.62
292.064	81.62
292.295	90.62
292.526	84.62
292.757	88.62
292.987	73.62
293.218	86.62
293.449	89.62
293.68	75.62
293.91	71.62
294.141	81.62
294.372	75.62
294.603	85.62
294.833	82.62
295.064	98.62
295.295	94.62
295.525	80.62
295.756	97.62
295.987	73.62
296.217	81.62
296.448	81.62
296.679	76.62
296.909	65.62
297.14	85.62
297.37	82.62
297.601	79.62
297.831	95.62
298.062	85.62
298.292	83.62
298.523	81.62
298.753	69.62
298.984	74.62
299.214	86.62
299.445	77.62
299.675	89.62
299.905	85.62
300.136	74.62
300.366	76.62
300.597	85.62
300.827	66.62
301.057	73.62
301.288	75.62
301.518	76.62
301.748	76.62
301.979	104.62
302.209	79.62
302.439	75.62
302.669	81.62
302.9	90.62
303.13	81.62
303.36	84.62
303.59	91.62
303.82	76.62
304.051	84.62
304.281	94.62
304.511	95.62
304.741	91.62
304.971	81.62
305.201	82.62
305.431	92.62
305.661	75.62
305.891	80.62
306.121	82.62
306.352	82.62
306.582	70.62
306.812	88.62
307.042	90.62
307.272	86.62
307.502	83.62
307.731	67.62
307.961	98.62
308.191	70.62
308.421	93.62
308.651	83.62
308.881	76.62
309.111	83.62
309.341	89.62
309.571	90.62
309.8	82.62
310.03	82.62
310.26	82.62
310.49	80.62
310.72	76.62
310.949	77.62
311.179	71.62
311.409	88.62
311.639	73.62
311.868	88.62
312.098	90.62
312.328	75.62
312.557	86.62
312.787	82.62
313.017	83.62
313.246	72.62
313.476	82.62
313.706	83.62
313.935	77.62
314.165	71.62
314.394	80.62
314.624	83.62
314.853	82.62
315.083	89.62
315.312	89.62
315.542	71.62
315.771	68.62
316.001	91.62
316.23	87.62
316.46	103.62
316.689	89.62
316.919	83.62
317.148	75.62
317.377	86.62
317.607	79.62
317.836	86.62
318.065	81.62
318.295	83.62
318.524	78.62
318.753	82.62
318.983	85.62
319.212	86.62
319.441	80.62
319.67	75.62
319.9	74.62
320.129	67.62
320.358	85.62
320.587	75.62
320.816	83.62
321.046	70.62
321.275	81.62
321.504	81.62
321.733	83.62
321.962	89.62
322.191	85.62
322.42	70.62
322.649	75.62
322.878	86.62
323.108	93.62
323.337	81.62
323.566	84.62
323.795	85.62
324.024	96.62
324.253	81.62
324.482	85.62
324.71	92.62
324.939	83.62
325.168	86.62
325.397	78.62
325.626	73.62
325.855	83.62
326.084	79.62
326.313	74.62
326.542	98.62
326.77	90.62
326.999	82.62
327.228	81.62
327.457	73.62
327.686	80.62
327.914	87.62
328.143	96.62
328.372	93.62
328.6	74.62
328.829	88.62
329.058	89.62
329.287	98.62
329.515	82.62
329.744	78.62
329.972	97.62
330.201	88.62
330.43	84.62
330.658	95.62
330.887	77.62
331.115	82.62
331.344	65.62
331.572	84.62
331.801	79.62
332.03	84.62
332.258	84.62
332.486	89.62
332.715	93.62
332.943	83.62
333.172	79.62
333.4	78.62
333.629	87.62
333.857	100.62
334.085	80.62
334.314	85.62
334.542	71.62
334.771	79.62
334.999	79.62
335.227	80.62
335.455	75.62
335.684	90.62
335.912	89.62
336.14	98.62
336.369	87.62
336.597	86.62
336.825	100.62
337.053	77.62
337.281	81.62
337.51	78.62
337.738	82.62
337.966	64.62
338.194	86.62
338.422	81.62
338.65	84.62
338.878	91.62
339.106	72.62
339.334	88.62
339.562	78.62
339.79	90.62
340.018	69.62
340.246	69.62
340.474	79.62
340.702	88.62
340.93	83.62
341.158	81.62
341.386	76.62
341.614	87.62
341.842	88.62
342.07	91.62
342.298	81.62
342.526	82.62
342.754	75.62
342.981	71.62
343.209	83.62
343.437	87.62
343.665	75.62
343.893	84.62
344.12	98.62
344.348	80.62
344.576	81.62
344.804	76.62
345.031	85.62
345.259	91.62
345.487	83.62
345.714	83.62
345.942	81.62
346.17	70.62
346.397	81.62
346.625	81.62
346.853	86.62
347.08	79.62
347.308	79.62
347.535	94.62
347.763	81.62
347.99	67.62
348.218	90.62
348.445	75.62
348.673	78.62
348.9	90.62
349.128	90.62
349.355	84.62
349.583	75.62
349.81	86.62
350.037	76.62
350.265	85.62
350.492	78.62
350.72	79.62
350.947	70.62
351.174	83.62
351.402	76.62
351.629	81.62
351.856	82.62
352.083	87.62
352.311	80.62
352.538	79.62
352.765	74.62
352.992	83.62
353.22	88.62
353.447	81.62
353.674	74.62
353.901	89.62
354.128	86.62
354.355	91.62
354.583	87.62
354.81	89.62
355.037	80.62
355.264	75.62
355.491	77.62
355.718	69.62
355.945	90.62
356.172	79.62
356.399	73.62
356.626	79.62
356.853	70.62
357.08	79.62
357.307	91.62
357.534	72.62
357.761	82.62
357.988	87.62
358.215	79.62
358.441	80.62
358.668	94.62
358.895	82.62
359.122	74.62
359.349	75.62
359.576	83.62
359.802	86.62
360.029	78.62
360.256	91.62
360.483	64.62
360.709	94.62
360.936	78.62
361.163	103.62
361.39	89.62
361.616	81.62
361.843	75.62
362.07	74.62
362.296	85.62
362.523	93.62
362.749	64.62
362.976	104.62
363.203	76.62
363.429	97.62
363.656	74.62
363.882	73.62
364.109	95.62
364.335	88.62
364.562	85.62
364.788	78.62
365.015	84.62
365.241	87.62
365.468	69.62
365.694	83.62
365.92	81.62
366.147	82.62
366.373	74.62
366.599	80.62
366.826	88.62
367.052	90.62
367.278	78.62
367.505	59.62
367.731	80.62
367.957	85.62
368.184	76.62
368.41	82.62
368.636	90.62
368.862	91.62
369.089	83.62
369.315	84.62
369.541	82.62
369.767	97.62
369.993	82.62
370.219	73.62
370.445	75.62
370.672	69.62
370.898	76.62
371.124	73.62
371.35	79.62
371.576	94.62
371.802	75.62
372.028	85.62
372.254	76.62
372.48	83.62
372.706	93.62
372.932	92.62
373.158	78.62
373.384	99.62
373.61	87.62
373.835	75.62
374.061	73.62
374.287	73.62
374.513	88.62
374.739	98.62
374.965	101.62
375.191	89.62
375.416	76.62
375.642	71.62
375.868	85.62
376.094	84.62
376.319	74.62
376.545	76.62
376.771	87.62
376.997	72.62
377.222	70.62
377.448	86.62
377.674	76.62
377.899	92.62
378.125	61.62
378.35	77.62
378.576	70.62
378.802	72.62
379.027	68.62
379.253	84.62
379.478	83.62
379.704	71.62
379.929	97.62
380.155	84.62
380.38	81.62
380.606	73.62
380.831	77.62
381.057	71.62
381.282	67.62
381.507	89.62
381.733	81.62
381.958	80.62
382.184	83.62
382.409	72.62
382.634	85.62
382.86	77.62
383.085	93.62
383.31	86.62
383.535	87.62
383.761	97.62
383.986	86.62
384.211	77.62
384.436	78.62
384.662	73.62
384.887	86.62
385.112	90.62
385.337	86.62
385.562	78.62
385.787	79.62
386.013	90.62
386.238	86.62
386.463	75.62
386.688	102.62
386.913	83.62
387.138	74.62
387.363	82.62
387.588	89.62
387.813	84.62
388.038	83.62
388.263	87.62
388.488	81.62
388.713	93.62
388.938	95.62
389.163	90.62
389.387	81.62
389.612	80.62
389.837	81.62
390.062	85.62
390.287	81.62
390.512	83.62
390.736	79.62
390.961	76.62
391.186	70.62
391.411	79.62
391.636	88.62
391.86	69.62
392.085	95.62
392.31	73.62
392.534	86.62
392.759	87.62
392.984	98.62
393.208	133.62
393.433	149.62
393.658	122.62
393.882	108.62
394.107	89.62
394.331	93.62
394.556	89.62
394.78	97.62
395.005	79.62
395.229	79.62
395.454	72.62
395.678	90.62
395.903	99.62
396.127	103.62
396.352	112.62
396.576	106.62
396.801	133.62
397.025	141.62
397.249	101.62
397.474	76.62
397.698	79.62
397.922	77.62
398.147	88.62
398.371	73.62
398.595	75.62
398.82	85.62
399.044	83.62
399.268	73.62
399.492	70.62
399.717	76.62
399.941	82.62
400.165	77.62
400.389	81.62
400.613	78.62
400.837	93.62
401.062	75.62
401.286	74.62
401.51	84.62
401.734	74.62
401.958	82.62
402.182	68.62
402.406	67.62
402.63	82.62
402.854	96.62
403.078	71.62
403.302	102.62
403.526	82.62
403.75	81.62
403.974	73.62
404.198	92.62
404.422	85.62
404.645	94.62
404.869	79.62
405.093	70.62
405.317	72.62
405.541	74.62
405.765	81.62
405.988	73.62
406.212	88.62
406.436	85.62
406.66	72.62
406.883	95.62
407.107	88.62
407.331	94.62
407.555	83.62
407.778	91.62
408.002	96.62
408.226	82.62
408.449	97.62
408.673	94.62
408.896	80.62
409.12	72.62
409.344	88.62
409.567	79.62
409.791	92.62
410.014	87.62
410.238	76.62
410.461	78.62
410.685	72.62
410.908	81.62
411.132	88.62
411.355	81.62
411.578	89.62
411.802	75.62
412.025	73.62
412.249	87.62
412.472	78.62
412.695	78.62
412.919	69.62
413.142	73.62
413.365	76.62
413.589	61.62
413.812	83.62
414.035	81.62
414.258	78.62
414.482	71.62
414.705	94.62
414.928	78.62
415.151	83.62
415.374	70.62
415.597	85.62
415.821	69.62
416.044	82.62
416.267	90.62
416.49	77.62
416.713	70.62
416.936	75.62
417.159	90.62
417.382	80.62
417.605	70.62
417.828	86.62
418.051	82.62
418.274	82.62
418.497	87.62
418.72	84.62
418.943	86.62
419.166	80.62
419.389	80.62
419.611	82.62
419.834	91.62
420.057	71.62
420.28	82.62
420.503	82.62
420.726	81.62
420.948	70.62
421.171	93.62
421.394	83.62
421.617	87.62
421.839	89.62
422.062	99.62
422.285	110.62
422.507	133.62
422.73	175.62
422.953	148.62
423.175	122.62
423.398	88.62
423.621	83.62
423.843	82.62
424.066	82.62
424.288	80.62
424.511	86.62
424.733	87.62
424.956	67.62
425.178	86.62
425.401	94.62
425.623	88.62
425.846	73.62
426.068	89.62
426.291	76.62
426.513	85.62
426.735	85.62
426.958	86.62
427.18	95.62
427.402	95.62
427.625	61.62
427.847	74.62
428.069	79.62
428.292	94.62
428.514	85.62
428.736	81.62
428.958	90.62
429.181	88.62
429.403	88.62
429.625	84.62
429.847	73.62
430.069	98.62
430.292	120.62
430.514	94.62
430.736	103.62
430.958	105.62
431.18	81.62
431.402	82.62
431.624	83.62
431.846	91.62
432.068	86.62
432.29	89.62
432.512	90.62
432.734	94.62
432.956	93.62
433.178	91.62
433.4	80.62
433.622	81.62
433.844	70.62
434.066	80.62
434.287	74.62
434.509	90.62
434.731	85.62
434.953	75.62
435.175	79.62
435.397	67.62
435.618	75.62
435.84	96.62
436.062	81.62
436.284	72.62
436.505	72.62
436.727	80.62
436.949	78.62
437.17	81.62
437.392	86.62
437.614	79.62
437.835	78.62
438.057	70.62
438.278	85.62
438.5	77.62
438.721	71.62
438.943	87.62
439.165	79.62
439.386	80.62
439.608	75.62
439.829	87.62
440.05	81.62
440.272	74.62
440.493	88.62
440.715	75.62
440.936	71.62
441.158	83.62
441.379	93.62
441.6	76.62
441.822	93.62
442.043	77.62
442.264	85.62
442.486	105.62
442.707	115.62
442.928	104.62
443.149	81.62
443.371	96.62
443.592	94.62
443.813	124.62
444.034	93.62
444.255	67.62
444.476	67.62
444.698	91.62
444.919	81.62
445.14	169.62
445.361	131.62
445.582	137.62
445.803	127.62
446.024	89.62
446.245	74.62
446.466	84.62
446.687	83.62
446.908	96.62
447.129	86.62
447.35	91.62
447.571	85.62
447.792	69.62
448.013	87.62
448.234	73.62
448.455	88.62
448.675	89.62
448.896	75.62
449.117	93.62
449.338	80.62
449.559	77.62
449.779	81.62
450	67.62
450.221	73.62
450.442	82.62
450.662	73.62
450.883	75.62
451.104	80.62
451.324	83.62
451.545	71.62
451.766	90.62
451.986	65.62
452.207	81.62
452.428	82.62
452.648	89.62
452.869	89.62
453.089	87.62
453.31	78.62
453.53	79.62
453.751	97.62
453.971	84.62
454.192	75.62
454.412	86.62
454.633	84.62
454.853	83.62
455.073	81.62
455.294	76.62
455.514	86.62
455.734	74.62
455.955	95.62
456.175	79.62
456.395	90.62
456.616	69.62
456.836	86.62
457.056	73.62
457.276	87.62
457.497	69.62
457.717	91.62
457.937	82.62
458.157	78.62
458.377	91.62
458.598	86.62
458.818	90.62
459.038	84.62
459.258	90.62
459.478	82.62
459.698	75.62
459.918	71.62
460.138	75.62
460.358	80.62
460.578	89.62
460.798	92.62
461.018	103.62
461.238	96.62
461.458	93.62
461.678	80.62
461.898	86.62
462.118	87.62
462.338	91.62
462.558	85.62
462.777	87.62
462.997	82.62
463.217	76.62
463.437	82.62
463.657	84.62
463.876	85.62
464.096	83.62
464.316	73.62
464.536	86.62
464.755	82.62
464.975	83.62
465.195	74.62
465.414	91.62
465.634	96.62
465.854	70.62
466.073	80.62
466.293	89.62
466.512	75.62
466.732	86.62
466.951	81.62
467.171	70.62
467.391	74.62
467.61	81.62
467.829	81.62
468.049	82.62
468.268	80.62
468.488	83.62
468.707	81.62
468.927	83.62
469.146	87.62
469.365	85.62
469.585	81.62
469.804	65.62
470.023	66.62
470.243	87.62
470.462	85.62
470.681	81.62
470.901	84.62
471.12	77.62
471.339	80.62
471.558	87.62
471.777	70.62
471.997	90.62
472.216	87.62
472.435	83.62
472.654	75.62
472.873	85.62
473.092	83.62
473.311	78.62
473.53	87.62
473.749	91.62
473.968	89.62
474.187	80.62
474.406	88.62
474.625	76.62
474.844	73.62
475.063	71.62
475.282	81.62
475.501	90.62
475.72	89.62
475.939	103.62
476.158	99.62
476.377	97.62
476.596	85.62
476.814	78.62
477.033	81.62
477.252	79.62
477.471	87.62
477.69	70.62
477.908	85.62
478.127	85.62
478.346	82.62
478.564	91.62
478.783	75.62
479.002	71.62
479.22	88.62
479.439	81.62
479.658	89.62
479.876	69.62
480.095	86.62
480.313	83.62
480.532	95.62
480.751	100.62
480.969	79.62
481.188	82.62
481.406	63.62
481.624	79.62
481.843	81.62
482.061	87.62
482.28	79.62
482.498	96.62
482.717	83.62
482.935	79.62
483.153	87.62
483.372	94.62
483.59	87.62
483.808	78.62
484.027	78.62
484.245	87.62
484.463	94.62
484.681	79.62
484.9	86.62
485.118	100.62
485.336	79.62
485.554	81.62
485.772	84.62
485.99	93.62
486.209	94.62
486.427	84.62
486.645	87.62
486.863	79.62
487.081	71.62
487.299	77.62
487.517	87.62
487.735	96.62
487.953	110.62
488.171	100.62
488.389	92.62
488.607	86.62
488.825	75.62
489.043	74.62
489.261	79.62
489.479	86.62
489.696	87.62
489.914	87.62
490.132	87.62
490.35	75.62
490.568	85.62
490.786	83.62
491.003	97.62
491.221	87.62
491.439	94.62
491.657	97.62
491.874	91.62
492.092	77.62
492.31	89.62
492.527	96.62
492.745	86.62
492.963	75.62
493.18	78.62
493.398	94.62
493.615	89.62
493.833	81.62
494.05	88.62
494.268	87.62
494.485	84.62
494.703	70.62
494.92	83.62
495.138	89.62
495.355	92.62
495.573	82.62
495.79	78.62
496.008	81.62
496.225	67.62
496.442	83.62
496.66	90.62
496.877	81.62
497.094	90.62
497.312	95.62
497.529	97.62
497.746	92.62
497.963	84.62
498.181	85.62
498.398	89.62
498.615	81.62
498.832	85.62
499.049	92.62
499.267	102.62
499.484	82.62
499.701	94.62
499.918	83.62
500.135	91.62
500.352	76.62
500.569	86.62
500.786	81.62
501.003	92.62
501.22	94.62
501.437	79.62
501.654	74.62
501.871	81.62
502.088	91.62
502.305	89.62
502.522	99.62
502.739	83.62
502.956	100.62
503.172	83.62
503.389	89.62
503.606	81.62
503.823	74.62
504.04	99.62
504.256	91.62
504.473	100.62
504.69	80.62
504.907	91.62
505.123	84.62
505.34	82.62
505.557	89.62
505.773	85.62
505.99	93.62
506.207	82.62
506.423	82.62
506.64	98.62
506.856	79.62
507.073	83.62
507.289	82.62
507.506	86.62
507.722	66.62
507.939	85.62
508.155	89.62
508.372	86.62
508.588	84.62
508.805	99.62
509.021	88.62
509.238	93.62
509.454	70.62
509.67	77.62
509.887	84.62
510.103	83.62
510.319	93.62
510.536	90.62
510.752	89.62
510.968	98.62
511.184	91.62
511.401	86.62
511.617	91.62
511.833	84.62
512.049	76.62
512.265	83.62
512.481	93.62
512.698	88.62
512.914	89.62
513.13	97.62
513.346	94.62
513.562	75.62
513.778	81.62
513.994	87.62
514.21	80.62
514.426	87.62
514.642	77.62
514.858	87.62
515.074	88.62
515.29	83.62
515.506	83.62
515.721	88.62
515.937	97.62
516.153	79.62
516.369	71.62
516.585	82.62
516.801	83.62
517.016	91.62
517.232	92.62
517.448	82.62
517.664	72.62
517.879	82.62
518.095	68.62
518.311	93.62
518.527	93.62
518.742	90.62
518.958	99.62
519.173	101.62
519.389	68.62
519.605	86.62
