Data from 15780_2_HRD10591_00024.txt Node
Date: Mon Jan 19 14:19:15 EST 2026
User: Yrep
Spectrometer: HR+D1059
Trigger mode: 1
Integration Time (sec): 1.000000E-1
Scans to average: 1
Electric dark correction enabled: true
Nonlinearity correction enabled: false
Boxcar width: 0
XAxis mode: Wavelengths
Number of Pixels in Spectrum: 2048
>>>>>Begin Spectral Data<<<<<
223.165	-7.88
223.4	-7.88
223.635	-7.88
223.869	-18.88
224.104	-11.88
224.338	-8.88
224.573	-24.88
224.808	-20.88
225.042	-10.88
225.277	-10.88
225.511	0.12
225.746	7.12
225.98	6.12
226.215	17.12
226.449	23.12
226.683	20.12
226.918	11.12
227.152	30.12
227.387	40.12
227.621	43.12
227.856	41.12
228.09	54.12
228.324	57.12
228.559	61.12
228.793	53.12
229.027	63.12
229.262	65.12
229.496	67.12
229.73	83.12
229.964	92.12
230.199	71.12
230.433	61.12
230.667	80.12
230.901	76.12
231.136	85.12
231.37	81.12
231.604	73.12
231.838	77.12
232.072	88.12
232.306	76.12
232.541	73.12
232.775	92.12
233.009	81.12
233.243	91.12
233.477	76.12
233.711	88.12
233.945	86.12
234.179	101.12
234.413	75.12
234.647	85.12
234.881	77.12
235.115	80.12
235.349	78.12
235.583	65.12
235.817	76.12
236.051	80.12
236.285	88.12
236.519	78.12
236.753	77.12
236.987	77.12
237.221	85.12
237.455	69.12
237.689	69.12
237.922	85.12
238.156	75.12
238.39	89.12
238.624	75.12
238.858	88.12
239.091	70.12
239.325	70.12
239.559	68.12
239.793	78.12
240.027	78.12
240.26	71.12
240.494	75.12
240.728	76.12
240.961	81.12
241.195	79.12
241.429	93.12
241.662	87.12
241.896	73.12
242.13	75.12
242.363	80.12
242.597	72.12
242.83	79.12
243.064	73.12
243.298	95.12
243.531	80.12
243.765	67.12
243.998	75.12
244.232	87.12
244.465	83.12
244.699	74.12
244.932	78.12
245.166	84.12
245.399	82.12
245.633	73.12
245.866	81.12
246.099	63.12
246.333	79.12
246.566	76.12
246.8	82.12
247.033	68.12
247.266	70.12
247.5	80.12
247.733	75.12
247.966	67.12
248.2	87.12
248.433	84.12
248.666	92.12
248.899	89.12
249.133	86.12
249.366	90.12
249.599	70.12
249.832	94.12
250.066	85.12
250.299	77.12
250.532	88.12
250.765	83.12
250.998	85.12
251.231	87.12
251.465	80.12
251.698	85.12
251.931	84.12
252.164	97.12
252.397	79.12
252.63	75.12
252.863	73.12
253.096	88.12
253.329	83.12
253.562	87.12
253.795	85.12
254.028	83.12
254.261	86.12
254.494	83.12
254.727	87.12
254.96	82.12
255.193	78.12
255.426	78.12
255.659	77.12
255.892	84.12
256.124	76.12
256.357	76.12
256.59	78.12
256.823	74.12
257.056	79.12
257.289	80.12
257.521	86.12
257.754	80.12
257.987	70.12
258.22	81.12
258.452	85.12
258.685	83.12
258.918	89.12
259.151	83.12
259.383	76.12
259.616	82.12
259.849	83.12
260.081	86.12
260.314	76.12
260.547	67.12
260.779	67.12
261.012	70.12
261.244	93.12
261.477	73.12
261.71	85.12
261.942	80.12
262.175	72.12
262.407	68.12
262.64	85.12
262.872	78.12
263.105	73.12
263.337	79.12
263.57	74.12
263.802	86.12
264.035	78.12
264.267	74.12
264.499	90.12
264.732	84.12
264.964	78.12
265.197	77.12
265.429	77.12
265.661	90.12
265.894	77.12
266.126	94.12
266.358	85.12
266.591	76.12
266.823	70.12
267.055	94.12
267.287	77.12
267.52	83.12
267.752	76.12
267.984	95.12
268.216	76.12
268.448	89.12
268.681	94.12
268.913	91.12
269.145	91.12
269.377	81.12
269.609	88.12
269.841	85.12
270.073	77.12
270.306	79.12
270.538	90.12
270.77	79.12
271.002	79.12
271.234	84.12
271.466	82.12
271.698	89.12
271.93	88.12
272.162	76.12
272.394	86.12
272.626	105.12
272.858	108.12
273.09	73.12
273.322	77.12
273.553	78.12
273.785	83.12
274.017	88.12
274.249	85.12
274.481	87.12
274.713	77.12
274.945	93.12
275.176	84.12
275.408	80.12
275.64	72.12
275.872	81.12
276.104	91.12
276.335	80.12
276.567	86.12
276.799	76.12
277.031	74.12
277.262	84.12
277.494	81.12
277.726	90.12
277.957	84.12
278.189	83.12
278.421	80.12
278.652	73.12
278.884	82.12
279.115	71.12
279.347	87.12
279.579	80.12
279.81	76.12
280.042	74.12
280.273	75.12
280.505	79.12
280.736	77.12
280.968	79.12
281.199	81.12
281.431	91.12
281.662	93.12
281.894	80.12
282.125	90.12
282.356	74.12
282.588	79.12
282.819	89.12
283.051	85.12
283.282	103.12
283.513	81.12
283.745	79.12
283.976	86.12
284.207	83.12
284.439	89.12
284.67	88.12
284.901	77.12
285.132	79.12
285.364	84.12
285.595	77.12
285.826	82.12
286.057	76.12
286.288	69.12
286.52	89.12
286.751	87.12
286.982	94.12
287.213	93.12
287.444	87.12
287.675	88.12
287.906	95.12
288.138	91.12
288.369	79.12
288.6	97.12
288.831	81.12
289.062	97.12
289.293	80.12
289.524	85.12
289.755	77.12
289.986	88.12
290.217	83.12
290.448	89.12
290.679	79.12
290.91	99.12
291.141	85.12
291.371	87.12
291.602	73.12
291.833	86.12
292.064	100.12
292.295	81.12
292.526	94.12
292.757	81.12
292.987	85.12
293.218	78.12
293.449	79.12
293.68	87.12
293.91	79.12
294.141	80.12
294.372	93.12
294.603	75.12
294.833	87.12
295.064	83.12
295.295	75.12
295.525	92.12
295.756	81.12
295.987	92.12
296.217	82.12
296.448	97.12
296.679	69.12
296.909	83.12
297.14	90.12
297.37	95.12
297.601	87.12
297.831	84.12
298.062	85.12
298.292	90.12
298.523	93.12
298.753	84.12
298.984	85.12
299.214	69.12
299.445	88.12
299.675	78.12
299.905	99.12
300.136	92.12
300.366	87.12
300.597	93.12
300.827	93.12
301.057	103.12
301.288	76.12
301.518	77.12
301.748	93.12
301.979	108.12
302.209	85.12
302.439	83.12
302.669	93.12
302.9	72.12
303.13	80.12
303.36	101.12
303.59	97.12
303.82	72.12
304.051	89.12
304.281	83.12
304.511	80.12
304.741	85.12
304.971	73.12
305.201	77.12
305.431	84.12
305.661	94.12
305.891	98.12
306.121	86.12
306.352	99.12
306.582	83.12
306.812	81.12
307.042	91.12
307.272	75.12
307.502	97.12
307.731	103.12
307.961	94.12
308.191	91.12
308.421	88.12
308.651	95.12
308.881	89.12
309.111	96.12
309.341	82.12
309.571	71.12
309.8	89.12
310.03	79.12
310.26	90.12
310.49	83.12
310.72	86.12
310.949	88.12
311.179	81.12
311.409	75.12
311.639	89.12
311.868	83.12
312.098	82.12
312.328	97.12
312.557	81.12
312.787	75.12
313.017	79.12
313.246	104.12
313.476	81.12
313.706	83.12
313.935	86.12
314.165	86.12
314.394	82.12
314.624	95.12
314.853	83.12
315.083	98.12
315.312	87.12
315.542	105.12
315.771	81.12
316.001	87.12
316.23	85.12
316.46	93.12
316.689	86.12
316.919	94.12
317.148	77.12
317.377	92.12
317.607	103.12
317.836	79.12
318.065	87.12
318.295	90.12
318.524	89.12
318.753	73.12
318.983	83.12
319.212	88.12
319.441	91.12
319.67	78.12
319.9	73.12
320.129	83.12
320.358	86.12
320.587	89.12
320.816	101.12
321.046	93.12
321.275	102.12
321.504	95.12
321.733	93.12
321.962	80.12
322.191	83.12
322.42	99.12
322.649	105.12
322.878	85.12
323.108	75.12
323.337	99.12
323.566	82.12
323.795	80.12
324.024	80.12
324.253	90.12
324.482	80.12
324.71	94.12
324.939	95.12
325.168	76.12
325.397	91.12
325.626	99.12
325.855	86.12
326.084	75.12
326.313	79.12
326.542	76.12
326.77	74.12
326.999	79.12
327.228	83.12
327.457	86.12
327.686	85.12
327.914	85.12
328.143	81.12
328.372	78.12
328.6	75.12
328.829	101.12
329.058	92.12
329.287	96.12
329.515	91.12
329.744	85.12
329.972	77.12
330.201	81.12
330.43	86.12
330.658	82.12
330.887	85.12
331.115	89.12
331.344	91.12
331.572	82.12
331.801	76.12
332.03	88.12
332.258	98.12
332.486	85.12
332.715	80.12
332.943	62.12
333.172	93.12
333.4	94.12
333.629	97.12
333.857	91.12
334.085	93.12
334.314	101.12
334.542	94.12
334.771	92.12
334.999	94.12
335.227	89.12
335.455	85.12
335.684	100.12
335.912	99.12
336.14	82.12
336.369	86.12
336.597	102.12
336.825	77.12
337.053	78.12
337.281	110.12
337.51	85.12
337.738	92.12
337.966	106.12
338.194	85.12
338.422	94.12
338.65	82.12
338.878	86.12
339.106	87.12
339.334	85.12
339.562	99.12
339.79	79.12
340.018	94.12
340.246	70.12
340.474	80.12
340.702	79.12
340.93	90.12
341.158	73.12
341.386	80.12
341.614	89.12
341.842	74.12
342.07	97.12
342.298	93.12
342.526	73.12
342.754	97.12
342.981	78.12
343.209	89.12
343.437	96.12
343.665	79.12
343.893	87.12
344.12	95.12
344.348	86.12
344.576	86.12
344.804	85.12
345.031	99.12
345.259	84.12
345.487	87.12
345.714	72.12
345.942	79.12
346.17	88.12
346.397	90.12
346.625	90.12
346.853	80.12
347.08	79.12
347.308	85.12
347.535	89.12
347.763	88.12
347.99	83.12
348.218	93.12
348.445	71.12
348.673	73.12
348.9	81.12
349.128	92.12
349.355	87.12
349.583	94.12
349.81	88.12
350.037	80.12
350.265	88.12
350.492	89.12
350.72	94.12
350.947	78.12
351.174	69.12
351.402	99.12
351.629	77.12
351.856	85.12
352.083	86.12
352.311	86.12
352.538	71.12
352.765	76.12
352.992	91.12
353.22	102.12
353.447	89.12
353.674	89.12
353.901	78.12
354.128	86.12
354.355	79.12
354.583	95.12
354.81	95.12
355.037	98.12
355.264	80.12
355.491	90.12
355.718	92.12
355.945	90.12
356.172	99.12
356.399	100.12
356.626	102.12
356.853	90.12
357.08	100.12
357.307	83.12
357.534	87.12
357.761	90.12
357.988	101.12
358.215	92.12
358.441	97.12
358.668	101.12
358.895	91.12
359.122	76.12
359.349	90.12
359.576	98.12
359.802	87.12
360.029	100.12
360.256	75.12
360.483	65.12
360.709	79.12
360.936	104.12
361.163	109.12
361.39	78.12
361.616	86.12
361.843	93.12
362.07	85.12
362.296	89.12
362.523	89.12
362.749	95.12
362.976	97.12
363.203	97.12
363.429	81.12
363.656	87.12
363.882	90.12
364.109	87.12
364.335	90.12
364.562	109.12
364.788	99.12
365.015	93.12
365.241	98.12
365.468	89.12
365.694	85.12
365.92	91.12
366.147	87.12
366.373	90.12
366.599	77.12
366.826	89.12
367.052	78.12
367.278	80.12
367.505	89.12
367.731	92.12
367.957	89.12
368.184	74.12
368.41	87.12
368.636	88.12
368.862	85.12
369.089	89.12
369.315	87.12
369.541	85.12
369.767	85.12
369.993	86.12
370.219	94.12
370.445	94.12
370.672	98.12
370.898	102.12
371.124	89.12
371.35	85.12
371.576	87.12
371.802	85.12
372.028	100.12
372.254	81.12
372.48	79.12
372.706	80.12
372.932	69.12
373.158	76.12
373.384	93.12
373.61	94.12
373.835	103.12
374.061	92.12
374.287	91.12
374.513	79.12
374.739	86.12
374.965	98.12
375.191	101.12
375.416	83.12
375.642	95.12
375.868	86.12
376.094	82.12
376.319	93.12
376.545	90.12
376.771	79.12
376.997	67.12
377.222	79.12
377.448	95.12
377.674	95.12
377.899	85.12
378.125	93.12
378.35	86.12
378.576	90.12
378.802	80.12
379.027	85.12
379.253	89.12
379.478	77.12
379.704	89.12
379.929	88.12
380.155	78.12
380.38	85.12
380.606	81.12
380.831	83.12
381.057	101.12
381.282	98.12
381.507	98.12
381.733	98.12
381.958	91.12
382.184	90.12
382.409	96.12
382.634	86.12
382.86	99.12
383.085	90.12
383.31	105.12
383.535	97.12
383.761	106.12
383.986	97.12
384.211	94.12
384.436	97.12
384.662	89.12
384.887	82.12
385.112	99.12
385.337	89.12
385.562	92.12
385.787	93.12
386.013	91.12
386.238	94.12
386.463	94.12
386.688	89.12
386.913	103.12
387.138	86.12
387.363	82.12
387.588	94.12
387.813	99.12
388.038	90.12
388.263	94.12
388.488	93.12
388.713	99.12
388.938	86.12
389.163	87.12
389.387	92.12
389.612	89.12
389.837	97.12
390.062	92.12
390.287	87.12
390.512	93.12
390.736	93.12
390.961	82.12
391.186	87.12
391.411	84.12
391.636	82.12
391.86	87.12
392.085	99.12
392.31	100.12
392.534	91.12
392.759	105.12
392.984	134.12
393.208	212.12
393.433	288.12
393.658	228.12
393.882	116.12
394.107	96.12
394.331	115.12
394.556	115.12
394.78	99.12
395.005	84.12
395.229	81.12
395.454	87.12
395.678	98.12
395.903	108.12
396.127	107.12
396.352	142.12
396.576	141.12
396.801	217.12
397.025	235.12
397.249	136.12
397.474	121.12
397.698	98.12
397.922	92.12
398.147	79.12
398.371	88.12
398.595	79.12
398.82	96.12
399.044	87.12
399.268	76.12
399.492	92.12
399.717	81.12
399.941	94.12
400.165	91.12
400.389	96.12
400.613	75.12
400.837	84.12
401.062	94.12
401.286	89.12
401.51	99.12
401.734	87.12
401.958	79.12
402.182	85.12
402.406	76.12
402.63	85.12
402.854	84.12
403.078	100.12
403.302	93.12
403.526	95.12
403.75	89.12
403.974	86.12
404.198	82.12
404.422	88.12
404.645	97.12
404.869	79.12
405.093	101.12
405.317	93.12
405.541	87.12
405.765	106.12
405.988	76.12
406.212	95.12
406.436	78.12
406.66	84.12
406.883	91.12
407.107	84.12
407.331	85.12
407.555	92.12
407.778	105.12
408.002	96.12
408.226	97.12
408.449	90.12
408.673	91.12
408.896	79.12
409.12	79.12
409.344	92.12
409.567	91.12
409.791	97.12
410.014	103.12
410.238	88.12
410.461	91.12
410.685	91.12
410.908	72.12
411.132	83.12
411.355	89.12
411.578	83.12
411.802	78.12
412.025	87.12
412.249	91.12
412.472	80.12
412.695	82.12
412.919	74.12
413.142	80.12
413.365	79.12
413.589	83.12
413.812	93.12
414.035	98.12
414.258	87.12
414.482	84.12
414.705	97.12
414.928	106.12
415.151	91.12
415.374	76.12
415.597	90.12
415.821	84.12
416.044	85.12
416.267	83.12
416.49	84.12
416.713	82.12
416.936	87.12
417.159	85.12
417.382	82.12
417.605	90.12
417.828	105.12
418.051	76.12
418.274	76.12
418.497	81.12
418.72	85.12
418.943	96.12
419.166	87.12
419.389	76.12
419.611	91.12
419.834	92.12
420.057	82.12
420.28	102.12
420.503	91.12
420.726	67.12
420.948	89.12
421.171	89.12
421.394	98.12
421.617	103.12
421.839	107.12
422.062	116.12
422.285	119.12
422.507	201.12
422.73	305.12
422.953	284.12
423.175	133.12
423.398	103.12
423.621	107.12
423.843	90.12
424.066	102.12
424.288	82.12
424.511	91.12
424.733	104.12
424.956	102.12
425.178	79.12
425.401	75.12
425.623	82.12
425.846	103.12
426.068	89.12
426.291	89.12
426.513	97.12
426.735	94.12
426.958	89.12
427.18	85.12
427.402	83.12
427.625	92.12
427.847	89.12
428.069	101.12
428.292	122.12
428.514	118.12
428.736	99.12
428.958	120.12
429.181	118.12
429.403	90.12
429.625	98.12
429.847	114.12
430.069	146.12
430.292	135.12
430.514	135.12
430.736	127.12
430.958	108.12
431.18	100.12
431.402	90.12
431.624	91.12
431.846	109.12
432.068	109.12
432.29	91.12
432.512	94.12
432.734	91.12
432.956	86.12
433.178	92.12
433.4	77.12
433.622	89.12
433.844	91.12
434.066	89.12
434.287	76.12
434.509	77.12
434.731	94.12
434.953	98.12
435.175	89.12
435.397	73.12
435.618	79.12
435.84	79.12
436.062	87.12
436.284	98.12
436.505	85.12
436.727	78.12
436.949	81.12
437.17	74.12
437.392	69.12
437.614	93.12
437.835	87.12
438.057	95.12
438.278	85.12
438.5	92.12
438.721	91.12
438.943	82.12
439.165	97.12
439.386	81.12
439.608	95.12
439.829	82.12
440.05	75.12
440.272	79.12
440.493	89.12
440.715	78.12
440.936	81.12
441.158	83.12
441.379	83.12
441.6	94.12
441.822	76.12
442.043	93.12
442.264	73.12
442.486	110.12
442.707	128.12
442.928	107.12
443.149	98.12
443.371	124.12
443.592	171.12
443.813	149.12
444.034	91.12
444.255	81.12
444.476	93.12
444.698	85.12
444.919	90.12
445.14	182.12
445.361	165.12
445.582	213.12
445.803	166.12
446.024	102.12
446.245	91.12
446.466	102.12
446.687	101.12
446.908	85.12
447.129	83.12
447.35	67.12
447.571	75.12
447.792	89.12
448.013	83.12
448.234	84.12
448.455	85.12
448.675	84.12
448.896	86.12
449.117	95.12
449.338	94.12
449.559	94.12
449.779	83.12
450	73.12
450.221	93.12
450.442	78.12
450.662	91.12
450.883	95.12
451.104	78.12
451.324	73.12
451.545	79.12
451.766	92.12
451.986	97.12
452.207	79.12
452.428	86.12
452.648	73.12
452.869	96.12
453.089	89.12
453.31	94.12
453.53	93.12
453.751	90.12
453.971	97.12
454.192	80.12
454.412	98.12
454.633	87.12
454.853	92.12
455.073	74.12
455.294	73.12
455.514	85.12
455.734	76.12
455.955	82.12
456.175	71.12
456.395	85.12
456.616	76.12
456.836	83.12
457.056	83.12
457.276	98.12
457.497	77.12
457.717	81.12
457.937	85.12
458.157	98.12
458.377	87.12
458.598	101.12
458.818	99.12
459.038	80.12
459.258	75.12
459.478	73.12
459.698	78.12
459.918	93.12
460.138	83.12
460.358	80.12
460.578	86.12
460.798	114.12
461.018	113.12
461.238	97.12
461.458	72.12
461.678	85.12
461.898	81.12
462.118	83.12
462.338	84.12
462.558	87.12
462.777	87.12
462.997	77.12
463.217	87.12
463.437	97.12
463.657	83.12
463.876	88.12
464.096	80.12
464.316	81.12
464.536	85.12
464.755	89.12
464.975	83.12
465.195	91.12
465.414	94.12
465.634	82.12
465.854	96.12
466.073	97.12
466.293	90.12
466.512	78.12
466.732	73.12
466.951	81.12
467.171	82.12
467.391	81.12
467.61	84.12
467.829	90.12
468.049	86.12
468.268	93.12
468.488	76.12
468.707	76.12
468.927	81.12
469.146	97.12
469.365	78.12
469.585	80.12
469.804	81.12
470.023	81.12
470.243	78.12
470.462	91.12
470.681	89.12
470.901	90.12
471.12	84.12
471.339	89.12
471.558	99.12
471.777	91.12
471.997	90.12
472.216	72.12
472.435	79.12
472.654	101.12
472.873	89.12
473.092	89.12
473.311	80.12
473.53	70.12
473.749	93.12
473.968	86.12
474.187	91.12
474.406	90.12
474.625	88.12
474.844	82.12
475.063	88.12
475.282	77.12
475.501	91.12
475.72	98.12
475.939	79.12
476.158	83.12
476.377	86.12
476.596	98.12
476.814	83.12
477.033	93.12
477.252	82.12
477.471	69.12
477.69	69.12
477.908	81.12
478.127	89.12
478.346	91.12
478.564	79.12
478.783	78.12
479.002	82.12
479.22	85.12
479.439	104.12
479.658	87.12
479.876	91.12
480.095	77.12
480.313	74.12
480.532	91.12
480.751	97.12
480.969	78.12
481.188	85.12
481.406	94.12
481.624	93.12
481.843	86.12
482.061	105.12
482.28	87.12
482.498	101.12
482.717	78.12
482.935	69.12
483.153	79.12
483.372	90.12
483.59	87.12
483.808	83.12
484.027	85.12
484.245	87.12
484.463	93.12
484.681	93.12
484.9	87.12
485.118	99.12
485.336	98.12
485.554	90.12
485.772	93.12
485.99	90.12
486.209	91.12
486.427	93.12
486.645	97.12
486.863	114.12
487.081	97.12
487.299	80.12
487.517	74.12
487.735	108.12
487.953	122.12
488.171	119.12
488.389	97.12
488.607	83.12
488.825	90.12
489.043	91.12
489.261	88.12
489.479	96.12
489.696	89.12
489.914	97.12
490.132	109.12
490.35	88.12
490.568	90.12
490.786	100.12
491.003	93.12
491.221	92.12
491.439	86.12
491.657	80.12
491.874	76.12
492.092	73.12
492.31	83.12
492.527	83.12
492.745	93.12
492.963	89.12
493.18	89.12
493.398	89.12
493.615	105.12
493.833	86.12
494.05	91.12
494.268	86.12
494.485	85.12
494.703	82.12
494.92	91.12
495.138	85.12
495.355	90.12
495.573	92.12
495.79	95.12
496.008	89.12
496.225	102.12
496.442	83.12
496.66	91.12
496.877	86.12
497.094	100.12
497.312	89.12
497.529	93.12
497.746	96.12
497.963	94.12
498.181	89.12
498.398	99.12
498.615	97.12
498.832	81.12
499.049	83.12
499.267	83.12
499.484	94.12
499.701	101.12
499.918	102.12
500.135	98.12
500.352	85.12
500.569	85.12
500.786	96.12
501.003	104.12
501.22	94.12
501.437	79.12
501.654	81.12
501.871	89.12
502.088	89.12
502.305	108.12
502.522	92.12
502.739	89.12
502.956	92.12
503.172	94.12
503.389	96.12
503.606	87.12
503.823	83.12
504.04	98.12
504.256	111.12
504.473	107.12
504.69	90.12
504.907	92.12
505.123	94.12
505.34	91.12
505.557	92.12
505.773	83.12
505.99	89.12
506.207	103.12
506.423	88.12
506.64	91.12
506.856	101.12
507.073	91.12
507.289	90.12
507.506	80.12
507.722	90.12
507.939	81.12
508.155	75.12
508.372	84.12
508.588	85.12
508.805	86.12
509.021	83.12
509.238	86.12
509.454	85.12
509.67	78.12
509.887	91.12
510.103	83.12
510.319	83.12
510.536	92.12
510.752	90.12
510.968	85.12
511.184	87.12
511.401	89.12
511.617	72.12
511.833	89.12
512.049	75.12
512.265	89.12
512.481	97.12
512.698	87.12
512.914	66.12
513.13	93.12
513.346	81.12
513.562	87.12
513.778	95.12
513.994	97.12
514.21	96.12
514.426	89.12
514.642	94.12
514.858	93.12
515.074	93.12
515.29	90.12
515.506	78.12
515.721	85.12
515.937	83.12
516.153	73.12
516.369	96.12
516.585	96.12
516.801	94.12
517.016	96.12
517.232	95.12
517.448	93.12
517.664	62.12
517.879	80.12
518.095	95.12
518.311	81.12
518.527	103.12
