Data from 15780_2_HRD10591_00041.txt Node
Date: Mon Jan 19 14:19:24 EST 2026
User: Yrep
Spectrometer: HR+D1059
Trigger mode: 1
Integration Time (sec): 1.000000E-1
Scans to average: 1
Electric dark correction enabled: true
Nonlinearity correction enabled: false
Boxcar width: 0
XAxis mode: Wavelengths
Number of Pixels in Spectrum: 2048
>>>>>Begin Spectral Data<<<<<
223.165	-14.62
223.4	-14.62
223.635	-14.62
223.869	-22.62
224.104	-14.62
224.338	-15.62
224.573	-19.62
224.808	-1.62
225.042	-1.62
225.277	-11.62
225.511	7.38
225.746	1.38
225.98	9.38
226.215	11.38
226.449	15.38
226.683	6.38
226.918	19.38
227.152	31.38
227.387	35.38
227.621	37.38
227.856	33.38
228.09	48.38
228.324	60.38
228.559	61.38
228.793	72.38
229.027	50.38
229.262	76.38
229.496	72.38
229.73	63.38
229.964	72.38
230.199	70.38
230.433	86.38
230.667	87.38
230.901	68.38
231.136	79.38
231.37	82.38
231.604	81.38
231.838	83.38
232.072	89.38
232.306	89.38
232.541	79.38
232.775	67.38
233.009	81.38
233.243	90.38
233.477	66.38
233.711	71.38
233.945	88.38
234.179	92.38
234.413	85.38
234.647	78.38
234.881	79.38
235.115	68.38
235.349	88.38
235.583	79.38
235.817	73.38
236.051	83.38
236.285	73.38
236.519	79.38
236.753	78.38
236.987	80.38
237.221	74.38
237.455	76.38
237.689	80.38
237.922	73.38
238.156	80.38
238.39	72.38
238.624	79.38
238.858	77.38
239.091	68.38
239.325	80.38
239.559	82.38
239.793	84.38
240.027	80.38
240.26	65.38
240.494	70.38
240.728	82.38
240.961	73.38
241.195	57.38
241.429	65.38
241.662	79.38
241.896	64.38
242.13	90.38
242.363	76.38
242.597	79.38
242.83	86.38
243.064	77.38
243.298	62.38
243.531	70.38
243.765	66.38
243.998	77.38
244.232	85.38
244.465	87.38
244.699	77.38
244.932	81.38
245.166	73.38
245.399	76.38
245.633	70.38
245.866	80.38
246.099	83.38
246.333	85.38
246.566	69.38
246.8	84.38
247.033	86.38
247.266	86.38
247.5	68.38
247.733	78.38
247.966	73.38
248.2	87.38
248.433	81.38
248.666	88.38
248.899	86.38
249.133	88.38
249.366	72.38
249.599	84.38
249.832	73.38
250.066	80.38
250.299	69.38
250.532	75.38
250.765	90.38
250.998	83.38
251.231	77.38
251.465	92.38
251.698	88.38
251.931	80.38
252.164	70.38
252.397	72.38
252.63	76.38
252.863	68.38
253.096	86.38
253.329	92.38
253.562	84.38
253.795	95.38
254.028	90.38
254.261	75.38
254.494	69.38
254.727	90.38
254.96	84.38
255.193	86.38
255.426	72.38
255.659	84.38
255.892	74.38
256.124	100.38
256.357	74.38
256.59	85.38
256.823	80.38
257.056	86.38
257.289	77.38
257.521	89.38
257.754	85.38
257.987	77.38
258.22	84.38
258.452	74.38
258.685	87.38
258.918	72.38
259.151	89.38
259.383	85.38
259.616	88.38
259.849	76.38
260.081	86.38
260.314	76.38
260.547	76.38
260.779	76.38
261.012	71.38
261.244	76.38
261.477	82.38
261.71	90.38
261.942	79.38
262.175	92.38
262.407	94.38
262.64	87.38
262.872	88.38
263.105	81.38
263.337	87.38
263.57	71.38
263.802	99.38
264.035	90.38
264.267	70.38
264.499	76.38
264.732	87.38
264.964	61.38
265.197	87.38
265.429	78.38
265.661	79.38
265.894	84.38
266.126	84.38
266.358	87.38
266.591	71.38
266.823	87.38
267.055	71.38
267.287	89.38
267.52	63.38
267.752	81.38
267.984	89.38
268.216	77.38
268.448	80.38
268.681	76.38
268.913	85.38
269.145	79.38
269.377	76.38
269.609	85.38
269.841	80.38
270.073	86.38
270.306	79.38
270.538	76.38
270.77	95.38
271.002	77.38
271.234	64.38
271.466	85.38
271.698	85.38
271.93	94.38
272.162	77.38
272.394	89.38
272.626	90.38
272.858	84.38
273.09	70.38
273.322	88.38
273.553	78.38
273.785	84.38
274.017	79.38
274.249	93.38
274.481	77.38
274.713	86.38
274.945	102.38
275.176	80.38
275.408	92.38
275.64	88.38
275.872	85.38
276.104	90.38
276.335	83.38
276.567	86.38
276.799	85.38
277.031	76.38
277.262	85.38
277.494	67.38
277.726	82.38
277.957	88.38
278.189	89.38
278.421	97.38
278.652	76.38
278.884	88.38
279.115	97.38
279.347	98.38
279.579	101.38
279.81	105.38
280.042	97.38
280.273	93.38
280.505	92.38
280.736	90.38
280.968	74.38
281.199	87.38
281.431	77.38
281.662	81.38
281.894	82.38
282.125	84.38
282.356	82.38
282.588	77.38
282.819	80.38
283.051	84.38
283.282	89.38
283.513	83.38
283.745	80.38
283.976	81.38
284.207	74.38
284.439	94.38
284.67	78.38
284.901	93.38
285.132	98.38
285.364	92.38
285.595	93.38
285.826	93.38
286.057	86.38
286.288	89.38
286.52	89.38
286.751	84.38
286.982	94.38
287.213	84.38
287.444	82.38
287.675	95.38
287.906	83.38
288.138	93.38
288.369	94.38
288.6	84.38
288.831	86.38
289.062	96.38
289.293	94.38
289.524	98.38
289.755	83.38
289.986	100.38
290.217	92.38
290.448	78.38
290.679	89.38
290.91	90.38
291.141	87.38
291.371	79.38
291.602	88.38
291.833	76.38
292.064	96.38
292.295	77.38
292.526	80.38
292.757	88.38
292.987	82.38
293.218	78.38
293.449	86.38
293.68	89.38
293.91	84.38
294.141	100.38
294.372	68.38
294.603	73.38
294.833	95.38
295.064	82.38
295.295	79.38
295.525	96.38
295.756	93.38
295.987	82.38
296.217	85.38
296.448	83.38
296.679	87.38
296.909	90.38
297.14	87.38
297.37	99.38
297.601	88.38
297.831	72.38
298.062	104.38
298.292	83.38
298.523	96.38
298.753	80.38
298.984	91.38
299.214	97.38
299.445	84.38
299.675	94.38
299.905	97.38
300.136	93.38
300.366	92.38
300.597	78.38
300.827	77.38
301.057	84.38
301.288	96.38
301.518	85.38
301.748	99.38
301.979	108.38
302.209	92.38
302.439	97.38
302.669	85.38
302.9	89.38
303.13	79.38
303.36	83.38
303.59	91.38
303.82	75.38
304.051	90.38
304.281	106.38
304.511	92.38
304.741	92.38
304.971	89.38
305.201	91.38
305.431	84.38
305.661	92.38
305.891	92.38
306.121	74.38
306.352	74.38
306.582	99.38
306.812	80.38
307.042	95.38
307.272	85.38
307.502	89.38
307.731	79.38
307.961	104.38
308.191	88.38
308.421	110.38
308.651	99.38
308.881	96.38
309.111	102.38
309.341	110.38
309.571	94.38
309.8	77.38
310.03	88.38
310.26	76.38
310.49	75.38
310.72	90.38
310.949	84.38
311.179	90.38
311.409	85.38
311.639	75.38
311.868	92.38
312.098	83.38
312.328	95.38
312.557	80.38
312.787	88.38
313.017	86.38
313.246	85.38
313.476	82.38
313.706	92.38
313.935	89.38
314.165	82.38
314.394	91.38
314.624	82.38
314.853	77.38
315.083	86.38
315.312	106.38
315.542	103.38
315.771	109.38
316.001	120.38
316.23	108.38
316.46	89.38
316.689	91.38
316.919	88.38
317.148	78.38
317.377	99.38
317.607	92.38
317.836	123.38
318.065	153.38
318.295	135.38
318.524	101.38
318.753	98.38
318.983	100.38
319.212	90.38
319.441	96.38
319.67	97.38
319.9	81.38
320.129	77.38
320.358	78.38
320.587	69.38
320.816	83.38
321.046	76.38
321.275	86.38
321.504	96.38
321.733	94.38
321.962	78.38
322.191	92.38
322.42	100.38
322.649	93.38
322.878	104.38
323.108	89.38
323.337	98.38
323.566	105.38
323.795	101.38
324.024	106.38
324.253	90.38
324.482	81.38
324.71	97.38
324.939	110.38
325.168	90.38
325.397	84.38
325.626	77.38
325.855	84.38
326.084	93.38
326.313	86.38
326.542	86.38
326.77	75.38
326.999	76.38
327.228	92.38
327.457	81.38
327.686	82.38
327.914	91.38
328.143	86.38
328.372	88.38
328.6	80.38
328.829	97.38
329.058	96.38
329.287	84.38
329.515	85.38
329.744	80.38
329.972	92.38
330.201	85.38
330.43	92.38
330.658	92.38
330.887	95.38
331.115	96.38
331.344	70.38
331.572	83.38
331.801	95.38
332.03	90.38
332.258	84.38
332.486	76.38
332.715	86.38
332.943	88.38
333.172	96.38
333.4	83.38
333.629	88.38
333.857	99.38
334.085	88.38
334.314	86.38
334.542	102.38
334.771	96.38
334.999	103.38
335.227	85.38
335.455	84.38
335.684	102.38
335.912	83.38
336.14	103.38
336.369	107.38
336.597	93.38
336.825	83.38
337.053	101.38
337.281	93.38
337.51	101.38
337.738	96.38
337.966	84.38
338.194	98.38
338.422	90.38
338.65	110.38
338.878	85.38
339.106	90.38
339.334	96.38
339.562	89.38
339.79	83.38
340.018	87.38
340.246	97.38
340.474	81.38
340.702	84.38
340.93	67.38
341.158	86.38
341.386	94.38
341.614	83.38
341.842	102.38
342.07	91.38
342.298	83.38
342.526	89.38
342.754	95.38
342.981	73.38
343.209	83.38
343.437	102.38
343.665	106.38
343.893	93.38
344.12	109.38
344.348	102.38
344.576	95.38
344.804	77.38
345.031	84.38
345.259	94.38
345.487	98.38
345.714	81.38
345.942	78.38
346.17	74.38
346.397	96.38
346.625	93.38
346.853	92.38
347.08	68.38
347.308	92.38
347.535	98.38
347.763	94.38
347.99	94.38
348.218	68.38
348.445	76.38
348.673	87.38
348.9	91.38
349.128	96.38
349.355	105.38
349.583	88.38
349.81	85.38
350.037	72.38
350.265	82.38
350.492	89.38
350.72	77.38
350.947	101.38
351.174	85.38
351.402	91.38
351.629	85.38
351.856	79.38
352.083	83.38
352.311	89.38
352.538	84.38
352.765	91.38
352.992	99.38
353.22	93.38
353.447	92.38
353.674	88.38
353.901	74.38
354.128	87.38
354.355	93.38
354.583	92.38
354.81	92.38
355.037	104.38
355.264	82.38
355.491	88.38
355.718	88.38
355.945	97.38
356.172	92.38
356.399	77.38
356.626	104.38
356.853	101.38
357.08	103.38
357.307	93.38
357.534	86.38
357.761	96.38
357.988	109.38
358.215	109.38
358.441	97.38
358.668	88.38
358.895	100.38
359.122	89.38
359.349	78.38
359.576	75.38
359.802	80.38
360.029	88.38
360.256	90.38
360.483	96.38
360.709	87.38
360.936	98.38
361.163	95.38
361.39	89.38
361.616	98.38
361.843	98.38
362.07	89.38
362.296	104.38
362.523	88.38
362.749	104.38
362.976	114.38
363.203	137.38
363.429	108.38
363.656	99.38
363.882	98.38
364.109	106.38
364.335	134.38
364.562	144.38
364.788	120.38
365.015	112.38
365.241	107.38
365.468	114.38
365.694	106.38
365.92	83.38
366.147	83.38
366.373	84.38
366.599	81.38
366.826	85.38
367.052	81.38
367.278	81.38
367.505	84.38
367.731	86.38
367.957	100.38
368.184	92.38
368.41	101.38
368.636	107.38
368.862	95.38
369.089	84.38
369.315	86.38
369.541	91.38
369.767	91.38
369.993	81.38
370.219	90.38
370.445	105.38
370.672	111.38
370.898	118.38
371.124	104.38
371.35	74.38
371.576	90.38
371.802	92.38
372.028	104.38
372.254	101.38
372.48	92.38
372.706	92.38
372.932	83.38
373.158	116.38
373.384	130.38
373.61	163.38
373.835	164.38
374.061	114.38
374.287	105.38
374.513	112.38
374.739	106.38
374.965	106.38
375.191	114.38
375.416	98.38
375.642	91.38
375.868	96.38
376.094	88.38
376.319	96.38
376.545	104.38
376.771	105.38
376.997	73.38
377.222	82.38
377.448	76.38
377.674	81.38
377.899	102.38
378.125	98.38
378.35	92.38
378.576	93.38
378.802	93.38
379.027	88.38
379.253	107.38
379.478	75.38
379.704	92.38
379.929	98.38
380.155	85.38
380.38	78.38
380.606	86.38
380.831	100.38
381.057	116.38
381.282	105.38
381.507	108.38
381.733	105.38
381.958	100.38
382.184	125.38
382.409	114.38
382.634	133.38
382.86	106.38
383.085	112.38
383.31	118.38
383.535	117.38
383.761	111.38
383.986	123.38
384.211	116.38
384.436	98.38
384.662	95.38
384.887	93.38
385.112	109.38
385.337	115.38
385.562	116.38
385.787	113.38
386.013	122.38
386.238	98.38
386.463	104.38
386.688	125.38
386.913	116.38
387.138	106.38
387.363	109.38
387.588	107.38
387.813	106.38
388.038	117.38
388.263	123.38
388.488	106.38
388.713	94.38
388.938	93.38
389.163	86.38
389.387	97.38
389.612	102.38
389.837	86.38
390.062	104.38
390.287	93.38
390.512	104.38
390.736	90.38
390.961	84.38
391.186	86.38
391.411	94.38
391.636	103.38
391.86	108.38
392.085	101.38
392.31	102.38
392.534	123.38
392.759	168.38
392.984	274.38
393.208	552.38
393.433	888.38
393.658	655.38
393.882	228.38
394.107	131.38
394.331	150.38
394.556	162.38
394.78	120.38
395.005	107.38
395.229	104.38
395.454	106.38
395.678	111.38
395.903	146.38
396.127	220.38
396.352	252.38
396.576	328.38
396.801	564.38
397.025	684.38
397.249	307.38
397.474	154.38
397.698	132.38
397.922	98.38
398.147	88.38
398.371	95.38
398.595	94.38
398.82	91.38
399.044	83.38
399.268	92.38
399.492	81.38
399.717	86.38
399.941	109.38
400.165	78.38
400.389	74.38
400.613	92.38
400.837	76.38
401.062	82.38
401.286	84.38
401.51	85.38
401.734	83.38
401.958	92.38
402.182	88.38
402.406	96.38
402.63	100.38
402.854	91.38
403.078	91.38
403.302	93.38
403.526	90.38
403.75	88.38
403.974	82.38
404.198	107.38
404.422	120.38
404.645	107.38
404.869	99.38
405.093	96.38
405.317	87.38
405.541	97.38
405.765	94.38
405.988	93.38
406.212	94.38
406.436	102.38
406.66	84.38
406.883	81.38
407.107	111.38
407.331	104.38
407.555	125.38
407.778	160.38
408.002	154.38
408.226	100.38
408.449	82.38
408.673	84.38
408.896	90.38
409.12	96.38
409.344	98.38
409.567	88.38
409.791	89.38
410.014	99.38
410.238	93.38
410.461	104.38
410.685	82.38
410.908	84.38
411.132	82.38
411.355	84.38
411.578	70.38
411.802	109.38
412.025	79.38
412.249	91.38
412.472	100.38
412.695	84.38
412.919	98.38
413.142	85.38
413.365	84.38
413.589	89.38
413.812	87.38
414.035	91.38
414.258	74.38
414.482	98.38
414.705	87.38
414.928	77.38
415.151	93.38
415.374	92.38
415.597	83.38
415.821	88.38
416.044	77.38
416.267	80.38
416.49	83.38
416.713	85.38
416.936	92.38
417.159	99.38
417.382	73.38
417.605	79.38
417.828	83.38
418.051	79.38
418.274	90.38
418.497	82.38
418.72	79.38
418.943	90.38
419.166	98.38
419.389	81.38
419.611	84.38
419.834	87.38
420.057	78.38
420.28	88.38
420.503	88.38
420.726	88.38
420.948	106.38
421.171	88.38
421.394	109.38
421.617	152.38
421.839	158.38
422.062	134.38
422.285	150.38
422.507	317.38
422.73	544.38
422.953	468.38
423.175	202.38
423.398	117.38
423.621	120.38
423.843	98.38
424.066	82.38
424.288	100.38
424.511	88.38
424.733	84.38
424.956	94.38
425.178	76.38
425.401	90.38
425.623	80.38
425.846	77.38
426.068	78.38
426.291	92.38
426.513	86.38
426.735	101.38
426.958	93.38
427.18	91.38
427.402	71.38
427.625	82.38
427.847	100.38
428.069	127.38
428.292	141.38
428.514	158.38
428.736	124.38
428.958	149.38
429.181	149.38
429.403	121.38
429.625	119.38
429.847	129.38
430.069	206.38
430.292	240.38
430.514	226.38
430.736	161.38
430.958	173.38
431.18	109.38
431.402	85.38
431.624	107.38
431.846	134.38
432.068	148.38
432.29	119.38
432.512	89.38
432.734	85.38
432.956	101.38
433.178	94.38
433.4	100.38
433.622	86.38
433.844	84.38
434.066	85.38
434.287	90.38
434.509	78.38
434.731	90.38
434.953	77.38
435.175	92.38
435.397	94.38
435.618	102.38
435.84	84.38
436.062	78.38
436.284	78.38
436.505	87.38
436.727	72.38
436.949	88.38
437.17	85.38
437.392	94.38
437.614	80.38
437.835	100.38
438.057	96.38
438.278	96.38
438.5	100.38
438.721	83.38
438.943	96.38
439.165	82.38
439.386	78.38
439.608	79.38
439.829	93.38
440.05	85.38
440.272	90.38
440.493	98.38
440.715	94.38
440.936	91.38
441.158	74.38
441.379	72.38
441.6	88.38
441.822	84.38
442.043	87.38
442.264	110.38
442.486	159.38
442.707	180.38
442.928	120.38
443.149	105.38
443.371	182.38
443.592	292.38
443.813	251.38
444.034	121.38
444.255	102.38
444.476	98.38
444.698	97.38
444.919	106.38
445.14	187.38
445.361	224.38
445.582	366.38
445.803	277.38
446.024	141.38
446.245	86.38
446.466	90.38
446.687	84.38
446.908	101.38
447.129	85.38
447.35	82.38
447.571	91.38
447.792	84.38
448.013	78.38
448.234	88.38
448.455	82.38
448.675	80.38
448.896	86.38
449.117	85.38
449.338	74.38
449.559	89.38
449.779	91.38
450	83.38
450.221	83.38
450.442	81.38
450.662	87.38
450.883	99.38
451.104	86.38
451.324	88.38
451.545	86.38
451.766	88.38
451.986	90.38
452.207	104.38
452.428	97.38
452.648	89.38
452.869	102.38
453.089	88.38
453.31	82.38
453.53	98.38
453.751	94.38
453.971	94.38
454.192	79.38
454.412	88.38
454.633	82.38
454.853	96.38
455.073	92.38
455.294	78.38
455.514	107.38
455.734	101.38
455.955	91.38
456.175	78.38
456.395	92.38
456.616	74.38
456.836	83.38
457.056	82.38
457.276	79.38
457.497	84.38
457.717	103.38
457.937	112.38
458.157	120.38
458.377	120.38
458.598	131.38
458.818	119.38
459.038	84.38
459.258	92.38
459.478	84.38
459.698	91.38
459.918	86.38
460.138	71.38
460.358	92.38
460.578	89.38
460.798	128.38
461.018	128.38
461.238	92.38
461.458	76.38
461.678	86.38
461.898	81.38
462.118	87.38
462.338	80.38
462.558	84.38
462.777	80.38
462.997	84.38
463.217	101.38
463.437	88.38
463.657	78.38
463.876	92.38
464.096	79.38
464.316	86.38
464.536	88.38
464.755	82.38
464.975	84.38
465.195	76.38
465.414	95.38
465.634	82.38
465.854	89.38
466.073	88.38
466.293	84.38
466.512	94.38
466.732	89.38
466.951	90.38
467.171	74.38
467.391	89.38
467.61	84.38
467.829	97.38
468.049	84.38
468.268	90.38
468.488	104.38
468.707	84.38
468.927	83.38
469.146	88.38
469.365	71.38
469.585	70.38
469.804	91.38
470.023	77.38
470.243	87.38
470.462	81.38
470.681	81.38
470.901	73.38
471.12	82.38
471.339	73.38
471.558	85.38
471.777	78.38
471.997	77.38
472.216	79.38
472.435	85.38
472.654	88.38
472.873	98.38
473.092	72.38
473.311	75.38
473.53	78.38
473.749	100.38
473.968	86.38
474.187	78.38
474.406	91.38
474.625	91.38
474.844	95.38
475.063	90.38
475.282	84.38
475.501	71.38
475.72	93.38
475.939	83.38
476.158	92.38
476.377	91.38
476.596	84.38
476.814	87.38
477.033	83.38
477.252	76.38
477.471	84.38
477.69	86.38
477.908	89.38
478.127	104.38
478.346	81.38
478.564	90.38
478.783	96.38
479.002	88.38
479.22	97.38
479.439	96.38
479.658	83.38
479.876	79.38
480.095	90.38
480.313	87.38
480.532	88.38
480.751	91.38
480.969	96.38
481.188	89.38
481.406	96.38
481.624	92.38
481.843	81.38
482.061	85.38
482.28	82.38
482.498	90.38
482.717	73.38
482.935	89.38
483.153	98.38
483.372	95.38
483.59	98.38
483.808	97.38
484.027	90.38
484.245	88.38
484.463	82.38
484.681	104.38
484.9	86.38
485.118	87.38
485.336	84.38
485.554	97.38
485.772	78.38
485.99	85.38
486.209	80.38
486.427	89.38
486.645	80.38
486.863	96.38
487.081	97.38
487.299	93.38
487.517	92.38
487.735	98.38
487.953	171.38
488.171	146.38
488.389	97.38
488.607	98.38
488.825	87.38
489.043	78.38
489.261	92.38
489.479	86.38
489.696	78.38
489.914	89.38
490.132	83.38
490.35	88.38
490.568	77.38
490.786	85.38
491.003	87.38
491.221	87.38
491.439	90.38
491.657	75.38
491.874	87.38
492.092	86.38
492.31	101.38
492.527	97.38
492.745	94.38
492.963	90.38
493.18	96.38
493.398	94.38
493.615	107.38
493.833	95.38
494.05	82.38
494.268	88.38
494.485	87.38
494.703	88.38
494.92	83.38
495.138	82.38
495.355	86.38
495.573	97.38
495.79	100.38
496.008	96.38
496.225	83.38
496.442	108.38
496.66	102.38
496.877	77.38
497.094	100.38
497.312	76.38
497.529	88.38
497.746	93.38
497.963	81.38
498.181	93.38
498.398	116.38
498.615	102.38
498.832	92.38
499.049	96.38
499.267	101.38
499.484	94.38
499.701	86.38
499.918	88.38
500.135	104.38
500.352	86.38
500.569	95.38
500.786	93.38
501.003	100.38
501.22	101.38
501.437	101.38
501.654	96.38
501.871	95.38
502.088	86.38
502.305	96.38
502.522	94.38
502.739	92.38
502.956	93.38
503.172	92.38
503.389	90.38
503.606	85.38
503.823	105.38
504.04	99.38
504.256	132.38
504.473	124.38
504.69	91.38
504.907	96.38
505.123	105.38
505.34	88.38
505.557	77.38
505.773	83.38
505.99	84.38
506.207	91.38
506.423	79.38
506.64	88.38
506.856	83.38
507.073	80.38
507.289	78.38
507.506	94.38
507.722	88.38
507.939	84.38
508.155	89.38
508.372	78.38
508.588	93.38
508.805	100.38
509.021	84.38
509.238	90.38
509.454	89.38
509.67	82.38
509.887	88.38
510.103	88.38
510.319	88.38
510.536	89.38
510.752	81.38
510.968	85.38
511.184	93.38
511.401	91.38
511.617	88.38
511.833	96.38
512.049	96.38
512.265	88.38
512.481	84.38
512.698	97.38
512.914	100.38
513.13	84.38
513.346	85.38
513.562	90.38
513.778	80.38
513.994	88.38
514.21	85.38
514.426	96.38
514.642	76.38
514.858	92.38
515.074	81.38
515.29	88.38
515.506	88.38
515.721	96.38
515.937	87.38
516.153	99.38
516.369	102.38
516.585	80.38
