Data from 15780_2_HRD10591_00037.txt Node
Date: Mon Jan 19 14:19:22 EST 2026
User: Yrep
Spectrometer: HR+D1059
Trigger mode: 1
Integration Time (sec): 1.000000E-1
Scans to average: 1
Electric dark correction enabled: true
Nonlinearity correction enabled: false
Boxcar width: 0
XAxis mode: Wavelengths
Number of Pixels in Spectrum: 2048
>>>>>Begin Spectral Data<<<<<
223.165	-13.25
223.4	-13.25
223.635	-13.25
223.869	-22.25
224.104	-29.25
224.338	-7.25
224.573	-19.25
224.808	-18.25
225.042	-4.25
225.277	-1.25
225.511	-4.25
225.746	5.75
225.98	12.75
226.215	20.75
226.449	21.75
226.683	13.75
226.918	18.75
227.152	25.75
227.387	41.75
227.621	46.75
227.856	58.75
228.09	50.75
228.324	57.75
228.559	64.75
228.793	68.75
229.027	68.75
229.262	67.75
229.496	68.75
229.73	62.75
229.964	80.75
230.199	74.75
230.433	83.75
230.667	74.75
230.901	76.75
231.136	75.75
231.37	82.75
231.604	64.75
231.838	85.75
232.072	90.75
232.306	84.75
232.541	69.75
232.775	78.75
233.009	90.75
233.243	83.75
233.477	91.75
233.711	75.75
233.945	86.75
234.179	81.75
234.413	85.75
234.647	76.75
234.881	84.75
235.115	76.75
235.349	69.75
235.583	86.75
235.817	88.75
236.051	86.75
236.285	84.75
236.519	69.75
236.753	78.75
236.987	81.75
237.221	76.75
237.455	80.75
237.689	73.75
237.922	73.75
238.156	75.75
238.39	82.75
238.624	78.75
238.858	66.75
239.091	78.75
239.325	76.75
239.559	78.75
239.793	83.75
240.027	62.75
240.26	78.75
240.494	77.75
240.728	80.75
240.961	81.75
241.195	78.75
241.429	69.75
241.662	75.75
241.896	70.75
242.13	74.75
242.363	78.75
242.597	79.75
242.83	74.75
243.064	74.75
243.298	77.75
243.531	76.75
243.765	73.75
243.998	72.75
244.232	64.75
244.465	83.75
244.699	84.75
244.932	81.75
245.166	83.75
245.399	87.75
245.633	75.75
245.866	84.75
246.099	81.75
246.333	73.75
246.566	79.75
246.8	63.75
247.033	83.75
247.266	66.75
247.5	72.75
247.733	77.75
247.966	62.75
248.2	88.75
248.433	76.75
248.666	77.75
248.899	76.75
249.133	83.75
249.366	86.75
249.599	79.75
249.832	82.75
250.066	81.75
250.299	78.75
250.532	87.75
250.765	85.75
250.998	76.75
251.231	80.75
251.465	63.75
251.698	98.75
251.931	72.75
252.164	83.75
252.397	86.75
252.63	69.75
252.863	76.75
253.096	82.75
253.329	86.75
253.562	75.75
253.795	83.75
254.028	80.75
254.261	89.75
254.494	81.75
254.727	71.75
254.96	85.75
255.193	78.75
255.426	85.75
255.659	84.75
255.892	82.75
256.124	86.75
256.357	86.75
256.59	74.75
256.823	70.75
257.056	82.75
257.289	81.75
257.521	89.75
257.754	70.75
257.987	85.75
258.22	96.75
258.452	88.75
258.685	65.75
258.918	84.75
259.151	77.75
259.383	102.75
259.616	100.75
259.849	84.75
260.081	89.75
260.314	88.75
260.547	85.75
260.779	64.75
261.012	79.75
261.244	73.75
261.477	87.75
261.71	82.75
261.942	84.75
262.175	95.75
262.407	83.75
262.64	72.75
262.872	84.75
263.105	87.75
263.337	74.75
263.57	80.75
263.802	84.75
264.035	83.75
264.267	78.75
264.499	89.75
264.732	84.75
264.964	82.75
265.197	86.75
265.429	76.75
265.661	87.75
265.894	78.75
266.126	100.75
266.358	87.75
266.591	72.75
266.823	86.75
267.055	88.75
267.287	78.75
267.52	88.75
267.752	82.75
267.984	83.75
268.216	72.75
268.448	81.75
268.681	72.75
268.913	99.75
269.145	80.75
269.377	87.75
269.609	87.75
269.841	81.75
270.073	70.75
270.306	85.75
270.538	81.75
270.77	87.75
271.002	85.75
271.234	89.75
271.466	92.75
271.698	100.75
271.93	87.75
272.162	76.75
272.394	79.75
272.626	82.75
272.858	100.75
273.09	98.75
273.322	86.75
273.553	70.75
273.785	82.75
274.017	75.75
274.249	92.75
274.481	84.75
274.713	78.75
274.945	77.75
275.176	85.75
275.408	74.75
275.64	98.75
275.872	72.75
276.104	70.75
276.335	99.75
276.567	97.75
276.799	88.75
277.031	72.75
277.262	68.75
277.494	98.75
277.726	76.75
277.957	84.75
278.189	78.75
278.421	79.75
278.652	71.75
278.884	88.75
279.115	86.75
279.347	82.75
279.579	90.75
279.81	81.75
280.042	89.75
280.273	75.75
280.505	84.75
280.736	86.75
280.968	82.75
281.199	92.75
281.431	94.75
281.662	90.75
281.894	85.75
282.125	89.75
282.356	95.75
282.588	78.75
282.819	92.75
283.051	92.75
283.282	86.75
283.513	78.75
283.745	88.75
283.976	86.75
284.207	82.75
284.439	92.75
284.67	90.75
284.901	86.75
285.132	81.75
285.364	83.75
285.595	96.75
285.826	86.75
286.057	88.75
286.288	86.75
286.52	93.75
286.751	68.75
286.982	78.75
287.213	82.75
287.444	89.75
287.675	81.75
287.906	78.75
288.138	108.75
288.369	85.75
288.6	88.75
288.831	74.75
289.062	76.75
289.293	80.75
289.524	80.75
289.755	86.75
289.986	90.75
290.217	83.75
290.448	79.75
290.679	71.75
290.91	88.75
291.141	83.75
291.371	88.75
291.602	85.75
291.833	83.75
292.064	92.75
292.295	86.75
292.526	97.75
292.757	82.75
292.987	77.75
293.218	66.75
293.449	80.75
293.68	85.75
293.91	80.75
294.141	97.75
294.372	88.75
294.603	82.75
294.833	84.75
295.064	85.75
295.295	78.75
295.525	82.75
295.756	94.75
295.987	78.75
296.217	92.75
296.448	92.75
296.679	100.75
296.909	81.75
297.14	89.75
297.37	94.75
297.601	100.75
297.831	92.75
298.062	88.75
298.292	98.75
298.523	87.75
298.753	85.75
298.984	84.75
299.214	85.75
299.445	82.75
299.675	87.75
299.905	94.75
300.136	92.75
300.366	72.75
300.597	79.75
300.827	97.75
301.057	89.75
301.288	86.75
301.518	88.75
301.748	96.75
301.979	108.75
302.209	101.75
302.439	100.75
302.669	87.75
302.9	83.75
303.13	85.75
303.36	78.75
303.59	86.75
303.82	88.75
304.051	88.75
304.281	91.75
304.511	88.75
304.741	93.75
304.971	90.75
305.201	89.75
305.431	94.75
305.661	68.75
305.891	92.75
306.121	91.75
306.352	87.75
306.582	100.75
306.812	92.75
307.042	91.75
307.272	93.75
307.502	87.75
307.731	76.75
307.961	97.75
308.191	98.75
308.421	98.75
308.651	93.75
308.881	96.75
309.111	101.75
309.341	117.75
309.571	98.75
309.8	76.75
310.03	92.75
310.26	78.75
310.49	72.75
310.72	86.75
310.949	84.75
311.179	90.75
311.409	92.75
311.639	87.75
311.868	83.75
312.098	91.75
312.328	78.75
312.557	76.75
312.787	81.75
313.017	80.75
313.246	81.75
313.476	79.75
313.706	84.75
313.935	82.75
314.165	100.75
314.394	71.75
314.624	82.75
314.853	88.75
315.083	99.75
315.312	84.75
315.542	86.75
315.771	84.75
316.001	89.75
316.23	84.75
316.46	76.75
316.689	80.75
316.919	98.75
317.148	96.75
317.377	88.75
317.607	100.75
317.836	94.75
318.065	111.75
318.295	90.75
318.524	96.75
318.753	76.75
318.983	89.75
319.212	88.75
319.441	87.75
319.67	95.75
319.9	89.75
320.129	76.75
320.358	108.75
320.587	86.75
320.816	79.75
321.046	75.75
321.275	84.75
321.504	98.75
321.733	84.75
321.962	85.75
322.191	74.75
322.42	88.75
322.649	88.75
322.878	101.75
323.108	93.75
323.337	96.75
323.566	95.75
323.795	91.75
324.024	89.75
324.253	82.75
324.482	86.75
324.71	97.75
324.939	89.75
325.168	89.75
325.397	82.75
325.626	84.75
325.855	83.75
326.084	89.75
326.313	84.75
326.542	91.75
326.77	75.75
326.999	85.75
327.228	92.75
327.457	79.75
327.686	86.75
327.914	103.75
328.143	85.75
328.372	96.75
328.6	69.75
328.829	79.75
329.058	86.75
329.287	74.75
329.515	85.75
329.744	90.75
329.972	77.75
330.201	97.75
330.43	92.75
330.658	90.75
330.887	82.75
331.115	78.75
331.344	82.75
331.572	91.75
331.801	76.75
332.03	81.75
332.258	102.75
332.486	77.75
332.715	85.75
332.943	88.75
333.172	82.75
333.4	81.75
333.629	98.75
333.857	73.75
334.085	98.75
334.314	80.75
334.542	79.75
334.771	91.75
334.999	98.75
335.227	94.75
335.455	93.75
335.684	94.75
335.912	102.75
336.14	98.75
336.369	98.75
336.597	90.75
336.825	88.75
337.053	78.75
337.281	85.75
337.51	80.75
337.738	94.75
337.966	93.75
338.194	88.75
338.422	82.75
338.65	98.75
338.878	96.75
339.106	84.75
339.334	81.75
339.562	90.75
339.79	84.75
340.018	89.75
340.246	74.75
340.474	92.75
340.702	88.75
340.93	86.75
341.158	75.75
341.386	96.75
341.614	85.75
341.842	88.75
342.07	91.75
342.298	86.75
342.526	85.75
342.754	96.75
342.981	77.75
343.209	98.75
343.437	93.75
343.665	99.75
343.893	92.75
344.12	97.75
344.348	91.75
344.576	100.75
344.804	75.75
345.031	82.75
345.259	99.75
345.487	93.75
345.714	82.75
345.942	83.75
346.17	97.75
346.397	88.75
346.625	98.75
346.853	84.75
347.08	73.75
347.308	69.75
347.535	83.75
347.763	88.75
347.99	98.75
348.218	81.75
348.445	79.75
348.673	76.75
348.9	75.75
349.128	82.75
349.355	90.75
349.583	91.75
349.81	84.75
350.037	97.75
350.265	92.75
350.492	90.75
350.72	89.75
350.947	80.75
351.174	85.75
351.402	80.75
351.629	88.75
351.856	90.75
352.083	76.75
352.311	87.75
352.538	82.75
352.765	87.75
352.992	92.75
353.22	77.75
353.447	99.75
353.674	93.75
353.901	84.75
354.128	88.75
354.355	72.75
354.583	77.75
354.81	90.75
355.037	91.75
355.264	77.75
355.491	82.75
355.718	88.75
355.945	83.75
356.172	82.75
356.399	82.75
356.626	94.75
356.853	100.75
357.08	97.75
357.307	88.75
357.534	97.75
357.761	105.75
357.988	108.75
358.215	101.75
358.441	87.75
358.668	95.75
358.895	85.75
359.122	91.75
359.349	91.75
359.576	91.75
359.802	83.75
360.029	71.75
360.256	96.75
360.483	82.75
360.709	82.75
360.936	108.75
361.163	98.75
361.39	96.75
361.616	86.75
361.843	82.75
362.07	101.75
362.296	94.75
362.523	100.75
362.749	105.75
362.976	104.75
363.203	110.75
363.429	99.75
363.656	94.75
363.882	85.75
364.109	92.75
364.335	114.75
364.562	108.75
364.788	104.75
365.015	104.75
365.241	95.75
365.468	84.75
365.694	85.75
365.92	91.75
366.147	92.75
366.373	88.75
366.599	86.75
366.826	85.75
367.052	86.75
367.278	88.75
367.505	84.75
367.731	93.75
367.957	79.75
368.184	93.75
368.41	91.75
368.636	90.75
368.862	79.75
369.089	78.75
369.315	76.75
369.541	79.75
369.767	84.75
369.993	104.75
370.219	98.75
370.445	100.75
370.672	96.75
370.898	102.75
371.124	91.75
371.35	80.75
371.576	108.75
371.802	107.75
372.028	89.75
372.254	110.75
372.48	98.75
372.706	66.75
372.932	110.75
373.158	88.75
373.384	98.75
373.61	116.75
373.835	110.75
374.061	108.75
374.287	94.75
374.513	116.75
374.739	108.75
374.965	104.75
375.191	104.75
375.416	89.75
375.642	101.75
375.868	102.75
376.094	84.75
376.319	92.75
376.545	97.75
376.771	95.75
376.997	99.75
377.222	93.75
377.448	97.75
377.674	86.75
377.899	84.75
378.125	91.75
378.35	104.75
378.576	84.75
378.802	84.75
379.027	92.75
379.253	97.75
379.478	85.75
379.704	95.75
379.929	93.75
380.155	77.75
380.38	92.75
380.606	77.75
380.831	88.75
381.057	86.75
381.282	109.75
381.507	115.75
381.733	90.75
381.958	100.75
382.184	113.75
382.409	107.75
382.634	96.75
382.86	100.75
383.085	103.75
383.31	104.75
383.535	109.75
383.761	101.75
383.986	92.75
384.211	89.75
384.436	78.75
384.662	105.75
384.887	85.75
385.112	98.75
385.337	105.75
385.562	98.75
385.787	104.75
386.013	105.75
386.238	103.75
386.463	107.75
386.688	103.75
386.913	83.75
387.138	87.75
387.363	105.75
387.588	112.75
387.813	100.75
388.038	93.75
388.263	100.75
388.488	94.75
388.713	98.75
388.938	89.75
389.163	85.75
389.387	93.75
389.612	92.75
389.837	88.75
390.062	103.75
390.287	98.75
390.512	99.75
390.736	86.75
390.961	73.75
391.186	86.75
391.411	86.75
391.636	93.75
391.86	89.75
392.085	87.75
392.31	96.75
392.534	113.75
392.759	123.75
392.984	182.75
393.208	320.75
393.433	515.75
393.658	366.75
393.882	152.75
394.107	109.75
394.331	128.75
394.556	159.75
394.78	91.75
395.005	95.75
395.229	101.75
395.454	84.75
395.678	100.75
395.903	134.75
396.127	157.75
396.352	176.75
396.576	215.75
396.801	318.75
397.025	397.75
397.249	189.75
397.474	130.75
397.698	105.75
397.922	81.75
398.147	92.75
398.371	98.75
398.595	92.75
398.82	88.75
399.044	96.75
399.268	86.75
399.492	100.75
399.717	88.75
399.941	92.75
400.165	70.75
400.389	94.75
400.613	84.75
400.837	97.75
401.062	73.75
401.286	104.75
401.51	72.75
401.734	91.75
401.958	79.75
402.182	82.75
402.406	74.75
402.63	89.75
402.854	104.75
403.078	93.75
403.302	114.75
403.526	93.75
403.75	101.75
403.974	91.75
404.198	97.75
404.422	121.75
404.645	135.75
404.869	128.75
405.093	94.75
405.317	81.75
405.541	96.75
405.765	68.75
405.988	92.75
406.212	98.75
406.436	82.75
406.66	93.75
406.883	85.75
407.107	103.75
407.331	86.75
407.555	105.75
407.778	116.75
408.002	135.75
408.226	87.75
408.449	86.75
408.673	89.75
408.896	76.75
409.12	86.75
409.344	84.75
409.567	82.75
409.791	89.75
410.014	90.75
410.238	97.75
410.461	92.75
410.685	104.75
410.908	72.75
411.132	77.75
411.355	93.75
411.578	85.75
411.802	89.75
412.025	74.75
412.249	84.75
412.472	76.75
412.695	80.75
412.919	80.75
413.142	92.75
413.365	82.75
413.589	92.75
413.812	84.75
414.035	81.75
414.258	95.75
414.482	97.75
414.705	82.75
414.928	82.75
415.151	79.75
415.374	95.75
415.597	74.75
415.821	92.75
416.044	93.75
416.267	73.75
416.49	104.75
416.713	96.75
416.936	84.75
417.159	75.75
417.382	83.75
417.605	75.75
417.828	84.75
418.051	87.75
418.274	68.75
418.497	88.75
418.72	83.75
418.943	78.75
419.166	89.75
419.389	88.75
419.611	96.75
419.834	81.75
420.057	84.75
420.28	92.75
420.503	96.75
420.726	92.75
420.948	91.75
421.171	87.75
421.394	105.75
421.617	112.75
421.839	117.75
422.062	107.75
422.285	145.75
422.507	271.75
422.73	430.75
422.953	356.75
423.175	190.75
423.398	120.75
423.621	100.75
423.843	77.75
424.066	94.75
424.288	89.75
424.511	87.75
424.733	84.75
424.956	86.75
425.178	74.75
425.401	92.75
425.623	89.75
425.846	83.75
426.068	68.75
426.291	86.75
426.513	80.75
426.735	98.75
426.958	84.75
427.18	97.75
427.402	93.75
427.625	80.75
427.847	84.75
428.069	102.75
428.292	119.75
428.514	136.75
428.736	129.75
428.958	133.75
429.181	141.75
429.403	112.75
429.625	100.75
429.847	104.75
430.069	162.75
430.292	188.75
430.514	185.75
430.736	142.75
430.958	144.75
431.18	100.75
431.402	91.75
431.624	96.75
431.846	112.75
432.068	137.75
432.29	98.75
432.512	96.75
432.734	82.75
432.956	87.75
433.178	87.75
433.4	75.75
433.622	66.75
433.844	90.75
434.066	82.75
434.287	82.75
434.509	94.75
434.731	98.75
434.953	89.75
435.175	92.75
435.397	83.75
435.618	101.75
435.84	76.75
436.062	80.75
436.284	85.75
436.505	82.75
436.727	92.75
436.949	94.75
437.17	67.75
437.392	76.75
437.614	78.75
437.835	92.75
438.057	68.75
438.278	87.75
438.5	95.75
438.721	98.75
438.943	91.75
439.165	96.75
439.386	92.75
439.608	89.75
439.829	88.75
440.05	64.75
440.272	79.75
440.493	94.75
440.715	93.75
440.936	88.75
441.158	88.75
441.379	76.75
441.6	88.75
441.822	98.75
442.043	86.75
442.264	97.75
442.486	120.75
442.707	159.75
442.928	120.75
443.149	109.75
443.371	137.75
443.592	250.75
443.813	211.75
444.034	102.75
444.255	73.75
444.476	72.75
444.698	95.75
444.919	111.75
445.14	209.75
445.361	219.75
445.582	279.75
445.803	235.75
446.024	120.75
446.245	98.75
446.466	76.75
446.687	77.75
446.908	90.75
447.129	92.75
447.35	92.75
447.571	85.75
447.792	76.75
448.013	78.75
448.234	90.75
448.455	77.75
448.675	78.75
448.896	100.75
449.117	73.75
449.338	91.75
449.559	95.75
449.779	80.75
450	79.75
450.221	98.75
450.442	99.75
450.662	80.75
450.883	80.75
451.104	79.75
451.324	93.75
451.545	88.75
451.766	85.75
451.986	82.75
452.207	86.75
452.428	88.75
452.648	88.75
452.869	87.75
453.089	92.75
453.31	84.75
453.53	106.75
453.751	107.75
453.971	84.75
454.192	72.75
454.412	93.75
454.633	77.75
454.853	84.75
455.073	90.75
455.294	88.75
455.514	102.75
455.734	94.75
455.955	80.75
456.175	87.75
456.395	85.75
456.616	90.75
456.836	75.75
457.056	76.75
457.276	93.75
457.497	80.75
457.717	92.75
457.937	94.75
458.157	102.75
458.377	100.75
458.598	108.75
458.818	104.75
459.038	86.75
459.258	74.75
459.478	90.75
459.698	88.75
459.918	81.75
460.138	90.75
460.358	86.75
460.578	91.75
460.798	121.75
461.018	122.75
461.238	92.75
461.458	94.75
461.678	85.75
461.898	103.75
462.118	92.75
462.338	88.75
462.558	85.75
462.777	86.75
462.997	85.75
463.217	87.75
463.437	86.75
463.657	91.75
463.876	79.75
464.096	82.75
464.316	80.75
464.536	88.75
464.755	91.75
464.975	95.75
465.195	92.75
465.414	79.75
465.634	93.75
465.854	105.75
466.073	82.75
466.293	86.75
466.512	86.75
466.732	81.75
466.951	91.75
467.171	78.75
467.391	88.75
467.61	68.75
467.829	93.75
468.049	99.75
468.268	89.75
468.488	100.75
468.707	88.75
468.927	78.75
469.146	98.75
469.365	92.75
469.585	82.75
469.804	82.75
470.023	76.75
470.243	93.75
470.462	80.75
470.681	84.75
470.901	89.75
471.12	88.75
471.339	100.75
471.558	85.75
471.777	73.75
471.997	88.75
472.216	83.75
472.435	86.75
472.654	75.75
472.873	86.75
473.092	96.75
473.311	89.75
473.53	84.75
473.749	89.75
473.968	89.75
474.187	78.75
474.406	89.75
474.625	90.75
474.844	94.75
475.063	89.75
475.282	96.75
475.501	78.75
475.72	92.75
475.939	96.75
476.158	75.75
476.377	84.75
476.596	88.75
476.814	78.75
477.033	82.75
477.252	73.75
477.471	92.75
477.69	91.75
477.908	88.75
478.127	97.75
478.346	82.75
478.564	74.75
478.783	95.75
479.002	86.75
479.22	102.75
479.439	84.75
479.658	92.75
479.876	98.75
480.095	86.75
480.313	89.75
480.532	84.75
480.751	85.75
480.969	84.75
481.188	85.75
481.406	91.75
481.624	76.75
481.843	92.75
482.061	86.75
482.28	102.75
482.498	84.75
482.717	85.75
482.935	105.75
483.153	78.75
483.372	83.75
483.59	89.75
483.808	85.75
484.027	87.75
484.245	96.75
484.463	86.75
484.681	83.75
484.9	80.75
485.118	97.75
485.336	85.75
485.554	85.75
485.772	74.75
485.99	94.75
486.209	98.75
486.427	77.75
486.645	84.75
486.863	85.75
487.081	86.75
487.299	99.75
487.517	97.75
487.735	102.75
487.953	138.75
488.171	118.75
488.389	105.75
488.607	84.75
488.825	86.75
489.043	88.75
489.261	93.75
489.479	97.75
489.696	86.75
489.914	101.75
490.132	81.75
490.35	84.75
490.568	82.75
490.786	77.75
491.003	74.75
491.221	94.75
491.439	87.75
491.657	92.75
491.874	94.75
492.092	109.75
492.31	92.75
492.527	85.75
492.745	84.75
492.963	92.75
493.18	92.75
493.398	87.75
493.615	93.75
493.833	91.75
494.05	91.75
494.268	73.75
494.485	83.75
494.703	96.75
494.92	80.75
495.138	89.75
495.355	101.75
495.573	93.75
495.79	84.75
496.008	93.75
496.225	100.75
496.442	84.75
496.66	105.75
496.877	97.75
497.094	92.75
497.312	100.75
497.529	78.75
497.746	88.75
497.963	88.75
498.181	92.75
498.398	96.75
498.615	99.75
498.832	94.75
499.049	92.75
499.267	99.75
499.484	108.75
499.701	79.75
499.918	82.75
500.135	93.75
500.352	87.75
500.569	83.75
500.786	94.75
501.003	92.75
501.22	101.75
501.437	96.75
501.654	109.75
501.871	96.75
502.088	99.75
502.305	83.75
502.522	84.75
502.739	86.75
502.956	86.75
503.172	83.75
503.389	85.75
503.606	90.75
503.823	90.75
504.04	99.75
504.256	120.75
504.473	112.75
504.69	79.75
504.907	108.75
505.123	82.75
505.34	87.75
505.557	96.75
505.773	91.75
505.99	93.75
506.207	96.75
506.423	88.75
506.64	88.75
506.856	100.75
507.073	88.75
507.289	88.75
507.506	97.75
507.722	83.75
507.939	72.75
508.155	80.75
508.372	80.75
508.588	85.75
508.805	96.75
509.021	89.75
509.238	94.75
509.454	101.75
509.67	93.75
509.887	91.75
510.103	87.75
510.319	86.75
510.536	90.75
510.752	90.75
510.968	95.75
511.184	77.75
511.401	92.75
511.617	95.75
511.833	83.75
512.049	81.75
512.265	77.75
512.481	98.75
512.698	89.75
512.914	90.75
513.13	97.75
513.346	84.75
513.562	103.75
513.778	88.75
513.994	94.75
514.21	85.75
514.426	96.75
514.642	93.75
514.858	78.75
515.074	89.75
515.29	96.75
515.506	96.75
515.721	92.75
515.937	92.75
516.153	99.75
516.369	91.75
516.585	91.75
516.801	88.75
517.016	98.75
517.232	93.75
517.448	109.75
