Data from 15780_2_HRD10591_00035.txt Node
Date: Mon Jan 19 14:19:21 EST 2026
User: Yrep
Spectrometer: HR+D1059
Trigger mode: 1
Integration Time (sec): 1.000000E-1
Scans to average: 1
Electric dark correction enabled: true
Nonlinearity correction enabled: false
Boxcar width: 0
XAxis mode: Wavelengths
Number of Pixels in Spectrum: 2048
>>>>>Begin Spectral Data<<<<<
223.165	-18.44
223.4	-18.44
223.635	-18.44
223.869	-12.44
224.104	-16.44
224.338	-22.44
224.573	-10.44
224.808	-8.44
225.042	4.56
225.277	-3.44
225.511	6.56
225.746	-0.44
225.98	-0.44
226.215	13.56
226.449	17.56
226.683	20.56
226.918	15.56
227.152	14.56
227.387	44.56
227.621	40.56
227.856	45.56
228.09	36.56
228.324	51.56
228.559	64.56
228.793	63.56
229.027	70.56
229.262	60.56
229.496	63.56
229.73	55.56
229.964	61.56
230.199	66.56
230.433	67.56
230.667	88.56
230.901	75.56
231.136	67.56
231.37	84.56
231.604	77.56
231.838	75.56
232.072	77.56
232.306	83.56
232.541	104.56
232.775	80.56
233.009	87.56
233.243	82.56
233.477	79.56
233.711	72.56
233.945	75.56
234.179	90.56
234.413	85.56
234.647	89.56
234.881	80.56
235.115	82.56
235.349	74.56
235.583	78.56
235.817	81.56
236.051	70.56
236.285	81.56
236.519	65.56
236.753	77.56
236.987	76.56
237.221	73.56
237.455	75.56
237.689	87.56
237.922	78.56
238.156	74.56
238.39	84.56
238.624	71.56
238.858	70.56
239.091	69.56
239.325	77.56
239.559	71.56
239.793	74.56
240.027	84.56
240.26	75.56
240.494	76.56
240.728	70.56
240.961	66.56
241.195	87.56
241.429	82.56
241.662	81.56
241.896	70.56
242.13	97.56
242.363	71.56
242.597	73.56
242.83	69.56
243.064	84.56
243.298	74.56
243.531	73.56
243.765	74.56
243.998	74.56
244.232	94.56
244.465	73.56
244.699	78.56
244.932	77.56
245.166	74.56
245.399	76.56
245.633	85.56
245.866	85.56
246.099	88.56
246.333	72.56
246.566	77.56
246.8	77.56
247.033	68.56
247.266	83.56
247.5	87.56
247.733	75.56
247.966	81.56
248.2	80.56
248.433	86.56
248.666	76.56
248.899	81.56
249.133	88.56
249.366	79.56
249.599	83.56
249.832	67.56
250.066	92.56
250.299	73.56
250.532	83.56
250.765	70.56
250.998	80.56
251.231	86.56
251.465	87.56
251.698	85.56
251.931	75.56
252.164	72.56
252.397	85.56
252.63	79.56
252.863	84.56
253.096	79.56
253.329	78.56
253.562	77.56
253.795	89.56
254.028	81.56
254.261	77.56
254.494	75.56
254.727	79.56
254.96	85.56
255.193	74.56
255.426	73.56
255.659	75.56
255.892	85.56
256.124	81.56
256.357	80.56
256.59	79.56
256.823	74.56
257.056	69.56
257.289	77.56
257.521	83.56
257.754	90.56
257.987	80.56
258.22	83.56
258.452	83.56
258.685	84.56
258.918	71.56
259.151	75.56
259.383	83.56
259.616	86.56
259.849	74.56
260.081	76.56
260.314	73.56
260.547	81.56
260.779	79.56
261.012	81.56
261.244	89.56
261.477	80.56
261.71	84.56
261.942	81.56
262.175	85.56
262.407	85.56
262.64	95.56
262.872	91.56
263.105	81.56
263.337	89.56
263.57	77.56
263.802	76.56
264.035	82.56
264.267	73.56
264.499	70.56
264.732	82.56
264.964	67.56
265.197	87.56
265.429	73.56
265.661	90.56
265.894	96.56
266.126	77.56
266.358	81.56
266.591	84.56
266.823	92.56
267.055	91.56
267.287	69.56
267.52	73.56
267.752	88.56
267.984	86.56
268.216	82.56
268.448	75.56
268.681	82.56
268.913	89.56
269.145	85.56
269.377	97.56
269.609	90.56
269.841	76.56
270.073	73.56
270.306	92.56
270.538	83.56
270.77	82.56
271.002	80.56
271.234	86.56
271.466	77.56
271.698	91.56
271.93	89.56
272.162	76.56
272.394	78.56
272.626	83.56
272.858	84.56
273.09	84.56
273.322	95.56
273.553	83.56
273.785	75.56
274.017	89.56
274.249	86.56
274.481	84.56
274.713	76.56
274.945	78.56
275.176	87.56
275.408	85.56
275.64	87.56
275.872	91.56
276.104	92.56
276.335	84.56
276.567	80.56
276.799	59.56
277.031	67.56
277.262	91.56
277.494	84.56
277.726	75.56
277.957	93.56
278.189	75.56
278.421	88.56
278.652	81.56
278.884	70.56
279.115	78.56
279.347	70.56
279.579	91.56
279.81	79.56
280.042	84.56
280.273	91.56
280.505	74.56
280.736	84.56
280.968	92.56
281.199	65.56
281.431	74.56
281.662	86.56
281.894	94.56
282.125	80.56
282.356	82.56
282.588	76.56
282.819	69.56
283.051	90.56
283.282	71.56
283.513	83.56
283.745	77.56
283.976	78.56
284.207	92.56
284.439	91.56
284.67	86.56
284.901	73.56
285.132	96.56
285.364	78.56
285.595	97.56
285.826	73.56
286.057	80.56
286.288	95.56
286.52	96.56
286.751	89.56
286.982	77.56
287.213	91.56
287.444	92.56
287.675	96.56
287.906	91.56
288.138	85.56
288.369	77.56
288.6	83.56
288.831	81.56
289.062	88.56
289.293	87.56
289.524	74.56
289.755	83.56
289.986	85.56
290.217	91.56
290.448	89.56
290.679	85.56
290.91	100.56
291.141	88.56
291.371	77.56
291.602	77.56
291.833	83.56
292.064	85.56
292.295	80.56
292.526	80.56
292.757	88.56
292.987	94.56
293.218	82.56
293.449	62.56
293.68	79.56
293.91	77.56
294.141	81.56
294.372	67.56
294.603	90.56
294.833	81.56
295.064	90.56
295.295	85.56
295.525	83.56
295.756	73.56
295.987	79.56
296.217	81.56
296.448	86.56
296.679	91.56
296.909	93.56
297.14	88.56
297.37	73.56
297.601	83.56
297.831	81.56
298.062	75.56
298.292	81.56
298.523	93.56
298.753	89.56
298.984	81.56
299.214	73.56
299.445	91.56
299.675	81.56
299.905	95.56
300.136	88.56
300.366	79.56
300.597	76.56
300.827	83.56
301.057	91.56
301.288	85.56
301.518	88.56
301.748	68.56
301.979	90.56
302.209	75.56
302.439	84.56
302.669	81.56
302.9	87.56
303.13	74.56
303.36	98.56
303.59	96.56
303.82	93.56
304.051	85.56
304.281	78.56
304.511	88.56
304.741	81.56
304.971	90.56
305.201	77.56
305.431	89.56
305.661	86.56
305.891	83.56
306.121	89.56
306.352	96.56
306.582	82.56
306.812	80.56
307.042	81.56
307.272	63.56
307.502	76.56
307.731	84.56
307.961	83.56
308.191	79.56
308.421	78.56
308.651	85.56
308.881	90.56
309.111	96.56
309.341	81.56
309.571	97.56
309.8	89.56
310.03	99.56
310.26	78.56
310.49	77.56
310.72	76.56
310.949	85.56
311.179	92.56
311.409	80.56
311.639	92.56
311.868	89.56
312.098	86.56
312.328	81.56
312.557	80.56
312.787	78.56
313.017	77.56
313.246	85.56
313.476	84.56
313.706	75.56
313.935	77.56
314.165	77.56
314.394	74.56
314.624	88.56
314.853	75.56
315.083	96.56
315.312	79.56
315.542	69.56
315.771	84.56
316.001	80.56
316.23	106.56
316.46	82.56
316.689	71.56
316.919	83.56
317.148	82.56
317.377	82.56
317.607	86.56
317.836	74.56
318.065	84.56
318.295	98.56
318.524	82.56
318.753	77.56
318.983	75.56
319.212	85.56
319.441	78.56
319.67	106.56
319.9	93.56
320.129	90.56
320.358	82.56
320.587	89.56
320.816	75.56
321.046	85.56
321.275	83.56
321.504	83.56
321.733	92.56
321.962	76.56
322.191	81.56
322.42	90.56
322.649	89.56
322.878	81.56
323.108	86.56
323.337	90.56
323.566	80.56
323.795	87.56
324.024	86.56
324.253	96.56
324.482	86.56
324.71	73.56
324.939	78.56
325.168	101.56
325.397	75.56
325.626	80.56
325.855	78.56
326.084	87.56
326.313	82.56
326.542	83.56
326.77	88.56
326.999	76.56
327.228	84.56
327.457	88.56
327.686	82.56
327.914	71.56
328.143	96.56
328.372	79.56
328.6	96.56
328.829	77.56
329.058	88.56
329.287	90.56
329.515	71.56
329.744	86.56
329.972	83.56
330.201	91.56
330.43	72.56
330.658	91.56
330.887	96.56
331.115	89.56
331.344	88.56
331.572	96.56
331.801	95.56
332.03	81.56
332.258	92.56
332.486	86.56
332.715	76.56
332.943	90.56
333.172	89.56
333.4	72.56
333.629	83.56
333.857	97.56
334.085	88.56
334.314	91.56
334.542	78.56
334.771	99.56
334.999	71.56
335.227	89.56
335.455	67.56
335.684	85.56
335.912	91.56
336.14	91.56
336.369	76.56
336.597	89.56
336.825	86.56
337.053	74.56
337.281	87.56
337.51	84.56
337.738	84.56
337.966	70.56
338.194	89.56
338.422	73.56
338.65	101.56
338.878	105.56
339.106	94.56
339.334	87.56
339.562	85.56
339.79	77.56
340.018	87.56
340.246	75.56
340.474	84.56
340.702	93.56
340.93	91.56
341.158	87.56
341.386	84.56
341.614	83.56
341.842	71.56
342.07	80.56
342.298	95.56
342.526	66.56
342.754	75.56
342.981	97.56
343.209	81.56
343.437	86.56
343.665	77.56
343.893	83.56
344.12	101.56
344.348	75.56
344.576	86.56
344.804	81.56
345.031	87.56
345.259	72.56
345.487	85.56
345.714	76.56
345.942	85.56
346.17	93.56
346.397	72.56
346.625	82.56
346.853	82.56
347.08	80.56
347.308	90.56
347.535	93.56
347.763	83.56
347.99	98.56
348.218	92.56
348.445	81.56
348.673	80.56
348.9	78.56
349.128	89.56
349.355	88.56
349.583	89.56
349.81	74.56
350.037	76.56
350.265	95.56
350.492	75.56
350.72	93.56
350.947	86.56
351.174	85.56
351.402	79.56
351.629	98.56
351.856	104.56
352.083	85.56
352.311	80.56
352.538	82.56
352.765	90.56
352.992	84.56
353.22	95.56
353.447	81.56
353.674	84.56
353.901	88.56
354.128	85.56
354.355	79.56
354.583	80.56
354.81	74.56
355.037	83.56
355.264	76.56
355.491	91.56
355.718	93.56
355.945	79.56
356.172	61.56
356.399	81.56
356.626	92.56
356.853	85.56
357.08	91.56
357.307	96.56
357.534	80.56
357.761	89.56
357.988	86.56
358.215	81.56
358.441	81.56
358.668	81.56
358.895	76.56
359.122	81.56
359.349	73.56
359.576	82.56
359.802	77.56
360.029	95.56
360.256	75.56
360.483	91.56
360.709	73.56
360.936	88.56
361.163	79.56
361.39	78.56
361.616	74.56
361.843	91.56
362.07	96.56
362.296	90.56
362.523	89.56
362.749	66.56
362.976	82.56
363.203	81.56
363.429	76.56
363.656	77.56
363.882	91.56
364.109	88.56
364.335	83.56
364.562	84.56
364.788	77.56
365.015	100.56
365.241	73.56
365.468	76.56
365.694	82.56
365.92	65.56
366.147	85.56
366.373	75.56
366.599	85.56
366.826	91.56
367.052	84.56
367.278	72.56
367.505	74.56
367.731	97.56
367.957	67.56
368.184	83.56
368.41	88.56
368.636	95.56
368.862	97.56
369.089	88.56
369.315	77.56
369.541	82.56
369.767	78.56
369.993	85.56
370.219	80.56
370.445	82.56
370.672	77.56
370.898	78.56
371.124	71.56
371.35	81.56
371.576	77.56
371.802	87.56
372.028	81.56
372.254	91.56
372.48	87.56
372.706	75.56
372.932	87.56
373.158	92.56
373.384	81.56
373.61	85.56
373.835	89.56
374.061	90.56
374.287	85.56
374.513	75.56
374.739	75.56
374.965	75.56
375.191	96.56
375.416	77.56
375.642	82.56
375.868	77.56
376.094	81.56
376.319	78.56
376.545	84.56
376.771	93.56
376.997	83.56
377.222	83.56
377.448	82.56
377.674	75.56
377.899	93.56
378.125	77.56
378.35	79.56
378.576	79.56
378.802	88.56
379.027	70.56
379.253	85.56
379.478	89.56
379.704	77.56
379.929	76.56
380.155	83.56
380.38	87.56
380.606	75.56
380.831	88.56
381.057	85.56
381.282	95.56
381.507	87.56
381.733	81.56
381.958	97.56
382.184	97.56
382.409	83.56
382.634	86.56
382.86	74.56
383.085	72.56
383.31	74.56
383.535	70.56
383.761	81.56
383.986	84.56
384.211	81.56
384.436	85.56
384.662	90.56
384.887	86.56
385.112	91.56
385.337	79.56
385.562	72.56
385.787	84.56
386.013	89.56
386.238	93.56
386.463	83.56
386.688	93.56
386.913	75.56
387.138	78.56
387.363	91.56
387.588	71.56
387.813	95.56
388.038	88.56
388.263	92.56
388.488	77.56
388.713	78.56
388.938	90.56
389.163	70.56
389.387	76.56
389.612	89.56
389.837	72.56
390.062	88.56
390.287	99.56
390.512	90.56
390.736	82.56
390.961	85.56
391.186	76.56
391.411	78.56
391.636	75.56
391.86	75.56
392.085	83.56
392.31	67.56
392.534	78.56
392.759	95.56
392.984	103.56
393.208	105.56
393.433	133.56
393.658	127.56
393.882	88.56
394.107	94.56
394.331	72.56
394.556	93.56
394.78	107.56
395.005	87.56
395.229	73.56
395.454	76.56
395.678	85.56
395.903	93.56
396.127	86.56
396.352	106.56
396.576	106.56
396.801	116.56
397.025	108.56
397.249	92.56
397.474	88.56
397.698	86.56
397.922	85.56
398.147	79.56
398.371	74.56
398.595	95.56
398.82	88.56
399.044	93.56
399.268	90.56
399.492	73.56
399.717	66.56
399.941	75.56
400.165	88.56
400.389	79.56
400.613	82.56
400.837	81.56
401.062	79.56
401.286	79.56
401.51	83.56
401.734	66.56
401.958	75.56
402.182	76.56
402.406	81.56
402.63	84.56
402.854	90.56
403.078	98.56
403.302	96.56
403.526	82.56
403.75	69.56
403.974	80.56
404.198	79.56
404.422	86.56
404.645	88.56
404.869	83.56
405.093	91.56
405.317	88.56
405.541	87.56
405.765	72.56
405.988	75.56
406.212	90.56
406.436	80.56
406.66	75.56
406.883	71.56
407.107	78.56
407.331	87.56
407.555	95.56
407.778	94.56
408.002	92.56
408.226	82.56
408.449	83.56
408.673	87.56
408.896	84.56
409.12	87.56
409.344	89.56
409.567	75.56
409.791	77.56
410.014	83.56
410.238	76.56
410.461	83.56
410.685	86.56
410.908	87.56
411.132	88.56
411.355	93.56
411.578	81.56
411.802	77.56
412.025	83.56
412.249	71.56
412.472	83.56
412.695	78.56
412.919	84.56
413.142	95.56
413.365	74.56
413.589	71.56
413.812	75.56
414.035	81.56
414.258	70.56
414.482	85.56
414.705	74.56
414.928	80.56
415.151	77.56
415.374	84.56
415.597	77.56
415.821	71.56
416.044	77.56
416.267	92.56
416.49	93.56
416.713	84.56
416.936	67.56
417.159	82.56
417.382	72.56
417.605	76.56
417.828	90.56
418.051	83.56
418.274	83.56
418.497	78.56
418.72	79.56
418.943	82.56
419.166	78.56
419.389	83.56
419.611	81.56
419.834	69.56
420.057	66.56
420.28	83.56
420.503	83.56
420.726	95.56
420.948	76.56
421.171	87.56
421.394	93.56
421.617	80.56
421.839	88.56
422.062	92.56
422.285	91.56
422.507	119.56
422.73	168.56
422.953	145.56
423.175	90.56
423.398	85.56
423.621	90.56
423.843	75.56
424.066	101.56
424.288	101.56
424.511	91.56
424.733	77.56
424.956	84.56
425.178	97.56
425.401	67.56
425.623	77.56
425.846	64.56
426.068	72.56
426.291	74.56
426.513	75.56
426.735	79.56
426.958	77.56
427.18	79.56
427.402	72.56
427.625	86.56
427.847	76.56
428.069	91.56
428.292	76.56
428.514	95.56
428.736	87.56
428.958	91.56
429.181	87.56
429.403	84.56
429.625	90.56
429.847	86.56
430.069	89.56
430.292	100.56
430.514	103.56
430.736	99.56
430.958	88.56
431.18	91.56
431.402	82.56
431.624	80.56
431.846	91.56
432.068	103.56
432.29	81.56
432.512	81.56
432.734	79.56
432.956	85.56
433.178	90.56
433.4	87.56
433.622	83.56
433.844	73.56
434.066	69.56
434.287	80.56
434.509	88.56
434.731	74.56
434.953	64.56
435.175	92.56
435.397	79.56
435.618	87.56
435.84	74.56
436.062	83.56
436.284	73.56
436.505	75.56
436.727	71.56
436.949	86.56
437.17	81.56
437.392	79.56
437.614	64.56
437.835	81.56
438.057	92.56
438.278	75.56
438.5	73.56
438.721	85.56
438.943	97.56
439.165	77.56
439.386	91.56
439.608	96.56
439.829	87.56
440.05	86.56
440.272	77.56
440.493	87.56
440.715	93.56
440.936	92.56
441.158	102.56
441.379	73.56
441.6	73.56
441.822	71.56
442.043	85.56
442.264	81.56
442.486	77.56
442.707	99.56
442.928	88.56
443.149	91.56
443.371	83.56
443.592	101.56
443.813	113.56
444.034	95.56
444.255	73.56
444.476	85.56
444.698	67.56
444.919	84.56
445.14	176.56
445.361	139.56
445.582	109.56
445.803	111.56
446.024	80.56
446.245	91.56
446.466	95.56
446.687	85.56
446.908	79.56
447.129	79.56
447.35	77.56
447.571	89.56
447.792	92.56
448.013	83.56
448.234	81.56
448.455	80.56
448.675	78.56
448.896	84.56
449.117	80.56
449.338	93.56
449.559	70.56
449.779	76.56
450	79.56
450.221	73.56
450.442	86.56
450.662	83.56
450.883	79.56
451.104	84.56
451.324	74.56
451.545	107.56
451.766	90.56
451.986	83.56
452.207	81.56
452.428	80.56
452.648	83.56
452.869	69.56
453.089	76.56
453.31	76.56
453.53	71.56
453.751	81.56
453.971	80.56
454.192	84.56
454.412	78.56
454.633	83.56
454.853	78.56
455.073	87.56
455.294	78.56
455.514	84.56
455.734	84.56
455.955	82.56
456.175	65.56
456.395	89.56
456.616	91.56
456.836	81.56
457.056	83.56
457.276	88.56
457.497	75.56
457.717	76.56
457.937	91.56
458.157	97.56
458.377	89.56
458.598	92.56
458.818	88.56
459.038	81.56
459.258	86.56
459.478	86.56
459.698	78.56
459.918	81.56
460.138	89.56
460.358	95.56
460.578	98.56
460.798	98.56
461.018	86.56
461.238	94.56
461.458	76.56
461.678	86.56
461.898	92.56
462.118	72.56
462.338	85.56
462.558	79.56
462.777	90.56
462.997	73.56
463.217	85.56
463.437	89.56
463.657	87.56
463.876	99.56
464.096	85.56
464.316	91.56
464.536	75.56
464.755	82.56
464.975	89.56
465.195	75.56
465.414	80.56
465.634	89.56
465.854	88.56
466.073	79.56
466.293	86.56
466.512	64.56
466.732	75.56
466.951	89.56
467.171	85.56
467.391	87.56
467.61	91.56
467.829	73.56
468.049	83.56
468.268	83.56
468.488	86.56
468.707	74.56
468.927	101.56
469.146	95.56
469.365	85.56
469.585	100.56
469.804	85.56
470.023	71.56
470.243	93.56
470.462	80.56
470.681	99.56
470.901	91.56
471.12	77.56
471.339	73.56
471.558	75.56
471.777	71.56
471.997	89.56
472.216	77.56
472.435	71.56
472.654	59.56
472.873	74.56
473.092	89.56
473.311	75.56
473.53	80.56
473.749	95.56
473.968	84.56
474.187	73.56
474.406	83.56
474.625	79.56
474.844	80.56
475.063	81.56
475.282	75.56
475.501	80.56
475.72	75.56
475.939	69.56
476.158	83.56
476.377	70.56
476.596	77.56
476.814	77.56
477.033	85.56
477.252	85.56
477.471	91.56
477.69	75.56
477.908	78.56
478.127	82.56
478.346	88.56
478.564	86.56
478.783	70.56
479.002	92.56
479.22	83.56
479.439	102.56
479.658	87.56
479.876	90.56
480.095	74.56
480.313	73.56
480.532	79.56
480.751	75.56
480.969	85.56
481.188	78.56
481.406	81.56
481.624	73.56
481.843	82.56
482.061	69.56
482.28	84.56
482.498	85.56
482.717	83.56
482.935	77.56
483.153	110.56
483.372	77.56
483.59	87.56
483.808	79.56
484.027	96.56
484.245	87.56
484.463	90.56
484.681	76.56
484.9	82.56
485.118	86.56
485.336	86.56
485.554	78.56
485.772	90.56
485.99	81.56
486.209	85.56
486.427	80.56
486.645	68.56
486.863	88.56
487.081	82.56
487.299	83.56
487.517	89.56
487.735	75.56
487.953	79.56
488.171	99.56
488.389	91.56
488.607	81.56
488.825	75.56
489.043	77.56
489.261	76.56
489.479	72.56
489.696	87.56
489.914	82.56
490.132	79.56
490.35	79.56
490.568	88.56
490.786	81.56
491.003	83.56
491.221	77.56
491.439	73.56
491.657	89.56
491.874	77.56
492.092	80.56
492.31	87.56
492.527	75.56
492.745	78.56
492.963	87.56
493.18	84.56
493.398	88.56
493.615	78.56
493.833	82.56
494.05	89.56
494.268	76.56
494.485	91.56
494.703	90.56
494.92	88.56
495.138	78.56
495.355	83.56
495.573	88.56
495.79	80.56
496.008	87.56
496.225	77.56
496.442	72.56
496.66	79.56
496.877	87.56
497.094	81.56
497.312	75.56
497.529	72.56
497.746	68.56
497.963	87.56
498.181	75.56
498.398	79.56
498.615	71.56
498.832	83.56
499.049	79.56
499.267	92.56
499.484	88.56
499.701	86.56
499.918	83.56
500.135	80.56
500.352	72.56
500.569	91.56
500.786	76.56
501.003	81.56
501.22	89.56
501.437	71.56
501.654	79.56
501.871	89.56
502.088	95.56
502.305	91.56
502.522	75.56
502.739	83.56
502.956	87.56
503.172	80.56
503.389	76.56
503.606	74.56
503.823	89.56
504.04	91.56
504.256	95.56
504.473	96.56
504.69	95.56
504.907	90.56
505.123	94.56
505.34	76.56
505.557	101.56
505.773	85.56
505.99	89.56
506.207	79.56
506.423	97.56
506.64	84.56
506.856	61.56
507.073	83.56
507.289	95.56
507.506	75.56
507.722	67.56
507.939	81.56
508.155	78.56
508.372	84.56
508.588	87.56
508.805	87.56
509.021	85.56
509.238	89.56
509.454	93.56
509.67	97.56
509.887	88.56
510.103	96.56
510.319	100.56
510.536	85.56
510.752	86.56
510.968	84.56
511.184	87.56
511.401	89.56
511.617	84.56
511.833	76.56
512.049	87.56
512.265	87.56
512.481	73.56
512.698	89.56
512.914	67.56
513.13	72.56
513.346	83.56
513.562	78.56
513.778	91.56
513.994	91.56
514.21	76.56
514.426	79.56
514.642	71.56
514.858	83.56
515.074	96.56
515.29	79.56
515.506	79.56
515.721	72.56
515.937	98.56
516.153	72.56
516.369	83.56
516.585	83.56
516.801	98.56
517.016	93.56
517.232	89.56
517.448	101.56
517.664	83.56
517.879	86.56
518.095	89.56
518.311	66.56
518.527	79.56
518.742	88.56
518.958	85.56
519.173	85.56
519.389	81.56
519.605	82.56
519.82	87.56
