Data from Circ_2008_H10_HRD10591_00002.txt Node
Date: Wed Jan 03 10:16:56 EST 2024
User: Yrep
Spectrometer: HR+D1059
Trigger mode: 1
Integration Time (sec): 1.000000E-1
Scans to average: 1
Electric dark correction enabled: true
Nonlinearity correction enabled: false
Boxcar width: 0
XAxis mode: Wavelengths
Number of Pixels in Spectrum: 2048
>>>>>Begin Spectral Data<<<<<
223.165	-21.75
223.4	-21.75
223.635	-21.75
223.869	-22.75
224.104	-24.75
224.338	-15.75
224.573	-12.75
224.808	-12.75
225.042	-4.75
225.277	-7.75
225.511	-0.75
225.746	-0.75
225.98	14.25
226.215	7.25
226.449	23.25
226.683	20.25
226.918	35.25
227.152	24.25
227.387	36.25
227.621	34.25
227.856	40.25
228.09	58.25
228.324	55.25
228.559	61.25
228.793	59.25
229.027	60.25
229.262	57.25
229.496	81.25
229.73	82.25
229.964	70.25
230.199	72.25
230.433	81.25
230.667	80.25
230.901	87.25
231.136	69.25
231.37	70.25
231.604	74.25
231.838	77.25
232.072	75.25
232.306	75.25
232.541	76.25
232.775	81.25
233.009	85.25
233.243	81.25
233.477	75.25
233.711	96.25
233.945	90.25
234.179	62.25
234.413	75.25
234.647	88.25
234.881	90.25
235.115	87.25
235.349	81.25
235.583	80.25
235.817	78.25
236.051	87.25
236.285	78.25
236.519	81.25
236.753	92.25
236.987	84.25
237.221	88.25
237.455	71.25
237.689	71.25
237.922	67.25
238.156	83.25
238.39	76.25
238.624	59.25
238.858	76.25
239.091	94.25
239.325	78.25
239.559	70.25
239.793	81.25
240.027	81.25
240.26	82.25
240.494	80.25
240.728	88.25
240.961	73.25
241.195	74.25
241.429	80.25
241.662	66.25
241.896	72.25
242.13	60.25
242.363	81.25
242.597	75.25
242.83	74.25
243.064	65.25
243.298	75.25
243.531	70.25
243.765	58.25
243.998	89.25
244.232	82.25
244.465	75.25
244.699	97.25
244.932	73.25
245.166	77.25
245.399	77.25
245.633	83.25
245.866	87.25
246.099	79.25
246.333	74.25
246.566	89.25
246.8	69.25
247.033	64.25
247.266	68.25
247.5	80.25
247.733	77.25
247.966	74.25
248.2	70.25
248.433	71.25
248.666	86.25
248.899	79.25
249.133	93.25
249.366	89.25
249.599	103.25
249.832	80.25
250.066	92.25
250.299	80.25
250.532	71.25
250.765	81.25
250.998	70.25
251.231	81.25
251.465	75.25
251.698	90.25
251.931	80.25
252.164	73.25
252.397	67.25
252.63	75.25
252.863	92.25
253.096	78.25
253.329	77.25
253.562	81.25
253.795	72.25
254.028	82.25
254.261	68.25
254.494	91.25
254.727	81.25
254.96	83.25
255.193	75.25
255.426	91.25
255.659	77.25
255.892	75.25
256.124	76.25
256.357	75.25
256.59	96.25
256.823	83.25
257.056	80.25
257.289	89.25
257.521	81.25
257.754	83.25
257.987	86.25
258.22	61.25
258.452	70.25
258.685	84.25
258.918	80.25
259.151	80.25
259.383	62.25
259.616	97.25
259.849	65.25
260.081	76.25
260.314	86.25
260.547	80.25
260.779	89.25
261.012	76.25
261.244	78.25
261.477	94.25
261.71	98.25
261.942	109.25
262.175	99.25
262.407	91.25
262.64	76.25
262.872	91.25
263.105	65.25
263.337	72.25
263.57	86.25
263.802	92.25
264.035	80.25
264.267	75.25
264.499	79.25
264.732	95.25
264.964	88.25
265.197	81.25
265.429	92.25
265.661	87.25
265.894	73.25
266.126	87.25
266.358	86.25
266.591	81.25
266.823	86.25
267.055	94.25
267.287	82.25
267.52	84.25
267.752	84.25
267.984	74.25
268.216	79.25
268.448	66.25
268.681	75.25
268.913	72.25
269.145	88.25
269.377	77.25
269.609	86.25
269.841	82.25
270.073	81.25
270.306	88.25
270.538	89.25
270.77	77.25
271.002	87.25
271.234	79.25
271.466	93.25
271.698	78.25
271.93	80.25
272.162	88.25
272.394	83.25
272.626	90.25
272.858	90.25
273.09	87.25
273.322	86.25
273.553	80.25
273.785	86.25
274.017	85.25
274.249	80.25
274.481	95.25
274.713	81.25
274.945	82.25
275.176	97.25
275.408	89.25
275.64	98.25
275.872	79.25
276.104	87.25
276.335	98.25
276.567	106.25
276.799	103.25
277.031	104.25
277.262	90.25
277.494	89.25
277.726	84.25
277.957	87.25
278.189	80.25
278.421	73.25
278.652	94.25
278.884	77.25
279.115	78.25
279.347	87.25
279.579	80.25
279.81	88.25
280.042	74.25
280.273	83.25
280.505	84.25
280.736	79.25
280.968	79.25
281.199	73.25
281.431	96.25
281.662	83.25
281.894	105.25
282.125	102.25
282.356	113.25
282.588	148.25
282.819	122.25
283.051	93.25
283.282	80.25
283.513	77.25
283.745	87.25
283.976	96.25
284.207	98.25
284.439	83.25
284.67	78.25
284.901	91.25
285.132	99.25
285.364	90.25
285.595	84.25
285.826	81.25
286.057	91.25
286.288	74.25
286.52	89.25
286.751	95.25
286.982	88.25
287.213	78.25
287.444	81.25
287.675	105.25
287.906	80.25
288.138	76.25
288.369	81.25
288.6	78.25
288.831	81.25
289.062	86.25
289.293	106.25
289.524	94.25
289.755	88.25
289.986	79.25
290.217	91.25
290.448	73.25
290.679	93.25
290.91	95.25
291.141	102.25
291.371	87.25
291.602	88.25
291.833	87.25
292.064	101.25
292.295	102.25
292.526	94.25
292.757	98.25
292.987	90.25
293.218	80.25
293.449	91.25
293.68	90.25
293.91	80.25
294.141	74.25
294.372	87.25
294.603	92.25
294.833	92.25
295.064	76.25
295.295	95.25
295.525	99.25
295.756	106.25
295.987	108.25
296.217	142.25
296.448	133.25
296.679	90.25
296.909	105.25
297.14	91.25
297.37	87.25
297.601	99.25
297.831	91.25
298.062	91.25
298.292	82.25
298.523	90.25
298.753	81.25
298.984	95.25
299.214	93.25
299.445	94.25
299.675	92.25
299.905	87.25
300.136	78.25
300.366	93.25
300.597	85.25
300.827	79.25
301.057	98.25
301.288	115.25
301.518	90.25
301.748	97.25
301.979	93.25
302.209	96.25
302.439	95.25
302.669	91.25
302.9	87.25
303.13	101.25
303.36	89.25
303.59	97.25
303.82	97.25
304.051	95.25
304.281	103.25
304.511	78.25
304.741	98.25
304.971	86.25
305.201	83.25
305.431	93.25
305.661	86.25
305.891	94.25
306.121	87.25
306.352	110.25
306.582	109.25
306.812	98.25
307.042	92.25
307.272	95.25
307.502	87.25
307.731	89.25
307.961	90.25
308.191	84.25
308.421	90.25
308.651	91.25
308.881	83.25
309.111	99.25
309.341	90.25
309.571	94.25
309.8	91.25
310.03	95.25
310.26	107.25
310.49	96.25
310.72	89.25
310.949	92.25
311.179	96.25
311.409	97.25
311.639	95.25
311.868	114.25
312.098	94.25
312.328	98.25
312.557	88.25
312.787	109.25
313.017	98.25
313.246	92.25
313.476	79.25
313.706	84.25
313.935	92.25
314.165	97.25
314.394	98.25
314.624	91.25
314.853	99.25
315.083	97.25
315.312	91.25
315.542	74.25
315.771	82.25
316.001	88.25
316.23	94.25
316.46	92.25
316.689	89.25
316.919	94.25
317.148	89.25
317.377	80.25
317.607	91.25
317.836	80.25
318.065	84.25
318.295	83.25
318.524	91.25
318.753	94.25
318.983	97.25
319.212	101.25
319.441	118.25
319.67	114.25
319.9	89.25
320.129	85.25
320.358	89.25
320.587	93.25
320.816	96.25
321.046	91.25
321.275	94.25
321.504	106.25
321.733	93.25
321.962	95.25
322.191	109.25
322.42	96.25
322.649	110.25
322.878	105.25
323.108	111.25
323.337	122.25
323.566	132.25
323.795	128.25
324.024	199.25
324.253	354.25
324.482	734.25
324.71	1497.25
324.939	1924.25
325.168	734.25
325.397	235.25
325.626	149.25
325.855	120.25
326.084	126.25
326.313	111.25
326.542	147.25
326.77	213.25
326.999	402.25
327.228	782.25
327.457	1391.25
327.686	1149.25
327.914	327.25
328.143	201.25
328.372	155.25
328.6	134.25
328.829	108.25
329.058	126.25
329.287	132.25
329.515	113.25
329.744	95.25
329.972	97.25
330.201	103.25
330.43	101.25
330.658	125.25
330.887	139.25
331.115	124.25
331.344	109.25
331.572	95.25
331.801	106.25
332.03	95.25
332.258	88.25
332.486	83.25
332.715	93.25
332.943	94.25
333.172	82.25
333.4	97.25
333.629	111.25
333.857	123.25
334.085	97.25
334.314	98.25
334.542	96.25
334.771	103.25
334.999	99.25
335.227	112.25
335.455	90.25
335.684	98.25
335.912	94.25
336.14	115.25
336.369	105.25
336.597	114.25
336.825	105.25
337.053	74.25
337.281	85.25
337.51	96.25
337.738	94.25
337.966	118.25
338.194	114.25
338.422	88.25
338.65	97.25
338.878	94.25
339.106	79.25
339.334	103.25
339.562	103.25
339.79	96.25
340.018	92.25
340.246	97.25
340.474	83.25
340.702	97.25
340.93	88.25
341.158	78.25
341.386	79.25
341.614	95.25
341.842	91.25
342.07	83.25
342.298	87.25
342.526	93.25
342.754	94.25
342.981	105.25
343.209	91.25
343.437	87.25
343.665	83.25
343.893	92.25
344.12	92.25
344.348	87.25
344.576	75.25
344.804	98.25
345.031	86.25
345.259	98.25
345.487	114.25
345.714	89.25
345.942	95.25
346.17	88.25
346.397	91.25
346.625	97.25
346.853	102.25
347.08	80.25
347.308	105.25
347.535	91.25
347.763	91.25
347.99	106.25
348.218	114.25
348.445	108.25
348.673	107.25
348.9	101.25
349.128	107.25
349.355	88.25
349.583	94.25
349.81	78.25
350.037	91.25
350.265	96.25
350.492	98.25
350.72	97.25
350.947	114.25
351.174	108.25
351.402	123.25
351.629	88.25
351.856	107.25
352.083	103.25
352.311	107.25
352.538	108.25
352.765	94.25
352.992	105.25
353.22	107.25
353.447	95.25
353.674	97.25
353.901	97.25
354.128	100.25
354.355	84.25
354.583	99.25
354.81	102.25
355.037	85.25
355.264	87.25
355.491	99.25
355.718	106.25
355.945	104.25
356.172	101.25
356.399	106.25
356.626	90.25
356.853	82.25
357.08	94.25
357.307	92.25
357.534	102.25
357.761	93.25
357.988	101.25
358.215	111.25
358.441	114.25
358.668	93.25
358.895	100.25
359.122	102.25
359.349	102.25
359.576	94.25
359.802	98.25
360.029	111.25
360.256	103.25
360.483	102.25
360.709	89.25
360.936	94.25
361.163	77.25
361.39	98.25
361.616	97.25
361.843	95.25
362.07	96.25
362.296	84.25
362.523	101.25
362.749	84.25
362.976	88.25
363.203	80.25
363.429	96.25
363.656	88.25
363.882	86.25
364.109	91.25
364.335	96.25
364.562	81.25
364.788	85.25
365.015	94.25
365.241	105.25
365.468	124.25
365.694	86.25
365.92	90.25
366.147	87.25
366.373	93.25
366.599	60.25
366.826	92.25
367.052	85.25
367.278	82.25
367.505	99.25
367.731	95.25
367.957	99.25
368.184	102.25
368.41	79.25
368.636	112.25
368.862	114.25
369.089	108.25
369.315	105.25
369.541	99.25
369.767	96.25
369.993	103.25
370.219	96.25
370.445	101.25
370.672	84.25
370.898	81.25
371.124	81.25
371.35	103.25
371.576	89.25
371.802	98.25
372.028	88.25
372.254	83.25
372.48	92.25
372.706	90.25
372.932	87.25
373.158	87.25
373.384	81.25
373.61	83.25
373.835	96.25
374.061	81.25
374.287	88.25
374.513	97.25
374.739	81.25
374.965	87.25
375.191	101.25
375.416	84.25
375.642	87.25
375.868	106.25
376.094	102.25
376.319	94.25
376.545	82.25
376.771	97.25
376.997	80.25
377.222	97.25
377.448	90.25
377.674	82.25
377.899	87.25
378.125	96.25
378.35	92.25
378.576	86.25
378.802	107.25
379.027	94.25
379.253	90.25
379.478	100.25
379.704	98.25
379.929	94.25
380.155	96.25
380.38	98.25
380.606	82.25
380.831	106.25
381.057	106.25
381.282	106.25
381.507	99.25
381.733	105.25
381.958	95.25
382.184	104.25
382.409	104.25
382.634	121.25
382.86	108.25
383.085	112.25
383.31	107.25
383.535	115.25
383.761	107.25
383.986	99.25
384.211	108.25
384.436	113.25
384.662	120.25
384.887	134.25
385.112	119.25
385.337	110.25
385.562	116.25
385.787	116.25
386.013	130.25
386.238	120.25
386.463	134.25
386.688	127.25
386.913	119.25
387.138	122.25
387.363	118.25
387.588	107.25
387.813	113.25
388.038	118.25
388.263	135.25
388.488	120.25
388.713	109.25
388.938	100.25
389.163	94.25
389.387	96.25
389.612	90.25
389.837	103.25
390.062	84.25
390.287	100.25
390.512	93.25
390.736	89.25
390.961	78.25
391.186	92.25
391.411	103.25
391.636	90.25
391.86	89.25
392.085	90.25
392.31	92.25
392.534	68.25
392.759	84.25
392.984	88.25
393.208	102.25
393.433	127.25
393.658	98.25
393.882	94.25
394.107	82.25
394.331	68.25
394.556	106.25
394.78	83.25
395.005	95.25
395.229	83.25
395.454	86.25
395.678	85.25
395.903	103.25
396.127	95.25
396.352	91.25
396.576	102.25
396.801	96.25
397.025	103.25
397.249	104.25
397.474	101.25
397.698	88.25
397.922	84.25
398.147	85.25
398.371	86.25
398.595	82.25
398.82	83.25
399.044	81.25
399.268	81.25
399.492	93.25
399.717	84.25
399.941	85.25
400.165	109.25
400.389	104.25
400.613	89.25
400.837	82.25
401.062	91.25
401.286	80.25
401.51	92.25
401.734	92.25
401.958	98.25
402.182	123.25
402.406	164.25
402.63	119.25
402.854	107.25
403.078	89.25
403.302	92.25
403.526	87.25
403.75	88.25
403.974	96.25
404.198	81.25
404.422	87.25
404.645	83.25
404.869	100.25
405.093	87.25
405.317	98.25
405.541	85.25
405.765	100.25
405.988	118.25
406.212	154.25
406.436	232.25
406.66	141.25
406.883	96.25
407.107	105.25
407.331	107.25
407.555	93.25
407.778	88.25
408.002	96.25
408.226	85.25
408.449	93.25
408.673	103.25
408.896	89.25
409.12	91.25
409.344	95.25
409.567	84.25
409.791	89.25
410.014	84.25
410.238	75.25
410.461	81.25
410.685	79.25
410.908	98.25
411.132	92.25
411.355	102.25
411.578	93.25
411.802	95.25
412.025	80.25
412.249	96.25
412.472	104.25
412.695	88.25
412.919	94.25
413.142	93.25
413.365	93.25
413.589	89.25
413.812	92.25
414.035	82.25
414.258	91.25
414.482	98.25
414.705	96.25
414.928	112.25
415.151	94.25
415.374	97.25
415.597	80.25
415.821	102.25
416.044	85.25
416.267	92.25
416.49	87.25
416.713	95.25
416.936	95.25
417.159	82.25
417.382	89.25
417.605	78.25
417.828	80.25
418.051	80.25
418.274	89.25
418.497	87.25
418.72	80.25
418.943	75.25
419.166	84.25
419.389	84.25
419.611	91.25
419.834	94.25
420.057	70.25
420.28	84.25
420.503	84.25
420.726	92.25
420.948	76.25
421.171	96.25
421.394	84.25
421.617	98.25
421.839	101.25
422.062	89.25
422.285	71.25
422.507	92.25
422.73	91.25
422.953	105.25
423.175	88.25
423.398	94.25
423.621	76.25
423.843	94.25
424.066	94.25
424.288	99.25
424.511	81.25
424.733	80.25
424.956	90.25
425.178	94.25
425.401	102.25
425.623	111.25
425.846	96.25
426.068	97.25
426.291	97.25
426.513	95.25
426.735	96.25
426.958	93.25
427.18	86.25
427.402	114.25
427.625	163.25
427.847	120.25
428.069	116.25
428.292	88.25
428.514	85.25
428.736	82.25
428.958	84.25
429.181	102.25
429.403	94.25
429.625	81.25
429.847	102.25
430.069	88.25
430.292	78.25
430.514	88.25
430.736	77.25
430.958	84.25
431.18	91.25
431.402	94.25
431.624	91.25
431.846	81.25
432.068	86.25
432.29	102.25
432.512	88.25
432.734	70.25
432.956	80.25
433.178	96.25
433.4	99.25
433.622	97.25
433.844	106.25
434.066	91.25
434.287	103.25
434.509	96.25
434.731	95.25
434.953	88.25
435.175	89.25
435.397	88.25
435.618	75.25
435.84	95.25
436.062	108.25
436.284	105.25
436.505	92.25
436.727	90.25
436.949	88.25
437.17	98.25
437.392	87.25
437.614	90.25
437.835	102.25
438.057	108.25
438.278	113.25
438.5	94.25
438.721	111.25
438.943	95.25
439.165	78.25
439.386	92.25
439.608	104.25
439.829	90.25
440.05	125.25
440.272	143.25
440.493	102.25
440.715	94.25
440.936	91.25
441.158	88.25
441.379	94.25
441.6	86.25
441.822	95.25
442.043	96.25
442.264	95.25
442.486	97.25
442.707	84.25
442.928	105.25
443.149	152.25
443.371	121.25
443.592	106.25
443.813	99.25
444.034	113.25
444.255	110.25
444.476	78.25
444.698	93.25
444.919	83.25
445.14	134.25
445.361	111.25
445.582	112.25
445.803	133.25
446.024	141.25
446.245	118.25
446.466	100.25
446.687	87.25
446.908	83.25
447.129	92.25
447.35	91.25
447.571	79.25
447.792	94.25
448.013	98.25
448.234	114.25
448.455	106.25
448.675	115.25
448.896	119.25
449.117	90.25
449.338	100.25
449.559	102.25
449.779	128.25
450	96.25
450.221	90.25
450.442	90.25
450.662	98.25
450.883	95.25
451.104	105.25
451.324	102.25
451.545	80.25
451.766	90.25
451.986	95.25
452.207	88.25
452.428	94.25
452.648	97.25
452.869	97.25
453.089	122.25
453.31	101.25
453.53	95.25
453.751	84.25
453.971	120.25
454.192	114.25
454.412	96.25
454.633	89.25
454.853	97.25
455.073	86.25
455.294	74.25
455.514	105.25
455.734	94.25
455.955	109.25
456.175	81.25
456.395	91.25
456.616	97.25
456.836	83.25
457.056	69.25
457.276	78.25
457.497	82.25
457.717	69.25
457.937	87.25
458.157	88.25
458.377	84.25
458.598	103.25
458.818	147.25
459.038	165.25
459.258	104.25
459.478	82.25
459.698	83.25
459.918	73.25
460.138	98.25
460.358	98.25
460.578	94.25
460.798	85.25
461.018	98.25
461.238	81.25
461.458	86.25
461.678	78.25
461.898	96.25
462.118	83.25
462.338	86.25
462.558	90.25
462.777	81.25
462.997	96.25
463.217	83.25
463.437	89.25
463.657	76.25
463.876	85.25
464.096	87.25
464.316	104.25
464.536	95.25
464.755	93.25
464.975	101.25
465.195	160.25
465.414	168.25
465.634	97.25
465.854	90.25
466.073	91.25
466.293	96.25
466.512	80.25
466.732	78.25
466.951	85.25
467.171	94.25
467.391	96.25
467.61	107.25
467.829	84.25
468.049	81.25
468.268	79.25
468.488	85.25
468.707	100.25
468.927	80.25
469.146	76.25
469.365	82.25
469.585	89.25
469.804	103.25
470.023	87.25
470.243	97.25
470.462	95.25
470.681	92.25
470.901	103.25
471.12	96.25
471.339	96.25
471.558	83.25
471.777	70.25
471.997	102.25
472.216	98.25
472.435	92.25
472.654	96.25
472.873	85.25
473.092	95.25
473.311	90.25
473.53	89.25
473.749	84.25
473.968	93.25
474.187	96.25
474.406	89.25
474.625	90.25
474.844	93.25
475.063	94.25
475.282	87.25
475.501	82.25
475.72	109.25
475.939	79.25
476.158	97.25
476.377	93.25
476.596	85.25
476.814	65.25
477.033	87.25
477.252	94.25
477.471	77.25
477.69	75.25
477.908	82.25
478.127	82.25
478.346	89.25
478.564	102.25
478.783	102.25
479.002	74.25
479.22	95.25
479.439	106.25
479.658	103.25
479.876	86.25
480.095	98.25
480.313	97.25
480.532	95.25
480.751	94.25
480.969	97.25
481.188	120.25
481.406	98.25
481.624	101.25
481.843	91.25
482.061	81.25
482.28	93.25
482.498	89.25
482.717	76.25
482.935	88.25
483.153	78.25
483.372	100.25
483.59	110.25
483.808	90.25
484.027	78.25
484.245	91.25
484.463	84.25
484.681	87.25
484.9	88.25
485.118	101.25
485.336	89.25
485.554	91.25
485.772	88.25
485.99	99.25
486.209	108.25
486.427	93.25
486.645	99.25
486.863	115.25
487.081	95.25
487.299	98.25
487.517	89.25
487.735	90.25
487.953	89.25
488.171	96.25
488.389	98.25
488.607	107.25
488.825	85.25
489.043	89.25
489.261	82.25
489.479	100.25
489.696	95.25
489.914	82.25
490.132	102.25
490.35	93.25
490.568	82.25
490.786	77.25
491.003	100.25
491.221	89.25
491.439	86.25
491.657	96.25
491.874	86.25
492.092	86.25
492.31	107.25
492.527	91.25
492.745	104.25
492.963	85.25
493.18	90.25
493.398	95.25
493.615	91.25
493.833	92.25
494.05	100.25
494.268	79.25
494.485	95.25
494.703	78.25
494.92	82.25
495.138	73.25
495.355	95.25
495.573	94.25
495.79	88.25
496.008	105.25
496.225	84.25
496.442	86.25
496.66	88.25
496.877	90.25
497.094	101.25
497.312	84.25
497.529	79.25
497.746	92.25
497.963	104.25
498.181	90.25
498.398	93.25
498.615	95.25
498.832	96.25
499.049	91.25
499.267	96.25
499.484	92.25
499.701	93.25
499.918	91.25
500.135	91.25
500.352	99.25
500.569	88.25
500.786	93.25
501.003	92.25
501.22	82.25
501.437	92.25
501.654	103.25
501.871	89.25
502.088	97.25
502.305	78.25
502.522	73.25
502.739	74.25
502.956	88.25
503.172	99.25
503.389	90.25
503.606	97.25
503.823	94.25
504.04	92.25
504.256	92.25
504.473	89.25
504.69	95.25
504.907	93.25
505.123	103.25
505.34	77.25
505.557	93.25
505.773	88.25
505.99	92.25
506.207	81.25
506.423	81.25
506.64	88.25
506.856	92.25
507.073	96.25
507.289	82.25
507.506	104.25
507.722	109.25
507.939	108.25
508.155	100.25
508.372	95.25
508.588	81.25
508.805	105.25
509.021	85.25
509.238	95.25
509.454	83.25
509.67	96.25
509.887	105.25
510.103	138.25
510.319	199.25
510.536	771.25
510.752	2528.25
510.968	698.25
511.184	149.25
511.401	115.25
511.617	104.25
511.833	90.25
512.049	94.25
512.265	74.25
512.481	93.25
512.698	93.25
512.914	96.25
513.13	83.25
513.346	105.25
513.562	88.25
513.778	94.25
513.994	111.25
514.21	111.25
514.426	115.25
514.642	131.25
514.858	118.25
515.074	149.25
515.29	453.25
515.506	1526.25
515.721	563.25
