Data from Circ_2008_H10_HRD10591_00066.txt Node
Date: Wed Jan 03 10:17:09 EST 2024
User: Yrep
Spectrometer: HR+D1059
Trigger mode: 1
Integration Time (sec): 1.000000E-1
Scans to average: 1
Electric dark correction enabled: true
Nonlinearity correction enabled: false
Boxcar width: 0
XAxis mode: Wavelengths
Number of Pixels in Spectrum: 2048
>>>>>Begin Spectral Data<<<<<
223.165	-19.94
223.4	-19.94
223.635	-19.94
223.869	-15.94
224.104	-22.94
224.338	-13.94
224.573	-15.94
224.808	-14.94
225.042	-3.94
225.277	1.06
225.511	-5.94
225.746	4.06
225.98	-4.94
226.215	20.06
226.449	15.06
226.683	25.06
226.918	28.06
227.152	25.06
227.387	40.06
227.621	34.06
227.856	47.06
228.09	28.06
228.324	57.06
228.559	47.06
228.793	57.06
229.027	66.06
229.262	61.06
229.496	66.06
229.73	95.06
229.964	81.06
230.199	71.06
230.433	78.06
230.667	80.06
230.901	78.06
231.136	90.06
231.37	83.06
231.604	75.06
231.838	76.06
232.072	71.06
232.306	66.06
232.541	70.06
232.775	76.06
233.009	82.06
233.243	87.06
233.477	78.06
233.711	90.06
233.945	81.06
234.179	78.06
234.413	79.06
234.647	65.06
234.881	86.06
235.115	76.06
235.349	58.06
235.583	77.06
235.817	77.06
236.051	68.06
236.285	77.06
236.519	73.06
236.753	82.06
236.987	68.06
237.221	94.06
237.455	81.06
237.689	83.06
237.922	69.06
238.156	62.06
238.39	83.06
238.624	80.06
238.858	87.06
239.091	73.06
239.325	57.06
239.559	83.06
239.793	73.06
240.027	81.06
240.26	87.06
240.494	94.06
240.728	74.06
240.961	79.06
241.195	80.06
241.429	75.06
241.662	70.06
241.896	69.06
242.13	85.06
242.363	72.06
242.597	83.06
242.83	76.06
243.064	62.06
243.298	82.06
243.531	74.06
243.765	78.06
243.998	80.06
244.232	75.06
244.465	79.06
244.699	76.06
244.932	68.06
245.166	79.06
245.399	75.06
245.633	80.06
245.866	79.06
246.099	66.06
246.333	75.06
246.566	71.06
246.8	71.06
247.033	71.06
247.266	79.06
247.5	62.06
247.733	87.06
247.966	74.06
248.2	77.06
248.433	81.06
248.666	73.06
248.899	74.06
249.133	86.06
249.366	101.06
249.599	89.06
249.832	76.06
250.066	74.06
250.299	82.06
250.532	76.06
250.765	62.06
250.998	72.06
251.231	84.06
251.465	77.06
251.698	66.06
251.931	96.06
252.164	67.06
252.397	66.06
252.63	69.06
252.863	72.06
253.096	73.06
253.329	83.06
253.562	76.06
253.795	66.06
254.028	84.06
254.261	74.06
254.494	82.06
254.727	90.06
254.96	71.06
255.193	75.06
255.426	69.06
255.659	88.06
255.892	90.06
256.124	88.06
256.357	99.06
256.59	77.06
256.823	75.06
257.056	73.06
257.289	78.06
257.521	86.06
257.754	76.06
257.987	78.06
258.22	82.06
258.452	76.06
258.685	83.06
258.918	83.06
259.151	79.06
259.383	80.06
259.616	73.06
259.849	77.06
260.081	77.06
260.314	83.06
260.547	82.06
260.779	86.06
261.012	87.06
261.244	79.06
261.477	86.06
261.71	94.06
261.942	104.06
262.175	110.06
262.407	88.06
262.64	88.06
262.872	86.06
263.105	87.06
263.337	79.06
263.57	76.06
263.802	90.06
264.035	90.06
264.267	85.06
264.499	68.06
264.732	87.06
264.964	73.06
265.197	81.06
265.429	72.06
265.661	91.06
265.894	71.06
266.126	76.06
266.358	88.06
266.591	78.06
266.823	80.06
267.055	84.06
267.287	75.06
267.52	95.06
267.752	84.06
267.984	73.06
268.216	89.06
268.448	79.06
268.681	87.06
268.913	75.06
269.145	78.06
269.377	75.06
269.609	85.06
269.841	86.06
270.073	78.06
270.306	90.06
270.538	78.06
270.77	78.06
271.002	90.06
271.234	77.06
271.466	75.06
271.698	86.06
271.93	91.06
272.162	95.06
272.394	87.06
272.626	81.06
272.858	86.06
273.09	80.06
273.322	77.06
273.553	90.06
273.785	81.06
274.017	82.06
274.249	72.06
274.481	97.06
274.713	78.06
274.945	90.06
275.176	89.06
275.408	85.06
275.64	86.06
275.872	79.06
276.104	84.06
276.335	91.06
276.567	87.06
276.799	108.06
277.031	91.06
277.262	94.06
277.494	97.06
277.726	83.06
277.957	77.06
278.189	70.06
278.421	94.06
278.652	74.06
278.884	81.06
279.115	81.06
279.347	78.06
279.579	85.06
279.81	88.06
280.042	104.06
280.273	86.06
280.505	97.06
280.736	83.06
280.968	81.06
281.199	87.06
281.431	98.06
281.662	82.06
281.894	92.06
282.125	90.06
282.356	112.06
282.588	134.06
282.819	109.06
283.051	90.06
283.282	87.06
283.513	82.06
283.745	89.06
283.976	79.06
284.207	87.06
284.439	81.06
284.67	88.06
284.901	89.06
285.132	80.06
285.364	97.06
285.595	92.06
285.826	81.06
286.057	82.06
286.288	81.06
286.52	87.06
286.751	91.06
286.982	73.06
287.213	93.06
287.444	95.06
287.675	88.06
287.906	81.06
288.138	72.06
288.369	89.06
288.6	83.06
288.831	90.06
289.062	95.06
289.293	87.06
289.524	82.06
289.755	89.06
289.986	74.06
290.217	83.06
290.448	76.06
290.679	87.06
290.91	90.06
291.141	92.06
291.371	86.06
291.602	78.06
291.833	82.06
292.064	82.06
292.295	85.06
292.526	77.06
292.757	83.06
292.987	71.06
293.218	93.06
293.449	86.06
293.68	77.06
293.91	80.06
294.141	99.06
294.372	88.06
294.603	92.06
294.833	73.06
295.064	81.06
295.295	83.06
295.525	113.06
295.756	102.06
295.987	115.06
296.217	129.06
296.448	114.06
296.679	89.06
296.909	93.06
297.14	95.06
297.37	87.06
297.601	83.06
297.831	95.06
298.062	75.06
298.292	87.06
298.523	99.06
298.753	80.06
298.984	84.06
299.214	91.06
299.445	103.06
299.675	82.06
299.905	86.06
300.136	95.06
300.366	103.06
300.597	79.06
300.827	86.06
301.057	91.06
301.288	104.06
301.518	85.06
301.748	96.06
301.979	105.06
302.209	94.06
302.439	87.06
302.669	77.06
302.9	104.06
303.13	86.06
303.36	85.06
303.59	89.06
303.82	86.06
304.051	91.06
304.281	97.06
304.511	79.06
304.741	78.06
304.971	94.06
305.201	86.06
305.431	105.06
305.661	84.06
305.891	96.06
306.121	104.06
306.352	79.06
306.582	95.06
306.812	93.06
307.042	89.06
307.272	92.06
307.502	96.06
307.731	93.06
307.961	92.06
308.191	82.06
308.421	95.06
308.651	86.06
308.881	98.06
309.111	100.06
309.341	89.06
309.571	85.06
309.8	93.06
310.03	96.06
310.26	94.06
310.49	82.06
310.72	92.06
310.949	104.06
311.179	98.06
311.409	82.06
311.639	107.06
311.868	101.06
312.098	90.06
312.328	95.06
312.557	83.06
312.787	108.06
313.017	88.06
313.246	94.06
313.476	87.06
313.706	94.06
313.935	88.06
314.165	98.06
314.394	103.06
314.624	105.06
314.853	98.06
315.083	82.06
315.312	86.06
315.542	96.06
315.771	87.06
316.001	87.06
316.23	80.06
316.46	85.06
316.689	88.06
316.919	87.06
317.148	103.06
317.377	88.06
317.607	90.06
317.836	93.06
318.065	94.06
318.295	70.06
318.524	80.06
318.753	82.06
318.983	87.06
319.212	99.06
319.441	109.06
319.67	103.06
319.9	74.06
320.129	103.06
320.358	106.06
320.587	100.06
320.816	105.06
321.046	100.06
321.275	94.06
321.504	91.06
321.733	91.06
321.962	88.06
322.191	103.06
322.42	97.06
322.649	109.06
322.878	114.06
323.108	114.06
323.337	100.06
323.566	138.06
323.795	152.06
324.024	202.06
324.253	357.06
324.482	735.06
324.71	1469.06
324.939	1904.06
325.168	706.06
325.397	210.06
325.626	147.06
325.855	119.06
326.084	117.06
326.313	120.06
326.542	147.06
326.77	207.06
326.999	402.06
327.228	802.06
327.457	1432.06
327.686	1170.06
327.914	352.06
328.143	195.06
328.372	165.06
328.6	123.06
328.829	112.06
329.058	109.06
329.287	121.06
329.515	108.06
329.744	110.06
329.972	127.06
330.201	140.06
330.43	166.06
330.658	132.06
330.887	130.06
331.115	127.06
331.344	102.06
331.572	101.06
331.801	98.06
332.03	101.06
332.258	105.06
332.486	92.06
332.715	85.06
332.943	94.06
333.172	112.06
333.4	106.06
333.629	110.06
333.857	122.06
334.085	124.06
334.314	138.06
334.542	186.06
334.771	192.06
334.999	106.06
335.227	94.06
335.455	89.06
335.684	93.06
335.912	92.06
336.14	90.06
336.369	94.06
336.597	97.06
336.825	111.06
337.053	97.06
337.281	90.06
337.51	99.06
337.738	90.06
337.966	93.06
338.194	109.06
338.422	101.06
338.65	94.06
338.878	96.06
339.106	82.06
339.334	91.06
339.562	82.06
339.79	88.06
340.018	95.06
340.246	85.06
340.474	71.06
340.702	104.06
340.93	83.06
341.158	101.06
341.386	97.06
341.614	109.06
341.842	91.06
342.07	88.06
342.298	83.06
342.526	88.06
342.754	96.06
342.981	98.06
343.209	83.06
343.437	93.06
343.665	97.06
343.893	93.06
344.12	88.06
344.348	92.06
344.576	99.06
344.804	94.06
345.031	96.06
345.259	103.06
345.487	92.06
345.714	79.06
345.942	103.06
346.17	88.06
346.397	92.06
346.625	85.06
346.853	79.06
347.08	82.06
347.308	101.06
347.535	103.06
347.763	102.06
347.99	89.06
348.218	99.06
348.445	102.06
348.673	98.06
348.9	95.06
349.128	97.06
349.355	97.06
349.583	79.06
349.81	97.06
350.037	88.06
350.265	98.06
350.492	107.06
350.72	101.06
350.947	103.06
351.174	111.06
351.402	117.06
351.629	108.06
351.856	91.06
352.083	110.06
352.311	99.06
352.538	119.06
352.765	120.06
352.992	115.06
353.22	115.06
353.447	99.06
353.674	96.06
353.901	94.06
354.128	94.06
354.355	88.06
354.583	99.06
354.81	106.06
355.037	104.06
355.264	94.06
355.491	103.06
355.718	89.06
355.945	98.06
356.172	68.06
356.399	109.06
356.626	81.06
356.853	70.06
357.08	91.06
357.307	91.06
357.534	84.06
357.761	96.06
357.988	94.06
358.215	92.06
358.441	94.06
358.668	91.06
358.895	100.06
359.122	99.06
359.349	100.06
359.576	79.06
359.802	110.06
360.029	120.06
360.256	98.06
360.483	100.06
360.709	96.06
360.936	96.06
361.163	97.06
361.39	89.06
361.616	86.06
361.843	86.06
362.07	88.06
362.296	111.06
362.523	96.06
362.749	96.06
362.976	89.06
363.203	89.06
363.429	88.06
363.656	97.06
363.882	83.06
364.109	83.06
364.335	82.06
364.562	101.06
364.788	90.06
365.015	79.06
365.241	99.06
365.468	100.06
365.694	99.06
365.92	89.06
366.147	83.06
366.373	101.06
366.599	87.06
366.826	94.06
367.052	74.06
367.278	90.06
367.505	90.06
367.731	86.06
367.957	90.06
368.184	90.06
368.41	95.06
368.636	120.06
368.862	119.06
369.089	99.06
369.315	80.06
369.541	90.06
369.767	89.06
369.993	106.06
370.219	86.06
370.445	94.06
370.672	93.06
370.898	83.06
371.124	88.06
371.35	78.06
371.576	81.06
371.802	83.06
372.028	78.06
372.254	74.06
372.48	99.06
372.706	89.06
372.932	95.06
373.158	91.06
373.384	93.06
373.61	90.06
373.835	90.06
374.061	93.06
374.287	95.06
374.513	88.06
374.739	90.06
374.965	74.06
375.191	75.06
375.416	85.06
375.642	85.06
375.868	94.06
376.094	92.06
376.319	68.06
376.545	89.06
376.771	90.06
376.997	110.06
377.222	93.06
377.448	92.06
377.674	101.06
377.899	98.06
378.125	90.06
378.35	84.06
378.576	87.06
378.802	90.06
379.027	84.06
379.253	90.06
379.478	103.06
379.704	93.06
379.929	101.06
380.155	96.06
380.38	89.06
380.606	86.06
380.831	105.06
381.057	97.06
381.282	77.06
381.507	103.06
381.733	92.06
381.958	89.06
382.184	79.06
382.409	87.06
382.634	100.06
382.86	104.06
383.085	103.06
383.31	98.06
383.535	100.06
383.761	101.06
383.986	102.06
384.211	96.06
384.436	103.06
384.662	97.06
384.887	90.06
385.112	103.06
385.337	116.06
385.562	100.06
385.787	103.06
386.013	109.06
386.238	120.06
386.463	107.06
386.688	97.06
386.913	103.06
387.138	104.06
387.363	94.06
387.588	119.06
387.813	90.06
388.038	114.06
388.263	116.06
388.488	95.06
388.713	81.06
388.938	86.06
389.163	90.06
389.387	88.06
389.612	90.06
389.837	90.06
390.062	75.06
390.287	85.06
390.512	90.06
390.736	92.06
390.961	91.06
391.186	94.06
391.411	91.06
391.636	85.06
391.86	97.06
392.085	89.06
392.31	80.06
392.534	87.06
392.759	70.06
392.984	81.06
393.208	97.06
393.433	100.06
393.658	82.06
393.882	95.06
394.107	85.06
394.331	82.06
394.556	71.06
394.78	80.06
395.005	90.06
395.229	93.06
395.454	82.06
395.678	92.06
395.903	87.06
396.127	78.06
396.352	90.06
396.576	82.06
396.801	79.06
397.025	83.06
397.249	96.06
397.474	82.06
397.698	96.06
397.922	99.06
398.147	83.06
398.371	75.06
398.595	90.06
398.82	93.06
399.044	82.06
399.268	90.06
399.492	79.06
399.717	70.06
399.941	89.06
400.165	94.06
400.389	92.06
400.613	93.06
400.837	81.06
401.062	76.06
401.286	90.06
401.51	90.06
401.734	79.06
401.958	103.06
402.182	123.06
402.406	158.06
402.63	107.06
402.854	84.06
403.078	88.06
403.302	86.06
403.526	87.06
403.75	83.06
403.974	86.06
404.198	81.06
404.422	94.06
404.645	81.06
404.869	99.06
405.093	91.06
405.317	112.06
405.541	102.06
405.765	99.06
405.988	99.06
406.212	171.06
406.436	237.06
406.66	126.06
406.883	110.06
407.107	87.06
407.331	90.06
407.555	96.06
407.778	97.06
408.002	89.06
408.226	89.06
408.449	79.06
408.673	90.06
408.896	81.06
409.12	98.06
409.344	86.06
409.567	87.06
409.791	87.06
410.014	90.06
410.238	87.06
410.461	86.06
410.685	79.06
410.908	94.06
411.132	111.06
411.355	110.06
411.578	86.06
411.802	82.06
412.025	82.06
412.249	68.06
412.472	93.06
412.695	88.06
412.919	93.06
413.142	97.06
413.365	86.06
413.589	75.06
413.812	96.06
414.035	82.06
414.258	86.06
414.482	104.06
414.705	87.06
414.928	96.06
415.151	98.06
415.374	102.06
415.597	91.06
415.821	85.06
416.044	91.06
416.267	104.06
416.49	84.06
416.713	83.06
416.936	87.06
417.159	79.06
417.382	80.06
417.605	81.06
417.828	89.06
418.051	77.06
418.274	83.06
418.497	89.06
418.72	89.06
418.943	91.06
419.166	88.06
419.389	93.06
419.611	86.06
419.834	79.06
420.057	85.06
420.28	66.06
420.503	75.06
420.726	86.06
420.948	86.06
421.171	102.06
421.394	102.06
421.617	83.06
421.839	77.06
422.062	97.06
422.285	87.06
422.507	110.06
422.73	101.06
422.953	88.06
423.175	105.06
423.398	93.06
423.621	88.06
423.843	85.06
424.066	86.06
424.288	82.06
424.511	75.06
424.733	90.06
424.956	92.06
425.178	85.06
425.401	96.06
425.623	99.06
425.846	80.06
426.068	83.06
426.291	83.06
426.513	81.06
426.735	96.06
426.958	96.06
427.18	109.06
427.402	134.06
427.625	175.06
427.847	142.06
428.069	102.06
428.292	90.06
428.514	77.06
428.736	78.06
428.958	90.06
429.181	88.06
429.403	88.06
429.625	90.06
429.847	95.06
430.069	100.06
430.292	87.06
430.514	94.06
430.736	79.06
430.958	82.06
431.18	87.06
431.402	88.06
431.624	80.06
431.846	82.06
432.068	80.06
432.29	83.06
432.512	73.06
432.734	91.06
432.956	83.06
433.178	106.06
433.4	83.06
433.622	79.06
433.844	83.06
434.066	91.06
434.287	104.06
434.509	90.06
434.731	75.06
434.953	89.06
435.175	90.06
435.397	102.06
435.618	83.06
435.84	103.06
436.062	103.06
436.284	112.06
436.505	89.06
436.727	92.06
436.949	91.06
437.17	65.06
437.392	78.06
437.614	98.06
437.835	89.06
438.057	100.06
438.278	108.06
438.5	101.06
438.721	117.06
438.943	112.06
439.165	86.06
439.386	78.06
439.608	84.06
439.829	98.06
440.05	122.06
440.272	119.06
440.493	103.06
440.715	95.06
440.936	101.06
441.158	78.06
441.379	80.06
441.6	94.06
441.822	87.06
442.043	88.06
442.264	98.06
442.486	95.06
442.707	75.06
442.928	98.06
443.149	127.06
443.371	126.06
443.592	98.06
443.813	113.06
444.034	90.06
444.255	91.06
444.476	89.06
444.698	82.06
444.919	97.06
445.14	120.06
445.361	119.06
445.582	112.06
445.803	119.06
446.024	118.06
446.245	111.06
446.466	89.06
446.687	85.06
446.908	88.06
447.129	102.06
447.35	96.06
447.571	91.06
447.792	76.06
448.013	100.06
448.234	105.06
448.455	89.06
448.675	109.06
448.896	101.06
449.117	88.06
449.338	77.06
449.559	115.06
449.779	118.06
450	80.06
450.221	82.06
450.442	84.06
450.662	96.06
450.883	89.06
451.104	103.06
451.324	82.06
451.545	86.06
451.766	101.06
451.986	87.06
452.207	71.06
452.428	78.06
452.648	89.06
452.869	101.06
453.089	105.06
453.31	130.06
453.53	82.06
453.751	81.06
453.971	105.06
454.192	113.06
454.412	98.06
454.633	87.06
454.853	73.06
455.073	80.06
455.294	91.06
455.514	97.06
455.734	88.06
455.955	70.06
456.175	78.06
456.395	82.06
456.616	81.06
456.836	80.06
457.056	69.06
457.276	91.06
457.497	75.06
457.717	75.06
457.937	89.06
458.157	97.06
458.377	88.06
458.598	114.06
458.818	153.06
459.038	164.06
459.258	106.06
459.478	81.06
459.698	74.06
459.918	79.06
460.138	74.06
460.358	98.06
460.578	78.06
460.798	99.06
461.018	92.06
461.238	87.06
461.458	82.06
461.678	86.06
461.898	87.06
462.118	82.06
462.338	92.06
462.558	91.06
462.777	77.06
462.997	79.06
463.217	82.06
463.437	87.06
463.657	97.06
463.876	83.06
464.096	91.06
464.316	79.06
464.536	77.06
464.755	93.06
464.975	108.06
465.195	163.06
465.414	165.06
465.634	94.06
465.854	94.06
466.073	102.06
466.293	87.06
466.512	80.06
466.732	98.06
466.951	101.06
467.171	84.06
467.391	88.06
467.61	90.06
467.829	101.06
468.049	128.06
468.268	133.06
468.488	95.06
468.707	95.06
468.927	101.06
469.146	79.06
469.365	74.06
469.585	84.06
469.804	96.06
470.023	88.06
470.243	87.06
470.462	95.06
470.681	108.06
470.901	83.06
471.12	86.06
471.339	86.06
471.558	80.06
471.777	90.06
471.997	93.06
472.216	165.06
472.435	237.06
472.654	112.06
472.873	74.06
473.092	85.06
473.311	73.06
473.53	85.06
473.749	95.06
473.968	82.06
474.187	107.06
474.406	109.06
474.625	77.06
474.844	96.06
475.063	80.06
475.282	90.06
475.501	89.06
475.72	69.06
475.939	86.06
476.158	88.06
476.377	81.06
476.596	93.06
476.814	94.06
477.033	90.06
477.252	78.06
477.471	92.06
477.69	84.06
477.908	80.06
478.127	86.06
478.346	64.06
478.564	78.06
478.783	82.06
479.002	89.06
479.22	85.06
479.439	102.06
479.658	110.06
479.876	88.06
480.095	94.06
480.313	89.06
480.532	90.06
480.751	108.06
480.969	169.06
481.188	361.06
481.406	269.06
481.624	95.06
481.843	98.06
482.061	77.06
482.28	96.06
482.498	87.06
482.717	88.06
482.935	83.06
483.153	79.06
483.372	96.06
483.59	108.06
483.808	79.06
484.027	91.06
484.245	79.06
484.463	100.06
484.681	86.06
484.9	98.06
485.118	90.06
485.336	101.06
485.554	96.06
485.772	92.06
485.99	90.06
486.209	92.06
486.427	114.06
486.645	116.06
486.863	105.06
487.081	98.06
487.299	110.06
487.517	84.06
487.735	80.06
487.953	83.06
488.171	93.06
488.389	87.06
488.607	82.06
488.825	83.06
489.043	93.06
489.261	79.06
489.479	86.06
489.696	69.06
489.914	77.06
490.132	96.06
490.35	98.06
490.568	78.06
490.786	93.06
491.003	90.06
491.221	89.06
491.439	102.06
491.657	97.06
491.874	82.06
492.092	79.06
492.31	87.06
492.527	82.06
492.745	93.06
492.963	94.06
493.18	88.06
493.398	82.06
493.615	95.06
493.833	80.06
494.05	97.06
494.268	99.06
494.485	98.06
494.703	86.06
494.92	84.06
495.138	81.06
495.355	86.06
495.573	89.06
495.79	78.06
496.008	75.06
496.225	85.06
496.442	95.06
496.66	84.06
496.877	96.06
497.094	108.06
497.312	90.06
497.529	94.06
497.746	94.06
497.963	86.06
498.181	87.06
498.398	87.06
498.615	96.06
498.832	92.06
499.049	96.06
499.267	81.06
499.484	91.06
499.701	92.06
499.918	74.06
500.135	95.06
500.352	87.06
500.569	90.06
500.786	93.06
501.003	92.06
501.22	89.06
501.437	101.06
501.654	100.06
501.871	106.06
502.088	89.06
502.305	88.06
502.522	70.06
502.739	90.06
502.956	101.06
503.172	104.06
503.389	94.06
503.606	99.06
503.823	91.06
504.04	95.06
504.256	88.06
504.473	89.06
504.69	89.06
504.907	106.06
505.123	86.06
505.34	90.06
505.557	75.06
505.773	81.06
505.99	91.06
506.207	78.06
506.423	97.06
506.64	85.06
506.856	93.06
507.073	82.06
507.289	92.06
507.506	87.06
507.722	99.06
507.939	101.06
508.155	80.06
508.372	94.06
508.588	104.06
508.805	94.06
509.021	94.06
509.238	97.06
509.454	101.06
509.67	94.06
509.887	112.06
510.103	142.06
510.319	222.06
510.536	773.06
510.752	2588.06
510.968	727.06
511.184	150.06
511.401	104.06
511.617	92.06
511.833	85.06
512.049	87.06
512.265	96.06
512.481	89.06
512.698	94.06
512.914	91.06
513.13	88.06
513.346	95.06
513.562	80.06
513.778	98.06
513.994	96.06
514.21	103.06
514.426	112.06
514.642	127.06
514.858	121.06
515.074	176.06
515.29	455.06
515.506	1583.06
515.721	583.06
515.937	171.06
516.153	108.06
