Data from Circ_2008_H10_HRD10591_00020.txt Node
Date: Wed Jan 03 10:17:00 EST 2024
User: Yrep
Spectrometer: HR+D1059
Trigger mode: 1
Integration Time (sec): 1.000000E-1
Scans to average: 1
Electric dark correction enabled: true
Nonlinearity correction enabled: false
Boxcar width: 0
XAxis mode: Wavelengths
Number of Pixels in Spectrum: 2048
>>>>>Begin Spectral Data<<<<<
223.165	-10.81
223.4	-10.81
223.635	-10.81
223.869	-19.81
224.104	-23.81
224.338	-9.81
224.573	-20.81
224.808	-5.81
225.042	-6.81
225.277	-0.81
225.511	-0.81
225.746	7.19
225.98	-0.81
226.215	-1.81
226.449	19.19
226.683	20.19
226.918	28.19
227.152	27.19
227.387	25.19
227.621	46.19
227.856	23.19
228.09	42.19
228.324	54.19
228.559	66.19
228.793	59.19
229.027	57.19
229.262	78.19
229.496	68.19
229.73	89.19
229.964	81.19
230.199	78.19
230.433	77.19
230.667	82.19
230.901	69.19
231.136	76.19
231.37	87.19
231.604	52.19
231.838	74.19
232.072	78.19
232.306	82.19
232.541	76.19
232.775	71.19
233.009	70.19
233.243	64.19
233.477	68.19
233.711	82.19
233.945	79.19
234.179	94.19
234.413	84.19
234.647	83.19
234.881	70.19
235.115	65.19
235.349	87.19
235.583	79.19
235.817	62.19
236.051	69.19
236.285	87.19
236.519	78.19
236.753	78.19
236.987	77.19
237.221	79.19
237.455	84.19
237.689	78.19
237.922	73.19
238.156	79.19
238.39	66.19
238.624	80.19
238.858	62.19
239.091	72.19
239.325	75.19
239.559	78.19
239.793	82.19
240.027	76.19
240.26	67.19
240.494	81.19
240.728	74.19
240.961	74.19
241.195	74.19
241.429	78.19
241.662	67.19
241.896	72.19
242.13	71.19
242.363	84.19
242.597	68.19
242.83	63.19
243.064	78.19
243.298	91.19
243.531	64.19
243.765	68.19
243.998	66.19
244.232	81.19
244.465	80.19
244.699	72.19
244.932	75.19
245.166	69.19
245.399	62.19
245.633	74.19
245.866	62.19
246.099	70.19
246.333	88.19
246.566	66.19
246.8	86.19
247.033	78.19
247.266	70.19
247.5	66.19
247.733	75.19
247.966	72.19
248.2	80.19
248.433	83.19
248.666	69.19
248.899	80.19
249.133	90.19
249.366	88.19
249.599	95.19
249.832	94.19
250.066	75.19
250.299	62.19
250.532	80.19
250.765	77.19
250.998	84.19
251.231	68.19
251.465	74.19
251.698	64.19
251.931	80.19
252.164	83.19
252.397	72.19
252.63	77.19
252.863	72.19
253.096	73.19
253.329	83.19
253.562	73.19
253.795	65.19
254.028	73.19
254.261	73.19
254.494	61.19
254.727	86.19
254.96	83.19
255.193	80.19
255.426	70.19
255.659	79.19
255.892	80.19
256.124	70.19
256.357	76.19
256.59	79.19
256.823	73.19
257.056	92.19
257.289	92.19
257.521	73.19
257.754	61.19
257.987	66.19
258.22	62.19
258.452	85.19
258.685	76.19
258.918	75.19
259.151	73.19
259.383	84.19
259.616	70.19
259.849	77.19
260.081	81.19
260.314	64.19
260.547	76.19
260.779	89.19
261.012	77.19
261.244	78.19
261.477	78.19
261.71	82.19
261.942	114.19
262.175	115.19
262.407	95.19
262.64	76.19
262.872	68.19
263.105	75.19
263.337	80.19
263.57	82.19
263.802	69.19
264.035	77.19
264.267	69.19
264.499	72.19
264.732	81.19
264.964	90.19
265.197	82.19
265.429	58.19
265.661	86.19
265.894	79.19
266.126	93.19
266.358	68.19
266.591	72.19
266.823	76.19
267.055	80.19
267.287	79.19
267.52	84.19
267.752	79.19
267.984	66.19
268.216	76.19
268.448	87.19
268.681	67.19
268.913	76.19
269.145	72.19
269.377	77.19
269.609	86.19
269.841	88.19
270.073	67.19
270.306	74.19
270.538	77.19
270.77	76.19
271.002	82.19
271.234	73.19
271.466	82.19
271.698	89.19
271.93	77.19
272.162	83.19
272.394	88.19
272.626	81.19
272.858	77.19
273.09	76.19
273.322	81.19
273.553	79.19
273.785	78.19
274.017	76.19
274.249	73.19
274.481	70.19
274.713	76.19
274.945	64.19
275.176	80.19
275.408	73.19
275.64	84.19
275.872	85.19
276.104	80.19
276.335	90.19
276.567	101.19
276.799	120.19
277.031	107.19
277.262	84.19
277.494	90.19
277.726	76.19
277.957	83.19
278.189	88.19
278.421	70.19
278.652	90.19
278.884	73.19
279.115	79.19
279.347	78.19
279.579	79.19
279.81	86.19
280.042	77.19
280.273	84.19
280.505	96.19
280.736	80.19
280.968	89.19
281.199	66.19
281.431	75.19
281.662	71.19
281.894	92.19
282.125	110.19
282.356	122.19
282.588	150.19
282.819	120.19
283.051	87.19
283.282	83.19
283.513	82.19
283.745	87.19
283.976	85.19
284.207	87.19
284.439	90.19
284.67	74.19
284.901	76.19
285.132	80.19
285.364	80.19
285.595	87.19
285.826	78.19
286.057	85.19
286.288	86.19
286.52	94.19
286.751	73.19
286.982	86.19
287.213	79.19
287.444	83.19
287.675	70.19
287.906	84.19
288.138	79.19
288.369	94.19
288.6	93.19
288.831	80.19
289.062	87.19
289.293	92.19
289.524	79.19
289.755	94.19
289.986	77.19
290.217	81.19
290.448	83.19
290.679	84.19
290.91	86.19
291.141	77.19
291.371	80.19
291.602	88.19
291.833	78.19
292.064	99.19
292.295	80.19
292.526	93.19
292.757	87.19
292.987	82.19
293.218	86.19
293.449	79.19
293.68	89.19
293.91	77.19
294.141	96.19
294.372	84.19
294.603	83.19
294.833	84.19
295.064	89.19
295.295	90.19
295.525	76.19
295.756	104.19
295.987	115.19
296.217	153.19
296.448	134.19
296.679	86.19
296.909	98.19
297.14	86.19
297.37	87.19
297.601	90.19
297.831	87.19
298.062	87.19
298.292	94.19
298.523	85.19
298.753	85.19
298.984	85.19
299.214	88.19
299.445	92.19
299.675	85.19
299.905	98.19
300.136	99.19
300.366	89.19
300.597	92.19
300.827	90.19
301.057	96.19
301.288	105.19
301.518	86.19
301.748	72.19
301.979	78.19
302.209	80.19
302.439	92.19
302.669	87.19
302.9	90.19
303.13	91.19
303.36	92.19
303.59	80.19
303.82	114.19
304.051	86.19
304.281	82.19
304.511	80.19
304.741	90.19
304.971	85.19
305.201	88.19
305.431	86.19
305.661	89.19
305.891	90.19
306.121	87.19
306.352	103.19
306.582	94.19
306.812	98.19
307.042	82.19
307.272	86.19
307.502	96.19
307.731	96.19
307.961	71.19
308.191	93.19
308.421	86.19
308.651	89.19
308.881	90.19
309.111	83.19
309.341	102.19
309.571	91.19
309.8	95.19
310.03	106.19
310.26	91.19
310.49	92.19
310.72	96.19
310.949	109.19
311.179	102.19
311.409	102.19
311.639	83.19
311.868	86.19
312.098	89.19
312.328	94.19
312.557	91.19
312.787	99.19
313.017	93.19
313.246	103.19
313.476	90.19
313.706	90.19
313.935	80.19
314.165	80.19
314.394	94.19
314.624	87.19
314.853	95.19
315.083	78.19
315.312	94.19
315.542	79.19
315.771	80.19
316.001	91.19
316.23	68.19
316.46	100.19
316.689	92.19
316.919	82.19
317.148	96.19
317.377	100.19
317.607	92.19
317.836	101.19
318.065	86.19
318.295	99.19
318.524	90.19
318.753	104.19
318.983	84.19
319.212	93.19
319.441	115.19
319.67	108.19
319.9	93.19
320.129	89.19
320.358	85.19
320.587	98.19
320.816	96.19
321.046	98.19
321.275	84.19
321.504	94.19
321.733	77.19
321.962	93.19
322.191	96.19
322.42	101.19
322.649	107.19
322.878	106.19
323.108	118.19
323.337	123.19
323.566	140.19
323.795	158.19
324.024	229.19
324.253	413.19
324.482	884.19
324.71	1831.19
324.939	2356.19
325.168	873.19
325.397	250.19
325.626	154.19
325.855	142.19
326.084	123.19
326.313	132.19
326.542	168.19
326.77	216.19
326.999	460.19
327.228	957.19
327.457	1722.19
327.686	1418.19
327.914	399.19
328.143	231.19
328.372	162.19
328.6	122.19
328.829	99.19
329.058	132.19
329.287	139.19
329.515	107.19
329.744	107.19
329.972	110.19
330.201	135.19
330.43	163.19
330.658	142.19
330.887	155.19
331.115	109.19
331.344	110.19
331.572	105.19
331.801	108.19
332.03	95.19
332.258	91.19
332.486	97.19
332.715	99.19
332.943	87.19
333.172	86.19
333.4	95.19
333.629	107.19
333.857	125.19
334.085	121.19
334.314	128.19
334.542	178.19
334.771	167.19
334.999	109.19
335.227	72.19
335.455	85.19
335.684	86.19
335.912	81.19
336.14	91.19
336.369	96.19
336.597	99.19
336.825	87.19
337.053	79.19
337.281	75.19
337.51	99.19
337.738	73.19
337.966	87.19
338.194	91.19
338.422	101.19
338.65	75.19
338.878	88.19
339.106	105.19
339.334	90.19
339.562	84.19
339.79	85.19
340.018	87.19
340.246	93.19
340.474	88.19
340.702	86.19
340.93	78.19
341.158	101.19
341.386	80.19
341.614	98.19
341.842	83.19
342.07	87.19
342.298	84.19
342.526	82.19
342.754	74.19
342.981	74.19
343.209	95.19
343.437	104.19
343.665	84.19
343.893	100.19
344.12	88.19
344.348	72.19
344.576	91.19
344.804	82.19
345.031	83.19
345.259	95.19
345.487	103.19
345.714	92.19
345.942	93.19
346.17	89.19
346.397	88.19
346.625	93.19
346.853	86.19
347.08	92.19
347.308	96.19
347.535	88.19
347.763	90.19
347.99	95.19
348.218	107.19
348.445	96.19
348.673	105.19
348.9	91.19
349.128	88.19
349.355	87.19
349.583	79.19
349.81	91.19
350.037	86.19
350.265	94.19
350.492	101.19
350.72	96.19
350.947	108.19
351.174	104.19
351.402	123.19
351.629	88.19
351.856	90.19
352.083	107.19
352.311	105.19
352.538	97.19
352.765	106.19
352.992	117.19
353.22	115.19
353.447	100.19
353.674	89.19
353.901	99.19
354.128	95.19
354.355	79.19
354.583	89.19
354.81	100.19
355.037	100.19
355.264	86.19
355.491	100.19
355.718	89.19
355.945	96.19
356.172	89.19
356.399	89.19
356.626	107.19
356.853	85.19
357.08	93.19
357.307	81.19
357.534	89.19
357.761	93.19
357.988	99.19
358.215	105.19
358.441	93.19
358.668	88.19
358.895	82.19
359.122	74.19
359.349	101.19
359.576	85.19
359.802	99.19
360.029	119.19
360.256	102.19
360.483	84.19
360.709	96.19
360.936	91.19
361.163	101.19
361.39	98.19
361.616	107.19
361.843	94.19
362.07	94.19
362.296	108.19
362.523	93.19
362.749	87.19
362.976	83.19
363.203	85.19
363.429	95.19
363.656	72.19
363.882	94.19
364.109	85.19
364.335	89.19
364.562	80.19
364.788	88.19
365.015	91.19
365.241	88.19
365.468	120.19
365.694	116.19
365.92	89.19
366.147	76.19
366.373	82.19
366.599	79.19
366.826	73.19
367.052	79.19
367.278	82.19
367.505	90.19
367.731	81.19
367.957	92.19
368.184	77.19
368.41	90.19
368.636	110.19
368.862	135.19
369.089	114.19
369.315	92.19
369.541	98.19
369.767	88.19
369.993	86.19
370.219	88.19
370.445	85.19
370.672	86.19
370.898	83.19
371.124	86.19
371.35	88.19
371.576	98.19
371.802	83.19
372.028	79.19
372.254	81.19
372.48	88.19
372.706	84.19
372.932	73.19
373.158	95.19
373.384	90.19
373.61	84.19
373.835	105.19
374.061	74.19
374.287	87.19
374.513	94.19
374.739	84.19
374.965	91.19
375.191	93.19
375.416	87.19
375.642	87.19
375.868	71.19
376.094	86.19
376.319	85.19
376.545	94.19
376.771	91.19
376.997	83.19
377.222	69.19
377.448	93.19
377.674	88.19
377.899	89.19
378.125	108.19
378.35	87.19
378.576	93.19
378.802	92.19
379.027	96.19
379.253	109.19
379.478	87.19
379.704	86.19
379.929	102.19
380.155	99.19
380.38	97.19
380.606	103.19
380.831	99.19
381.057	101.19
381.282	93.19
381.507	99.19
381.733	95.19
381.958	93.19
382.184	92.19
382.409	99.19
382.634	102.19
382.86	98.19
383.085	101.19
383.31	102.19
383.535	106.19
383.761	93.19
383.986	92.19
384.211	104.19
384.436	98.19
384.662	101.19
384.887	103.19
385.112	108.19
385.337	119.19
385.562	108.19
385.787	99.19
386.013	110.19
386.238	124.19
386.463	103.19
386.688	107.19
386.913	101.19
387.138	118.19
387.363	99.19
387.588	116.19
387.813	96.19
388.038	121.19
388.263	120.19
388.488	115.19
388.713	86.19
388.938	94.19
389.163	95.19
389.387	88.19
389.612	89.19
389.837	87.19
390.062	73.19
390.287	86.19
390.512	89.19
390.736	107.19
390.961	86.19
391.186	87.19
391.411	94.19
391.636	90.19
391.86	86.19
392.085	84.19
392.31	70.19
392.534	73.19
392.759	87.19
392.984	85.19
393.208	97.19
393.433	100.19
393.658	106.19
393.882	92.19
394.107	87.19
394.331	101.19
394.556	79.19
394.78	84.19
395.005	80.19
395.229	86.19
395.454	78.19
395.678	70.19
395.903	75.19
396.127	74.19
396.352	58.19
396.576	79.19
396.801	89.19
397.025	102.19
397.249	83.19
397.474	94.19
397.698	94.19
397.922	80.19
398.147	76.19
398.371	80.19
398.595	89.19
398.82	73.19
399.044	86.19
399.268	80.19
399.492	75.19
399.717	74.19
399.941	89.19
400.165	86.19
400.389	86.19
400.613	80.19
400.837	82.19
401.062	84.19
401.286	82.19
401.51	100.19
401.734	81.19
401.958	116.19
402.182	141.19
402.406	186.19
402.63	117.19
402.854	100.19
403.078	87.19
403.302	77.19
403.526	93.19
403.75	89.19
403.974	75.19
404.198	94.19
404.422	79.19
404.645	80.19
404.869	84.19
405.093	88.19
405.317	105.19
405.541	79.19
405.765	79.19
405.988	115.19
406.212	198.19
406.436	269.19
406.66	166.19
406.883	105.19
407.107	82.19
407.331	90.19
407.555	91.19
407.778	92.19
408.002	84.19
408.226	82.19
408.449	73.19
408.673	93.19
408.896	101.19
409.12	87.19
409.344	87.19
409.567	80.19
409.791	89.19
410.014	79.19
410.238	94.19
410.461	93.19
410.685	79.19
410.908	85.19
411.132	101.19
411.355	94.19
411.578	87.19
411.802	85.19
412.025	72.19
412.249	89.19
412.472	84.19
412.695	84.19
412.919	78.19
413.142	76.19
413.365	77.19
413.589	101.19
413.812	96.19
414.035	94.19
414.258	101.19
414.482	85.19
414.705	70.19
414.928	89.19
415.151	95.19
415.374	99.19
415.597	91.19
415.821	80.19
416.044	86.19
416.267	90.19
416.49	87.19
416.713	72.19
416.936	82.19
417.159	84.19
417.382	77.19
417.605	89.19
417.828	93.19
418.051	88.19
418.274	89.19
418.497	80.19
418.72	81.19
418.943	77.19
419.166	90.19
419.389	99.19
419.611	88.19
419.834	101.19
420.057	100.19
420.28	80.19
420.503	84.19
420.726	101.19
420.948	76.19
421.171	79.19
421.394	91.19
421.617	89.19
421.839	91.19
422.062	86.19
422.285	84.19
422.507	95.19
422.73	111.19
422.953	99.19
423.175	96.19
423.398	78.19
423.621	87.19
423.843	81.19
424.066	92.19
424.288	95.19
424.511	77.19
424.733	74.19
424.956	96.19
425.178	94.19
425.401	102.19
425.623	87.19
425.846	83.19
426.068	77.19
426.291	91.19
426.513	77.19
426.735	91.19
426.958	91.19
427.18	90.19
427.402	140.19
427.625	191.19
427.847	132.19
428.069	115.19
428.292	84.19
428.514	80.19
428.736	87.19
428.958	76.19
429.181	82.19
429.403	79.19
429.625	76.19
429.847	78.19
430.069	88.19
430.292	100.19
430.514	85.19
430.736	83.19
430.958	88.19
431.18	86.19
431.402	85.19
431.624	78.19
431.846	91.19
432.068	93.19
432.29	81.19
432.512	84.19
432.734	86.19
432.956	93.19
433.178	89.19
433.4	96.19
433.622	86.19
433.844	77.19
434.066	78.19
434.287	83.19
434.509	90.19
434.731	82.19
434.953	85.19
435.175	91.19
435.397	98.19
435.618	88.19
435.84	90.19
436.062	99.19
436.284	106.19
436.505	93.19
436.727	82.19
436.949	90.19
437.17	84.19
437.392	89.19
437.614	97.19
437.835	122.19
438.057	104.19
438.278	110.19
438.5	103.19
438.721	103.19
438.943	99.19
439.165	82.19
439.386	89.19
439.608	79.19
439.829	95.19
440.05	110.19
440.272	123.19
440.493	92.19
440.715	86.19
440.936	92.19
441.158	82.19
441.379	90.19
441.6	97.19
441.822	90.19
442.043	79.19
442.264	103.19
442.486	106.19
442.707	96.19
442.928	98.19
443.149	141.19
443.371	142.19
443.592	109.19
443.813	103.19
444.034	96.19
444.255	77.19
444.476	101.19
444.698	88.19
444.919	86.19
445.14	107.19
445.361	119.19
445.582	116.19
445.803	115.19
446.024	127.19
446.245	147.19
446.466	104.19
446.687	86.19
446.908	80.19
447.129	81.19
447.35	86.19
447.571	82.19
447.792	102.19
448.013	105.19
448.234	112.19
448.455	110.19
448.675	108.19
448.896	102.19
449.117	98.19
449.338	103.19
449.559	128.19
449.779	134.19
450	89.19
450.221	87.19
450.442	94.19
450.662	95.19
450.883	103.19
451.104	109.19
451.324	99.19
451.545	88.19
451.766	78.19
451.986	83.19
452.207	91.19
452.428	79.19
452.648	98.19
452.869	116.19
453.089	109.19
453.31	121.19
453.53	98.19
453.751	87.19
453.971	104.19
454.192	112.19
454.412	87.19
454.633	95.19
454.853	80.19
455.073	68.19
455.294	96.19
455.514	96.19
455.734	90.19
455.955	82.19
456.175	84.19
456.395	80.19
456.616	85.19
456.836	88.19
457.056	85.19
457.276	89.19
457.497	65.19
457.717	82.19
457.937	75.19
458.157	80.19
458.377	88.19
458.598	116.19
458.818	154.19
459.038	184.19
459.258	118.19
459.478	80.19
459.698	93.19
459.918	84.19
460.138	83.19
460.358	78.19
460.578	78.19
460.798	87.19
461.018	84.19
461.238	88.19
461.458	90.19
461.678	81.19
461.898	68.19
462.118	88.19
462.338	84.19
462.558	85.19
462.777	92.19
462.997	85.19
463.217	87.19
463.437	81.19
463.657	79.19
463.876	87.19
464.096	88.19
464.316	100.19
464.536	100.19
464.755	92.19
464.975	103.19
465.195	173.19
465.414	191.19
465.634	101.19
465.854	74.19
466.073	77.19
466.293	78.19
466.512	93.19
466.732	93.19
466.951	76.19
467.171	92.19
467.391	84.19
467.61	105.19
467.829	101.19
468.049	96.19
468.268	117.19
468.488	86.19
468.707	72.19
468.927	79.19
469.146	81.19
469.365	98.19
469.585	83.19
469.804	69.19
470.023	97.19
470.243	95.19
470.462	103.19
470.681	113.19
470.901	98.19
471.12	90.19
471.339	83.19
471.558	88.19
471.777	112.19
471.997	108.19
472.216	131.19
472.435	176.19
472.654	93.19
472.873	80.19
473.092	83.19
473.311	74.19
473.53	76.19
473.749	80.19
473.968	91.19
474.187	114.19
474.406	97.19
474.625	78.19
474.844	81.19
475.063	83.19
475.282	91.19
475.501	76.19
475.72	82.19
475.939	64.19
476.158	77.19
476.377	92.19
476.596	84.19
476.814	79.19
477.033	84.19
477.252	89.19
477.471	82.19
477.69	78.19
477.908	78.19
478.127	78.19
478.346	94.19
478.564	86.19
478.783	92.19
479.002	93.19
479.22	89.19
479.439	89.19
479.658	108.19
479.876	99.19
480.095	83.19
480.313	90.19
480.532	93.19
480.751	88.19
480.969	132.19
481.188	258.19
481.406	174.19
481.624	91.19
481.843	82.19
482.061	75.19
482.28	88.19
482.498	91.19
482.717	89.19
482.935	87.19
483.153	86.19
483.372	77.19
483.59	96.19
483.808	88.19
484.027	90.19
484.245	95.19
484.463	90.19
484.681	85.19
484.9	80.19
485.118	94.19
485.336	82.19
485.554	88.19
485.772	86.19
485.99	93.19
486.209	85.19
486.427	104.19
486.645	106.19
486.863	109.19
487.081	102.19
487.299	98.19
487.517	94.19
487.735	101.19
487.953	99.19
488.171	99.19
488.389	80.19
488.607	104.19
488.825	91.19
489.043	77.19
489.261	90.19
489.479	86.19
489.696	81.19
489.914	81.19
490.132	91.19
490.35	75.19
490.568	83.19
490.786	84.19
491.003	75.19
491.221	92.19
491.439	79.19
491.657	108.19
491.874	86.19
492.092	87.19
492.31	83.19
492.527	92.19
492.745	77.19
492.963	83.19
493.18	79.19
493.398	85.19
493.615	86.19
493.833	90.19
494.05	92.19
494.268	97.19
494.485	85.19
494.703	90.19
494.92	91.19
495.138	82.19
495.355	96.19
495.573	94.19
495.79	76.19
496.008	100.19
496.225	82.19
496.442	86.19
496.66	83.19
496.877	81.19
497.094	82.19
497.312	82.19
497.529	86.19
497.746	70.19
497.963	79.19
498.181	84.19
498.398	88.19
498.615	100.19
498.832	99.19
499.049	102.19
499.267	90.19
499.484	82.19
499.701	99.19
499.918	93.19
500.135	73.19
500.352	93.19
500.569	79.19
500.786	85.19
501.003	98.19
501.22	99.19
501.437	84.19
501.654	94.19
501.871	105.19
502.088	101.19
502.305	91.19
502.522	84.19
502.739	91.19
502.956	82.19
503.172	107.19
503.389	96.19
503.606	105.19
503.823	105.19
504.04	77.19
504.256	78.19
504.473	83.19
504.69	95.19
504.907	83.19
505.123	81.19
505.34	95.19
505.557	79.19
505.773	90.19
505.99	94.19
506.207	99.19
506.423	85.19
506.64	69.19
506.856	99.19
507.073	84.19
507.289	77.19
507.506	95.19
507.722	109.19
507.939	116.19
508.155	92.19
508.372	100.19
508.588	92.19
508.805	92.19
509.021	87.19
509.238	94.19
509.454	88.19
509.67	99.19
509.887	123.19
510.103	148.19
510.319	240.19
510.536	962.19
510.752	3311.19
510.968	918.19
511.184	183.19
511.401	107.19
511.617	97.19
511.833	88.19
512.049	86.19
512.265	80.19
512.481	87.19
512.698	91.19
512.914	89.19
513.13	86.19
513.346	74.19
513.562	81.19
513.778	88.19
513.994	96.19
514.21	105.19
514.426	132.19
514.642	141.19
514.858	135.19
515.074	175.19
515.29	583.19
515.506	2076.19
515.721	739.19
515.937	182.19
516.153	122.19
516.369	98.19
