Data from Circ_2008_H10_HRD10591_00063.txt Node
Date: Wed Jan 03 10:17:08 EST 2024
User: Yrep
Spectrometer: HR+D1059
Trigger mode: 1
Integration Time (sec): 1.000000E-1
Scans to average: 1
Electric dark correction enabled: true
Nonlinearity correction enabled: false
Boxcar width: 0
XAxis mode: Wavelengths
Number of Pixels in Spectrum: 2048
>>>>>Begin Spectral Data<<<<<
223.165	-24.44
223.4	-24.44
223.635	-24.44
223.869	-22.44
224.104	-15.44
224.338	-28.44
224.573	-14.44
224.808	-21.44
225.042	-8.44
225.277	-0.44
225.511	2.56
225.746	14.56
225.98	17.56
226.215	17.56
226.449	12.56
226.683	29.56
226.918	14.56
227.152	26.56
227.387	35.56
227.621	34.56
227.856	46.56
228.09	30.56
228.324	54.56
228.559	42.56
228.793	57.56
229.027	59.56
229.262	74.56
229.496	66.56
229.73	72.56
229.964	65.56
230.199	86.56
230.433	81.56
230.667	70.56
230.901	73.56
231.136	83.56
231.37	66.56
231.604	80.56
231.838	86.56
232.072	98.56
232.306	91.56
232.541	91.56
232.775	78.56
233.009	64.56
233.243	92.56
233.477	75.56
233.711	75.56
233.945	80.56
234.179	84.56
234.413	86.56
234.647	95.56
234.881	79.56
235.115	82.56
235.349	93.56
235.583	80.56
235.817	71.56
236.051	74.56
236.285	74.56
236.519	88.56
236.753	72.56
236.987	93.56
237.221	77.56
237.455	89.56
237.689	81.56
237.922	77.56
238.156	62.56
238.39	73.56
238.624	69.56
238.858	79.56
239.091	65.56
239.325	79.56
239.559	82.56
239.793	73.56
240.027	77.56
240.26	79.56
240.494	74.56
240.728	70.56
240.961	66.56
241.195	82.56
241.429	59.56
241.662	81.56
241.896	71.56
242.13	80.56
242.363	78.56
242.597	76.56
242.83	66.56
243.064	81.56
243.298	71.56
243.531	75.56
243.765	72.56
243.998	82.56
244.232	86.56
244.465	68.56
244.699	76.56
244.932	89.56
245.166	89.56
245.399	95.56
245.633	76.56
245.866	71.56
246.099	75.56
246.333	82.56
246.566	80.56
246.8	78.56
247.033	79.56
247.266	81.56
247.5	79.56
247.733	71.56
247.966	82.56
248.2	87.56
248.433	72.56
248.666	73.56
248.899	84.56
249.133	94.56
249.366	96.56
249.599	102.56
249.832	85.56
250.066	94.56
250.299	79.56
250.532	74.56
250.765	77.56
250.998	74.56
251.231	69.56
251.465	66.56
251.698	72.56
251.931	90.56
252.164	81.56
252.397	96.56
252.63	72.56
252.863	77.56
253.096	72.56
253.329	82.56
253.562	86.56
253.795	80.56
254.028	77.56
254.261	71.56
254.494	83.56
254.727	88.56
254.96	79.56
255.193	74.56
255.426	77.56
255.659	67.56
255.892	81.56
256.124	77.56
256.357	95.56
256.59	88.56
256.823	80.56
257.056	84.56
257.289	91.56
257.521	76.56
257.754	84.56
257.987	74.56
258.22	95.56
258.452	87.56
258.685	82.56
258.918	83.56
259.151	72.56
259.383	78.56
259.616	81.56
259.849	79.56
260.081	78.56
260.314	91.56
260.547	86.56
260.779	82.56
261.012	89.56
261.244	84.56
261.477	92.56
261.71	83.56
261.942	106.56
262.175	103.56
262.407	87.56
262.64	89.56
262.872	91.56
263.105	96.56
263.337	81.56
263.57	78.56
263.802	85.56
264.035	94.56
264.267	67.56
264.499	67.56
264.732	74.56
264.964	76.56
265.197	81.56
265.429	79.56
265.661	77.56
265.894	71.56
266.126	69.56
266.358	76.56
266.591	92.56
266.823	81.56
267.055	68.56
267.287	81.56
267.52	85.56
267.752	80.56
267.984	90.56
268.216	82.56
268.448	89.56
268.681	81.56
268.913	77.56
269.145	85.56
269.377	87.56
269.609	77.56
269.841	92.56
270.073	91.56
270.306	86.56
270.538	78.56
270.77	97.56
271.002	80.56
271.234	75.56
271.466	69.56
271.698	82.56
271.93	92.56
272.162	94.56
272.394	85.56
272.626	91.56
272.858	72.56
273.09	103.56
273.322	92.56
273.553	70.56
273.785	60.56
274.017	81.56
274.249	77.56
274.481	89.56
274.713	76.56
274.945	85.56
275.176	89.56
275.408	91.56
275.64	93.56
275.872	72.56
276.104	84.56
276.335	93.56
276.567	110.56
276.799	104.56
277.031	109.56
277.262	90.56
277.494	83.56
277.726	90.56
277.957	92.56
278.189	94.56
278.421	64.56
278.652	79.56
278.884	86.56
279.115	74.56
279.347	89.56
279.579	83.56
279.81	88.56
280.042	83.56
280.273	93.56
280.505	104.56
280.736	81.56
280.968	87.56
281.199	83.56
281.431	70.56
281.662	69.56
281.894	81.56
282.125	106.56
282.356	108.56
282.588	141.56
282.819	105.56
283.051	81.56
283.282	80.56
283.513	80.56
283.745	76.56
283.976	83.56
284.207	88.56
284.439	82.56
284.67	83.56
284.901	100.56
285.132	94.56
285.364	83.56
285.595	74.56
285.826	78.56
286.057	85.56
286.288	101.56
286.52	78.56
286.751	85.56
286.982	75.56
287.213	81.56
287.444	86.56
287.675	86.56
287.906	88.56
288.138	85.56
288.369	92.56
288.6	75.56
288.831	87.56
289.062	86.56
289.293	89.56
289.524	102.56
289.755	72.56
289.986	87.56
290.217	87.56
290.448	93.56
290.679	82.56
290.91	93.56
291.141	80.56
291.371	72.56
291.602	86.56
291.833	93.56
292.064	79.56
292.295	89.56
292.526	78.56
292.757	81.56
292.987	89.56
293.218	94.56
293.449	82.56
293.68	78.56
293.91	78.56
294.141	90.56
294.372	90.56
294.603	81.56
294.833	82.56
295.064	80.56
295.295	79.56
295.525	89.56
295.756	89.56
295.987	99.56
296.217	143.56
296.448	111.56
296.679	96.56
296.909	93.56
297.14	77.56
297.37	86.56
297.601	99.56
297.831	86.56
298.062	80.56
298.292	86.56
298.523	92.56
298.753	99.56
298.984	79.56
299.214	90.56
299.445	87.56
299.675	103.56
299.905	89.56
300.136	85.56
300.366	91.56
300.597	90.56
300.827	93.56
301.057	92.56
301.288	97.56
301.518	81.56
301.748	90.56
301.979	101.56
302.209	94.56
302.439	89.56
302.669	95.56
302.9	95.56
303.13	89.56
303.36	85.56
303.59	98.56
303.82	108.56
304.051	80.56
304.281	76.56
304.511	88.56
304.741	75.56
304.971	76.56
305.201	99.56
305.431	76.56
305.661	83.56
305.891	94.56
306.121	95.56
306.352	95.56
306.582	79.56
306.812	98.56
307.042	84.56
307.272	89.56
307.502	94.56
307.731	103.56
307.961	95.56
308.191	87.56
308.421	98.56
308.651	96.56
308.881	84.56
309.111	87.56
309.341	95.56
309.571	90.56
309.8	107.56
310.03	95.56
310.26	105.56
310.49	83.56
310.72	95.56
310.949	101.56
311.179	90.56
311.409	80.56
311.639	95.56
311.868	100.56
312.098	92.56
312.328	97.56
312.557	114.56
312.787	102.56
313.017	108.56
313.246	85.56
313.476	92.56
313.706	88.56
313.935	89.56
314.165	80.56
314.394	94.56
314.624	92.56
314.853	93.56
315.083	90.56
315.312	83.56
315.542	76.56
315.771	92.56
316.001	92.56
316.23	83.56
316.46	71.56
316.689	79.56
316.919	92.56
317.148	88.56
317.377	89.56
317.607	97.56
317.836	83.56
318.065	94.56
318.295	93.56
318.524	101.56
318.753	89.56
318.983	103.56
319.212	107.56
319.441	102.56
319.67	127.56
319.9	83.56
320.129	97.56
320.358	88.56
320.587	99.56
320.816	103.56
321.046	92.56
321.275	88.56
321.504	103.56
321.733	95.56
321.962	95.56
322.191	81.56
322.42	97.56
322.649	108.56
322.878	116.56
323.108	108.56
323.337	126.56
323.566	130.56
323.795	145.56
324.024	187.56
324.253	333.56
324.482	701.56
324.71	1384.56
324.939	1809.56
325.168	686.56
325.397	214.56
325.626	138.56
325.855	110.56
326.084	124.56
326.313	125.56
326.542	134.56
326.77	202.56
326.999	371.56
327.228	768.56
327.457	1344.56
327.686	1103.56
327.914	339.56
328.143	200.56
328.372	177.56
328.6	124.56
328.829	113.56
329.058	128.56
329.287	126.56
329.515	96.56
329.744	90.56
329.972	116.56
330.201	157.56
330.43	190.56
330.658	151.56
330.887	137.56
331.115	112.56
331.344	104.56
331.572	90.56
331.801	101.56
332.03	92.56
332.258	89.56
332.486	93.56
332.715	95.56
332.943	95.56
333.172	101.56
333.4	95.56
333.629	111.56
333.857	135.56
334.085	124.56
334.314	145.56
334.542	209.56
334.771	199.56
334.999	114.56
335.227	99.56
335.455	81.56
335.684	103.56
335.912	97.56
336.14	95.56
336.369	90.56
336.597	91.56
336.825	95.56
337.053	95.56
337.281	77.56
337.51	94.56
337.738	96.56
337.966	86.56
338.194	97.56
338.422	89.56
338.65	73.56
338.878	83.56
339.106	105.56
339.334	96.56
339.562	88.56
339.79	87.56
340.018	89.56
340.246	87.56
340.474	91.56
340.702	91.56
340.93	80.56
341.158	86.56
341.386	95.56
341.614	85.56
341.842	95.56
342.07	83.56
342.298	92.56
342.526	91.56
342.754	79.56
342.981	105.56
343.209	80.56
343.437	96.56
343.665	89.56
343.893	95.56
344.12	96.56
344.348	84.56
344.576	74.56
344.804	94.56
345.031	95.56
345.259	102.56
345.487	109.56
345.714	95.56
345.942	83.56
346.17	97.56
346.397	95.56
346.625	93.56
346.853	91.56
347.08	96.56
347.308	94.56
347.535	110.56
347.763	90.56
347.99	89.56
348.218	107.56
348.445	90.56
348.673	97.56
348.9	83.56
349.128	90.56
349.355	89.56
349.583	92.56
349.81	92.56
350.037	102.56
350.265	102.56
350.492	97.56
350.72	89.56
350.947	105.56
351.174	104.56
351.402	102.56
351.629	92.56
351.856	101.56
352.083	95.56
352.311	98.56
352.538	106.56
352.765	98.56
352.992	95.56
353.22	104.56
353.447	87.56
353.674	108.56
353.901	91.56
354.128	111.56
354.355	97.56
354.583	88.56
354.81	91.56
355.037	102.56
355.264	94.56
355.491	105.56
355.718	109.56
355.945	105.56
356.172	92.56
356.399	90.56
356.626	99.56
356.853	99.56
357.08	82.56
357.307	102.56
357.534	89.56
357.761	94.56
357.988	88.56
358.215	94.56
358.441	79.56
358.668	89.56
358.895	100.56
359.122	76.56
359.349	83.56
359.576	80.56
359.802	90.56
360.029	111.56
360.256	112.56
360.483	95.56
360.709	76.56
360.936	93.56
361.163	95.56
361.39	77.56
361.616	86.56
361.843	93.56
362.07	103.56
362.296	83.56
362.523	99.56
362.749	89.56
362.976	81.56
363.203	89.56
363.429	88.56
363.656	87.56
363.882	102.56
364.109	91.56
364.335	85.56
364.562	89.56
364.788	86.56
365.015	90.56
365.241	109.56
365.468	90.56
365.694	85.56
365.92	102.56
366.147	103.56
366.373	79.56
366.599	72.56
366.826	90.56
367.052	80.56
367.278	98.56
367.505	83.56
367.731	82.56
367.957	90.56
368.184	87.56
368.41	94.56
368.636	106.56
368.862	112.56
369.089	109.56
369.315	94.56
369.541	109.56
369.767	83.56
369.993	100.56
370.219	96.56
370.445	84.56
370.672	89.56
370.898	87.56
371.124	90.56
371.35	87.56
371.576	76.56
371.802	96.56
372.028	78.56
372.254	87.56
372.48	89.56
372.706	87.56
372.932	89.56
373.158	97.56
373.384	92.56
373.61	84.56
373.835	93.56
374.061	98.56
374.287	98.56
374.513	91.56
374.739	85.56
374.965	88.56
375.191	87.56
375.416	88.56
375.642	82.56
375.868	89.56
376.094	95.56
376.319	93.56
376.545	86.56
376.771	77.56
376.997	86.56
377.222	84.56
377.448	86.56
377.674	87.56
377.899	83.56
378.125	84.56
378.35	89.56
378.576	91.56
378.802	97.56
379.027	81.56
379.253	93.56
379.478	84.56
379.704	97.56
379.929	103.56
380.155	93.56
380.38	89.56
380.606	96.56
380.831	98.56
381.057	91.56
381.282	87.56
381.507	87.56
381.733	103.56
381.958	108.56
382.184	103.56
382.409	103.56
382.634	89.56
382.86	105.56
383.085	98.56
383.31	103.56
383.535	100.56
383.761	86.56
383.986	107.56
384.211	92.56
384.436	93.56
384.662	85.56
384.887	101.56
385.112	92.56
385.337	107.56
385.562	91.56
385.787	106.56
386.013	113.56
386.238	111.56
386.463	94.56
386.688	95.56
386.913	99.56
387.138	108.56
387.363	88.56
387.588	92.56
387.813	88.56
388.038	95.56
388.263	122.56
388.488	85.56
388.713	106.56
388.938	83.56
389.163	104.56
389.387	99.56
389.612	84.56
389.837	96.56
390.062	85.56
390.287	86.56
390.512	99.56
390.736	91.56
390.961	95.56
391.186	84.56
391.411	95.56
391.636	88.56
391.86	85.56
392.085	84.56
392.31	84.56
392.534	90.56
392.759	107.56
392.984	87.56
393.208	89.56
393.433	84.56
393.658	81.56
393.882	84.56
394.107	90.56
394.331	69.56
394.556	79.56
394.78	89.56
395.005	88.56
395.229	83.56
395.454	89.56
395.678	77.56
395.903	87.56
396.127	85.56
396.352	82.56
396.576	79.56
396.801	77.56
397.025	86.56
397.249	92.56
397.474	80.56
397.698	86.56
397.922	77.56
398.147	87.56
398.371	85.56
398.595	82.56
398.82	105.56
399.044	98.56
399.268	90.56
399.492	83.56
399.717	93.56
399.941	86.56
400.165	94.56
400.389	90.56
400.613	87.56
400.837	80.56
401.062	80.56
401.286	96.56
401.51	92.56
401.734	91.56
401.958	103.56
402.182	119.56
402.406	172.56
402.63	133.56
402.854	91.56
403.078	79.56
403.302	87.56
403.526	82.56
403.75	82.56
403.974	94.56
404.198	96.56
404.422	72.56
404.645	76.56
404.869	90.56
405.093	101.56
405.317	96.56
405.541	87.56
405.765	96.56
405.988	114.56
406.212	167.56
406.436	238.56
406.66	128.56
406.883	90.56
407.107	63.56
407.331	93.56
407.555	97.56
407.778	103.56
408.002	89.56
408.226	99.56
408.449	81.56
408.673	89.56
408.896	89.56
409.12	93.56
409.344	82.56
409.567	77.56
409.791	84.56
410.014	87.56
410.238	93.56
410.461	96.56
410.685	88.56
410.908	83.56
411.132	96.56
411.355	89.56
411.578	94.56
411.802	89.56
412.025	81.56
412.249	96.56
412.472	100.56
412.695	80.56
412.919	82.56
413.142	88.56
413.365	82.56
413.589	92.56
413.812	76.56
414.035	78.56
414.258	88.56
414.482	82.56
414.705	75.56
414.928	82.56
415.151	92.56
415.374	93.56
415.597	105.56
415.821	94.56
416.044	90.56
416.267	83.56
416.49	91.56
416.713	60.56
416.936	80.56
417.159	82.56
417.382	80.56
417.605	73.56
417.828	93.56
418.051	88.56
418.274	91.56
418.497	78.56
418.72	95.56
418.943	95.56
419.166	80.56
419.389	88.56
419.611	69.56
419.834	89.56
420.057	100.56
420.28	90.56
420.503	74.56
420.726	65.56
420.948	83.56
421.171	90.56
421.394	86.56
421.617	92.56
421.839	87.56
422.062	86.56
422.285	93.56
422.507	89.56
422.73	90.56
422.953	96.56
423.175	89.56
423.398	95.56
423.621	98.56
423.843	91.56
424.066	79.56
424.288	83.56
424.511	108.56
424.733	90.56
424.956	91.56
425.178	99.56
425.401	96.56
425.623	107.56
425.846	84.56
426.068	85.56
426.291	74.56
426.513	84.56
426.735	79.56
426.958	78.56
427.18	112.56
427.402	126.56
427.625	147.56
427.847	141.56
428.069	109.56
428.292	81.56
428.514	106.56
428.736	82.56
428.958	94.56
429.181	81.56
429.403	89.56
429.625	86.56
429.847	92.56
430.069	98.56
430.292	99.56
430.514	80.56
430.736	84.56
430.958	89.56
431.18	88.56
431.402	89.56
431.624	87.56
431.846	81.56
432.068	83.56
432.29	73.56
432.512	80.56
432.734	70.56
432.956	92.56
433.178	90.56
433.4	89.56
433.622	89.56
433.844	90.56
434.066	102.56
434.287	78.56
434.509	86.56
434.731	86.56
434.953	82.56
435.175	73.56
435.397	89.56
435.618	78.56
435.84	96.56
436.062	118.56
436.284	89.56
436.505	97.56
436.727	85.56
436.949	94.56
437.17	70.56
437.392	87.56
437.614	93.56
437.835	97.56
438.057	115.56
438.278	103.56
438.5	92.56
438.721	108.56
438.943	99.56
439.165	84.56
439.386	81.56
439.608	89.56
439.829	86.56
440.05	105.56
440.272	138.56
440.493	100.56
440.715	82.56
440.936	85.56
441.158	91.56
441.379	91.56
441.6	102.56
441.822	95.56
442.043	95.56
442.264	94.56
442.486	103.56
442.707	95.56
442.928	104.56
443.149	115.56
443.371	121.56
443.592	97.56
443.813	105.56
444.034	88.56
444.255	102.56
444.476	93.56
444.698	78.56
444.919	91.56
445.14	135.56
445.361	127.56
445.582	107.56
445.803	107.56
446.024	120.56
446.245	112.56
446.466	89.56
446.687	79.56
446.908	88.56
447.129	77.56
447.35	82.56
447.571	89.56
447.792	99.56
448.013	83.56
448.234	92.56
448.455	94.56
448.675	102.56
448.896	88.56
449.117	91.56
449.338	110.56
449.559	108.56
449.779	104.56
450	82.56
450.221	89.56
450.442	83.56
450.662	76.56
450.883	96.56
451.104	104.56
451.324	90.56
451.545	86.56
451.766	91.56
451.986	86.56
452.207	77.56
452.428	87.56
452.648	101.56
452.869	107.56
453.089	111.56
453.31	121.56
453.53	102.56
453.751	96.56
453.971	103.56
454.192	98.56
454.412	93.56
454.633	77.56
454.853	82.56
455.073	88.56
455.294	83.56
455.514	81.56
455.734	101.56
455.955	92.56
456.175	95.56
456.395	89.56
456.616	82.56
456.836	82.56
457.056	97.56
457.276	83.56
457.497	80.56
457.717	70.56
457.937	86.56
458.157	87.56
458.377	91.56
458.598	102.56
458.818	141.56
459.038	143.56
459.258	109.56
459.478	83.56
459.698	81.56
459.918	90.56
460.138	79.56
460.358	71.56
460.578	90.56
460.798	103.56
461.018	100.56
461.238	74.56
461.458	88.56
461.678	89.56
461.898	89.56
462.118	97.56
462.338	76.56
462.558	81.56
462.777	87.56
462.997	79.56
463.217	90.56
463.437	91.56
463.657	75.56
463.876	95.56
464.096	92.56
464.316	80.56
464.536	95.56
464.755	86.56
464.975	100.56
465.195	158.56
465.414	167.56
465.634	98.56
465.854	70.56
466.073	82.56
466.293	76.56
466.512	70.56
466.732	76.56
466.951	95.56
467.171	90.56
467.391	88.56
467.61	95.56
467.829	95.56
468.049	125.56
468.268	134.56
468.488	81.56
468.707	80.56
468.927	91.56
469.146	94.56
469.365	97.56
469.585	94.56
469.804	83.56
470.023	91.56
470.243	88.56
470.462	86.56
470.681	96.56
470.901	89.56
471.12	84.56
471.339	92.56
471.558	92.56
471.777	86.56
471.997	105.56
472.216	164.56
472.435	281.56
472.654	121.56
472.873	90.56
473.092	86.56
473.311	91.56
473.53	84.56
473.749	90.56
473.968	103.56
474.187	80.56
474.406	97.56
474.625	80.56
474.844	86.56
475.063	77.56
475.282	80.56
475.501	86.56
475.72	94.56
475.939	97.56
476.158	93.56
476.377	86.56
476.596	92.56
476.814	91.56
477.033	89.56
477.252	89.56
477.471	82.56
477.69	82.56
477.908	91.56
478.127	82.56
478.346	88.56
478.564	86.56
478.783	99.56
479.002	93.56
479.22	91.56
479.439	110.56
479.658	112.56
479.876	102.56
480.095	99.56
480.313	91.56
480.532	103.56
480.751	105.56
480.969	182.56
481.188	414.56
481.406	281.56
481.624	101.56
481.843	79.56
482.061	91.56
482.28	73.56
482.498	94.56
482.717	97.56
482.935	91.56
483.153	83.56
483.372	84.56
483.59	96.56
483.808	75.56
484.027	91.56
484.245	93.56
484.463	92.56
484.681	89.56
484.9	94.56
485.118	94.56
485.336	94.56
485.554	101.56
485.772	77.56
485.99	98.56
486.209	98.56
486.427	106.56
486.645	95.56
486.863	114.56
487.081	89.56
487.299	90.56
487.517	81.56
487.735	97.56
487.953	101.56
488.171	99.56
488.389	89.56
488.607	98.56
488.825	99.56
489.043	78.56
489.261	106.56
489.479	92.56
489.696	85.56
489.914	74.56
490.132	89.56
490.35	83.56
490.568	80.56
490.786	86.56
491.003	89.56
491.221	86.56
491.439	85.56
491.657	97.56
491.874	92.56
492.092	87.56
492.31	80.56
492.527	87.56
492.745	87.56
492.963	107.56
493.18	87.56
493.398	74.56
493.615	98.56
493.833	105.56
494.05	86.56
494.268	94.56
494.485	87.56
494.703	87.56
494.92	80.56
495.138	77.56
495.355	84.56
495.573	90.56
495.79	88.56
496.008	95.56
496.225	89.56
496.442	79.56
496.66	85.56
496.877	95.56
497.094	78.56
497.312	104.56
497.529	89.56
497.746	86.56
497.963	84.56
498.181	86.56
498.398	83.56
498.615	100.56
498.832	115.56
499.049	77.56
499.267	92.56
499.484	75.56
499.701	88.56
499.918	80.56
500.135	98.56
500.352	87.56
500.569	89.56
500.786	87.56
501.003	76.56
501.22	82.56
501.437	81.56
501.654	97.56
501.871	97.56
502.088	81.56
502.305	78.56
502.522	100.56
502.739	65.56
502.956	102.56
503.172	94.56
503.389	89.56
503.606	108.56
503.823	98.56
504.04	81.56
504.256	82.56
504.473	79.56
504.69	98.56
504.907	105.56
505.123	81.56
505.34	74.56
505.557	93.56
505.773	72.56
505.99	86.56
506.207	101.56
506.423	90.56
506.64	73.56
506.856	87.56
507.073	95.56
507.289	90.56
507.506	108.56
507.722	108.56
507.939	111.56
508.155	90.56
508.372	94.56
508.588	84.56
508.805	96.56
509.021	98.56
509.238	98.56
509.454	90.56
509.67	104.56
509.887	112.56
510.103	137.56
510.319	214.56
510.536	801.56
510.752	2668.56
510.968	742.56
511.184	167.56
511.401	98.56
511.617	96.56
511.833	94.56
512.049	96.56
512.265	91.56
512.481	83.56
512.698	100.56
512.914	81.56
513.13	87.56
513.346	96.56
513.562	78.56
513.778	85.56
513.994	102.56
514.21	110.56
514.426	115.56
514.642	138.56
514.858	137.56
515.074	153.56
515.29	467.56
515.506	1669.56
515.721	623.56
515.937	157.56
516.153	102.56
516.369	83.56
