Data from Circ_2008_H10_HRD10591_00010.txt Node
Date: Wed Jan 03 10:16:58 EST 2024
User: Yrep
Spectrometer: HR+D1059
Trigger mode: 1
Integration Time (sec): 1.000000E-1
Scans to average: 1
Electric dark correction enabled: true
Nonlinearity correction enabled: false
Boxcar width: 0
XAxis mode: Wavelengths
Number of Pixels in Spectrum: 2048
>>>>>Begin Spectral Data<<<<<
223.165	-14.38
223.4	-14.38
223.635	-14.38
223.869	-24.38
224.104	-31.38
224.338	-16.38
224.573	-4.38
224.808	-13.38
225.042	-15.38
225.277	-2.38
225.511	4.62
225.746	7.62
225.98	16.62
226.215	13.62
226.449	12.62
226.683	8.62
226.918	19.62
227.152	38.62
227.387	32.62
227.621	48.62
227.856	36.62
228.09	50.62
228.324	47.62
228.559	57.62
228.793	78.62
229.027	57.62
229.262	76.62
229.496	69.62
229.73	97.62
229.964	79.62
230.199	81.62
230.433	87.62
230.667	69.62
230.901	82.62
231.136	85.62
231.37	88.62
231.604	82.62
231.838	80.62
232.072	79.62
232.306	73.62
232.541	83.62
232.775	90.62
233.009	88.62
233.243	91.62
233.477	99.62
233.711	81.62
233.945	90.62
234.179	83.62
234.413	81.62
234.647	91.62
234.881	81.62
235.115	73.62
235.349	73.62
235.583	81.62
235.817	79.62
236.051	78.62
236.285	86.62
236.519	72.62
236.753	78.62
236.987	84.62
237.221	84.62
237.455	81.62
237.689	83.62
237.922	81.62
238.156	80.62
238.39	66.62
238.624	89.62
238.858	90.62
239.091	82.62
239.325	76.62
239.559	90.62
239.793	87.62
240.027	90.62
240.26	81.62
240.494	81.62
240.728	65.62
240.961	78.62
241.195	86.62
241.429	81.62
241.662	80.62
241.896	86.62
242.13	79.62
242.363	62.62
242.597	50.62
242.83	83.62
243.064	86.62
243.298	68.62
243.531	77.62
243.765	86.62
243.998	69.62
244.232	86.62
244.465	73.62
244.699	84.62
244.932	76.62
245.166	88.62
245.399	77.62
245.633	83.62
245.866	87.62
246.099	80.62
246.333	93.62
246.566	80.62
246.8	78.62
247.033	93.62
247.266	82.62
247.5	76.62
247.733	90.62
247.966	93.62
248.2	78.62
248.433	69.62
248.666	74.62
248.899	80.62
249.133	84.62
249.366	99.62
249.599	93.62
249.832	95.62
250.066	98.62
250.299	83.62
250.532	82.62
250.765	84.62
250.998	80.62
251.231	87.62
251.465	99.62
251.698	84.62
251.931	95.62
252.164	84.62
252.397	80.62
252.63	77.62
252.863	79.62
253.096	83.62
253.329	92.62
253.562	80.62
253.795	92.62
254.028	86.62
254.261	69.62
254.494	78.62
254.727	83.62
254.96	72.62
255.193	78.62
255.426	73.62
255.659	89.62
255.892	91.62
256.124	74.62
256.357	71.62
256.59	70.62
256.823	81.62
257.056	84.62
257.289	91.62
257.521	90.62
257.754	84.62
257.987	82.62
258.22	65.62
258.452	80.62
258.685	87.62
258.918	84.62
259.151	85.62
259.383	90.62
259.616	80.62
259.849	78.62
260.081	86.62
260.314	82.62
260.547	87.62
260.779	83.62
261.012	87.62
261.244	85.62
261.477	88.62
261.71	92.62
261.942	94.62
262.175	102.62
262.407	92.62
262.64	84.62
262.872	80.62
263.105	87.62
263.337	92.62
263.57	79.62
263.802	83.62
264.035	92.62
264.267	83.62
264.499	93.62
264.732	82.62
264.964	87.62
265.197	74.62
265.429	93.62
265.661	82.62
265.894	89.62
266.126	86.62
266.358	102.62
266.591	80.62
266.823	102.62
267.055	97.62
267.287	80.62
267.52	87.62
267.752	73.62
267.984	83.62
268.216	81.62
268.448	76.62
268.681	90.62
268.913	94.62
269.145	88.62
269.377	92.62
269.609	85.62
269.841	97.62
270.073	70.62
270.306	74.62
270.538	98.62
270.77	86.62
271.002	78.62
271.234	97.62
271.466	96.62
271.698	92.62
271.93	82.62
272.162	78.62
272.394	90.62
272.626	98.62
272.858	91.62
273.09	85.62
273.322	92.62
273.553	74.62
273.785	84.62
274.017	90.62
274.249	93.62
274.481	80.62
274.713	85.62
274.945	96.62
275.176	94.62
275.408	91.62
275.64	89.62
275.872	98.62
276.104	85.62
276.335	85.62
276.567	100.62
276.799	98.62
277.031	90.62
277.262	87.62
277.494	90.62
277.726	86.62
277.957	70.62
278.189	84.62
278.421	82.62
278.652	91.62
278.884	86.62
279.115	103.62
279.347	89.62
279.579	82.62
279.81	85.62
280.042	85.62
280.273	86.62
280.505	86.62
280.736	91.62
280.968	81.62
281.199	87.62
281.431	76.62
281.662	94.62
281.894	105.62
282.125	106.62
282.356	126.62
282.588	142.62
282.819	109.62
283.051	91.62
283.282	88.62
283.513	106.62
283.745	92.62
283.976	79.62
284.207	86.62
284.439	86.62
284.67	89.62
284.901	97.62
285.132	96.62
285.364	98.62
285.595	90.62
285.826	93.62
286.057	82.62
286.288	82.62
286.52	81.62
286.751	100.62
286.982	74.62
287.213	90.62
287.444	87.62
287.675	87.62
287.906	83.62
288.138	95.62
288.369	99.62
288.6	94.62
288.831	86.62
289.062	104.62
289.293	95.62
289.524	98.62
289.755	95.62
289.986	95.62
290.217	92.62
290.448	99.62
290.679	90.62
290.91	84.62
291.141	84.62
291.371	76.62
291.602	96.62
291.833	97.62
292.064	91.62
292.295	95.62
292.526	90.62
292.757	99.62
292.987	99.62
293.218	89.62
293.449	93.62
293.68	96.62
293.91	100.62
294.141	95.62
294.372	101.62
294.603	92.62
294.833	91.62
295.064	105.62
295.295	78.62
295.525	100.62
295.756	98.62
295.987	123.62
296.217	151.62
296.448	128.62
296.679	99.62
296.909	94.62
297.14	103.62
297.37	84.62
297.601	90.62
297.831	92.62
298.062	87.62
298.292	100.62
298.523	91.62
298.753	83.62
298.984	92.62
299.214	97.62
299.445	81.62
299.675	96.62
299.905	88.62
300.136	74.62
300.366	83.62
300.597	84.62
300.827	76.62
301.057	93.62
301.288	97.62
301.518	77.62
301.748	106.62
301.979	98.62
302.209	98.62
302.439	104.62
302.669	100.62
302.9	98.62
303.13	85.62
303.36	84.62
303.59	100.62
303.82	110.62
304.051	82.62
304.281	93.62
304.511	93.62
304.741	91.62
304.971	89.62
305.201	94.62
305.431	95.62
305.661	88.62
305.891	92.62
306.121	96.62
306.352	96.62
306.582	97.62
306.812	89.62
307.042	88.62
307.272	85.62
307.502	88.62
307.731	82.62
307.961	105.62
308.191	91.62
308.421	67.62
308.651	106.62
308.881	88.62
309.111	92.62
309.341	95.62
309.571	96.62
309.8	96.62
310.03	100.62
310.26	85.62
310.49	84.62
310.72	102.62
310.949	105.62
311.179	108.62
311.409	102.62
311.639	95.62
311.868	89.62
312.098	83.62
312.328	97.62
312.557	100.62
312.787	109.62
313.017	93.62
313.246	109.62
313.476	87.62
313.706	92.62
313.935	74.62
314.165	102.62
314.394	101.62
314.624	98.62
314.853	99.62
315.083	95.62
315.312	101.62
315.542	92.62
315.771	97.62
316.001	96.62
316.23	90.62
316.46	97.62
316.689	85.62
316.919	88.62
317.148	99.62
317.377	96.62
317.607	87.62
317.836	92.62
318.065	83.62
318.295	91.62
318.524	80.62
318.753	88.62
318.983	93.62
319.212	91.62
319.441	112.62
319.67	108.62
319.9	99.62
320.129	93.62
320.358	85.62
320.587	99.62
320.816	95.62
321.046	96.62
321.275	100.62
321.504	90.62
321.733	88.62
321.962	88.62
322.191	96.62
322.42	92.62
322.649	91.62
322.878	121.62
323.108	116.62
323.337	116.62
323.566	138.62
323.795	152.62
324.024	197.62
324.253	388.62
324.482	788.62
324.71	1560.62
324.939	2053.62
325.168	762.62
325.397	242.62
325.626	149.62
325.855	127.62
326.084	110.62
326.313	128.62
326.542	140.62
326.77	221.62
326.999	440.62
327.228	872.62
327.457	1614.62
327.686	1276.62
327.914	356.62
328.143	181.62
328.372	158.62
328.6	117.62
328.829	121.62
329.058	144.62
329.287	127.62
329.515	109.62
329.744	104.62
329.972	112.62
330.201	112.62
330.43	118.62
330.658	116.62
330.887	133.62
331.115	121.62
331.344	117.62
331.572	101.62
331.801	96.62
332.03	102.62
332.258	90.62
332.486	93.62
332.715	102.62
332.943	93.62
333.172	89.62
333.4	94.62
333.629	110.62
333.857	99.62
334.085	111.62
334.314	93.62
334.542	105.62
334.771	115.62
334.999	93.62
335.227	82.62
335.455	110.62
335.684	101.62
335.912	103.62
336.14	106.62
336.369	106.62
336.597	101.62
336.825	96.62
337.053	104.62
337.281	99.62
337.51	100.62
337.738	97.62
337.966	83.62
338.194	97.62
338.422	84.62
338.65	83.62
338.878	93.62
339.106	88.62
339.334	96.62
339.562	97.62
339.79	86.62
340.018	80.62
340.246	104.62
340.474	104.62
340.702	96.62
340.93	94.62
341.158	89.62
341.386	90.62
341.614	91.62
341.842	108.62
342.07	95.62
342.298	98.62
342.526	100.62
342.754	97.62
342.981	106.62
343.209	86.62
343.437	102.62
343.665	90.62
343.893	97.62
344.12	99.62
344.348	89.62
344.576	86.62
344.804	97.62
345.031	97.62
345.259	94.62
345.487	80.62
345.714	104.62
345.942	101.62
346.17	78.62
346.397	87.62
346.625	100.62
346.853	89.62
347.08	100.62
347.308	95.62
347.535	99.62
347.763	91.62
347.99	107.62
348.218	91.62
348.445	104.62
348.673	112.62
348.9	89.62
349.128	104.62
349.355	93.62
349.583	106.62
349.81	112.62
350.037	99.62
350.265	95.62
350.492	111.62
350.72	102.62
350.947	97.62
351.174	105.62
351.402	114.62
351.629	99.62
351.856	94.62
352.083	106.62
352.311	103.62
352.538	99.62
352.765	104.62
352.992	113.62
353.22	120.62
353.447	100.62
353.674	108.62
353.901	94.62
354.128	100.62
354.355	91.62
354.583	107.62
354.81	114.62
355.037	103.62
355.264	100.62
355.491	105.62
355.718	106.62
355.945	88.62
356.172	96.62
356.399	90.62
356.626	105.62
356.853	97.62
357.08	115.62
357.307	101.62
357.534	99.62
357.761	111.62
357.988	102.62
358.215	88.62
358.441	106.62
358.668	105.62
358.895	89.62
359.122	91.62
359.349	92.62
359.576	83.62
359.802	95.62
360.029	107.62
360.256	110.62
360.483	104.62
360.709	102.62
360.936	99.62
361.163	84.62
361.39	110.62
361.616	101.62
361.843	85.62
362.07	78.62
362.296	88.62
362.523	85.62
362.749	90.62
362.976	87.62
363.203	88.62
363.429	84.62
363.656	100.62
363.882	96.62
364.109	99.62
364.335	91.62
364.562	101.62
364.788	84.62
365.015	98.62
365.241	103.62
365.468	103.62
365.694	91.62
365.92	109.62
366.147	96.62
366.373	83.62
366.599	83.62
366.826	90.62
367.052	84.62
367.278	86.62
367.505	103.62
367.731	97.62
367.957	98.62
368.184	99.62
368.41	88.62
368.636	121.62
368.862	110.62
369.089	102.62
369.315	82.62
369.541	104.62
369.767	101.62
369.993	90.62
370.219	96.62
370.445	81.62
370.672	88.62
370.898	99.62
371.124	88.62
371.35	86.62
371.576	100.62
371.802	74.62
372.028	79.62
372.254	88.62
372.48	90.62
372.706	87.62
372.932	92.62
373.158	87.62
373.384	90.62
373.61	90.62
373.835	87.62
374.061	104.62
374.287	82.62
374.513	83.62
374.739	88.62
374.965	87.62
375.191	94.62
375.416	85.62
375.642	86.62
375.868	98.62
376.094	99.62
376.319	91.62
376.545	104.62
376.771	108.62
376.997	91.62
377.222	94.62
377.448	88.62
377.674	82.62
377.899	97.62
378.125	98.62
378.35	95.62
378.576	97.62
378.802	97.62
379.027	96.62
379.253	104.62
379.478	102.62
379.704	100.62
379.929	99.62
380.155	93.62
380.38	96.62
380.606	110.62
380.831	94.62
381.057	108.62
381.282	113.62
381.507	107.62
381.733	94.62
381.958	95.62
382.184	118.62
382.409	85.62
382.634	103.62
382.86	101.62
383.085	107.62
383.31	115.62
383.535	115.62
383.761	110.62
383.986	108.62
384.211	97.62
384.436	117.62
384.662	104.62
384.887	111.62
385.112	122.62
385.337	122.62
385.562	109.62
385.787	120.62
386.013	127.62
386.238	115.62
386.463	130.62
386.688	105.62
386.913	120.62
387.138	120.62
387.363	107.62
387.588	105.62
387.813	101.62
388.038	125.62
388.263	134.62
388.488	140.62
388.713	99.62
388.938	86.62
389.163	93.62
389.387	99.62
389.612	86.62
389.837	81.62
390.062	97.62
390.287	78.62
390.512	92.62
390.736	79.62
390.961	83.62
391.186	101.62
391.411	101.62
391.636	93.62
391.86	89.62
392.085	69.62
392.31	97.62
392.534	94.62
392.759	85.62
392.984	93.62
393.208	104.62
393.433	108.62
393.658	98.62
393.882	98.62
394.107	89.62
394.331	80.62
394.556	76.62
394.78	92.62
395.005	81.62
395.229	86.62
395.454	90.62
395.678	93.62
395.903	95.62
396.127	100.62
396.352	85.62
396.576	92.62
396.801	93.62
397.025	100.62
397.249	97.62
397.474	81.62
397.698	81.62
397.922	81.62
398.147	82.62
398.371	91.62
398.595	86.62
398.82	85.62
399.044	96.62
399.268	75.62
399.492	90.62
399.717	86.62
399.941	83.62
400.165	102.62
400.389	94.62
400.613	84.62
400.837	84.62
401.062	88.62
401.286	87.62
401.51	89.62
401.734	86.62
401.958	103.62
402.182	125.62
402.406	156.62
402.63	120.62
402.854	94.62
403.078	95.62
403.302	78.62
403.526	94.62
403.75	101.62
403.974	84.62
404.198	103.62
404.422	93.62
404.645	92.62
404.869	91.62
405.093	90.62
405.317	98.62
405.541	97.62
405.765	107.62
405.988	108.62
406.212	178.62
406.436	212.62
406.66	150.62
406.883	93.62
407.107	95.62
407.331	96.62
407.555	84.62
407.778	102.62
408.002	83.62
408.226	88.62
408.449	99.62
408.673	85.62
408.896	108.62
409.12	97.62
409.344	96.62
409.567	95.62
409.791	87.62
410.014	86.62
410.238	96.62
410.461	104.62
410.685	103.62
410.908	108.62
411.132	103.62
411.355	107.62
411.578	87.62
411.802	92.62
412.025	88.62
412.249	89.62
412.472	81.62
412.695	84.62
412.919	96.62
413.142	95.62
413.365	99.62
413.589	94.62
413.812	101.62
414.035	92.62
414.258	75.62
414.482	95.62
414.705	101.62
414.928	75.62
415.151	100.62
415.374	92.62
415.597	101.62
415.821	105.62
416.044	91.62
416.267	78.62
416.49	82.62
416.713	83.62
416.936	102.62
417.159	98.62
417.382	108.62
417.605	97.62
417.828	99.62
418.051	97.62
418.274	104.62
418.497	88.62
418.72	96.62
418.943	89.62
419.166	88.62
419.389	93.62
419.611	86.62
419.834	83.62
420.057	96.62
420.28	92.62
420.503	94.62
420.726	78.62
420.948	82.62
421.171	99.62
421.394	88.62
421.617	91.62
421.839	104.62
422.062	78.62
422.285	89.62
422.507	112.62
422.73	120.62
422.953	108.62
423.175	90.62
423.398	83.62
423.621	103.62
423.843	91.62
424.066	86.62
424.288	95.62
424.511	76.62
424.733	98.62
424.956	102.62
425.178	100.62
425.401	81.62
425.623	91.62
425.846	85.62
426.068	97.62
426.291	96.62
426.513	89.62
426.735	97.62
426.958	88.62
427.18	102.62
427.402	127.62
427.625	150.62
427.847	125.62
428.069	101.62
428.292	99.62
428.514	89.62
428.736	100.62
428.958	100.62
429.181	90.62
429.403	99.62
429.625	93.62
429.847	94.62
430.069	106.62
430.292	97.62
430.514	96.62
430.736	91.62
430.958	66.62
431.18	63.62
431.402	82.62
431.624	84.62
431.846	85.62
432.068	99.62
432.29	96.62
432.512	78.62
432.734	82.62
432.956	83.62
433.178	86.62
433.4	88.62
433.622	94.62
433.844	88.62
434.066	79.62
434.287	93.62
434.509	91.62
434.731	102.62
434.953	97.62
435.175	95.62
435.397	92.62
435.618	86.62
435.84	96.62
436.062	121.62
436.284	118.62
436.505	106.62
436.727	107.62
436.949	99.62
437.17	89.62
437.392	99.62
437.614	89.62
437.835	122.62
438.057	105.62
438.278	96.62
438.5	92.62
438.721	113.62
438.943	93.62
439.165	92.62
439.386	96.62
439.608	96.62
439.829	104.62
440.05	116.62
440.272	123.62
440.493	77.62
440.715	87.62
440.936	90.62
441.158	87.62
441.379	97.62
441.6	93.62
441.822	95.62
442.043	81.62
442.264	98.62
442.486	99.62
442.707	89.62
442.928	96.62
443.149	122.62
443.371	120.62
443.592	112.62
443.813	115.62
444.034	99.62
444.255	86.62
444.476	74.62
444.698	93.62
444.919	77.62
445.14	114.62
445.361	124.62
445.582	117.62
445.803	138.62
446.024	122.62
446.245	131.62
446.466	98.62
446.687	101.62
446.908	80.62
447.129	88.62
447.35	93.62
447.571	67.62
447.792	101.62
448.013	93.62
448.234	108.62
448.455	100.62
448.675	88.62
448.896	120.62
449.117	108.62
449.338	110.62
449.559	112.62
449.779	119.62
450	90.62
450.221	79.62
450.442	97.62
450.662	96.62
450.883	104.62
451.104	97.62
451.324	96.62
451.545	92.62
451.766	90.62
451.986	97.62
452.207	101.62
452.428	93.62
452.648	97.62
452.869	98.62
453.089	117.62
453.31	114.62
453.53	97.62
453.751	86.62
453.971	107.62
454.192	108.62
454.412	84.62
454.633	99.62
454.853	93.62
455.073	94.62
455.294	87.62
455.514	111.62
455.734	95.62
455.955	90.62
456.175	81.62
456.395	85.62
456.616	94.62
456.836	83.62
457.056	89.62
457.276	90.62
457.497	81.62
457.717	78.62
457.937	92.62
458.157	74.62
458.377	80.62
458.598	97.62
458.818	146.62
459.038	141.62
459.258	114.62
459.478	85.62
459.698	74.62
459.918	69.62
460.138	81.62
460.358	97.62
460.578	101.62
460.798	91.62
461.018	87.62
461.238	82.62
461.458	104.62
461.678	81.62
461.898	89.62
462.118	88.62
462.338	96.62
462.558	78.62
462.777	83.62
462.997	86.62
463.217	75.62
463.437	86.62
463.657	82.62
463.876	81.62
464.096	80.62
464.316	92.62
464.536	88.62
464.755	97.62
464.975	106.62
465.195	146.62
465.414	148.62
465.634	82.62
465.854	89.62
466.073	92.62
466.293	97.62
466.512	80.62
466.732	88.62
466.951	93.62
467.171	94.62
467.391	89.62
467.61	102.62
467.829	108.62
468.049	93.62
468.268	88.62
468.488	97.62
468.707	84.62
468.927	90.62
469.146	74.62
469.365	94.62
469.585	97.62
469.804	89.62
470.023	113.62
470.243	85.62
470.462	100.62
470.681	130.62
470.901	83.62
471.12	99.62
471.339	92.62
471.558	86.62
471.777	99.62
471.997	105.62
472.216	109.62
472.435	112.62
472.654	87.62
472.873	89.62
473.092	89.62
473.311	81.62
473.53	85.62
473.749	93.62
473.968	81.62
474.187	106.62
474.406	88.62
474.625	95.62
474.844	79.62
475.063	89.62
475.282	82.62
475.501	92.62
475.72	98.62
475.939	85.62
476.158	91.62
476.377	87.62
476.596	106.62
476.814	93.62
477.033	95.62
477.252	96.62
477.471	94.62
477.69	94.62
477.908	89.62
478.127	95.62
478.346	101.62
478.564	81.62
478.783	102.62
479.002	104.62
479.22	95.62
479.439	99.62
479.658	99.62
479.876	98.62
480.095	83.62
480.313	87.62
480.532	87.62
480.751	92.62
480.969	84.62
481.188	120.62
481.406	120.62
481.624	94.62
481.843	92.62
482.061	81.62
482.28	90.62
482.498	93.62
482.717	99.62
482.935	82.62
483.153	96.62
483.372	99.62
483.59	84.62
483.808	98.62
484.027	83.62
484.245	98.62
484.463	95.62
484.681	96.62
484.9	86.62
485.118	86.62
485.336	97.62
485.554	90.62
485.772	98.62
485.99	106.62
486.209	103.62
486.427	100.62
486.645	104.62
486.863	103.62
487.081	109.62
487.299	100.62
487.517	95.62
487.735	85.62
487.953	73.62
488.171	93.62
488.389	93.62
488.607	95.62
488.825	101.62
489.043	100.62
489.261	93.62
489.479	94.62
489.696	101.62
489.914	83.62
490.132	88.62
490.35	88.62
490.568	97.62
490.786	98.62
491.003	99.62
491.221	102.62
491.439	100.62
491.657	94.62
491.874	90.62
492.092	92.62
492.31	101.62
492.527	93.62
492.745	92.62
492.963	112.62
493.18	95.62
493.398	106.62
493.615	105.62
493.833	106.62
494.05	100.62
494.268	90.62
494.485	94.62
494.703	87.62
494.92	99.62
495.138	96.62
495.355	100.62
495.573	105.62
495.79	106.62
496.008	99.62
496.225	88.62
496.442	86.62
496.66	102.62
496.877	82.62
497.094	84.62
497.312	101.62
497.529	94.62
497.746	86.62
497.963	83.62
498.181	73.62
498.398	100.62
498.615	114.62
498.832	120.62
499.049	105.62
499.267	98.62
499.484	92.62
499.701	93.62
499.918	85.62
500.135	95.62
500.352	99.62
500.569	97.62
500.786	93.62
501.003	81.62
501.22	91.62
501.437	94.62
501.654	95.62
501.871	93.62
502.088	87.62
502.305	93.62
502.522	84.62
502.739	74.62
502.956	87.62
503.172	84.62
503.389	93.62
503.606	98.62
503.823	87.62
504.04	68.62
504.256	91.62
504.473	89.62
504.69	98.62
504.907	91.62
505.123	86.62
505.34	101.62
505.557	97.62
505.773	87.62
505.99	102.62
506.207	90.62
506.423	94.62
506.64	92.62
506.856	94.62
507.073	81.62
507.289	86.62
507.506	105.62
507.722	102.62
507.939	113.62
508.155	93.62
508.372	93.62
508.588	93.62
508.805	102.62
509.021	90.62
509.238	98.62
509.454	94.62
509.67	112.62
509.887	101.62
510.103	126.62
510.319	186.62
510.536	769.62
510.752	2577.62
510.968	678.62
511.184	172.62
511.401	112.62
511.617	107.62
511.833	95.62
512.049	85.62
512.265	108.62
512.481	85.62
512.698	97.62
512.914	93.62
513.13	94.62
513.346	88.62
513.562	101.62
513.778	94.62
513.994	86.62
514.21	109.62
514.426	115.62
514.642	122.62
514.858	111.62
515.074	177.62
