Data from Circ_2008_H10_HRD10591_00099.txt Node
Date: Wed Jan 03 10:17:16 EST 2024
User: Yrep
Spectrometer: HR+D1059
Trigger mode: 1
Integration Time (sec): 1.000000E-1
Scans to average: 1
Electric dark correction enabled: true
Nonlinearity correction enabled: false
Boxcar width: 0
XAxis mode: Wavelengths
Number of Pixels in Spectrum: 2048
>>>>>Begin Spectral Data<<<<<
223.165	-15.94
223.4	-15.94
223.635	-15.94
223.869	-15.94
224.104	-7.94
224.338	3.06
224.573	-18.94
224.808	-16.94
225.042	-15.94
225.277	-5.94
225.511	-0.94
225.746	-1.94
225.98	13.06
226.215	-2.94
226.449	14.06
226.683	16.06
226.918	26.06
227.152	31.06
227.387	28.06
227.621	51.06
227.856	39.06
228.09	46.06
228.324	31.06
228.559	66.06
228.793	59.06
229.027	71.06
229.262	68.06
229.496	68.06
229.73	95.06
229.964	78.06
230.199	88.06
230.433	92.06
230.667	86.06
230.901	83.06
231.136	81.06
231.37	87.06
231.604	79.06
231.838	76.06
232.072	81.06
232.306	79.06
232.541	84.06
232.775	92.06
233.009	87.06
233.243	97.06
233.477	76.06
233.711	68.06
233.945	81.06
234.179	69.06
234.413	91.06
234.647	71.06
234.881	83.06
235.115	86.06
235.349	85.06
235.583	76.06
235.817	82.06
236.051	86.06
236.285	85.06
236.519	72.06
236.753	71.06
236.987	81.06
237.221	86.06
237.455	103.06
237.689	75.06
237.922	92.06
238.156	74.06
238.39	79.06
238.624	77.06
238.858	81.06
239.091	86.06
239.325	68.06
239.559	80.06
239.793	74.06
240.027	84.06
240.26	78.06
240.494	82.06
240.728	69.06
240.961	70.06
241.195	72.06
241.429	79.06
241.662	79.06
241.896	76.06
242.13	81.06
242.363	72.06
242.597	84.06
242.83	78.06
243.064	76.06
243.298	85.06
243.531	76.06
243.765	87.06
243.998	78.06
244.232	91.06
244.465	82.06
244.699	85.06
244.932	84.06
245.166	71.06
245.399	88.06
245.633	82.06
245.866	80.06
246.099	83.06
246.333	77.06
246.566	75.06
246.8	81.06
247.033	86.06
247.266	93.06
247.5	78.06
247.733	79.06
247.966	83.06
248.2	74.06
248.433	81.06
248.666	78.06
248.899	82.06
249.133	100.06
249.366	106.06
249.599	101.06
249.832	87.06
250.066	86.06
250.299	97.06
250.532	74.06
250.765	72.06
250.998	89.06
251.231	96.06
251.465	81.06
251.698	88.06
251.931	82.06
252.164	80.06
252.397	91.06
252.63	84.06
252.863	66.06
253.096	85.06
253.329	88.06
253.562	72.06
253.795	92.06
254.028	76.06
254.261	83.06
254.494	81.06
254.727	79.06
254.96	78.06
255.193	76.06
255.426	79.06
255.659	71.06
255.892	78.06
256.124	82.06
256.357	84.06
256.59	83.06
256.823	83.06
257.056	85.06
257.289	75.06
257.521	71.06
257.754	83.06
257.987	84.06
258.22	96.06
258.452	76.06
258.685	83.06
258.918	81.06
259.151	79.06
259.383	81.06
259.616	67.06
259.849	90.06
260.081	92.06
260.314	86.06
260.547	81.06
260.779	80.06
261.012	89.06
261.244	87.06
261.477	103.06
261.71	107.06
261.942	110.06
262.175	121.06
262.407	102.06
262.64	84.06
262.872	94.06
263.105	83.06
263.337	86.06
263.57	76.06
263.802	94.06
264.035	86.06
264.267	87.06
264.499	89.06
264.732	82.06
264.964	83.06
265.197	91.06
265.429	83.06
265.661	87.06
265.894	93.06
266.126	97.06
266.358	78.06
266.591	81.06
266.823	87.06
267.055	89.06
267.287	83.06
267.52	94.06
267.752	68.06
267.984	86.06
268.216	79.06
268.448	90.06
268.681	88.06
268.913	99.06
269.145	74.06
269.377	83.06
269.609	85.06
269.841	82.06
270.073	86.06
270.306	79.06
270.538	89.06
270.77	88.06
271.002	90.06
271.234	90.06
271.466	91.06
271.698	98.06
271.93	87.06
272.162	77.06
272.394	84.06
272.626	83.06
272.858	80.06
273.09	82.06
273.322	81.06
273.553	91.06
273.785	88.06
274.017	92.06
274.249	98.06
274.481	84.06
274.713	80.06
274.945	90.06
275.176	87.06
275.408	96.06
275.64	85.06
275.872	96.06
276.104	111.06
276.335	70.06
276.567	117.06
276.799	97.06
277.031	111.06
277.262	117.06
277.494	120.06
277.726	80.06
277.957	87.06
278.189	81.06
278.421	77.06
278.652	86.06
278.884	84.06
279.115	88.06
279.347	98.06
279.579	100.06
279.81	102.06
280.042	101.06
280.273	115.06
280.505	91.06
280.736	88.06
280.968	94.06
281.199	92.06
281.431	80.06
281.662	96.06
281.894	99.06
282.125	99.06
282.356	121.06
282.588	158.06
282.819	139.06
283.051	97.06
283.282	94.06
283.513	94.06
283.745	94.06
283.976	95.06
284.207	88.06
284.439	93.06
284.67	90.06
284.901	83.06
285.132	89.06
285.364	85.06
285.595	86.06
285.826	102.06
286.057	96.06
286.288	88.06
286.52	98.06
286.751	86.06
286.982	87.06
287.213	98.06
287.444	102.06
287.675	85.06
287.906	85.06
288.138	87.06
288.369	99.06
288.6	88.06
288.831	90.06
289.062	92.06
289.293	92.06
289.524	79.06
289.755	75.06
289.986	80.06
290.217	95.06
290.448	95.06
290.679	89.06
290.91	104.06
291.141	84.06
291.371	97.06
291.602	86.06
291.833	101.06
292.064	93.06
292.295	90.06
292.526	87.06
292.757	83.06
292.987	82.06
293.218	81.06
293.449	102.06
293.68	87.06
293.91	98.06
294.141	88.06
294.372	105.06
294.603	91.06
294.833	94.06
295.064	97.06
295.295	101.06
295.525	109.06
295.756	116.06
295.987	127.06
296.217	152.06
296.448	125.06
296.679	96.06
296.909	100.06
297.14	92.06
297.37	96.06
297.601	88.06
297.831	79.06
298.062	105.06
298.292	97.06
298.523	93.06
298.753	90.06
298.984	97.06
299.214	93.06
299.445	106.06
299.675	99.06
299.905	103.06
300.136	97.06
300.366	98.06
300.597	91.06
300.827	93.06
301.057	99.06
301.288	111.06
301.518	87.06
301.748	97.06
301.979	105.06
302.209	98.06
302.439	97.06
302.669	83.06
302.9	92.06
303.13	94.06
303.36	108.06
303.59	114.06
303.82	119.06
304.051	95.06
304.281	96.06
304.511	106.06
304.741	100.06
304.971	98.06
305.201	92.06
305.431	81.06
305.661	102.06
305.891	104.06
306.121	103.06
306.352	107.06
306.582	116.06
306.812	96.06
307.042	95.06
307.272	109.06
307.502	109.06
307.731	98.06
307.961	94.06
308.191	97.06
308.421	91.06
308.651	100.06
308.881	99.06
309.111	102.06
309.341	97.06
309.571	118.06
309.8	102.06
310.03	108.06
310.26	96.06
310.49	101.06
310.72	89.06
310.949	106.06
311.179	107.06
311.409	95.06
311.639	86.06
311.868	116.06
312.098	98.06
312.328	105.06
312.557	112.06
312.787	111.06
313.017	118.06
313.246	97.06
313.476	95.06
313.706	101.06
313.935	105.06
314.165	99.06
314.394	108.06
314.624	107.06
314.853	104.06
315.083	95.06
315.312	92.06
315.542	99.06
315.771	105.06
316.001	95.06
316.23	96.06
316.46	107.06
316.689	99.06
316.919	106.06
317.148	106.06
317.377	90.06
317.607	103.06
317.836	80.06
318.065	94.06
318.295	82.06
318.524	92.06
318.753	95.06
318.983	109.06
319.212	110.06
319.441	113.06
319.67	107.06
319.9	94.06
320.129	93.06
320.358	91.06
320.587	87.06
320.816	102.06
321.046	100.06
321.275	103.06
321.504	95.06
321.733	86.06
321.962	102.06
322.191	104.06
322.42	115.06
322.649	119.06
322.878	122.06
323.108	125.06
323.337	132.06
323.566	132.06
323.795	159.06
324.024	210.06
324.253	400.06
324.482	848.06
324.71	1648.06
324.939	2180.06
325.168	864.06
325.397	240.06
325.626	159.06
325.855	111.06
326.084	116.06
326.313	138.06
326.542	143.06
326.77	213.06
326.999	428.06
327.228	899.06
327.457	1572.06
327.686	1286.06
327.914	396.06
328.143	259.06
328.372	240.06
328.6	168.06
328.829	119.06
329.058	153.06
329.287	158.06
329.515	124.06
329.744	136.06
329.972	157.06
330.201	261.06
330.43	327.06
330.658	211.06
330.887	160.06
331.115	141.06
331.344	109.06
331.572	106.06
331.801	108.06
332.03	95.06
332.258	102.06
332.486	93.06
332.715	97.06
332.943	85.06
333.172	104.06
333.4	116.06
333.629	110.06
333.857	146.06
334.085	151.06
334.314	240.06
334.542	398.06
334.771	370.06
334.999	153.06
335.227	110.06
335.455	118.06
335.684	98.06
335.912	94.06
336.14	104.06
336.369	100.06
336.597	109.06
336.825	106.06
337.053	100.06
337.281	92.06
337.51	92.06
337.738	93.06
337.966	104.06
338.194	106.06
338.422	111.06
338.65	109.06
338.878	90.06
339.106	94.06
339.334	87.06
339.562	92.06
339.79	82.06
340.018	112.06
340.246	90.06
340.474	98.06
340.702	95.06
340.93	97.06
341.158	99.06
341.386	99.06
341.614	94.06
341.842	94.06
342.07	86.06
342.298	98.06
342.526	78.06
342.754	93.06
342.981	90.06
343.209	95.06
343.437	102.06
343.665	107.06
343.893	78.06
344.12	95.06
344.348	95.06
344.576	101.06
344.804	100.06
345.031	111.06
345.259	100.06
345.487	86.06
345.714	95.06
345.942	99.06
346.17	107.06
346.397	101.06
346.625	93.06
346.853	98.06
347.08	85.06
347.308	103.06
347.535	98.06
347.763	116.06
347.99	102.06
348.218	110.06
348.445	107.06
348.673	113.06
348.9	99.06
349.128	97.06
349.355	101.06
349.583	94.06
349.81	97.06
350.037	98.06
350.265	79.06
350.492	98.06
350.72	101.06
350.947	109.06
351.174	110.06
351.402	127.06
351.629	110.06
351.856	112.06
352.083	112.06
352.311	118.06
352.538	117.06
352.765	122.06
352.992	117.06
353.22	115.06
353.447	106.06
353.674	118.06
353.901	110.06
354.128	95.06
354.355	98.06
354.583	97.06
354.81	113.06
355.037	95.06
355.264	88.06
355.491	99.06
355.718	98.06
355.945	101.06
356.172	97.06
356.399	94.06
356.626	98.06
356.853	102.06
357.08	101.06
357.307	93.06
357.534	97.06
357.761	103.06
357.988	97.06
358.215	105.06
358.441	110.06
358.668	88.06
358.895	92.06
359.122	90.06
359.349	95.06
359.576	99.06
359.802	111.06
360.029	126.06
360.256	118.06
360.483	97.06
360.709	98.06
360.936	88.06
361.163	102.06
361.39	88.06
361.616	95.06
361.843	92.06
362.07	104.06
362.296	107.06
362.523	98.06
362.749	101.06
362.976	110.06
363.203	98.06
363.429	82.06
363.656	94.06
363.882	105.06
364.109	80.06
364.335	96.06
364.562	107.06
364.788	95.06
365.015	91.06
365.241	83.06
365.468	110.06
365.694	103.06
365.92	97.06
366.147	87.06
366.373	87.06
366.599	93.06
366.826	95.06
367.052	87.06
367.278	98.06
367.505	92.06
367.731	96.06
367.957	96.06
368.184	98.06
368.41	91.06
368.636	124.06
368.862	127.06
369.089	91.06
369.315	90.06
369.541	93.06
369.767	99.06
369.993	100.06
370.219	98.06
370.445	87.06
370.672	97.06
370.898	93.06
371.124	95.06
371.35	92.06
371.576	97.06
371.802	95.06
372.028	100.06
372.254	91.06
372.48	103.06
372.706	82.06
372.932	107.06
373.158	100.06
373.384	102.06
373.61	80.06
373.835	84.06
374.061	104.06
374.287	107.06
374.513	98.06
374.739	91.06
374.965	83.06
375.191	84.06
375.416	84.06
375.642	94.06
375.868	90.06
376.094	82.06
376.319	88.06
376.545	94.06
376.771	79.06
376.997	104.06
377.222	106.06
377.448	99.06
377.674	96.06
377.899	94.06
378.125	95.06
378.35	82.06
378.576	98.06
378.802	86.06
379.027	93.06
379.253	100.06
379.478	86.06
379.704	101.06
379.929	100.06
380.155	110.06
380.38	99.06
380.606	89.06
380.831	98.06
381.057	99.06
381.282	98.06
381.507	80.06
381.733	93.06
381.958	90.06
382.184	101.06
382.409	105.06
382.634	87.06
382.86	101.06
383.085	107.06
383.31	95.06
383.535	114.06
383.761	114.06
383.986	100.06
384.211	87.06
384.436	112.06
384.662	103.06
384.887	102.06
385.112	99.06
385.337	102.06
385.562	102.06
385.787	99.06
386.013	110.06
386.238	108.06
386.463	105.06
386.688	109.06
386.913	97.06
387.138	104.06
387.363	95.06
387.588	114.06
387.813	107.06
388.038	103.06
388.263	99.06
388.488	95.06
388.713	99.06
388.938	90.06
389.163	96.06
389.387	118.06
389.612	95.06
389.837	92.06
390.062	105.06
390.287	100.06
390.512	82.06
390.736	85.06
390.961	115.06
391.186	81.06
391.411	88.06
391.636	92.06
391.86	92.06
392.085	89.06
392.31	88.06
392.534	94.06
392.759	110.06
392.984	92.06
393.208	92.06
393.433	104.06
393.658	93.06
393.882	90.06
394.107	90.06
394.331	96.06
394.556	73.06
394.78	109.06
395.005	106.06
395.229	84.06
395.454	79.06
395.678	93.06
395.903	91.06
396.127	92.06
396.352	87.06
396.576	76.06
396.801	91.06
397.025	102.06
397.249	101.06
397.474	86.06
397.698	93.06
397.922	80.06
398.147	91.06
398.371	102.06
398.595	86.06
398.82	86.06
399.044	83.06
399.268	88.06
399.492	83.06
399.717	86.06
399.941	104.06
400.165	108.06
400.389	109.06
400.613	90.06
400.837	94.06
401.062	91.06
401.286	110.06
401.51	99.06
401.734	83.06
401.958	124.06
402.182	151.06
402.406	170.06
402.63	129.06
402.854	102.06
403.078	94.06
403.302	83.06
403.526	88.06
403.75	87.06
403.974	87.06
404.198	81.06
404.422	86.06
404.645	87.06
404.869	76.06
405.093	99.06
405.317	102.06
405.541	115.06
405.765	111.06
405.988	126.06
406.212	204.06
406.436	266.06
406.66	176.06
406.883	115.06
407.107	102.06
407.331	106.06
407.555	111.06
407.778	99.06
408.002	101.06
408.226	98.06
408.449	76.06
408.673	101.06
408.896	107.06
409.12	99.06
409.344	93.06
409.567	96.06
409.791	77.06
410.014	86.06
410.238	84.06
410.461	99.06
410.685	104.06
410.908	99.06
411.132	93.06
411.355	107.06
411.578	99.06
411.802	91.06
412.025	83.06
412.249	101.06
412.472	99.06
412.695	117.06
412.919	99.06
413.142	93.06
413.365	98.06
413.589	94.06
413.812	91.06
414.035	98.06
414.258	89.06
414.482	79.06
414.705	88.06
414.928	83.06
415.151	97.06
415.374	86.06
415.597	92.06
415.821	98.06
416.044	86.06
416.267	90.06
416.49	103.06
416.713	96.06
416.936	85.06
417.159	92.06
417.382	74.06
417.605	91.06
417.828	107.06
418.051	104.06
418.274	85.06
418.497	81.06
418.72	85.06
418.943	94.06
419.166	81.06
419.389	98.06
419.611	94.06
419.834	96.06
420.057	87.06
420.28	90.06
420.503	97.06
420.726	89.06
420.948	88.06
421.171	102.06
421.394	85.06
421.617	101.06
421.839	103.06
422.062	79.06
422.285	89.06
422.507	108.06
422.73	95.06
422.953	99.06
423.175	97.06
423.398	88.06
423.621	92.06
423.843	93.06
424.066	95.06
424.288	85.06
424.511	96.06
424.733	106.06
424.956	111.06
425.178	106.06
425.401	111.06
425.623	91.06
425.846	109.06
426.068	97.06
426.291	91.06
426.513	87.06
426.735	92.06
426.958	90.06
427.18	105.06
427.402	143.06
427.625	178.06
427.847	165.06
428.069	128.06
428.292	90.06
428.514	115.06
428.736	94.06
428.958	95.06
429.181	76.06
429.403	87.06
429.625	101.06
429.847	94.06
430.069	99.06
430.292	93.06
430.514	101.06
430.736	89.06
430.958	86.06
431.18	103.06
431.402	76.06
431.624	86.06
431.846	71.06
432.068	96.06
432.29	93.06
432.512	82.06
432.734	96.06
432.956	92.06
433.178	96.06
433.4	100.06
433.622	85.06
433.844	86.06
434.066	86.06
434.287	100.06
434.509	100.06
434.731	102.06
434.953	102.06
435.175	84.06
435.397	86.06
435.618	93.06
435.84	106.06
436.062	144.06
436.284	98.06
436.505	91.06
436.727	113.06
436.949	96.06
437.17	98.06
437.392	87.06
437.614	89.06
437.835	104.06
438.057	131.06
438.278	122.06
438.5	108.06
438.721	120.06
438.943	99.06
439.165	106.06
439.386	101.06
439.608	99.06
439.829	98.06
440.05	126.06
440.272	156.06
440.493	100.06
440.715	88.06
440.936	91.06
441.158	95.06
441.379	90.06
441.6	106.06
441.822	98.06
442.043	94.06
442.264	101.06
442.486	104.06
442.707	94.06
442.928	110.06
443.149	153.06
443.371	141.06
443.592	123.06
443.813	104.06
444.034	102.06
444.255	92.06
444.476	96.06
444.698	90.06
444.919	86.06
445.14	153.06
445.361	138.06
445.582	129.06
445.803	141.06
446.024	128.06
446.245	135.06
446.466	120.06
446.687	99.06
446.908	90.06
447.129	81.06
447.35	83.06
447.571	103.06
447.792	95.06
448.013	103.06
448.234	115.06
448.455	108.06
448.675	110.06
448.896	130.06
449.117	103.06
449.338	105.06
449.559	130.06
449.779	122.06
450	92.06
450.221	83.06
450.442	77.06
450.662	101.06
450.883	103.06
451.104	115.06
451.324	95.06
451.545	88.06
451.766	88.06
451.986	90.06
452.207	79.06
452.428	89.06
452.648	117.06
452.869	131.06
453.089	129.06
453.31	127.06
453.53	100.06
453.751	90.06
453.971	116.06
454.192	123.06
454.412	96.06
454.633	90.06
454.853	94.06
455.073	83.06
455.294	97.06
455.514	92.06
455.734	94.06
455.955	95.06
456.175	85.06
456.395	98.06
456.616	86.06
456.836	87.06
457.056	87.06
457.276	82.06
457.497	91.06
457.717	90.06
457.937	82.06
458.157	96.06
458.377	95.06
458.598	125.06
458.818	149.06
459.038	176.06
459.258	115.06
459.478	69.06
459.698	88.06
459.918	75.06
460.138	90.06
460.358	90.06
460.578	94.06
460.798	92.06
461.018	91.06
461.238	93.06
461.458	98.06
461.678	93.06
461.898	86.06
462.118	90.06
462.338	91.06
462.558	90.06
462.777	88.06
462.997	81.06
463.217	85.06
463.437	92.06
463.657	97.06
463.876	80.06
464.096	83.06
464.316	94.06
464.536	101.06
464.755	90.06
464.975	116.06
465.195	181.06
465.414	183.06
465.634	104.06
465.854	92.06
466.073	78.06
466.293	86.06
466.512	95.06
466.732	94.06
466.951	93.06
467.171	95.06
467.391	100.06
467.61	118.06
467.829	117.06
468.049	173.06
468.268	223.06
468.488	123.06
468.707	99.06
468.927	78.06
469.146	92.06
469.365	96.06
469.585	95.06
469.804	99.06
470.023	100.06
470.243	107.06
470.462	116.06
470.681	115.06
470.901	97.06
471.12	100.06
471.339	93.06
471.558	106.06
471.777	95.06
471.997	131.06
472.216	285.06
472.435	535.06
472.654	177.06
472.873	104.06
473.092	90.06
473.311	91.06
473.53	85.06
473.749	108.06
473.968	100.06
474.187	105.06
474.406	86.06
474.625	97.06
474.844	86.06
475.063	84.06
475.282	95.06
475.501	75.06
475.72	88.06
475.939	90.06
476.158	94.06
476.377	96.06
476.596	94.06
476.814	95.06
477.033	98.06
477.252	87.06
477.471	92.06
477.69	82.06
477.908	104.06
478.127	95.06
478.346	77.06
478.564	106.06
478.783	98.06
479.002	106.06
479.22	83.06
479.439	100.06
479.658	109.06
479.876	105.06
480.095	91.06
480.313	86.06
480.532	113.06
480.751	132.06
480.969	257.06
481.188	848.06
481.406	549.06
481.624	144.06
481.843	102.06
482.061	102.06
482.28	87.06
482.498	103.06
482.717	88.06
482.935	93.06
483.153	96.06
483.372	95.06
483.59	94.06
483.808	90.06
484.027	95.06
484.245	109.06
484.463	106.06
484.681	96.06
484.9	93.06
485.118	96.06
485.336	95.06
485.554	117.06
485.772	115.06
485.99	106.06
486.209	100.06
486.427	112.06
486.645	123.06
486.863	115.06
487.081	99.06
487.299	101.06
487.517	98.06
487.735	84.06
487.953	96.06
488.171	86.06
488.389	102.06
488.607	120.06
488.825	99.06
489.043	89.06
489.261	99.06
489.479	90.06
489.696	104.06
489.914	89.06
490.132	94.06
490.35	93.06
490.568	95.06
490.786	96.06
491.003	100.06
491.221	86.06
491.439	92.06
491.657	93.06
491.874	93.06
492.092	97.06
492.31	96.06
492.527	88.06
492.745	88.06
492.963	88.06
493.18	82.06
493.398	88.06
493.615	108.06
493.833	95.06
494.05	92.06
494.268	90.06
494.485	101.06
494.703	94.06
494.92	92.06
495.138	87.06
495.355	102.06
495.573	90.06
495.79	93.06
496.008	94.06
496.225	94.06
496.442	90.06
496.66	94.06
496.877	98.06
497.094	87.06
497.312	87.06
497.529	84.06
497.746	99.06
497.963	94.06
498.181	85.06
498.398	95.06
498.615	103.06
498.832	95.06
499.049	95.06
499.267	99.06
499.484	100.06
499.701	90.06
499.918	87.06
500.135	89.06
500.352	100.06
500.569	88.06
500.786	94.06
501.003	78.06
501.22	83.06
501.437	96.06
501.654	107.06
501.871	133.06
502.088	96.06
502.305	80.06
502.522	97.06
502.739	95.06
502.956	95.06
503.172	91.06
503.389	89.06
503.606	116.06
503.823	93.06
504.04	106.06
504.256	94.06
504.473	92.06
504.69	88.06
504.907	96.06
505.123	106.06
505.34	74.06
505.557	97.06
505.773	86.06
505.99	94.06
506.207	92.06
506.423	80.06
506.64	91.06
506.856	98.06
507.073	93.06
507.289	98.06
507.506	117.06
507.722	111.06
507.939	127.06
508.155	102.06
508.372	95.06
508.588	92.06
508.805	84.06
509.021	102.06
509.238	102.06
509.454	96.06
509.67	109.06
509.887	124.06
510.103	151.06
510.319	232.06
510.536	934.06
510.752	3090.06
510.968	852.06
511.184	175.06
511.401	122.06
511.617	102.06
511.833	104.06
512.049	104.06
512.265	89.06
512.481	103.06
512.698	96.06
512.914	102.06
513.13	102.06
513.346	93.06
513.562	102.06
513.778	101.06
