Data from Circ_2008_H10_HRD10591_00026.txt Node
Date: Wed Jan 03 10:17:01 EST 2024
User: Yrep
Spectrometer: HR+D1059
Trigger mode: 1
Integration Time (sec): 1.000000E-1
Scans to average: 1
Electric dark correction enabled: true
Nonlinearity correction enabled: false
Boxcar width: 0
XAxis mode: Wavelengths
Number of Pixels in Spectrum: 2048
>>>>>Begin Spectral Data<<<<<
223.165	-26.5
223.4	-26.5
223.635	-26.5
223.869	-19.5
224.104	-25.5
224.338	-23.5
224.573	-10.5
224.808	-12.5
225.042	-13.5
225.277	1.5
225.511	-6.5
225.746	1.5
225.98	18.5
226.215	13.5
226.449	19.5
226.683	32.5
226.918	19.5
227.152	31.5
227.387	39.5
227.621	29.5
227.856	44.5
228.09	44.5
228.324	51.5
228.559	53.5
228.793	62.5
229.027	61.5
229.262	55.5
229.496	77.5
229.73	75.5
229.964	80.5
230.199	74.5
230.433	69.5
230.667	87.5
230.901	79.5
231.136	83.5
231.37	75.5
231.604	80.5
231.838	72.5
232.072	63.5
232.306	72.5
232.541	81.5
232.775	84.5
233.009	78.5
233.243	75.5
233.477	69.5
233.711	76.5
233.945	83.5
234.179	62.5
234.413	78.5
234.647	75.5
234.881	77.5
235.115	65.5
235.349	84.5
235.583	81.5
235.817	66.5
236.051	87.5
236.285	83.5
236.519	75.5
236.753	79.5
236.987	78.5
237.221	86.5
237.455	89.5
237.689	80.5
237.922	74.5
238.156	68.5
238.39	65.5
238.624	89.5
238.858	76.5
239.091	73.5
239.325	83.5
239.559	71.5
239.793	68.5
240.027	79.5
240.26	90.5
240.494	80.5
240.728	68.5
240.961	73.5
241.195	76.5
241.429	66.5
241.662	87.5
241.896	84.5
242.13	76.5
242.363	82.5
242.597	79.5
242.83	82.5
243.064	73.5
243.298	79.5
243.531	74.5
243.765	84.5
243.998	74.5
244.232	83.5
244.465	89.5
244.699	91.5
244.932	86.5
245.166	80.5
245.399	84.5
245.633	93.5
245.866	75.5
246.099	81.5
246.333	80.5
246.566	69.5
246.8	87.5
247.033	69.5
247.266	77.5
247.5	72.5
247.733	85.5
247.966	88.5
248.2	79.5
248.433	82.5
248.666	77.5
248.899	81.5
249.133	84.5
249.366	83.5
249.599	95.5
249.832	94.5
250.066	76.5
250.299	80.5
250.532	92.5
250.765	74.5
250.998	80.5
251.231	76.5
251.465	77.5
251.698	90.5
251.931	81.5
252.164	69.5
252.397	90.5
252.63	77.5
252.863	71.5
253.096	78.5
253.329	97.5
253.562	66.5
253.795	85.5
254.028	75.5
254.261	83.5
254.494	88.5
254.727	95.5
254.96	74.5
255.193	75.5
255.426	92.5
255.659	97.5
255.892	74.5
256.124	68.5
256.357	81.5
256.59	89.5
256.823	92.5
257.056	79.5
257.289	82.5
257.521	99.5
257.754	80.5
257.987	68.5
258.22	81.5
258.452	84.5
258.685	97.5
258.918	85.5
259.151	85.5
259.383	87.5
259.616	73.5
259.849	72.5
260.081	80.5
260.314	84.5
260.547	73.5
260.779	74.5
261.012	68.5
261.244	87.5
261.477	82.5
261.71	84.5
261.942	98.5
262.175	102.5
262.407	79.5
262.64	85.5
262.872	82.5
263.105	89.5
263.337	75.5
263.57	66.5
263.802	78.5
264.035	74.5
264.267	75.5
264.499	82.5
264.732	88.5
264.964	72.5
265.197	85.5
265.429	90.5
265.661	87.5
265.894	90.5
266.126	73.5
266.358	76.5
266.591	89.5
266.823	90.5
267.055	78.5
267.287	77.5
267.52	81.5
267.752	77.5
267.984	81.5
268.216	85.5
268.448	87.5
268.681	94.5
268.913	73.5
269.145	83.5
269.377	83.5
269.609	91.5
269.841	78.5
270.073	91.5
270.306	90.5
270.538	91.5
270.77	83.5
271.002	84.5
271.234	94.5
271.466	85.5
271.698	88.5
271.93	88.5
272.162	80.5
272.394	85.5
272.626	90.5
272.858	87.5
273.09	81.5
273.322	88.5
273.553	67.5
273.785	91.5
274.017	68.5
274.249	68.5
274.481	80.5
274.713	84.5
274.945	85.5
275.176	87.5
275.408	91.5
275.64	83.5
275.872	90.5
276.104	96.5
276.335	96.5
276.567	93.5
276.799	107.5
277.031	92.5
277.262	76.5
277.494	78.5
277.726	79.5
277.957	80.5
278.189	91.5
278.421	96.5
278.652	81.5
278.884	81.5
279.115	76.5
279.347	93.5
279.579	92.5
279.81	77.5
280.042	75.5
280.273	85.5
280.505	72.5
280.736	85.5
280.968	93.5
281.199	89.5
281.431	94.5
281.662	81.5
281.894	89.5
282.125	100.5
282.356	100.5
282.588	136.5
282.819	112.5
283.051	100.5
283.282	83.5
283.513	89.5
283.745	76.5
283.976	82.5
284.207	71.5
284.439	94.5
284.67	83.5
284.901	83.5
285.132	80.5
285.364	72.5
285.595	85.5
285.826	85.5
286.057	94.5
286.288	87.5
286.52	78.5
286.751	90.5
286.982	87.5
287.213	89.5
287.444	101.5
287.675	69.5
287.906	81.5
288.138	85.5
288.369	91.5
288.6	93.5
288.831	88.5
289.062	93.5
289.293	81.5
289.524	91.5
289.755	93.5
289.986	86.5
290.217	84.5
290.448	86.5
290.679	86.5
290.91	96.5
291.141	70.5
291.371	90.5
291.602	94.5
291.833	84.5
292.064	93.5
292.295	82.5
292.526	94.5
292.757	82.5
292.987	95.5
293.218	94.5
293.449	77.5
293.68	99.5
293.91	85.5
294.141	94.5
294.372	88.5
294.603	91.5
294.833	92.5
295.064	78.5
295.295	93.5
295.525	102.5
295.756	94.5
295.987	105.5
296.217	137.5
296.448	123.5
296.679	91.5
296.909	101.5
297.14	88.5
297.37	97.5
297.601	94.5
297.831	92.5
298.062	91.5
298.292	98.5
298.523	103.5
298.753	103.5
298.984	87.5
299.214	76.5
299.445	96.5
299.675	100.5
299.905	99.5
300.136	91.5
300.366	88.5
300.597	95.5
300.827	106.5
301.057	100.5
301.288	88.5
301.518	91.5
301.748	91.5
301.979	89.5
302.209	90.5
302.439	89.5
302.669	106.5
302.9	105.5
303.13	98.5
303.36	68.5
303.59	104.5
303.82	97.5
304.051	88.5
304.281	100.5
304.511	96.5
304.741	93.5
304.971	93.5
305.201	99.5
305.431	90.5
305.661	76.5
305.891	88.5
306.121	84.5
306.352	94.5
306.582	112.5
306.812	98.5
307.042	95.5
307.272	88.5
307.502	91.5
307.731	98.5
307.961	100.5
308.191	89.5
308.421	98.5
308.651	82.5
308.881	90.5
309.111	84.5
309.341	104.5
309.571	96.5
309.8	103.5
310.03	113.5
310.26	100.5
310.49	96.5
310.72	99.5
310.949	111.5
311.179	100.5
311.409	81.5
311.639	88.5
311.868	103.5
312.098	90.5
312.328	88.5
312.557	102.5
312.787	87.5
313.017	96.5
313.246	99.5
313.476	101.5
313.706	97.5
313.935	92.5
314.165	108.5
314.394	95.5
314.624	100.5
314.853	113.5
315.083	86.5
315.312	99.5
315.542	85.5
315.771	84.5
316.001	89.5
316.23	101.5
316.46	75.5
316.689	87.5
316.919	105.5
317.148	97.5
317.377	88.5
317.607	101.5
317.836	93.5
318.065	101.5
318.295	97.5
318.524	101.5
318.753	106.5
318.983	98.5
319.212	98.5
319.441	96.5
319.67	121.5
319.9	83.5
320.129	95.5
320.358	92.5
320.587	101.5
320.816	90.5
321.046	105.5
321.275	120.5
321.504	91.5
321.733	98.5
321.962	108.5
322.191	89.5
322.42	94.5
322.649	95.5
322.878	98.5
323.108	105.5
323.337	111.5
323.566	131.5
323.795	147.5
324.024	191.5
324.253	335.5
324.482	702.5
324.71	1409.5
324.939	1826.5
325.168	710.5
325.397	221.5
325.626	141.5
325.855	134.5
326.084	113.5
326.313	125.5
326.542	151.5
326.77	207.5
326.999	405.5
327.228	810.5
327.457	1373.5
327.686	1134.5
327.914	329.5
328.143	190.5
328.372	147.5
328.6	132.5
328.829	108.5
329.058	115.5
329.287	127.5
329.515	103.5
329.744	103.5
329.972	107.5
330.201	129.5
330.43	143.5
330.658	129.5
330.887	121.5
331.115	128.5
331.344	114.5
331.572	96.5
331.801	95.5
332.03	102.5
332.258	84.5
332.486	92.5
332.715	92.5
332.943	74.5
333.172	93.5
333.4	101.5
333.629	101.5
333.857	110.5
334.085	102.5
334.314	112.5
334.542	124.5
334.771	128.5
334.999	105.5
335.227	95.5
335.455	89.5
335.684	95.5
335.912	105.5
336.14	95.5
336.369	96.5
336.597	93.5
336.825	91.5
337.053	94.5
337.281	82.5
337.51	87.5
337.738	102.5
337.966	100.5
338.194	88.5
338.422	97.5
338.65	78.5
338.878	98.5
339.106	90.5
339.334	81.5
339.562	104.5
339.79	82.5
340.018	92.5
340.246	94.5
340.474	105.5
340.702	82.5
340.93	98.5
341.158	80.5
341.386	89.5
341.614	87.5
341.842	102.5
342.07	94.5
342.298	89.5
342.526	95.5
342.754	82.5
342.981	77.5
343.209	73.5
343.437	96.5
343.665	98.5
343.893	80.5
344.12	80.5
344.348	97.5
344.576	85.5
344.804	92.5
345.031	91.5
345.259	85.5
345.487	88.5
345.714	105.5
345.942	111.5
346.17	95.5
346.397	104.5
346.625	90.5
346.853	82.5
347.08	95.5
347.308	94.5
347.535	99.5
347.763	84.5
347.99	95.5
348.218	96.5
348.445	93.5
348.673	107.5
348.9	103.5
349.128	97.5
349.355	95.5
349.583	97.5
349.81	94.5
350.037	99.5
350.265	95.5
350.492	93.5
350.72	99.5
350.947	91.5
351.174	101.5
351.402	106.5
351.629	116.5
351.856	94.5
352.083	101.5
352.311	105.5
352.538	109.5
352.765	104.5
352.992	103.5
353.22	98.5
353.447	107.5
353.674	88.5
353.901	93.5
354.128	100.5
354.355	98.5
354.583	85.5
354.81	91.5
355.037	100.5
355.264	104.5
355.491	99.5
355.718	89.5
355.945	100.5
356.172	87.5
356.399	104.5
356.626	87.5
356.853	96.5
357.08	87.5
357.307	88.5
357.534	96.5
357.761	94.5
357.988	97.5
358.215	92.5
358.441	91.5
358.668	98.5
358.895	91.5
359.122	90.5
359.349	82.5
359.576	85.5
359.802	81.5
360.029	105.5
360.256	106.5
360.483	98.5
360.709	88.5
360.936	93.5
361.163	98.5
361.39	109.5
361.616	108.5
361.843	95.5
362.07	84.5
362.296	80.5
362.523	89.5
362.749	90.5
362.976	104.5
363.203	99.5
363.429	80.5
363.656	91.5
363.882	100.5
364.109	84.5
364.335	95.5
364.562	101.5
364.788	98.5
365.015	90.5
365.241	100.5
365.468	121.5
365.694	106.5
365.92	120.5
366.147	92.5
366.373	108.5
366.599	93.5
366.826	83.5
367.052	81.5
367.278	90.5
367.505	84.5
367.731	97.5
367.957	108.5
368.184	89.5
368.41	102.5
368.636	108.5
368.862	112.5
369.089	90.5
369.315	92.5
369.541	93.5
369.767	93.5
369.993	110.5
370.219	89.5
370.445	84.5
370.672	89.5
370.898	90.5
371.124	89.5
371.35	89.5
371.576	98.5
371.802	79.5
372.028	88.5
372.254	79.5
372.48	71.5
372.706	79.5
372.932	89.5
373.158	79.5
373.384	85.5
373.61	91.5
373.835	94.5
374.061	100.5
374.287	98.5
374.513	98.5
374.739	81.5
374.965	91.5
375.191	98.5
375.416	96.5
375.642	97.5
375.868	79.5
376.094	98.5
376.319	92.5
376.545	92.5
376.771	83.5
376.997	78.5
377.222	84.5
377.448	101.5
377.674	89.5
377.899	98.5
378.125	88.5
378.35	95.5
378.576	94.5
378.802	82.5
379.027	89.5
379.253	94.5
379.478	98.5
379.704	100.5
379.929	97.5
380.155	109.5
380.38	96.5
380.606	93.5
380.831	91.5
381.057	110.5
381.282	101.5
381.507	102.5
381.733	89.5
381.958	114.5
382.184	86.5
382.409	106.5
382.634	107.5
382.86	96.5
383.085	91.5
383.31	102.5
383.535	92.5
383.761	97.5
383.986	89.5
384.211	113.5
384.436	97.5
384.662	101.5
384.887	98.5
385.112	96.5
385.337	107.5
385.562	97.5
385.787	105.5
386.013	108.5
386.238	106.5
386.463	109.5
386.688	123.5
386.913	109.5
387.138	112.5
387.363	113.5
387.588	110.5
387.813	108.5
388.038	120.5
388.263	119.5
388.488	98.5
388.713	88.5
388.938	100.5
389.163	86.5
389.387	95.5
389.612	90.5
389.837	91.5
390.062	73.5
390.287	77.5
390.512	100.5
390.736	92.5
390.961	100.5
391.186	78.5
391.411	92.5
391.636	108.5
391.86	85.5
392.085	95.5
392.31	69.5
392.534	100.5
392.759	99.5
392.984	89.5
393.208	109.5
393.433	107.5
393.658	87.5
393.882	84.5
394.107	84.5
394.331	99.5
394.556	85.5
394.78	88.5
395.005	93.5
395.229	91.5
395.454	88.5
395.678	82.5
395.903	92.5
396.127	84.5
396.352	89.5
396.576	87.5
396.801	77.5
397.025	90.5
397.249	84.5
397.474	102.5
397.698	97.5
397.922	89.5
398.147	81.5
398.371	87.5
398.595	87.5
398.82	84.5
399.044	89.5
399.268	80.5
399.492	65.5
399.717	101.5
399.941	89.5
400.165	95.5
400.389	97.5
400.613	79.5
400.837	104.5
401.062	89.5
401.286	89.5
401.51	92.5
401.734	90.5
401.958	101.5
402.182	132.5
402.406	164.5
402.63	112.5
402.854	90.5
403.078	84.5
403.302	81.5
403.526	89.5
403.75	84.5
403.974	79.5
404.198	83.5
404.422	88.5
404.645	87.5
404.869	90.5
405.093	71.5
405.317	100.5
405.541	97.5
405.765	97.5
405.988	114.5
406.212	163.5
406.436	204.5
406.66	146.5
406.883	101.5
407.107	99.5
407.331	91.5
407.555	98.5
407.778	92.5
408.002	96.5
408.226	87.5
408.449	83.5
408.673	99.5
408.896	90.5
409.12	79.5
409.344	90.5
409.567	81.5
409.791	83.5
410.014	103.5
410.238	91.5
410.461	82.5
410.685	95.5
410.908	96.5
411.132	105.5
411.355	105.5
411.578	96.5
411.802	70.5
412.025	86.5
412.249	93.5
412.472	110.5
412.695	95.5
412.919	80.5
413.142	97.5
413.365	83.5
413.589	88.5
413.812	98.5
414.035	104.5
414.258	84.5
414.482	88.5
414.705	81.5
414.928	90.5
415.151	93.5
415.374	95.5
415.597	99.5
415.821	85.5
416.044	94.5
416.267	87.5
416.49	80.5
416.713	80.5
416.936	88.5
417.159	84.5
417.382	87.5
417.605	95.5
417.828	88.5
418.051	84.5
418.274	85.5
418.497	85.5
418.72	76.5
418.943	87.5
419.166	88.5
419.389	99.5
419.611	87.5
419.834	102.5
420.057	82.5
420.28	88.5
420.503	106.5
420.726	97.5
420.948	85.5
421.171	101.5
421.394	83.5
421.617	94.5
421.839	94.5
422.062	92.5
422.285	95.5
422.507	89.5
422.73	90.5
422.953	108.5
423.175	89.5
423.398	85.5
423.621	92.5
423.843	83.5
424.066	76.5
424.288	90.5
424.511	95.5
424.733	87.5
424.956	103.5
425.178	88.5
425.401	91.5
425.623	105.5
425.846	84.5
426.068	95.5
426.291	81.5
426.513	98.5
426.735	93.5
426.958	106.5
427.18	99.5
427.402	110.5
427.625	155.5
427.847	135.5
428.069	103.5
428.292	91.5
428.514	85.5
428.736	81.5
428.958	94.5
429.181	89.5
429.403	83.5
429.625	93.5
429.847	101.5
430.069	90.5
430.292	105.5
430.514	92.5
430.736	79.5
430.958	79.5
431.18	89.5
431.402	79.5
431.624	84.5
431.846	76.5
432.068	89.5
432.29	84.5
432.512	89.5
432.734	88.5
432.956	89.5
433.178	88.5
433.4	92.5
433.622	93.5
433.844	91.5
434.066	96.5
434.287	73.5
434.509	87.5
434.731	102.5
434.953	98.5
435.175	82.5
435.397	87.5
435.618	90.5
435.84	93.5
436.062	109.5
436.284	97.5
436.505	101.5
436.727	110.5
436.949	94.5
437.17	96.5
437.392	104.5
437.614	98.5
437.835	107.5
438.057	113.5
438.278	105.5
438.5	76.5
438.721	111.5
438.943	92.5
439.165	95.5
439.386	85.5
439.608	75.5
439.829	89.5
440.05	105.5
440.272	142.5
440.493	101.5
440.715	91.5
440.936	80.5
441.158	88.5
441.379	102.5
441.6	96.5
441.822	88.5
442.043	91.5
442.264	82.5
442.486	100.5
442.707	84.5
442.928	113.5
443.149	141.5
443.371	126.5
443.592	114.5
443.813	102.5
444.034	104.5
444.255	75.5
444.476	89.5
444.698	97.5
444.919	97.5
445.14	123.5
445.361	121.5
445.582	128.5
445.803	148.5
446.024	123.5
446.245	123.5
446.466	101.5
446.687	93.5
446.908	98.5
447.129	92.5
447.35	77.5
447.571	106.5
447.792	107.5
448.013	88.5
448.234	117.5
448.455	98.5
448.675	105.5
448.896	107.5
449.117	100.5
449.338	85.5
449.559	116.5
449.779	116.5
450	96.5
450.221	92.5
450.442	92.5
450.662	89.5
450.883	88.5
451.104	114.5
451.324	105.5
451.545	85.5
451.766	72.5
451.986	96.5
452.207	95.5
452.428	98.5
452.648	105.5
452.869	102.5
453.089	108.5
453.31	126.5
453.53	94.5
453.751	95.5
453.971	113.5
454.192	103.5
454.412	93.5
454.633	74.5
454.853	79.5
455.073	84.5
455.294	90.5
455.514	86.5
455.734	99.5
455.955	89.5
456.175	99.5
456.395	88.5
456.616	87.5
456.836	83.5
457.056	81.5
457.276	92.5
457.497	75.5
457.717	110.5
457.937	87.5
458.157	95.5
458.377	91.5
458.598	104.5
458.818	135.5
459.038	147.5
459.258	110.5
459.478	98.5
459.698	80.5
459.918	84.5
460.138	92.5
460.358	99.5
460.578	69.5
460.798	94.5
461.018	75.5
461.238	79.5
461.458	72.5
461.678	92.5
461.898	84.5
462.118	90.5
462.338	106.5
462.558	85.5
462.777	85.5
462.997	98.5
463.217	75.5
463.437	90.5
463.657	88.5
463.876	88.5
464.096	90.5
464.316	98.5
464.536	83.5
464.755	89.5
464.975	116.5
465.195	159.5
465.414	155.5
465.634	103.5
465.854	85.5
466.073	76.5
466.293	91.5
466.512	87.5
466.732	78.5
466.951	92.5
467.171	97.5
467.391	102.5
467.61	100.5
467.829	110.5
468.049	98.5
468.268	92.5
468.488	75.5
468.707	71.5
468.927	82.5
469.146	82.5
469.365	83.5
469.585	88.5
469.804	95.5
470.023	94.5
470.243	84.5
470.462	99.5
470.681	105.5
470.901	94.5
471.12	83.5
471.339	90.5
471.558	86.5
471.777	83.5
471.997	90.5
472.216	113.5
472.435	148.5
472.654	93.5
472.873	89.5
473.092	99.5
473.311	78.5
473.53	102.5
473.749	97.5
473.968	85.5
474.187	84.5
474.406	81.5
474.625	96.5
474.844	99.5
475.063	86.5
475.282	79.5
475.501	98.5
475.72	87.5
475.939	83.5
476.158	80.5
476.377	92.5
476.596	83.5
476.814	92.5
477.033	100.5
477.252	90.5
477.471	80.5
477.69	83.5
477.908	114.5
478.127	99.5
478.346	85.5
478.564	103.5
478.783	97.5
479.002	87.5
479.22	91.5
479.439	90.5
479.658	103.5
479.876	86.5
480.095	95.5
480.313	82.5
480.532	93.5
480.751	100.5
480.969	110.5
481.188	175.5
481.406	139.5
481.624	90.5
481.843	93.5
482.061	98.5
482.28	89.5
482.498	92.5
482.717	84.5
482.935	87.5
483.153	84.5
483.372	93.5
483.59	79.5
483.808	82.5
484.027	81.5
484.245	101.5
484.463	96.5
484.681	98.5
484.9	87.5
485.118	76.5
485.336	82.5
485.554	95.5
485.772	93.5
485.99	95.5
486.209	108.5
486.427	94.5
486.645	97.5
486.863	119.5
487.081	88.5
487.299	93.5
487.517	90.5
487.735	101.5
487.953	87.5
488.171	106.5
488.389	88.5
488.607	99.5
488.825	85.5
489.043	76.5
489.261	89.5
489.479	82.5
489.696	81.5
489.914	86.5
490.132	91.5
490.35	94.5
490.568	88.5
490.786	97.5
491.003	73.5
491.221	82.5
491.439	103.5
491.657	83.5
491.874	89.5
492.092	92.5
492.31	76.5
492.527	91.5
492.745	81.5
492.963	99.5
493.18	89.5
493.398	97.5
493.615	87.5
493.833	95.5
494.05	77.5
494.268	95.5
494.485	83.5
494.703	97.5
494.92	85.5
495.138	86.5
495.355	69.5
495.573	80.5
495.79	86.5
496.008	84.5
496.225	92.5
496.442	87.5
496.66	77.5
496.877	90.5
497.094	85.5
497.312	82.5
497.529	106.5
497.746	99.5
497.963	82.5
498.181	101.5
498.398	92.5
498.615	112.5
498.832	100.5
499.049	93.5
499.267	102.5
499.484	84.5
499.701	67.5
499.918	92.5
500.135	99.5
500.352	91.5
500.569	82.5
500.786	76.5
501.003	92.5
501.22	94.5
501.437	98.5
501.654	99.5
501.871	121.5
502.088	94.5
502.305	83.5
502.522	94.5
502.739	91.5
502.956	91.5
503.172	89.5
503.389	97.5
503.606	100.5
503.823	99.5
504.04	95.5
504.256	85.5
504.473	89.5
504.69	76.5
504.907	106.5
505.123	78.5
505.34	92.5
505.557	96.5
505.773	85.5
505.99	75.5
506.207	95.5
506.423	87.5
506.64	88.5
506.856	85.5
507.073	97.5
507.289	93.5
507.506	104.5
507.722	100.5
507.939	106.5
508.155	102.5
508.372	98.5
508.588	96.5
508.805	104.5
509.021	90.5
509.238	101.5
509.454	77.5
509.67	84.5
509.887	111.5
510.103	135.5
510.319	209.5
510.536	775.5
510.752	2504.5
510.968	712.5
511.184	167.5
511.401	95.5
511.617	105.5
511.833	79.5
512.049	98.5
512.265	85.5
512.481	95.5
512.698	93.5
512.914	92.5
513.13	82.5
513.346	87.5
513.562	98.5
513.778	99.5
513.994	103.5
514.21	121.5
514.426	106.5
514.642	145.5
514.858	113.5
515.074	161.5
515.29	420.5
515.506	1447.5
515.721	545.5
515.937	161.5
516.153	112.5
516.369	93.5
516.585	92.5
516.801	99.5
517.016	95.5
517.232	88.5
517.448	97.5
517.664	100.5
517.879	82.5
518.095	83.5
518.311	87.5
518.527	85.5
518.742	87.5
518.958	93.5
519.173	91.5
519.389	92.5
519.605	95.5
519.82	103.5
520.036	98.5
520.251	112.5
520.467	107.5
520.682	99.5
520.898	90.5
521.113	109.5
521.329	139.5
521.544	200.5
521.76	518.5
521.975	2425.5
522.19	1479.5
522.406	305.5
522.621	121.5
522.836	101.5
523.052	96.5
523.267	112.5
523.482	77.5
523.698	103.5
523.913	134.5
524.128	95.5
524.343	92.5
524.559	86.5
524.774	85.5
524.989	91.5
525.204	124.5
525.419	109.5
525.634	85.5
525.849	91.5
526.064	98.5
526.28	80.5
526.495	92.5
526.71	99.5
526.925	95.5
527.14	81.5
527.355	99.5
527.57	93.5
527.785	88.5
527.999	84.5
528.214	98.5
528.429	97.5
528.644	84.5
528.859	89.5
529.074	93.5
529.289	121.5
529.503	178.5
529.718	93.5
529.933	95.5
530.148	81.5
530.363	83.5
530.577	93.5
530.792	97.5
531.007	91.5
531.221	105.5
531.436	84.5
531.651	99.5
531.865	95.5
532.08	104.5
532.295	93.5
532.509	98.5
532.724	99.5
532.938	87.5
533.153	89.5
533.367	95.5
533.582	93.5
533.796	98.5
534.011	103.5
534.225	77.5
534.44	91.5
534.654	85.5
534.868	85.5
535.083	103.5
535.297	95.5
