Data from Circ_2008_H10_HRD10591_00005.txt Node
Date: Wed Jan 03 10:16:57 EST 2024
User: Yrep
Spectrometer: HR+D1059
Trigger mode: 1
Integration Time (sec): 1.000000E-1
Scans to average: 1
Electric dark correction enabled: true
Nonlinearity correction enabled: false
Boxcar width: 0
XAxis mode: Wavelengths
Number of Pixels in Spectrum: 2048
>>>>>Begin Spectral Data<<<<<
223.165	-18.69
223.4	-18.69
223.635	-18.69
223.869	-20.69
224.104	-19.69
224.338	-1.69
224.573	-20.69
224.808	-5.69
225.042	-16.69
225.277	-16.69
225.511	-1.69
225.746	13.31
225.98	10.31
226.215	12.31
226.449	14.31
226.683	9.31
226.918	21.31
227.152	41.31
227.387	34.31
227.621	45.31
227.856	36.31
228.09	42.31
228.324	53.31
228.559	56.31
228.793	59.31
229.027	55.31
229.262	78.31
229.496	74.31
229.73	87.31
229.964	73.31
230.199	69.31
230.433	72.31
230.667	91.31
230.901	82.31
231.136	76.31
231.37	78.31
231.604	73.31
231.838	76.31
232.072	72.31
232.306	80.31
232.541	81.31
232.775	81.31
233.009	77.31
233.243	84.31
233.477	82.31
233.711	78.31
233.945	81.31
234.179	89.31
234.413	76.31
234.647	73.31
234.881	75.31
235.115	77.31
235.349	77.31
235.583	85.31
235.817	84.31
236.051	74.31
236.285	77.31
236.519	80.31
236.753	66.31
236.987	89.31
237.221	73.31
237.455	89.31
237.689	73.31
237.922	73.31
238.156	62.31
238.39	69.31
238.624	73.31
238.858	86.31
239.091	67.31
239.325	73.31
239.559	80.31
239.793	70.31
240.027	80.31
240.26	82.31
240.494	97.31
240.728	72.31
240.961	73.31
241.195	91.31
241.429	81.31
241.662	78.31
241.896	82.31
242.13	75.31
242.363	68.31
242.597	83.31
242.83	75.31
243.064	63.31
243.298	82.31
243.531	85.31
243.765	67.31
243.998	85.31
244.232	81.31
244.465	75.31
244.699	72.31
244.932	78.31
245.166	77.31
245.399	73.31
245.633	85.31
245.866	65.31
246.099	64.31
246.333	73.31
246.566	78.31
246.8	69.31
247.033	73.31
247.266	71.31
247.5	67.31
247.733	93.31
247.966	85.31
248.2	74.31
248.433	81.31
248.666	91.31
248.899	74.31
249.133	79.31
249.366	92.31
249.599	91.31
249.832	86.31
250.066	76.31
250.299	86.31
250.532	68.31
250.765	70.31
250.998	72.31
251.231	90.31
251.465	87.31
251.698	68.31
251.931	79.31
252.164	71.31
252.397	80.31
252.63	84.31
252.863	87.31
253.096	73.31
253.329	78.31
253.562	90.31
253.795	61.31
254.028	84.31
254.261	89.31
254.494	73.31
254.727	74.31
254.96	72.31
255.193	66.31
255.426	48.31
255.659	76.31
255.892	90.31
256.124	76.31
256.357	76.31
256.59	86.31
256.823	80.31
257.056	77.31
257.289	64.31
257.521	80.31
257.754	77.31
257.987	80.31
258.22	86.31
258.452	89.31
258.685	88.31
258.918	70.31
259.151	79.31
259.383	84.31
259.616	72.31
259.849	79.31
260.081	92.31
260.314	88.31
260.547	80.31
260.779	85.31
261.012	77.31
261.244	84.31
261.477	81.31
261.71	92.31
261.942	101.31
262.175	113.31
262.407	82.31
262.64	69.31
262.872	80.31
263.105	78.31
263.337	79.31
263.57	79.31
263.802	90.31
264.035	78.31
264.267	93.31
264.499	59.31
264.732	90.31
264.964	81.31
265.197	88.31
265.429	68.31
265.661	89.31
265.894	77.31
266.126	86.31
266.358	70.31
266.591	76.31
266.823	78.31
267.055	82.31
267.287	75.31
267.52	84.31
267.752	82.31
267.984	69.31
268.216	75.31
268.448	81.31
268.681	66.31
268.913	90.31
269.145	84.31
269.377	95.31
269.609	88.31
269.841	82.31
270.073	83.31
270.306	82.31
270.538	81.31
270.77	79.31
271.002	80.31
271.234	78.31
271.466	79.31
271.698	82.31
271.93	84.31
272.162	89.31
272.394	81.31
272.626	82.31
272.858	81.31
273.09	86.31
273.322	85.31
273.553	90.31
273.785	69.31
274.017	86.31
274.249	79.31
274.481	75.31
274.713	75.31
274.945	91.31
275.176	75.31
275.408	75.31
275.64	76.31
275.872	79.31
276.104	86.31
276.335	92.31
276.567	92.31
276.799	106.31
277.031	107.31
277.262	101.31
277.494	90.31
277.726	90.31
277.957	91.31
278.189	88.31
278.421	73.31
278.652	88.31
278.884	78.31
279.115	79.31
279.347	95.31
279.579	91.31
279.81	79.31
280.042	97.31
280.273	77.31
280.505	81.31
280.736	89.31
280.968	78.31
281.199	80.31
281.431	85.31
281.662	86.31
281.894	84.31
282.125	97.31
282.356	126.31
282.588	133.31
282.819	102.31
283.051	92.31
283.282	90.31
283.513	78.31
283.745	81.31
283.976	75.31
284.207	92.31
284.439	86.31
284.67	92.31
284.901	90.31
285.132	87.31
285.364	85.31
285.595	85.31
285.826	88.31
286.057	86.31
286.288	72.31
286.52	78.31
286.751	77.31
286.982	76.31
287.213	77.31
287.444	88.31
287.675	86.31
287.906	93.31
288.138	84.31
288.369	98.31
288.6	74.31
288.831	85.31
289.062	81.31
289.293	90.31
289.524	84.31
289.755	93.31
289.986	84.31
290.217	89.31
290.448	79.31
290.679	92.31
290.91	82.31
291.141	91.31
291.371	85.31
291.602	85.31
291.833	89.31
292.064	81.31
292.295	92.31
292.526	81.31
292.757	94.31
292.987	87.31
293.218	84.31
293.449	75.31
293.68	90.31
293.91	95.31
294.141	95.31
294.372	81.31
294.603	95.31
294.833	81.31
295.064	87.31
295.295	77.31
295.525	96.31
295.756	95.31
295.987	113.31
296.217	153.31
296.448	134.31
296.679	96.31
296.909	86.31
297.14	90.31
297.37	87.31
297.601	91.31
297.831	92.31
298.062	74.31
298.292	77.31
298.523	100.31
298.753	77.31
298.984	83.31
299.214	92.31
299.445	81.31
299.675	88.31
299.905	98.31
300.136	100.31
300.366	89.31
300.597	100.31
300.827	95.31
301.057	81.31
301.288	104.31
301.518	98.31
301.748	86.31
301.979	97.31
302.209	85.31
302.439	100.31
302.669	91.31
302.9	80.31
303.13	86.31
303.36	86.31
303.59	94.31
303.82	100.31
304.051	85.31
304.281	83.31
304.511	97.31
304.741	87.31
304.971	82.31
305.201	80.31
305.431	85.31
305.661	80.31
305.891	78.31
306.121	98.31
306.352	103.31
306.582	100.31
306.812	89.31
307.042	86.31
307.272	90.31
307.502	75.31
307.731	84.31
307.961	82.31
308.191	85.31
308.421	82.31
308.651	79.31
308.881	97.31
309.111	92.31
309.341	90.31
309.571	93.31
309.8	82.31
310.03	99.31
310.26	106.31
310.49	84.31
310.72	85.31
310.949	116.31
311.179	90.31
311.409	98.31
311.639	87.31
311.868	100.31
312.098	94.31
312.328	86.31
312.557	92.31
312.787	100.31
313.017	94.31
313.246	84.31
313.476	97.31
313.706	95.31
313.935	93.31
314.165	108.31
314.394	97.31
314.624	93.31
314.853	105.31
315.083	82.31
315.312	91.31
315.542	90.31
315.771	84.31
316.001	87.31
316.23	90.31
316.46	88.31
316.689	94.31
316.919	93.31
317.148	94.31
317.377	118.31
317.607	97.31
317.836	93.31
318.065	83.31
318.295	92.31
318.524	96.31
318.753	84.31
318.983	76.31
319.212	97.31
319.441	116.31
319.67	96.31
319.9	103.31
320.129	95.31
320.358	85.31
320.587	93.31
320.816	90.31
321.046	94.31
321.275	100.31
321.504	86.31
321.733	96.31
321.962	91.31
322.191	106.31
322.42	110.31
322.649	100.31
322.878	102.31
323.108	108.31
323.337	117.31
323.566	139.31
323.795	153.31
324.024	213.31
324.253	399.31
324.482	830.31
324.71	1667.31
324.939	2262.31
325.168	820.31
325.397	244.31
325.626	138.31
325.855	147.31
326.084	121.31
326.313	144.31
326.542	152.31
326.77	237.31
326.999	468.31
327.228	905.31
327.457	1693.31
327.686	1336.31
327.914	381.31
328.143	192.31
328.372	154.31
328.6	120.31
328.829	106.31
329.058	120.31
329.287	130.31
329.515	103.31
329.744	107.31
329.972	100.31
330.201	117.31
330.43	109.31
330.658	126.31
330.887	159.31
331.115	130.31
331.344	95.31
331.572	95.31
331.801	100.31
332.03	103.31
332.258	107.31
332.486	100.31
332.715	99.31
332.943	92.31
333.172	95.31
333.4	98.31
333.629	106.31
333.857	107.31
334.085	111.31
334.314	102.31
334.542	105.31
334.771	106.31
334.999	97.31
335.227	108.31
335.455	97.31
335.684	90.31
335.912	104.31
336.14	86.31
336.369	94.31
336.597	98.31
336.825	103.31
337.053	88.31
337.281	81.31
337.51	82.31
337.738	82.31
337.966	105.31
338.194	81.31
338.422	108.31
338.65	89.31
338.878	76.31
339.106	88.31
339.334	90.31
339.562	74.31
339.79	87.31
340.018	88.31
340.246	85.31
340.474	94.31
340.702	102.31
340.93	88.31
341.158	90.31
341.386	99.31
341.614	88.31
341.842	83.31
342.07	86.31
342.298	92.31
342.526	82.31
342.754	97.31
342.981	90.31
343.209	93.31
343.437	98.31
343.665	87.31
343.893	89.31
344.12	91.31
344.348	85.31
344.576	94.31
344.804	94.31
345.031	95.31
345.259	105.31
345.487	95.31
345.714	86.31
345.942	86.31
346.17	97.31
346.397	92.31
346.625	97.31
346.853	101.31
347.08	91.31
347.308	109.31
347.535	97.31
347.763	98.31
347.99	103.31
348.218	97.31
348.445	98.31
348.673	96.31
348.9	97.31
349.128	101.31
349.355	95.31
349.583	85.31
349.81	97.31
350.037	99.31
350.265	89.31
350.492	113.31
350.72	97.31
350.947	99.31
351.174	101.31
351.402	108.31
351.629	101.31
351.856	92.31
352.083	104.31
352.311	105.31
352.538	116.31
352.765	115.31
352.992	113.31
353.22	105.31
353.447	111.31
353.674	95.31
353.901	95.31
354.128	104.31
354.355	85.31
354.583	89.31
354.81	107.31
355.037	112.31
355.264	101.31
355.491	107.31
355.718	94.31
355.945	98.31
356.172	109.31
356.399	100.31
356.626	93.31
356.853	91.31
357.08	88.31
357.307	93.31
357.534	89.31
357.761	97.31
357.988	105.31
358.215	100.31
358.441	92.31
358.668	96.31
358.895	98.31
359.122	90.31
359.349	98.31
359.576	95.31
359.802	99.31
360.029	119.31
360.256	112.31
360.483	90.31
360.709	93.31
360.936	99.31
361.163	94.31
361.39	97.31
361.616	89.31
361.843	79.31
362.07	94.31
362.296	89.31
362.523	85.31
362.749	92.31
362.976	81.31
363.203	78.31
363.429	99.31
363.656	87.31
363.882	84.31
364.109	78.31
364.335	96.31
364.562	87.31
364.788	90.31
365.015	91.31
365.241	106.31
365.468	121.31
365.694	93.31
365.92	97.31
366.147	98.31
366.373	92.31
366.599	93.31
366.826	87.31
367.052	84.31
367.278	101.31
367.505	93.31
367.731	94.31
367.957	81.31
368.184	81.31
368.41	96.31
368.636	101.31
368.862	113.31
369.089	117.31
369.315	91.31
369.541	81.31
369.767	76.31
369.993	85.31
370.219	100.31
370.445	97.31
370.672	97.31
370.898	79.31
371.124	89.31
371.35	91.31
371.576	92.31
371.802	82.31
372.028	97.31
372.254	92.31
372.48	89.31
372.706	96.31
372.932	89.31
373.158	78.31
373.384	102.31
373.61	73.31
373.835	85.31
374.061	83.31
374.287	95.31
374.513	97.31
374.739	98.31
374.965	87.31
375.191	84.31
375.416	95.31
375.642	83.31
375.868	84.31
376.094	90.31
376.319	102.31
376.545	88.31
376.771	108.31
376.997	95.31
377.222	99.31
377.448	82.31
377.674	74.31
377.899	88.31
378.125	80.31
378.35	89.31
378.576	93.31
378.802	105.31
379.027	85.31
379.253	94.31
379.478	95.31
379.704	100.31
379.929	89.31
380.155	100.31
380.38	111.31
380.606	98.31
380.831	84.31
381.057	95.31
381.282	108.31
381.507	102.31
381.733	96.31
381.958	78.31
382.184	118.31
382.409	102.31
382.634	106.31
382.86	101.31
383.085	96.31
383.31	113.31
383.535	106.31
383.761	94.31
383.986	101.31
384.211	103.31
384.436	107.31
384.662	113.31
384.887	121.31
385.112	120.31
385.337	120.31
385.562	113.31
385.787	118.31
386.013	138.31
386.238	120.31
386.463	128.31
386.688	111.31
386.913	110.31
387.138	129.31
387.363	117.31
387.588	110.31
387.813	105.31
388.038	104.31
388.263	126.31
388.488	124.31
388.713	103.31
388.938	104.31
389.163	88.31
389.387	81.31
389.612	92.31
389.837	92.31
390.062	91.31
390.287	82.31
390.512	86.31
390.736	98.31
390.961	85.31
391.186	79.31
391.411	89.31
391.636	80.31
391.86	93.31
392.085	92.31
392.31	88.31
392.534	79.31
392.759	82.31
392.984	82.31
393.208	115.31
393.433	127.31
393.658	103.31
393.882	89.31
394.107	90.31
394.331	94.31
394.556	86.31
394.78	74.31
395.005	84.31
395.229	96.31
395.454	105.31
395.678	90.31
395.903	80.31
396.127	97.31
396.352	94.31
396.576	94.31
396.801	102.31
397.025	96.31
397.249	85.31
397.474	95.31
397.698	90.31
397.922	91.31
398.147	77.31
398.371	88.31
398.595	97.31
398.82	78.31
399.044	82.31
399.268	95.31
399.492	82.31
399.717	87.31
399.941	80.31
400.165	101.31
400.389	96.31
400.613	104.31
400.837	82.31
401.062	93.31
401.286	86.31
401.51	92.31
401.734	75.31
401.958	104.31
402.182	138.31
402.406	173.31
402.63	119.31
402.854	90.31
403.078	80.31
403.302	85.31
403.526	90.31
403.75	87.31
403.974	85.31
404.198	80.31
404.422	76.31
404.645	82.31
404.869	88.31
405.093	99.31
405.317	98.31
405.541	89.31
405.765	96.31
405.988	130.31
406.212	183.31
406.436	233.31
406.66	144.31
406.883	103.31
407.107	81.31
407.331	88.31
407.555	102.31
407.778	96.31
408.002	84.31
408.226	90.31
408.449	90.31
408.673	88.31
408.896	91.31
409.12	90.31
409.344	90.31
409.567	85.31
409.791	82.31
410.014	103.31
410.238	87.31
410.461	78.31
410.685	96.31
410.908	88.31
411.132	98.31
411.355	96.31
411.578	91.31
411.802	82.31
412.025	97.31
412.249	112.31
412.472	88.31
412.695	82.31
412.919	85.31
413.142	91.31
413.365	82.31
413.589	87.31
413.812	81.31
414.035	96.31
414.258	87.31
414.482	103.31
414.705	87.31
414.928	86.31
415.151	103.31
415.374	105.31
415.597	79.31
415.821	89.31
416.044	100.31
416.267	79.31
416.49	82.31
416.713	93.31
416.936	76.31
417.159	86.31
417.382	77.31
417.605	93.31
417.828	101.31
418.051	81.31
418.274	108.31
418.497	84.31
418.72	104.31
418.943	91.31
419.166	79.31
419.389	78.31
419.611	79.31
419.834	85.31
420.057	80.31
420.28	89.31
420.503	92.31
420.726	88.31
420.948	74.31
421.171	90.31
421.394	95.31
421.617	100.31
421.839	82.31
422.062	72.31
422.285	90.31
422.507	87.31
422.73	102.31
422.953	100.31
423.175	89.31
423.398	90.31
423.621	93.31
423.843	82.31
424.066	81.31
424.288	87.31
424.511	90.31
424.733	94.31
424.956	101.31
425.178	103.31
425.401	96.31
425.623	89.31
425.846	77.31
426.068	92.31
426.291	77.31
426.513	90.31
426.735	81.31
426.958	89.31
427.18	108.31
427.402	128.31
427.625	157.31
427.847	129.31
428.069	94.31
428.292	93.31
428.514	80.31
428.736	88.31
428.958	80.31
429.181	82.31
429.403	75.31
429.625	83.31
429.847	94.31
430.069	101.31
430.292	94.31
430.514	79.31
430.736	89.31
430.958	97.31
431.18	77.31
431.402	86.31
431.624	79.31
431.846	104.31
432.068	96.31
432.29	82.31
432.512	80.31
432.734	86.31
432.956	84.31
433.178	100.31
433.4	92.31
433.622	86.31
433.844	84.31
434.066	91.31
434.287	91.31
434.509	89.31
434.731	74.31
434.953	85.31
435.175	78.31
435.397	93.31
435.618	87.31
435.84	94.31
436.062	109.31
436.284	112.31
436.505	104.31
436.727	93.31
436.949	88.31
437.17	86.31
437.392	91.31
437.614	85.31
437.835	106.31
438.057	119.31
438.278	97.31
438.5	98.31
438.721	117.31
438.943	105.31
439.165	87.31
439.386	91.31
439.608	74.31
439.829	102.31
440.05	119.31
440.272	146.31
440.493	98.31
440.715	96.31
440.936	87.31
441.158	91.31
441.379	82.31
441.6	97.31
441.822	91.31
442.043	91.31
442.264	102.31
442.486	100.31
442.707	102.31
442.928	94.31
443.149	128.31
443.371	126.31
443.592	98.31
443.813	103.31
444.034	101.31
444.255	97.31
444.476	91.31
444.698	97.31
444.919	90.31
445.14	126.31
445.361	134.31
445.582	123.31
445.803	141.31
446.024	133.31
446.245	139.31
446.466	97.31
446.687	80.31
446.908	79.31
447.129	93.31
447.35	82.31
447.571	82.31
447.792	82.31
448.013	109.31
448.234	115.31
448.455	97.31
448.675	120.31
448.896	116.31
449.117	100.31
449.338	108.31
449.559	112.31
449.779	132.31
450	99.31
450.221	91.31
450.442	88.31
450.662	98.31
450.883	106.31
451.104	98.31
451.324	95.31
451.545	91.31
451.766	74.31
451.986	87.31
452.207	100.31
452.428	96.31
452.648	101.31
452.869	113.31
453.089	107.31
453.31	119.31
453.53	96.31
453.751	94.31
453.971	92.31
454.192	117.31
454.412	94.31
454.633	92.31
454.853	85.31
455.073	81.31
455.294	76.31
455.514	91.31
455.734	75.31
455.955	78.31
456.175	82.31
456.395	87.31
456.616	73.31
456.836	92.31
457.056	84.31
457.276	92.31
457.497	74.31
457.717	84.31
457.937	92.31
458.157	82.31
458.377	95.31
458.598	106.31
458.818	149.31
459.038	166.31
459.258	118.31
459.478	87.31
459.698	84.31
459.918	82.31
460.138	84.31
460.358	87.31
460.578	86.31
460.798	77.31
461.018	82.31
461.238	99.31
461.458	92.31
461.678	79.31
461.898	82.31
462.118	98.31
462.338	85.31
462.558	90.31
462.777	80.31
462.997	90.31
463.217	88.31
463.437	86.31
463.657	88.31
463.876	87.31
464.096	76.31
464.316	94.31
464.536	93.31
464.755	97.31
464.975	106.31
465.195	164.31
465.414	169.31
465.634	85.31
465.854	78.31
466.073	83.31
466.293	75.31
466.512	77.31
466.732	95.31
466.951	90.31
467.171	94.31
467.391	92.31
467.61	102.31
467.829	100.31
468.049	90.31
468.268	94.31
468.488	72.31
468.707	93.31
468.927	80.31
469.146	99.31
469.365	97.31
469.585	95.31
469.804	103.31
470.023	77.31
470.243	79.31
470.462	92.31
470.681	100.31
470.901	85.31
471.12	81.31
471.339	86.31
471.558	83.31
471.777	89.31
471.997	91.31
472.216	91.31
472.435	100.31
472.654	93.31
472.873	79.31
473.092	80.31
473.311	73.31
473.53	76.31
473.749	78.31
473.968	96.31
474.187	90.31
474.406	90.31
474.625	90.31
474.844	84.31
475.063	88.31
475.282	82.31
475.501	83.31
475.72	85.31
475.939	74.31
476.158	87.31
476.377	90.31
476.596	80.31
476.814	93.31
477.033	91.31
477.252	76.31
477.471	89.31
477.69	78.31
477.908	79.31
478.127	89.31
478.346	79.31
478.564	96.31
478.783	88.31
479.002	82.31
479.22	96.31
479.439	84.31
479.658	100.31
479.876	103.31
480.095	93.31
480.313	79.31
480.532	90.31
480.751	81.31
480.969	86.31
481.188	118.31
481.406	90.31
481.624	76.31
481.843	93.31
482.061	91.31
482.28	87.31
482.498	98.31
482.717	77.31
482.935	89.31
483.153	92.31
483.372	88.31
483.59	89.31
483.808	88.31
484.027	80.31
484.245	96.31
484.463	95.31
484.681	97.31
484.9	97.31
485.118	86.31
485.336	83.31
485.554	81.31
485.772	98.31
485.99	112.31
486.209	98.31
486.427	106.31
486.645	103.31
486.863	92.31
487.081	113.31
487.299	104.31
487.517	99.31
487.735	78.31
487.953	93.31
488.171	80.31
488.389	96.31
488.607	92.31
488.825	83.31
489.043	86.31
489.261	93.31
489.479	96.31
489.696	73.31
489.914	96.31
490.132	84.31
490.35	102.31
490.568	90.31
490.786	90.31
491.003	82.31
491.221	89.31
491.439	96.31
491.657	81.31
491.874	86.31
492.092	92.31
492.31	104.31
492.527	80.31
492.745	79.31
492.963	95.31
493.18	91.31
493.398	86.31
493.615	82.31
493.833	96.31
494.05	88.31
494.268	84.31
494.485	85.31
494.703	101.31
494.92	90.31
495.138	90.31
495.355	90.31
495.573	105.31
495.79	102.31
496.008	78.31
496.225	74.31
496.442	92.31
496.66	92.31
496.877	76.31
497.094	94.31
497.312	75.31
497.529	82.31
497.746	94.31
497.963	87.31
498.181	80.31
498.398	100.31
498.615	112.31
498.832	92.31
499.049	95.31
499.267	94.31
499.484	96.31
499.701	93.31
499.918	88.31
500.135	86.31
500.352	98.31
500.569	86.31
500.786	96.31
501.003	89.31
501.22	105.31
501.437	95.31
501.654	83.31
501.871	113.31
502.088	77.31
502.305	92.31
502.522	77.31
502.739	82.31
502.956	94.31
503.172	96.31
503.389	93.31
503.606	120.31
503.823	90.31
504.04	78.31
504.256	97.31
504.473	90.31
504.69	90.31
504.907	75.31
505.123	82.31
505.34	84.31
505.557	76.31
505.773	83.31
505.99	94.31
506.207	73.31
506.423	86.31
506.64	84.31
506.856	92.31
507.073	81.31
507.289	97.31
507.506	84.31
507.722	108.31
507.939	121.31
508.155	94.31
508.372	77.31
508.588	98.31
508.805	97.31
509.021	91.31
509.238	95.31
509.454	106.31
509.67	101.31
509.887	116.31
510.103	130.31
510.319	223.31
510.536	833.31
510.752	2732.31
510.968	758.31
511.184	184.31
511.401	105.31
511.617	95.31
511.833	93.31
512.049	100.31
512.265	90.31
512.481	75.31
512.698	101.31
512.914	97.31
513.13	95.31
513.346	102.31
513.562	97.31
513.778	99.31
513.994	109.31
514.21	101.31
514.426	116.31
514.642	120.31
514.858	111.31
515.074	172.31
515.29	483.31
515.506	1733.31
515.721	648.31
515.937	177.31
