Data from Circ_2008_H10_HRD10591_00081.txt Node
Date: Wed Jan 03 10:17:12 EST 2024
User: Yrep
Spectrometer: HR+D1059
Trigger mode: 1
Integration Time (sec): 1.000000E-1
Scans to average: 1
Electric dark correction enabled: true
Nonlinearity correction enabled: false
Boxcar width: 0
XAxis mode: Wavelengths
Number of Pixels in Spectrum: 2048
>>>>>Begin Spectral Data<<<<<
223.165	-7.19
223.4	-7.19
223.635	-7.19
223.869	-13.19
224.104	-15.19
224.338	-21.19
224.573	-17.19
224.808	-19.19
225.042	-14.19
225.277	0.81
225.511	-9.19
225.746	26.81
225.98	2.81
226.215	7.81
226.449	10.81
226.683	10.81
226.918	19.81
227.152	36.81
227.387	55.81
227.621	35.81
227.856	54.81
228.09	35.81
228.324	45.81
228.559	59.81
228.793	52.81
229.027	65.81
229.262	68.81
229.496	74.81
229.73	84.81
229.964	90.81
230.199	64.81
230.433	85.81
230.667	78.81
230.901	78.81
231.136	73.81
231.37	66.81
231.604	89.81
231.838	84.81
232.072	99.81
232.306	79.81
232.541	78.81
232.775	74.81
233.009	84.81
233.243	84.81
233.477	79.81
233.711	89.81
233.945	100.81
234.179	91.81
234.413	80.81
234.647	67.81
234.881	73.81
235.115	83.81
235.349	90.81
235.583	76.81
235.817	68.81
236.051	80.81
236.285	89.81
236.519	77.81
236.753	67.81
236.987	80.81
237.221	91.81
237.455	89.81
237.689	88.81
237.922	83.81
238.156	87.81
238.39	98.81
238.624	71.81
238.858	90.81
239.091	75.81
239.325	77.81
239.559	82.81
239.793	80.81
240.027	83.81
240.26	81.81
240.494	72.81
240.728	80.81
240.961	85.81
241.195	77.81
241.429	82.81
241.662	77.81
241.896	80.81
242.13	79.81
242.363	78.81
242.597	79.81
242.83	88.81
243.064	75.81
243.298	90.81
243.531	83.81
243.765	69.81
243.998	88.81
244.232	79.81
244.465	79.81
244.699	83.81
244.932	89.81
245.166	70.81
245.399	78.81
245.633	75.81
245.866	79.81
246.099	66.81
246.333	72.81
246.566	83.81
246.8	75.81
247.033	79.81
247.266	80.81
247.5	78.81
247.733	72.81
247.966	89.81
248.2	72.81
248.433	67.81
248.666	82.81
248.899	74.81
249.133	89.81
249.366	78.81
249.599	86.81
249.832	90.81
250.066	84.81
250.299	82.81
250.532	76.81
250.765	85.81
250.998	92.81
251.231	76.81
251.465	83.81
251.698	73.81
251.931	79.81
252.164	85.81
252.397	85.81
252.63	75.81
252.863	84.81
253.096	86.81
253.329	84.81
253.562	74.81
253.795	84.81
254.028	85.81
254.261	74.81
254.494	86.81
254.727	60.81
254.96	78.81
255.193	94.81
255.426	92.81
255.659	82.81
255.892	89.81
256.124	80.81
256.357	85.81
256.59	88.81
256.823	91.81
257.056	74.81
257.289	72.81
257.521	87.81
257.754	70.81
257.987	83.81
258.22	77.81
258.452	76.81
258.685	80.81
258.918	89.81
259.151	77.81
259.383	84.81
259.616	77.81
259.849	89.81
260.081	74.81
260.314	84.81
260.547	67.81
260.779	87.81
261.012	93.81
261.244	105.81
261.477	96.81
261.71	96.81
261.942	113.81
262.175	107.81
262.407	99.81
262.64	89.81
262.872	71.81
263.105	94.81
263.337	78.81
263.57	65.81
263.802	76.81
264.035	89.81
264.267	76.81
264.499	89.81
264.732	70.81
264.964	76.81
265.197	80.81
265.429	88.81
265.661	92.81
265.894	81.81
266.126	70.81
266.358	87.81
266.591	88.81
266.823	83.81
267.055	81.81
267.287	78.81
267.52	78.81
267.752	83.81
267.984	83.81
268.216	78.81
268.448	87.81
268.681	83.81
268.913	91.81
269.145	80.81
269.377	94.81
269.609	83.81
269.841	93.81
270.073	86.81
270.306	84.81
270.538	72.81
270.77	71.81
271.002	92.81
271.234	88.81
271.466	91.81
271.698	89.81
271.93	80.81
272.162	74.81
272.394	91.81
272.626	92.81
272.858	94.81
273.09	87.81
273.322	87.81
273.553	89.81
273.785	83.81
274.017	92.81
274.249	91.81
274.481	86.81
274.713	78.81
274.945	87.81
275.176	78.81
275.408	96.81
275.64	85.81
275.872	90.81
276.104	87.81
276.335	78.81
276.567	101.81
276.799	106.81
277.031	98.81
277.262	86.81
277.494	96.81
277.726	91.81
277.957	87.81
278.189	74.81
278.421	93.81
278.652	74.81
278.884	86.81
279.115	85.81
279.347	83.81
279.579	83.81
279.81	88.81
280.042	100.81
280.273	103.81
280.505	88.81
280.736	76.81
280.968	91.81
281.199	87.81
281.431	93.81
281.662	108.81
281.894	97.81
282.125	96.81
282.356	128.81
282.588	147.81
282.819	106.81
283.051	86.81
283.282	82.81
283.513	102.81
283.745	93.81
283.976	94.81
284.207	90.81
284.439	80.81
284.67	75.81
284.901	67.81
285.132	78.81
285.364	87.81
285.595	90.81
285.826	87.81
286.057	95.81
286.288	96.81
286.52	91.81
286.751	77.81
286.982	86.81
287.213	88.81
287.444	82.81
287.675	98.81
287.906	99.81
288.138	82.81
288.369	84.81
288.6	76.81
288.831	84.81
289.062	97.81
289.293	81.81
289.524	98.81
289.755	94.81
289.986	84.81
290.217	97.81
290.448	90.81
290.679	97.81
290.91	93.81
291.141	89.81
291.371	93.81
291.602	83.81
291.833	76.81
292.064	84.81
292.295	103.81
292.526	88.81
292.757	96.81
292.987	87.81
293.218	79.81
293.449	97.81
293.68	82.81
293.91	89.81
294.141	78.81
294.372	89.81
294.603	94.81
294.833	94.81
295.064	77.81
295.295	88.81
295.525	91.81
295.756	96.81
295.987	117.81
296.217	139.81
296.448	125.81
296.679	84.81
296.909	75.81
297.14	94.81
297.37	93.81
297.601	81.81
297.831	87.81
298.062	96.81
298.292	85.81
298.523	102.81
298.753	86.81
298.984	91.81
299.214	88.81
299.445	87.81
299.675	107.81
299.905	108.81
300.136	82.81
300.366	86.81
300.597	86.81
300.827	90.81
301.057	107.81
301.288	114.81
301.518	99.81
301.748	92.81
301.979	99.81
302.209	91.81
302.439	87.81
302.669	89.81
302.9	95.81
303.13	91.81
303.36	93.81
303.59	93.81
303.82	105.81
304.051	93.81
304.281	94.81
304.511	85.81
304.741	92.81
304.971	91.81
305.201	97.81
305.431	86.81
305.661	93.81
305.891	91.81
306.121	99.81
306.352	102.81
306.582	112.81
306.812	87.81
307.042	90.81
307.272	97.81
307.502	109.81
307.731	110.81
307.961	100.81
308.191	96.81
308.421	90.81
308.651	79.81
308.881	90.81
309.111	90.81
309.341	86.81
309.571	106.81
309.8	98.81
310.03	99.81
310.26	94.81
310.49	87.81
310.72	102.81
310.949	94.81
311.179	95.81
311.409	79.81
311.639	91.81
311.868	92.81
312.098	93.81
312.328	113.81
312.557	102.81
312.787	109.81
313.017	88.81
313.246	101.81
313.476	104.81
313.706	87.81
313.935	97.81
314.165	83.81
314.394	99.81
314.624	89.81
314.853	90.81
315.083	89.81
315.312	89.81
315.542	86.81
315.771	80.81
316.001	87.81
316.23	110.81
316.46	84.81
316.689	81.81
316.919	104.81
317.148	94.81
317.377	85.81
317.607	101.81
317.836	102.81
318.065	94.81
318.295	83.81
318.524	83.81
318.753	88.81
318.983	88.81
319.212	89.81
319.441	108.81
319.67	94.81
319.9	70.81
320.129	95.81
320.358	99.81
320.587	91.81
320.816	107.81
321.046	84.81
321.275	87.81
321.504	84.81
321.733	96.81
321.962	94.81
322.191	96.81
322.42	99.81
322.649	102.81
322.878	107.81
323.108	112.81
323.337	116.81
323.566	137.81
323.795	144.81
324.024	179.81
324.253	356.81
324.482	700.81
324.71	1442.81
324.939	1894.81
325.168	709.81
325.397	217.81
325.626	148.81
325.855	121.81
326.084	114.81
326.313	142.81
326.542	137.81
326.77	219.81
326.999	413.81
327.228	821.81
327.457	1398.81
327.686	1126.81
327.914	344.81
328.143	209.81
328.372	160.81
328.6	146.81
328.829	112.81
329.058	144.81
329.287	125.81
329.515	108.81
329.744	115.81
329.972	122.81
330.201	177.81
330.43	218.81
330.658	163.81
330.887	154.81
331.115	125.81
331.344	102.81
331.572	92.81
331.801	97.81
332.03	108.81
332.258	102.81
332.486	94.81
332.715	87.81
332.943	93.81
333.172	90.81
333.4	107.81
333.629	102.81
333.857	135.81
334.085	152.81
334.314	184.81
334.542	237.81
334.771	248.81
334.999	112.81
335.227	97.81
335.455	91.81
335.684	106.81
335.912	86.81
336.14	92.81
336.369	96.81
336.597	95.81
336.825	104.81
337.053	81.81
337.281	92.81
337.51	107.81
337.738	91.81
337.966	93.81
338.194	89.81
338.422	82.81
338.65	90.81
338.878	98.81
339.106	91.81
339.334	99.81
339.562	103.81
339.79	82.81
340.018	91.81
340.246	84.81
340.474	103.81
340.702	94.81
340.93	103.81
341.158	89.81
341.386	96.81
341.614	102.81
341.842	81.81
342.07	96.81
342.298	97.81
342.526	100.81
342.754	91.81
342.981	92.81
343.209	84.81
343.437	84.81
343.665	84.81
343.893	76.81
344.12	89.81
344.348	106.81
344.576	92.81
344.804	94.81
345.031	108.81
345.259	96.81
345.487	88.81
345.714	91.81
345.942	97.81
346.17	89.81
346.397	95.81
346.625	81.81
346.853	97.81
347.08	84.81
347.308	89.81
347.535	105.81
347.763	95.81
347.99	80.81
348.218	111.81
348.445	115.81
348.673	103.81
348.9	93.81
349.128	106.81
349.355	95.81
349.583	80.81
349.81	96.81
350.037	112.81
350.265	81.81
350.492	99.81
350.72	88.81
350.947	109.81
351.174	112.81
351.402	118.81
351.629	106.81
351.856	112.81
352.083	96.81
352.311	113.81
352.538	94.81
352.765	115.81
352.992	115.81
353.22	106.81
353.447	98.81
353.674	86.81
353.901	95.81
354.128	108.81
354.355	97.81
354.583	90.81
354.81	87.81
355.037	90.81
355.264	103.81
355.491	91.81
355.718	87.81
355.945	92.81
356.172	85.81
356.399	94.81
356.626	84.81
356.853	101.81
357.08	83.81
357.307	99.81
357.534	85.81
357.761	98.81
357.988	82.81
358.215	103.81
358.441	92.81
358.668	91.81
358.895	83.81
359.122	94.81
359.349	86.81
359.576	105.81
359.802	102.81
360.029	110.81
360.256	103.81
360.483	102.81
360.709	92.81
360.936	92.81
361.163	92.81
361.39	96.81
361.616	96.81
361.843	80.81
362.07	100.81
362.296	95.81
362.523	95.81
362.749	91.81
362.976	94.81
363.203	103.81
363.429	98.81
363.656	85.81
363.882	91.81
364.109	93.81
364.335	93.81
364.562	85.81
364.788	86.81
365.015	95.81
365.241	90.81
365.468	103.81
365.694	109.81
365.92	106.81
366.147	94.81
366.373	88.81
366.599	91.81
366.826	78.81
367.052	96.81
367.278	99.81
367.505	83.81
367.731	90.81
367.957	83.81
368.184	89.81
368.41	98.81
368.636	113.81
368.862	105.81
369.089	100.81
369.315	96.81
369.541	84.81
369.767	99.81
369.993	82.81
370.219	92.81
370.445	81.81
370.672	84.81
370.898	81.81
371.124	78.81
371.35	81.81
371.576	91.81
371.802	99.81
372.028	92.81
372.254	71.81
372.48	88.81
372.706	88.81
372.932	95.81
373.158	101.81
373.384	89.81
373.61	91.81
373.835	92.81
374.061	91.81
374.287	96.81
374.513	100.81
374.739	93.81
374.965	81.81
375.191	93.81
375.416	72.81
375.642	105.81
375.868	89.81
376.094	105.81
376.319	93.81
376.545	86.81
376.771	90.81
376.997	88.81
377.222	82.81
377.448	87.81
377.674	99.81
377.899	88.81
378.125	89.81
378.35	93.81
378.576	91.81
378.802	84.81
379.027	98.81
379.253	98.81
379.478	85.81
379.704	82.81
379.929	91.81
380.155	94.81
380.38	99.81
380.606	100.81
380.831	83.81
381.057	96.81
381.282	97.81
381.507	97.81
381.733	96.81
381.958	98.81
382.184	96.81
382.409	110.81
382.634	104.81
382.86	90.81
383.085	88.81
383.31	98.81
383.535	83.81
383.761	88.81
383.986	105.81
384.211	109.81
384.436	111.81
384.662	96.81
384.887	102.81
385.112	110.81
385.337	92.81
385.562	92.81
385.787	101.81
386.013	118.81
386.238	110.81
386.463	111.81
386.688	111.81
386.913	99.81
387.138	97.81
387.363	101.81
387.588	104.81
387.813	95.81
388.038	107.81
388.263	120.81
388.488	106.81
388.713	96.81
388.938	105.81
389.163	94.81
389.387	84.81
389.612	93.81
389.837	93.81
390.062	85.81
390.287	96.81
390.512	92.81
390.736	80.81
390.961	85.81
391.186	90.81
391.411	81.81
391.636	82.81
391.86	93.81
392.085	99.81
392.31	86.81
392.534	78.81
392.759	89.81
392.984	87.81
393.208	100.81
393.433	91.81
393.658	80.81
393.882	100.81
394.107	88.81
394.331	92.81
394.556	70.81
394.78	103.81
395.005	92.81
395.229	85.81
395.454	97.81
395.678	102.81
395.903	103.81
396.127	99.81
396.352	100.81
396.576	81.81
396.801	95.81
397.025	83.81
397.249	93.81
397.474	93.81
397.698	98.81
397.922	94.81
398.147	84.81
398.371	90.81
398.595	75.81
398.82	88.81
399.044	78.81
399.268	96.81
399.492	82.81
399.717	83.81
399.941	90.81
400.165	94.81
400.389	96.81
400.613	86.81
400.837	79.81
401.062	89.81
401.286	99.81
401.51	74.81
401.734	95.81
401.958	101.81
402.182	126.81
402.406	160.81
402.63	117.81
402.854	83.81
403.078	92.81
403.302	83.81
403.526	84.81
403.75	110.81
403.974	106.81
404.198	75.81
404.422	90.81
404.645	93.81
404.869	84.81
405.093	95.81
405.317	101.81
405.541	110.81
405.765	92.81
405.988	110.81
406.212	168.81
406.436	227.81
406.66	148.81
406.883	98.81
407.107	87.81
407.331	91.81
407.555	103.81
407.778	101.81
408.002	90.81
408.226	92.81
408.449	89.81
408.673	100.81
408.896	96.81
409.12	89.81
409.344	86.81
409.567	83.81
409.791	97.81
410.014	91.81
410.238	80.81
410.461	93.81
410.685	107.81
410.908	94.81
411.132	114.81
411.355	93.81
411.578	90.81
411.802	88.81
412.025	84.81
412.249	83.81
412.472	101.81
412.695	104.81
412.919	103.81
413.142	81.81
413.365	101.81
413.589	76.81
413.812	95.81
414.035	82.81
414.258	97.81
414.482	75.81
414.705	94.81
414.928	97.81
415.151	97.81
415.374	104.81
415.597	83.81
415.821	84.81
416.044	85.81
416.267	84.81
416.49	81.81
416.713	90.81
416.936	75.81
417.159	90.81
417.382	92.81
417.605	99.81
417.828	94.81
418.051	94.81
418.274	84.81
418.497	99.81
418.72	87.81
418.943	81.81
419.166	80.81
419.389	94.81
419.611	78.81
419.834	84.81
420.057	97.81
420.28	79.81
420.503	84.81
420.726	83.81
420.948	96.81
421.171	77.81
421.394	93.81
421.617	86.81
421.839	87.81
422.062	102.81
422.285	70.81
422.507	103.81
422.73	108.81
422.953	99.81
423.175	93.81
423.398	79.81
423.621	81.81
423.843	91.81
424.066	81.81
424.288	83.81
424.511	76.81
424.733	89.81
424.956	101.81
425.178	99.81
425.401	96.81
425.623	92.81
425.846	95.81
426.068	93.81
426.291	88.81
426.513	98.81
426.735	89.81
426.958	107.81
427.18	93.81
427.402	134.81
427.625	157.81
427.847	134.81
428.069	125.81
428.292	104.81
428.514	86.81
428.736	89.81
428.958	87.81
429.181	98.81
429.403	81.81
429.625	85.81
429.847	92.81
430.069	96.81
430.292	98.81
430.514	92.81
430.736	89.81
430.958	92.81
431.18	84.81
431.402	90.81
431.624	92.81
431.846	85.81
432.068	90.81
432.29	93.81
432.512	92.81
432.734	94.81
432.956	86.81
433.178	96.81
433.4	86.81
433.622	99.81
433.844	82.81
434.066	88.81
434.287	98.81
434.509	90.81
434.731	94.81
434.953	87.81
435.175	84.81
435.397	95.81
435.618	99.81
435.84	103.81
436.062	106.81
436.284	107.81
436.505	106.81
436.727	89.81
436.949	89.81
437.17	83.81
437.392	90.81
437.614	110.81
437.835	113.81
438.057	122.81
438.278	110.81
438.5	97.81
438.721	106.81
438.943	80.81
439.165	84.81
439.386	96.81
439.608	94.81
439.829	103.81
440.05	120.81
440.272	141.81
440.493	104.81
440.715	97.81
440.936	81.81
441.158	86.81
441.379	94.81
441.6	78.81
441.822	102.81
442.043	94.81
442.264	108.81
442.486	100.81
442.707	96.81
442.928	96.81
443.149	127.81
443.371	117.81
443.592	96.81
443.813	88.81
444.034	89.81
444.255	110.81
444.476	80.81
444.698	91.81
444.919	90.81
445.14	127.81
445.361	131.81
445.582	110.81
445.803	122.81
446.024	132.81
446.245	122.81
446.466	109.81
446.687	89.81
446.908	99.81
447.129	88.81
447.35	88.81
447.571	84.81
447.792	95.81
448.013	99.81
448.234	108.81
448.455	110.81
448.675	106.81
448.896	104.81
449.117	104.81
449.338	98.81
449.559	110.81
449.779	119.81
450	104.81
450.221	88.81
450.442	88.81
450.662	101.81
450.883	122.81
451.104	113.81
451.324	90.81
451.545	92.81
451.766	89.81
451.986	89.81
452.207	93.81
452.428	96.81
452.648	94.81
452.869	103.81
453.089	113.81
453.31	134.81
453.53	97.81
453.751	90.81
453.971	111.81
454.192	93.81
454.412	102.81
454.633	74.81
454.853	89.81
455.073	81.81
455.294	88.81
455.514	93.81
455.734	72.81
455.955	97.81
456.175	82.81
456.395	92.81
456.616	75.81
456.836	102.81
457.056	99.81
457.276	82.81
457.497	75.81
457.717	93.81
457.937	83.81
458.157	88.81
458.377	89.81
458.598	89.81
458.818	142.81
459.038	152.81
459.258	107.81
459.478	82.81
459.698	76.81
459.918	93.81
460.138	81.81
460.358	84.81
460.578	82.81
460.798	80.81
461.018	77.81
461.238	99.81
461.458	87.81
461.678	80.81
461.898	76.81
462.118	78.81
462.338	93.81
462.558	91.81
462.777	91.81
462.997	81.81
463.217	90.81
463.437	91.81
463.657	89.81
463.876	96.81
464.096	109.81
464.316	83.81
464.536	111.81
464.755	101.81
464.975	107.81
465.195	170.81
465.414	173.81
465.634	106.81
465.854	90.81
466.073	80.81
466.293	94.81
466.512	89.81
466.732	82.81
466.951	88.81
467.171	90.81
467.391	95.81
467.61	115.81
467.829	95.81
468.049	146.81
468.268	164.81
468.488	92.81
468.707	89.81
468.927	80.81
469.146	78.81
469.365	83.81
469.585	87.81
469.804	86.81
470.023	98.81
470.243	92.81
470.462	108.81
470.681	115.81
470.901	90.81
471.12	85.81
471.339	73.81
471.558	88.81
471.777	92.81
471.997	110.81
472.216	206.81
472.435	335.81
472.654	138.81
472.873	98.81
473.092	103.81
473.311	82.81
473.53	90.81
473.749	86.81
473.968	90.81
474.187	102.81
474.406	103.81
474.625	91.81
474.844	85.81
475.063	92.81
475.282	96.81
475.501	87.81
475.72	87.81
475.939	89.81
476.158	88.81
476.377	87.81
476.596	86.81
476.814	95.81
477.033	86.81
477.252	84.81
477.471	82.81
477.69	88.81
477.908	82.81
478.127	89.81
478.346	100.81
478.564	101.81
478.783	94.81
479.002	80.81
479.22	104.81
479.439	108.81
479.658	105.81
479.876	91.81
480.095	95.81
480.313	71.81
480.532	101.81
480.751	99.81
480.969	203.81
481.188	551.81
481.406	349.81
481.624	110.81
481.843	105.81
482.061	95.81
482.28	97.81
482.498	88.81
482.717	95.81
482.935	86.81
483.153	109.81
483.372	90.81
483.59	90.81
483.808	88.81
484.027	79.81
484.245	109.81
484.463	95.81
484.681	96.81
484.9	102.81
485.118	94.81
485.336	91.81
485.554	101.81
485.772	99.81
485.99	112.81
486.209	95.81
486.427	107.81
486.645	99.81
486.863	122.81
487.081	98.81
487.299	98.81
487.517	84.81
487.735	103.81
487.953	106.81
488.171	104.81
488.389	86.81
488.607	88.81
488.825	97.81
489.043	99.81
489.261	95.81
489.479	97.81
489.696	100.81
489.914	82.81
490.132	81.81
490.35	97.81
490.568	80.81
490.786	102.81
491.003	88.81
491.221	78.81
491.439	83.81
491.657	76.81
491.874	107.81
492.092	95.81
492.31	96.81
492.527	86.81
492.745	78.81
492.963	84.81
493.18	81.81
493.398	77.81
493.615	83.81
493.833	93.81
494.05	87.81
494.268	96.81
494.485	96.81
494.703	102.81
494.92	86.81
495.138	88.81
495.355	82.81
495.573	81.81
495.79	84.81
496.008	95.81
496.225	90.81
496.442	83.81
496.66	86.81
496.877	83.81
497.094	85.81
497.312	91.81
497.529	84.81
497.746	93.81
497.963	89.81
498.181	83.81
498.398	95.81
498.615	106.81
498.832	113.81
499.049	93.81
499.267	87.81
499.484	75.81
499.701	90.81
499.918	76.81
500.135	86.81
500.352	107.81
500.569	98.81
500.786	89.81
501.003	83.81
501.22	84.81
501.437	90.81
501.654	89.81
501.871	114.81
502.088	99.81
502.305	98.81
502.522	87.81
502.739	96.81
502.956	95.81
503.172	88.81
503.389	98.81
503.606	95.81
503.823	92.81
504.04	101.81
504.256	86.81
504.473	97.81
504.69	89.81
504.907	88.81
505.123	94.81
505.34	89.81
505.557	83.81
505.773	83.81
505.99	95.81
506.207	87.81
506.423	89.81
506.64	90.81
506.856	90.81
507.073	87.81
507.289	95.81
507.506	84.81
507.722	113.81
507.939	114.81
508.155	86.81
508.372	100.81
508.588	84.81
508.805	94.81
509.021	106.81
509.238	91.81
509.454	103.81
509.67	118.81
509.887	114.81
510.103	131.81
510.319	226.81
510.536	805.81
510.752	2610.81
510.968	747.81
511.184	171.81
511.401	122.81
511.617	93.81
511.833	94.81
512.049	81.81
512.265	87.81
512.481	94.81
512.698	82.81
512.914	98.81
513.13	90.81
513.346	69.81
513.562	87.81
513.778	92.81
513.994	100.81
514.21	102.81
514.426	115.81
514.642	134.81
514.858	119.81
515.074	192.81
515.29	492.81
515.506	1670.81
515.721	611.81
