Data from Circ_2008_H10_HRD10591_00008.txt Node
Date: Wed Jan 03 10:16:57 EST 2024
User: Yrep
Spectrometer: HR+D1059
Trigger mode: 1
Integration Time (sec): 1.000000E-1
Scans to average: 1
Electric dark correction enabled: true
Nonlinearity correction enabled: false
Boxcar width: 0
XAxis mode: Wavelengths
Number of Pixels in Spectrum: 2048
>>>>>Begin Spectral Data<<<<<
223.165	-7.81
223.4	-7.81
223.635	-7.81
223.869	-25.81
224.104	-10.81
224.338	-9.81
224.573	-17.81
224.808	-21.81
225.042	-16.81
225.277	6.19
225.511	5.19
225.746	2.19
225.98	10.19
226.215	8.19
226.449	6.19
226.683	28.19
226.918	16.19
227.152	28.19
227.387	44.19
227.621	52.19
227.856	61.19
228.09	57.19
228.324	52.19
228.559	50.19
228.793	49.19
229.027	60.19
229.262	76.19
229.496	72.19
229.73	94.19
229.964	79.19
230.199	88.19
230.433	83.19
230.667	88.19
230.901	80.19
231.136	77.19
231.37	73.19
231.604	82.19
231.838	85.19
232.072	74.19
232.306	85.19
232.541	77.19
232.775	84.19
233.009	90.19
233.243	94.19
233.477	94.19
233.711	77.19
233.945	87.19
234.179	89.19
234.413	88.19
234.647	74.19
234.881	82.19
235.115	80.19
235.349	84.19
235.583	76.19
235.817	83.19
236.051	78.19
236.285	78.19
236.519	87.19
236.753	77.19
236.987	78.19
237.221	75.19
237.455	92.19
237.689	76.19
237.922	79.19
238.156	86.19
238.39	75.19
238.624	82.19
238.858	78.19
239.091	78.19
239.325	93.19
239.559	75.19
239.793	82.19
240.027	79.19
240.26	82.19
240.494	73.19
240.728	79.19
240.961	80.19
241.195	79.19
241.429	93.19
241.662	67.19
241.896	83.19
242.13	71.19
242.363	71.19
242.597	75.19
242.83	67.19
243.064	73.19
243.298	84.19
243.531	92.19
243.765	91.19
243.998	92.19
244.232	92.19
244.465	88.19
244.699	93.19
244.932	70.19
245.166	83.19
245.399	77.19
245.633	85.19
245.866	74.19
246.099	79.19
246.333	76.19
246.566	82.19
246.8	76.19
247.033	86.19
247.266	77.19
247.5	72.19
247.733	69.19
247.966	72.19
248.2	82.19
248.433	76.19
248.666	86.19
248.899	87.19
249.133	92.19
249.366	86.19
249.599	114.19
249.832	76.19
250.066	84.19
250.299	76.19
250.532	95.19
250.765	85.19
250.998	86.19
251.231	65.19
251.465	69.19
251.698	78.19
251.931	81.19
252.164	74.19
252.397	89.19
252.63	88.19
252.863	89.19
253.096	78.19
253.329	90.19
253.562	96.19
253.795	89.19
254.028	80.19
254.261	82.19
254.494	85.19
254.727	76.19
254.96	77.19
255.193	90.19
255.426	88.19
255.659	86.19
255.892	80.19
256.124	78.19
256.357	73.19
256.59	95.19
256.823	86.19
257.056	82.19
257.289	75.19
257.521	89.19
257.754	82.19
257.987	70.19
258.22	86.19
258.452	76.19
258.685	93.19
258.918	85.19
259.151	87.19
259.383	84.19
259.616	81.19
259.849	76.19
260.081	74.19
260.314	83.19
260.547	80.19
260.779	99.19
261.012	81.19
261.244	70.19
261.477	92.19
261.71	86.19
261.942	122.19
262.175	111.19
262.407	102.19
262.64	80.19
262.872	76.19
263.105	81.19
263.337	90.19
263.57	83.19
263.802	86.19
264.035	84.19
264.267	78.19
264.499	75.19
264.732	88.19
264.964	77.19
265.197	83.19
265.429	95.19
265.661	94.19
265.894	88.19
266.126	88.19
266.358	80.19
266.591	78.19
266.823	88.19
267.055	82.19
267.287	82.19
267.52	84.19
267.752	86.19
267.984	97.19
268.216	94.19
268.448	85.19
268.681	93.19
268.913	81.19
269.145	97.19
269.377	79.19
269.609	85.19
269.841	91.19
270.073	99.19
270.306	74.19
270.538	76.19
270.77	86.19
271.002	88.19
271.234	84.19
271.466	99.19
271.698	76.19
271.93	89.19
272.162	94.19
272.394	80.19
272.626	87.19
272.858	80.19
273.09	92.19
273.322	73.19
273.553	97.19
273.785	88.19
274.017	86.19
274.249	86.19
274.481	82.19
274.713	93.19
274.945	88.19
275.176	76.19
275.408	81.19
275.64	90.19
275.872	97.19
276.104	89.19
276.335	100.19
276.567	110.19
276.799	94.19
277.031	80.19
277.262	89.19
277.494	88.19
277.726	90.19
277.957	75.19
278.189	86.19
278.421	95.19
278.652	93.19
278.884	91.19
279.115	87.19
279.347	85.19
279.579	91.19
279.81	89.19
280.042	103.19
280.273	81.19
280.505	84.19
280.736	75.19
280.968	82.19
281.199	78.19
281.431	75.19
281.662	84.19
281.894	96.19
282.125	104.19
282.356	125.19
282.588	140.19
282.819	124.19
283.051	83.19
283.282	83.19
283.513	81.19
283.745	91.19
283.976	76.19
284.207	94.19
284.439	101.19
284.67	93.19
284.901	83.19
285.132	91.19
285.364	73.19
285.595	88.19
285.826	93.19
286.057	100.19
286.288	84.19
286.52	81.19
286.751	89.19
286.982	94.19
287.213	79.19
287.444	84.19
287.675	80.19
287.906	101.19
288.138	86.19
288.369	109.19
288.6	100.19
288.831	78.19
289.062	77.19
289.293	92.19
289.524	80.19
289.755	82.19
289.986	88.19
290.217	91.19
290.448	95.19
290.679	89.19
290.91	100.19
291.141	96.19
291.371	91.19
291.602	98.19
291.833	87.19
292.064	104.19
292.295	87.19
292.526	83.19
292.757	83.19
292.987	84.19
293.218	91.19
293.449	90.19
293.68	97.19
293.91	92.19
294.141	86.19
294.372	93.19
294.603	91.19
294.833	83.19
295.064	94.19
295.295	86.19
295.525	93.19
295.756	109.19
295.987	110.19
296.217	161.19
296.448	140.19
296.679	74.19
296.909	92.19
297.14	79.19
297.37	91.19
297.601	91.19
297.831	96.19
298.062	98.19
298.292	89.19
298.523	103.19
298.753	91.19
298.984	84.19
299.214	78.19
299.445	89.19
299.675	102.19
299.905	102.19
300.136	91.19
300.366	80.19
300.597	78.19
300.827	94.19
301.057	101.19
301.288	96.19
301.518	100.19
301.748	97.19
301.979	106.19
302.209	90.19
302.439	96.19
302.669	86.19
302.9	93.19
303.13	88.19
303.36	112.19
303.59	105.19
303.82	102.19
304.051	89.19
304.281	85.19
304.511	97.19
304.741	83.19
304.971	82.19
305.201	57.19
305.431	87.19
305.661	93.19
305.891	95.19
306.121	97.19
306.352	105.19
306.582	101.19
306.812	87.19
307.042	92.19
307.272	83.19
307.502	84.19
307.731	85.19
307.961	109.19
308.191	99.19
308.421	85.19
308.651	94.19
308.881	83.19
309.111	82.19
309.341	97.19
309.571	89.19
309.8	124.19
310.03	97.19
310.26	99.19
310.49	109.19
310.72	103.19
310.949	90.19
311.179	97.19
311.409	95.19
311.639	108.19
311.868	96.19
312.098	93.19
312.328	79.19
312.557	90.19
312.787	90.19
313.017	94.19
313.246	89.19
313.476	81.19
313.706	91.19
313.935	97.19
314.165	98.19
314.394	99.19
314.624	98.19
314.853	77.19
315.083	85.19
315.312	93.19
315.542	82.19
315.771	83.19
316.001	87.19
316.23	93.19
316.46	97.19
316.689	89.19
316.919	106.19
317.148	91.19
317.377	91.19
317.607	101.19
317.836	93.19
318.065	95.19
318.295	78.19
318.524	89.19
318.753	93.19
318.983	94.19
319.212	97.19
319.441	111.19
319.67	115.19
319.9	105.19
320.129	98.19
320.358	95.19
320.587	113.19
320.816	85.19
321.046	100.19
321.275	89.19
321.504	96.19
321.733	107.19
321.962	110.19
322.191	110.19
322.42	91.19
322.649	98.19
322.878	101.19
323.108	113.19
323.337	126.19
323.566	131.19
323.795	159.19
324.024	221.19
324.253	397.19
324.482	848.19
324.71	1718.19
324.939	2354.19
325.168	861.19
325.397	254.19
325.626	150.19
325.855	141.19
326.084	127.19
326.313	121.19
326.542	151.19
326.77	253.19
326.999	471.19
327.228	964.19
327.457	1800.19
327.686	1390.19
327.914	355.19
328.143	211.19
328.372	149.19
328.6	123.19
328.829	107.19
329.058	114.19
329.287	138.19
329.515	98.19
329.744	100.19
329.972	96.19
330.201	111.19
330.43	129.19
330.658	120.19
330.887	135.19
331.115	112.19
331.344	96.19
331.572	85.19
331.801	104.19
332.03	102.19
332.258	104.19
332.486	92.19
332.715	78.19
332.943	93.19
333.172	100.19
333.4	95.19
333.629	112.19
333.857	108.19
334.085	97.19
334.314	93.19
334.542	102.19
334.771	90.19
334.999	112.19
335.227	99.19
335.455	95.19
335.684	99.19
335.912	94.19
336.14	96.19
336.369	110.19
336.597	114.19
336.825	93.19
337.053	102.19
337.281	107.19
337.51	87.19
337.738	96.19
337.966	93.19
338.194	93.19
338.422	97.19
338.65	98.19
338.878	98.19
339.106	93.19
339.334	89.19
339.562	89.19
339.79	89.19
340.018	91.19
340.246	97.19
340.474	105.19
340.702	88.19
340.93	87.19
341.158	89.19
341.386	96.19
341.614	93.19
341.842	91.19
342.07	100.19
342.298	82.19
342.526	92.19
342.754	97.19
342.981	90.19
343.209	81.19
343.437	105.19
343.665	94.19
343.893	95.19
344.12	92.19
344.348	90.19
344.576	76.19
344.804	93.19
345.031	108.19
345.259	110.19
345.487	94.19
345.714	90.19
345.942	98.19
346.17	80.19
346.397	92.19
346.625	94.19
346.853	97.19
347.08	84.19
347.308	79.19
347.535	90.19
347.763	105.19
347.99	109.19
348.218	103.19
348.445	100.19
348.673	78.19
348.9	95.19
349.128	98.19
349.355	101.19
349.583	97.19
349.81	86.19
350.037	100.19
350.265	77.19
350.492	86.19
350.72	102.19
350.947	98.19
351.174	98.19
351.402	108.19
351.629	103.19
351.856	97.19
352.083	99.19
352.311	120.19
352.538	100.19
352.765	100.19
352.992	125.19
353.22	104.19
353.447	102.19
353.674	96.19
353.901	107.19
354.128	109.19
354.355	82.19
354.583	97.19
354.81	108.19
355.037	113.19
355.264	100.19
355.491	94.19
355.718	103.19
355.945	99.19
356.172	87.19
356.399	95.19
356.626	102.19
356.853	90.19
357.08	83.19
357.307	88.19
357.534	98.19
357.761	103.19
357.988	84.19
358.215	103.19
358.441	108.19
358.668	110.19
358.895	93.19
359.122	90.19
359.349	98.19
359.576	101.19
359.802	93.19
360.029	101.19
360.256	105.19
360.483	90.19
360.709	96.19
360.936	109.19
361.163	105.19
361.39	92.19
361.616	92.19
361.843	87.19
362.07	91.19
362.296	86.19
362.523	92.19
362.749	87.19
362.976	90.19
363.203	76.19
363.429	92.19
363.656	92.19
363.882	79.19
364.109	105.19
364.335	92.19
364.562	88.19
364.788	99.19
365.015	92.19
365.241	92.19
365.468	108.19
365.694	120.19
365.92	91.19
366.147	89.19
366.373	89.19
366.599	91.19
366.826	98.19
367.052	80.19
367.278	83.19
367.505	102.19
367.731	92.19
367.957	78.19
368.184	105.19
368.41	104.19
368.636	100.19
368.862	122.19
369.089	93.19
369.315	98.19
369.541	82.19
369.767	88.19
369.993	96.19
370.219	88.19
370.445	79.19
370.672	88.19
370.898	95.19
371.124	92.19
371.35	95.19
371.576	96.19
371.802	81.19
372.028	74.19
372.254	91.19
372.48	80.19
372.706	96.19
372.932	95.19
373.158	100.19
373.384	92.19
373.61	78.19
373.835	93.19
374.061	100.19
374.287	88.19
374.513	91.19
374.739	86.19
374.965	89.19
375.191	85.19
375.416	91.19
375.642	106.19
375.868	96.19
376.094	78.19
376.319	97.19
376.545	81.19
376.771	95.19
376.997	94.19
377.222	100.19
377.448	96.19
377.674	89.19
377.899	90.19
378.125	99.19
378.35	95.19
378.576	93.19
378.802	99.19
379.027	96.19
379.253	90.19
379.478	87.19
379.704	97.19
379.929	94.19
380.155	112.19
380.38	119.19
380.606	96.19
380.831	95.19
381.057	109.19
381.282	76.19
381.507	99.19
381.733	105.19
381.958	95.19
382.184	100.19
382.409	104.19
382.634	120.19
382.86	112.19
383.085	120.19
383.31	110.19
383.535	103.19
383.761	104.19
383.986	97.19
384.211	124.19
384.436	114.19
384.662	105.19
384.887	104.19
385.112	118.19
385.337	111.19
385.562	107.19
385.787	115.19
386.013	117.19
386.238	126.19
386.463	120.19
386.688	114.19
386.913	127.19
387.138	122.19
387.363	101.19
387.588	107.19
387.813	123.19
388.038	111.19
388.263	118.19
388.488	118.19
388.713	103.19
388.938	99.19
389.163	104.19
389.387	84.19
389.612	89.19
389.837	93.19
390.062	95.19
390.287	89.19
390.512	94.19
390.736	90.19
390.961	103.19
391.186	92.19
391.411	94.19
391.636	81.19
391.86	85.19
392.085	84.19
392.31	104.19
392.534	74.19
392.759	88.19
392.984	76.19
393.208	100.19
393.433	120.19
393.658	114.19
393.882	100.19
394.107	96.19
394.331	89.19
394.556	97.19
394.78	91.19
395.005	93.19
395.229	89.19
395.454	91.19
395.678	88.19
395.903	95.19
396.127	81.19
396.352	82.19
396.576	70.19
396.801	101.19
397.025	110.19
397.249	89.19
397.474	103.19
397.698	91.19
397.922	91.19
398.147	87.19
398.371	92.19
398.595	88.19
398.82	80.19
399.044	80.19
399.268	106.19
399.492	94.19
399.717	101.19
399.941	84.19
400.165	89.19
400.389	92.19
400.613	80.19
400.837	85.19
401.062	100.19
401.286	85.19
401.51	102.19
401.734	97.19
401.958	93.19
402.182	118.19
402.406	151.19
402.63	116.19
402.854	97.19
403.078	75.19
403.302	74.19
403.526	95.19
403.75	74.19
403.974	90.19
404.198	81.19
404.422	92.19
404.645	83.19
404.869	88.19
405.093	90.19
405.317	95.19
405.541	96.19
405.765	104.19
405.988	125.19
406.212	183.19
406.436	237.19
406.66	140.19
406.883	109.19
407.107	84.19
407.331	90.19
407.555	94.19
407.778	103.19
408.002	88.19
408.226	86.19
408.449	78.19
408.673	91.19
408.896	80.19
409.12	91.19
409.344	106.19
409.567	81.19
409.791	96.19
410.014	105.19
410.238	105.19
410.461	100.19
410.685	90.19
410.908	95.19
411.132	108.19
411.355	97.19
411.578	78.19
411.802	94.19
412.025	80.19
412.249	76.19
412.472	90.19
412.695	94.19
412.919	90.19
413.142	86.19
413.365	101.19
413.589	98.19
413.812	79.19
414.035	80.19
414.258	99.19
414.482	77.19
414.705	79.19
414.928	108.19
415.151	92.19
415.374	94.19
415.597	95.19
415.821	91.19
416.044	96.19
416.267	88.19
416.49	79.19
416.713	95.19
416.936	87.19
417.159	88.19
417.382	89.19
417.605	90.19
417.828	80.19
418.051	83.19
418.274	96.19
418.497	97.19
418.72	93.19
418.943	98.19
419.166	83.19
419.389	77.19
419.611	106.19
419.834	87.19
420.057	91.19
420.28	80.19
420.503	98.19
420.726	100.19
420.948	85.19
421.171	93.19
421.394	102.19
421.617	77.19
421.839	85.19
422.062	87.19
422.285	90.19
422.507	91.19
422.73	109.19
422.953	110.19
423.175	99.19
423.398	92.19
423.621	92.19
423.843	84.19
424.066	92.19
424.288	86.19
424.511	93.19
424.733	97.19
424.956	94.19
425.178	95.19
425.401	97.19
425.623	93.19
425.846	91.19
426.068	93.19
426.291	96.19
426.513	86.19
426.735	82.19
426.958	96.19
427.18	109.19
427.402	126.19
427.625	165.19
427.847	124.19
428.069	107.19
428.292	99.19
428.514	86.19
428.736	102.19
428.958	99.19
429.181	83.19
429.403	92.19
429.625	80.19
429.847	93.19
430.069	97.19
430.292	95.19
430.514	74.19
430.736	86.19
430.958	94.19
431.18	77.19
431.402	86.19
431.624	73.19
431.846	83.19
432.068	90.19
432.29	96.19
432.512	101.19
432.734	75.19
432.956	94.19
433.178	101.19
433.4	86.19
433.622	81.19
433.844	89.19
434.066	76.19
434.287	97.19
434.509	90.19
434.731	106.19
434.953	92.19
435.175	92.19
435.397	91.19
435.618	82.19
435.84	95.19
436.062	115.19
436.284	101.19
436.505	103.19
436.727	93.19
436.949	86.19
437.17	92.19
437.392	93.19
437.614	98.19
437.835	104.19
438.057	134.19
438.278	92.19
438.5	105.19
438.721	124.19
438.943	110.19
439.165	89.19
439.386	87.19
439.608	95.19
439.829	109.19
440.05	132.19
440.272	152.19
440.493	98.19
440.715	91.19
440.936	91.19
441.158	83.19
441.379	86.19
441.6	84.19
441.822	103.19
442.043	92.19
442.264	98.19
442.486	104.19
442.707	98.19
442.928	111.19
443.149	128.19
443.371	138.19
443.592	94.19
443.813	107.19
444.034	114.19
444.255	93.19
444.476	97.19
444.698	92.19
444.919	103.19
445.14	124.19
445.361	123.19
445.582	107.19
445.803	130.19
446.024	130.19
446.245	117.19
446.466	118.19
446.687	104.19
446.908	95.19
447.129	97.19
447.35	85.19
447.571	110.19
447.792	88.19
448.013	92.19
448.234	113.19
448.455	113.19
448.675	107.19
448.896	109.19
449.117	110.19
449.338	109.19
449.559	121.19
449.779	126.19
450	100.19
450.221	90.19
450.442	85.19
450.662	97.19
450.883	94.19
451.104	116.19
451.324	96.19
451.545	85.19
451.766	81.19
451.986	79.19
452.207	96.19
452.428	102.19
452.648	105.19
452.869	96.19
453.089	115.19
453.31	99.19
453.53	97.19
453.751	100.19
453.971	106.19
454.192	102.19
454.412	97.19
454.633	90.19
454.853	105.19
455.073	92.19
455.294	102.19
455.514	100.19
455.734	94.19
455.955	90.19
456.175	76.19
456.395	96.19
456.616	90.19
456.836	71.19
457.056	83.19
457.276	102.19
457.497	91.19
457.717	70.19
457.937	93.19
458.157	86.19
458.377	96.19
458.598	105.19
458.818	150.19
459.038	158.19
459.258	112.19
459.478	120.19
459.698	90.19
459.918	96.19
460.138	82.19
460.358	85.19
460.578	91.19
460.798	95.19
461.018	91.19
461.238	92.19
461.458	77.19
461.678	83.19
461.898	79.19
462.118	73.19
462.338	91.19
462.558	92.19
462.777	68.19
462.997	84.19
463.217	91.19
463.437	86.19
463.657	83.19
463.876	76.19
464.096	85.19
464.316	81.19
464.536	87.19
464.755	100.19
464.975	98.19
465.195	178.19
465.414	153.19
465.634	95.19
465.854	91.19
466.073	75.19
466.293	81.19
466.512	90.19
466.732	86.19
466.951	100.19
467.171	85.19
467.391	96.19
467.61	94.19
467.829	103.19
468.049	104.19
468.268	93.19
468.488	72.19
468.707	88.19
468.927	88.19
469.146	84.19
469.365	79.19
469.585	86.19
469.804	104.19
470.023	92.19
470.243	95.19
470.462	99.19
470.681	112.19
470.901	98.19
471.12	88.19
471.339	88.19
471.558	85.19
471.777	89.19
471.997	75.19
472.216	92.19
472.435	113.19
472.654	106.19
472.873	100.19
473.092	99.19
473.311	103.19
473.53	105.19
473.749	93.19
473.968	104.19
474.187	96.19
474.406	100.19
474.625	92.19
474.844	79.19
475.063	89.19
475.282	97.19
475.501	98.19
475.72	93.19
475.939	92.19
476.158	84.19
476.377	90.19
476.596	105.19
476.814	93.19
477.033	94.19
477.252	94.19
477.471	86.19
477.69	81.19
477.908	89.19
478.127	94.19
478.346	91.19
478.564	97.19
478.783	95.19
479.002	105.19
479.22	94.19
479.439	89.19
479.658	102.19
479.876	90.19
480.095	90.19
480.313	86.19
480.532	85.19
480.751	89.19
480.969	98.19
481.188	124.19
481.406	111.19
481.624	98.19
481.843	95.19
482.061	100.19
482.28	94.19
482.498	98.19
482.717	81.19
482.935	91.19
483.153	82.19
483.372	88.19
483.59	88.19
483.808	101.19
484.027	92.19
484.245	97.19
484.463	91.19
484.681	76.19
484.9	95.19
485.118	104.19
485.336	92.19
485.554	104.19
485.772	92.19
485.99	124.19
486.209	107.19
486.427	102.19
486.645	105.19
486.863	102.19
487.081	100.19
487.299	110.19
487.517	106.19
487.735	99.19
487.953	89.19
488.171	93.19
488.389	92.19
488.607	93.19
488.825	91.19
489.043	91.19
489.261	99.19
489.479	89.19
489.696	77.19
489.914	87.19
490.132	90.19
490.35	98.19
490.568	93.19
490.786	86.19
491.003	92.19
491.221	96.19
491.439	86.19
491.657	84.19
491.874	98.19
492.092	101.19
492.31	94.19
492.527	86.19
492.745	97.19
492.963	99.19
493.18	94.19
493.398	81.19
493.615	96.19
493.833	108.19
494.05	90.19
494.268	79.19
494.485	92.19
494.703	93.19
494.92	78.19
495.138	80.19
495.355	97.19
495.573	86.19
495.79	103.19
496.008	105.19
496.225	79.19
496.442	89.19
496.66	81.19
496.877	86.19
497.094	96.19
497.312	93.19
497.529	99.19
497.746	92.19
497.963	101.19
498.181	81.19
498.398	92.19
498.615	105.19
498.832	122.19
499.049	94.19
499.267	90.19
499.484	90.19
499.701	85.19
499.918	104.19
500.135	90.19
500.352	85.19
500.569	87.19
500.786	92.19
501.003	92.19
501.22	92.19
501.437	103.19
501.654	99.19
501.871	105.19
502.088	97.19
502.305	92.19
502.522	92.19
502.739	94.19
502.956	92.19
503.172	94.19
503.389	103.19
503.606	106.19
503.823	91.19
504.04	107.19
504.256	93.19
504.473	91.19
504.69	108.19
504.907	93.19
505.123	87.19
505.34	99.19
505.557	76.19
505.773	85.19
505.99	105.19
506.207	94.19
506.423	90.19
506.64	78.19
506.856	105.19
507.073	106.19
507.289	90.19
507.506	98.19
507.722	110.19
507.939	117.19
508.155	99.19
508.372	85.19
508.588	96.19
508.805	93.19
509.021	95.19
509.238	104.19
509.454	92.19
509.67	85.19
509.887	110.19
510.103	129.19
510.319	236.19
510.536	845.19
510.752	2730.19
510.968	764.19
511.184	178.19
511.401	113.19
511.617	98.19
511.833	98.19
512.049	102.19
512.265	94.19
512.481	106.19
512.698	96.19
512.914	100.19
513.13	101.19
513.346	99.19
513.562	105.19
513.778	101.19
513.994	92.19
514.21	108.19
514.426	120.19
514.642	129.19
514.858	123.19
515.074	161.19
515.29	466.19
