Data from Circ_2008_H10_HRD10591_00067.txt Node
Date: Wed Jan 03 10:17:09 EST 2024
User: Yrep
Spectrometer: HR+D1059
Trigger mode: 1
Integration Time (sec): 1.000000E-1
Scans to average: 1
Electric dark correction enabled: true
Nonlinearity correction enabled: false
Boxcar width: 0
XAxis mode: Wavelengths
Number of Pixels in Spectrum: 2048
>>>>>Begin Spectral Data<<<<<
223.165	-3.38
223.4	-3.38
223.635	-3.38
223.869	-8.38
224.104	-15.38
224.338	-18.38
224.573	-22.38
224.808	-10.38
225.042	-9.38
225.277	-0.38
225.511	5.62
225.746	4.62
225.98	8.62
226.215	16.62
226.449	0.62
226.683	9.62
226.918	23.62
227.152	18.62
227.387	46.62
227.621	28.62
227.856	42.62
228.09	40.62
228.324	50.62
228.559	67.62
228.793	67.62
229.027	43.62
229.262	76.62
229.496	66.62
229.73	72.62
229.964	83.62
230.199	84.62
230.433	81.62
230.667	72.62
230.901	81.62
231.136	61.62
231.37	69.62
231.604	78.62
231.838	85.62
232.072	84.62
232.306	82.62
232.541	79.62
232.775	79.62
233.009	92.62
233.243	69.62
233.477	74.62
233.711	81.62
233.945	83.62
234.179	72.62
234.413	69.62
234.647	88.62
234.881	87.62
235.115	82.62
235.349	77.62
235.583	76.62
235.817	80.62
236.051	70.62
236.285	75.62
236.519	76.62
236.753	92.62
236.987	80.62
237.221	77.62
237.455	90.62
237.689	80.62
237.922	75.62
238.156	78.62
238.39	75.62
238.624	62.62
238.858	74.62
239.091	77.62
239.325	86.62
239.559	74.62
239.793	79.62
240.027	71.62
240.26	73.62
240.494	84.62
240.728	82.62
240.961	65.62
241.195	71.62
241.429	73.62
241.662	78.62
241.896	86.62
242.13	87.62
242.363	68.62
242.597	77.62
242.83	73.62
243.064	66.62
243.298	72.62
243.531	61.62
243.765	78.62
243.998	92.62
244.232	82.62
244.465	81.62
244.699	95.62
244.932	82.62
245.166	64.62
245.399	69.62
245.633	66.62
245.866	58.62
246.099	72.62
246.333	84.62
246.566	78.62
246.8	94.62
247.033	77.62
247.266	87.62
247.5	64.62
247.733	63.62
247.966	86.62
248.2	84.62
248.433	79.62
248.666	79.62
248.899	83.62
249.133	94.62
249.366	83.62
249.599	90.62
249.832	81.62
250.066	82.62
250.299	76.62
250.532	88.62
250.765	86.62
250.998	80.62
251.231	68.62
251.465	80.62
251.698	73.62
251.931	75.62
252.164	82.62
252.397	83.62
252.63	82.62
252.863	72.62
253.096	73.62
253.329	82.62
253.562	70.62
253.795	71.62
254.028	79.62
254.261	72.62
254.494	83.62
254.727	81.62
254.96	92.62
255.193	84.62
255.426	75.62
255.659	64.62
255.892	76.62
256.124	83.62
256.357	74.62
256.59	70.62
256.823	77.62
257.056	81.62
257.289	77.62
257.521	74.62
257.754	83.62
257.987	83.62
258.22	90.62
258.452	83.62
258.685	83.62
258.918	82.62
259.151	86.62
259.383	79.62
259.616	79.62
259.849	81.62
260.081	92.62
260.314	80.62
260.547	99.62
260.779	92.62
261.012	84.62
261.244	89.62
261.477	89.62
261.71	88.62
261.942	105.62
262.175	122.62
262.407	93.62
262.64	70.62
262.872	76.62
263.105	78.62
263.337	66.62
263.57	78.62
263.802	89.62
264.035	67.62
264.267	77.62
264.499	86.62
264.732	82.62
264.964	81.62
265.197	81.62
265.429	78.62
265.661	77.62
265.894	88.62
266.126	79.62
266.358	66.62
266.591	83.62
266.823	88.62
267.055	86.62
267.287	70.62
267.52	74.62
267.752	95.62
267.984	82.62
268.216	97.62
268.448	82.62
268.681	97.62
268.913	80.62
269.145	67.62
269.377	80.62
269.609	89.62
269.841	94.62
270.073	84.62
270.306	87.62
270.538	83.62
270.77	71.62
271.002	90.62
271.234	80.62
271.466	91.62
271.698	88.62
271.93	79.62
272.162	71.62
272.394	89.62
272.626	86.62
272.858	88.62
273.09	77.62
273.322	82.62
273.553	88.62
273.785	92.62
274.017	92.62
274.249	64.62
274.481	88.62
274.713	82.62
274.945	101.62
275.176	89.62
275.408	84.62
275.64	78.62
275.872	92.62
276.104	69.62
276.335	103.62
276.567	104.62
276.799	111.62
277.031	98.62
277.262	87.62
277.494	71.62
277.726	82.62
277.957	103.62
278.189	85.62
278.421	85.62
278.652	79.62
278.884	86.62
279.115	98.62
279.347	102.62
279.579	82.62
279.81	92.62
280.042	89.62
280.273	93.62
280.505	87.62
280.736	78.62
280.968	88.62
281.199	80.62
281.431	87.62
281.662	78.62
281.894	80.62
282.125	112.62
282.356	126.62
282.588	161.62
282.819	102.62
283.051	90.62
283.282	80.62
283.513	94.62
283.745	76.62
283.976	81.62
284.207	89.62
284.439	81.62
284.67	92.62
284.901	91.62
285.132	66.62
285.364	91.62
285.595	90.62
285.826	96.62
286.057	91.62
286.288	88.62
286.52	91.62
286.751	74.62
286.982	70.62
287.213	85.62
287.444	94.62
287.675	91.62
287.906	97.62
288.138	91.62
288.369	93.62
288.6	96.62
288.831	98.62
289.062	86.62
289.293	89.62
289.524	83.62
289.755	89.62
289.986	82.62
290.217	80.62
290.448	80.62
290.679	95.62
290.91	89.62
291.141	84.62
291.371	82.62
291.602	88.62
291.833	77.62
292.064	89.62
292.295	88.62
292.526	92.62
292.757	83.62
292.987	82.62
293.218	74.62
293.449	96.62
293.68	91.62
293.91	86.62
294.141	90.62
294.372	105.62
294.603	83.62
294.833	86.62
295.064	79.62
295.295	82.62
295.525	83.62
295.756	108.62
295.987	121.62
296.217	153.62
296.448	143.62
296.679	94.62
296.909	83.62
297.14	87.62
297.37	94.62
297.601	86.62
297.831	101.62
298.062	85.62
298.292	97.62
298.523	91.62
298.753	82.62
298.984	73.62
299.214	91.62
299.445	95.62
299.675	96.62
299.905	94.62
300.136	84.62
300.366	81.62
300.597	88.62
300.827	98.62
301.057	100.62
301.288	106.62
301.518	100.62
301.748	90.62
301.979	85.62
302.209	87.62
302.439	99.62
302.669	86.62
302.9	87.62
303.13	106.62
303.36	97.62
303.59	105.62
303.82	95.62
304.051	106.62
304.281	80.62
304.511	84.62
304.741	91.62
304.971	92.62
305.201	90.62
305.431	62.62
305.661	88.62
305.891	82.62
306.121	90.62
306.352	105.62
306.582	90.62
306.812	99.62
307.042	98.62
307.272	88.62
307.502	98.62
307.731	87.62
307.961	95.62
308.191	81.62
308.421	81.62
308.651	103.62
308.881	92.62
309.111	96.62
309.341	109.62
309.571	81.62
309.8	85.62
310.03	102.62
310.26	92.62
310.49	89.62
310.72	88.62
310.949	99.62
311.179	91.62
311.409	95.62
311.639	99.62
311.868	91.62
312.098	83.62
312.328	99.62
312.557	100.62
312.787	105.62
313.017	99.62
313.246	91.62
313.476	83.62
313.706	91.62
313.935	90.62
314.165	110.62
314.394	93.62
314.624	81.62
314.853	95.62
315.083	87.62
315.312	93.62
315.542	81.62
315.771	78.62
316.001	82.62
316.23	103.62
316.46	93.62
316.689	87.62
316.919	97.62
317.148	102.62
317.377	80.62
317.607	101.62
317.836	92.62
318.065	94.62
318.295	100.62
318.524	87.62
318.753	87.62
318.983	104.62
319.212	99.62
319.441	94.62
319.67	96.62
319.9	90.62
320.129	91.62
320.358	96.62
320.587	94.62
320.816	87.62
321.046	96.62
321.275	100.62
321.504	100.62
321.733	95.62
321.962	112.62
322.191	99.62
322.42	108.62
322.649	114.62
322.878	100.62
323.108	102.62
323.337	113.62
323.566	121.62
323.795	154.62
324.024	184.62
324.253	350.62
324.482	731.62
324.71	1502.62
324.939	1968.62
325.168	746.62
325.397	230.62
325.626	137.62
325.855	118.62
326.084	123.62
326.313	141.62
326.542	151.62
326.77	206.62
326.999	416.62
327.228	806.62
327.457	1490.62
327.686	1185.62
327.914	352.62
328.143	206.62
328.372	184.62
328.6	145.62
328.829	125.62
329.058	121.62
329.287	120.62
329.515	104.62
329.744	105.62
329.972	124.62
330.201	145.62
330.43	181.62
330.658	152.62
330.887	151.62
331.115	125.62
331.344	102.62
331.572	109.62
331.801	110.62
332.03	103.62
332.258	83.62
332.486	81.62
332.715	80.62
332.943	94.62
333.172	96.62
333.4	109.62
333.629	108.62
333.857	122.62
334.085	134.62
334.314	153.62
334.542	213.62
334.771	199.62
334.999	114.62
335.227	85.62
335.455	83.62
335.684	110.62
335.912	78.62
336.14	90.62
336.369	90.62
336.597	106.62
336.825	92.62
337.053	96.62
337.281	90.62
337.51	89.62
337.738	87.62
337.966	79.62
338.194	97.62
338.422	88.62
338.65	86.62
338.878	107.62
339.106	92.62
339.334	78.62
339.562	91.62
339.79	93.62
340.018	94.62
340.246	91.62
340.474	102.62
340.702	86.62
340.93	91.62
341.158	95.62
341.386	86.62
341.614	100.62
341.842	97.62
342.07	84.62
342.298	100.62
342.526	87.62
342.754	94.62
342.981	96.62
343.209	100.62
343.437	101.62
343.665	97.62
343.893	106.62
344.12	89.62
344.348	97.62
344.576	74.62
344.804	79.62
345.031	97.62
345.259	94.62
345.487	99.62
345.714	87.62
345.942	90.62
346.17	113.62
346.397	84.62
346.625	104.62
346.853	88.62
347.08	99.62
347.308	98.62
347.535	111.62
347.763	93.62
347.99	91.62
348.218	104.62
348.445	101.62
348.673	99.62
348.9	88.62
349.128	95.62
349.355	89.62
349.583	102.62
349.81	87.62
350.037	105.62
350.265	80.62
350.492	85.62
350.72	92.62
350.947	102.62
351.174	103.62
351.402	109.62
351.629	96.62
351.856	93.62
352.083	107.62
352.311	110.62
352.538	105.62
352.765	108.62
352.992	107.62
353.22	94.62
353.447	98.62
353.674	101.62
353.901	86.62
354.128	92.62
354.355	88.62
354.583	106.62
354.81	93.62
355.037	89.62
355.264	90.62
355.491	90.62
355.718	89.62
355.945	93.62
356.172	94.62
356.399	86.62
356.626	90.62
356.853	94.62
357.08	89.62
357.307	89.62
357.534	91.62
357.761	80.62
357.988	102.62
358.215	100.62
358.441	97.62
358.668	79.62
358.895	80.62
359.122	83.62
359.349	93.62
359.576	108.62
359.802	106.62
360.029	111.62
360.256	106.62
360.483	100.62
360.709	93.62
360.936	77.62
361.163	93.62
361.39	96.62
361.616	93.62
361.843	88.62
362.07	77.62
362.296	80.62
362.523	85.62
362.749	91.62
362.976	79.62
363.203	87.62
363.429	88.62
363.656	85.62
363.882	74.62
364.109	92.62
364.335	76.62
364.562	72.62
364.788	83.62
365.015	93.62
365.241	104.62
365.468	115.62
365.694	122.62
365.92	79.62
366.147	80.62
366.373	69.62
366.599	90.62
366.826	87.62
367.052	99.62
367.278	86.62
367.505	101.62
367.731	92.62
367.957	97.62
368.184	82.62
368.41	71.62
368.636	120.62
368.862	124.62
369.089	104.62
369.315	87.62
369.541	75.62
369.767	86.62
369.993	85.62
370.219	83.62
370.445	86.62
370.672	81.62
370.898	83.62
371.124	86.62
371.35	93.62
371.576	83.62
371.802	83.62
372.028	86.62
372.254	84.62
372.48	75.62
372.706	99.62
372.932	91.62
373.158	76.62
373.384	90.62
373.61	94.62
373.835	93.62
374.061	76.62
374.287	90.62
374.513	89.62
374.739	96.62
374.965	86.62
375.191	83.62
375.416	83.62
375.642	94.62
375.868	96.62
376.094	75.62
376.319	83.62
376.545	106.62
376.771	75.62
376.997	93.62
377.222	101.62
377.448	98.62
377.674	90.62
377.899	83.62
378.125	81.62
378.35	104.62
378.576	86.62
378.802	90.62
379.027	88.62
379.253	97.62
379.478	85.62
379.704	90.62
379.929	94.62
380.155	101.62
380.38	86.62
380.606	81.62
380.831	95.62
381.057	95.62
381.282	89.62
381.507	99.62
381.733	101.62
381.958	108.62
382.184	109.62
382.409	100.62
382.634	105.62
382.86	91.62
383.085	96.62
383.31	100.62
383.535	103.62
383.761	90.62
383.986	87.62
384.211	83.62
384.436	96.62
384.662	95.62
384.887	96.62
385.112	116.62
385.337	114.62
385.562	93.62
385.787	92.62
386.013	113.62
386.238	117.62
386.463	105.62
386.688	102.62
386.913	117.62
387.138	105.62
387.363	92.62
387.588	92.62
387.813	115.62
388.038	96.62
388.263	103.62
388.488	102.62
388.713	94.62
388.938	91.62
389.163	85.62
389.387	97.62
389.612	87.62
389.837	84.62
390.062	109.62
390.287	101.62
390.512	83.62
390.736	96.62
390.961	92.62
391.186	86.62
391.411	98.62
391.636	88.62
391.86	75.62
392.085	101.62
392.31	80.62
392.534	80.62
392.759	79.62
392.984	83.62
393.208	87.62
393.433	80.62
393.658	85.62
393.882	82.62
394.107	85.62
394.331	91.62
394.556	91.62
394.78	78.62
395.005	74.62
395.229	78.62
395.454	103.62
395.678	86.62
395.903	84.62
396.127	82.62
396.352	95.62
396.576	103.62
396.801	90.62
397.025	97.62
397.249	80.62
397.474	80.62
397.698	91.62
397.922	101.62
398.147	88.62
398.371	95.62
398.595	91.62
398.82	78.62
399.044	81.62
399.268	81.62
399.492	73.62
399.717	73.62
399.941	100.62
400.165	90.62
400.389	95.62
400.613	89.62
400.837	91.62
401.062	83.62
401.286	81.62
401.51	69.62
401.734	90.62
401.958	101.62
402.182	143.62
402.406	173.62
402.63	141.62
402.854	93.62
403.078	82.62
403.302	94.62
403.526	94.62
403.75	88.62
403.974	86.62
404.198	82.62
404.422	89.62
404.645	90.62
404.869	78.62
405.093	82.62
405.317	90.62
405.541	88.62
405.765	99.62
405.988	134.62
406.212	177.62
406.436	263.62
406.66	162.62
406.883	97.62
407.107	82.62
407.331	98.62
407.555	107.62
407.778	96.62
408.002	109.62
408.226	110.62
408.449	85.62
408.673	87.62
408.896	78.62
409.12	75.62
409.344	93.62
409.567	100.62
409.791	83.62
410.014	102.62
410.238	82.62
410.461	79.62
410.685	97.62
410.908	89.62
411.132	98.62
411.355	101.62
411.578	90.62
411.802	73.62
412.025	79.62
412.249	95.62
412.472	81.62
412.695	106.62
412.919	83.62
413.142	94.62
413.365	82.62
413.589	98.62
413.812	85.62
414.035	97.62
414.258	83.62
414.482	94.62
414.705	94.62
414.928	78.62
415.151	84.62
415.374	96.62
415.597	89.62
415.821	80.62
416.044	97.62
416.267	96.62
416.49	79.62
416.713	90.62
416.936	87.62
417.159	94.62
417.382	98.62
417.605	88.62
417.828	83.62
418.051	73.62
418.274	98.62
418.497	71.62
418.72	93.62
418.943	81.62
419.166	103.62
419.389	90.62
419.611	86.62
419.834	86.62
420.057	80.62
420.28	93.62
420.503	86.62
420.726	85.62
420.948	88.62
421.171	96.62
421.394	91.62
421.617	79.62
421.839	76.62
422.062	88.62
422.285	98.62
422.507	103.62
422.73	83.62
422.953	104.62
423.175	101.62
423.398	80.62
423.621	72.62
423.843	83.62
424.066	86.62
424.288	83.62
424.511	79.62
424.733	87.62
424.956	92.62
425.178	98.62
425.401	102.62
425.623	95.62
425.846	83.62
426.068	83.62
426.291	90.62
426.513	87.62
426.735	91.62
426.958	105.62
427.18	93.62
427.402	126.62
427.625	168.62
427.847	122.62
428.069	120.62
428.292	90.62
428.514	79.62
428.736	91.62
428.958	86.62
429.181	85.62
429.403	77.62
429.625	81.62
429.847	97.62
430.069	89.62
430.292	85.62
430.514	82.62
430.736	100.62
430.958	93.62
431.18	97.62
431.402	93.62
431.624	78.62
431.846	80.62
432.068	88.62
432.29	70.62
432.512	78.62
432.734	81.62
432.956	99.62
433.178	96.62
433.4	86.62
433.622	105.62
433.844	99.62
434.066	91.62
434.287	80.62
434.509	87.62
434.731	93.62
434.953	90.62
435.175	78.62
435.397	97.62
435.618	80.62
435.84	106.62
436.062	114.62
436.284	90.62
436.505	88.62
436.727	83.62
436.949	90.62
437.17	84.62
437.392	99.62
437.614	91.62
437.835	110.62
438.057	108.62
438.278	102.62
438.5	94.62
438.721	104.62
438.943	99.62
439.165	74.62
439.386	86.62
439.608	86.62
439.829	83.62
440.05	122.62
440.272	126.62
440.493	98.62
440.715	77.62
440.936	98.62
441.158	90.62
441.379	75.62
441.6	96.62
441.822	89.62
442.043	91.62
442.264	109.62
442.486	97.62
442.707	95.62
442.928	103.62
443.149	141.62
443.371	121.62
443.592	105.62
443.813	101.62
444.034	90.62
444.255	89.62
444.476	93.62
444.698	79.62
444.919	78.62
445.14	116.62
445.361	91.62
445.582	111.62
445.803	132.62
446.024	138.62
446.245	124.62
446.466	104.62
446.687	75.62
446.908	76.62
447.129	85.62
447.35	84.62
447.571	103.62
447.792	96.62
448.013	104.62
448.234	97.62
448.455	103.62
448.675	98.62
448.896	115.62
449.117	99.62
449.338	101.62
449.559	102.62
449.779	114.62
450	106.62
450.221	95.62
450.442	90.62
450.662	90.62
450.883	112.62
451.104	115.62
451.324	93.62
451.545	88.62
451.766	88.62
451.986	69.62
452.207	88.62
452.428	93.62
452.648	85.62
452.869	106.62
453.089	114.62
453.31	110.62
453.53	100.62
453.751	80.62
453.971	102.62
454.192	109.62
454.412	93.62
454.633	91.62
454.853	77.62
455.073	78.62
455.294	85.62
455.514	91.62
455.734	93.62
455.955	97.62
456.175	77.62
456.395	87.62
456.616	77.62
456.836	90.62
457.056	80.62
457.276	94.62
457.497	88.62
457.717	108.62
457.937	87.62
458.157	89.62
458.377	94.62
458.598	102.62
458.818	127.62
459.038	173.62
459.258	117.62
459.478	100.62
459.698	99.62
459.918	95.62
460.138	90.62
460.358	93.62
460.578	87.62
460.798	81.62
461.018	102.62
461.238	73.62
461.458	85.62
461.678	84.62
461.898	83.62
462.118	70.62
462.338	76.62
462.558	84.62
462.777	81.62
462.997	97.62
463.217	82.62
463.437	83.62
463.657	96.62
463.876	77.62
464.096	89.62
464.316	86.62
464.536	94.62
464.755	91.62
464.975	106.62
465.195	172.62
465.414	163.62
465.634	92.62
465.854	96.62
466.073	96.62
466.293	84.62
466.512	79.62
466.732	86.62
466.951	83.62
467.171	86.62
467.391	90.62
467.61	91.62
467.829	115.62
468.049	132.62
468.268	125.62
468.488	90.62
468.707	85.62
468.927	77.62
469.146	105.62
469.365	79.62
469.585	72.62
469.804	94.62
470.023	91.62
470.243	87.62
470.462	103.62
470.681	105.62
470.901	97.62
471.12	93.62
471.339	94.62
471.558	91.62
471.777	90.62
471.997	94.62
472.216	174.62
472.435	273.62
472.654	125.62
472.873	83.62
473.092	91.62
473.311	83.62
473.53	75.62
473.749	85.62
473.968	97.62
474.187	98.62
474.406	91.62
474.625	81.62
474.844	80.62
475.063	85.62
475.282	98.62
475.501	80.62
475.72	92.62
475.939	92.62
476.158	80.62
476.377	81.62
476.596	102.62
476.814	86.62
477.033	92.62
477.252	93.62
477.471	104.62
477.69	82.62
477.908	81.62
478.127	86.62
478.346	83.62
478.564	71.62
478.783	100.62
479.002	94.62
479.22	81.62
479.439	110.62
479.658	113.62
479.876	95.62
480.095	93.62
480.313	93.62
480.532	94.62
480.751	119.62
480.969	184.62
481.188	432.62
481.406	306.62
481.624	103.62
481.843	92.62
482.061	90.62
482.28	88.62
482.498	88.62
482.717	83.62
482.935	94.62
483.153	89.62
483.372	81.62
483.59	69.62
483.808	84.62
484.027	74.62
484.245	85.62
484.463	88.62
484.681	98.62
484.9	92.62
485.118	76.62
485.336	96.62
485.554	102.62
485.772	87.62
485.99	108.62
486.209	103.62
486.427	98.62
486.645	95.62
486.863	108.62
487.081	84.62
487.299	89.62
487.517	92.62
487.735	90.62
487.953	90.62
488.171	80.62
488.389	97.62
488.607	90.62
488.825	89.62
489.043	90.62
489.261	92.62
489.479	81.62
489.696	102.62
489.914	91.62
490.132	93.62
490.35	92.62
490.568	84.62
490.786	91.62
491.003	86.62
491.221	87.62
491.439	94.62
491.657	92.62
491.874	82.62
492.092	90.62
492.31	90.62
492.527	95.62
492.745	88.62
492.963	94.62
493.18	99.62
493.398	90.62
493.615	86.62
493.833	89.62
494.05	94.62
494.268	83.62
494.485	82.62
494.703	102.62
494.92	87.62
495.138	102.62
495.355	88.62
495.573	91.62
495.79	80.62
496.008	76.62
496.225	92.62
496.442	83.62
496.66	74.62
496.877	81.62
497.094	90.62
497.312	82.62
497.529	104.62
497.746	83.62
497.963	97.62
498.181	95.62
498.398	86.62
498.615	99.62
498.832	114.62
499.049	82.62
499.267	87.62
499.484	97.62
499.701	104.62
499.918	92.62
500.135	91.62
500.352	85.62
500.569	101.62
500.786	100.62
501.003	89.62
501.22	97.62
501.437	92.62
501.654	97.62
501.871	103.62
502.088	99.62
502.305	84.62
502.522	89.62
502.739	97.62
502.956	74.62
503.172	82.62
503.389	99.62
503.606	118.62
503.823	94.62
504.04	73.62
504.256	94.62
504.473	89.62
504.69	98.62
504.907	102.62
505.123	91.62
505.34	86.62
505.557	73.62
505.773	84.62
505.99	80.62
506.207	90.62
506.423	84.62
506.64	85.62
506.856	66.62
507.073	92.62
507.289	81.62
507.506	106.62
507.722	95.62
507.939	120.62
508.155	81.62
508.372	99.62
508.588	96.62
508.805	90.62
509.021	92.62
509.238	89.62
509.454	92.62
509.67	93.62
509.887	120.62
510.103	129.62
510.319	232.62
510.536	847.62
510.752	2842.62
510.968	771.62
511.184	176.62
511.401	119.62
511.617	96.62
511.833	96.62
512.049	109.62
512.265	82.62
512.481	91.62
512.698	90.62
512.914	89.62
513.13	93.62
513.346	86.62
513.562	97.62
513.778	105.62
513.994	95.62
514.21	96.62
514.426	117.62
514.642	139.62
514.858	132.62
515.074	156.62
515.29	491.62
515.506	1766.62
515.721	660.62
515.937	182.62
516.153	113.62
