Data from Circ_2008_H10_HRD10591_00093.txt Node
Date: Wed Jan 03 10:17:14 EST 2024
User: Yrep
Spectrometer: HR+D1059
Trigger mode: 1
Integration Time (sec): 1.000000E-1
Scans to average: 1
Electric dark correction enabled: true
Nonlinearity correction enabled: false
Boxcar width: 0
XAxis mode: Wavelengths
Number of Pixels in Spectrum: 2048
>>>>>Begin Spectral Data<<<<<
223.165	-18.5
223.4	-18.5
223.635	-18.5
223.869	-18.5
224.104	-17.5
224.338	-2.5
224.573	-15.5
224.808	-22.5
225.042	-17.5
225.277	-8.5
225.511	-0.5
225.746	7.5
225.98	4.5
226.215	16.5
226.449	21.5
226.683	23.5
226.918	16.5
227.152	31.5
227.387	43.5
227.621	34.5
227.856	57.5
228.09	42.5
228.324	63.5
228.559	59.5
228.793	61.5
229.027	58.5
229.262	53.5
229.496	79.5
229.73	97.5
229.964	91.5
230.199	75.5
230.433	84.5
230.667	89.5
230.901	87.5
231.136	81.5
231.37	72.5
231.604	76.5
231.838	95.5
232.072	82.5
232.306	71.5
232.541	74.5
232.775	80.5
233.009	97.5
233.243	79.5
233.477	70.5
233.711	88.5
233.945	78.5
234.179	77.5
234.413	77.5
234.647	78.5
234.881	76.5
235.115	76.5
235.349	86.5
235.583	66.5
235.817	78.5
236.051	85.5
236.285	80.5
236.519	72.5
236.753	74.5
236.987	67.5
237.221	94.5
237.455	80.5
237.689	74.5
237.922	73.5
238.156	77.5
238.39	72.5
238.624	89.5
238.858	79.5
239.091	80.5
239.325	74.5
239.559	80.5
239.793	74.5
240.027	80.5
240.26	69.5
240.494	81.5
240.728	71.5
240.961	88.5
241.195	75.5
241.429	91.5
241.662	76.5
241.896	70.5
242.13	84.5
242.363	65.5
242.597	87.5
242.83	71.5
243.064	73.5
243.298	76.5
243.531	75.5
243.765	80.5
243.998	77.5
244.232	79.5
244.465	105.5
244.699	82.5
244.932	79.5
245.166	78.5
245.399	73.5
245.633	66.5
245.866	73.5
246.099	80.5
246.333	78.5
246.566	85.5
246.8	76.5
247.033	73.5
247.266	76.5
247.5	79.5
247.733	78.5
247.966	73.5
248.2	84.5
248.433	84.5
248.666	72.5
248.899	81.5
249.133	83.5
249.366	84.5
249.599	93.5
249.832	77.5
250.066	83.5
250.299	79.5
250.532	68.5
250.765	68.5
250.998	85.5
251.231	71.5
251.465	82.5
251.698	75.5
251.931	82.5
252.164	87.5
252.397	83.5
252.63	93.5
252.863	81.5
253.096	70.5
253.329	61.5
253.562	76.5
253.795	84.5
254.028	77.5
254.261	94.5
254.494	79.5
254.727	73.5
254.96	76.5
255.193	82.5
255.426	74.5
255.659	70.5
255.892	76.5
256.124	85.5
256.357	86.5
256.59	86.5
256.823	78.5
257.056	80.5
257.289	85.5
257.521	81.5
257.754	79.5
257.987	87.5
258.22	80.5
258.452	88.5
258.685	76.5
258.918	95.5
259.151	87.5
259.383	79.5
259.616	74.5
259.849	91.5
260.081	80.5
260.314	74.5
260.547	82.5
260.779	90.5
261.012	74.5
261.244	69.5
261.477	99.5
261.71	108.5
261.942	105.5
262.175	153.5
262.407	91.5
262.64	85.5
262.872	83.5
263.105	89.5
263.337	84.5
263.57	84.5
263.802	98.5
264.035	109.5
264.267	86.5
264.499	91.5
264.732	81.5
264.964	102.5
265.197	81.5
265.429	80.5
265.661	80.5
265.894	81.5
266.126	76.5
266.358	84.5
266.591	76.5
266.823	74.5
267.055	83.5
267.287	82.5
267.52	80.5
267.752	95.5
267.984	92.5
268.216	87.5
268.448	93.5
268.681	81.5
268.913	83.5
269.145	80.5
269.377	85.5
269.609	92.5
269.841	72.5
270.073	89.5
270.306	84.5
270.538	85.5
270.77	97.5
271.002	88.5
271.234	81.5
271.466	89.5
271.698	74.5
271.93	83.5
272.162	85.5
272.394	91.5
272.626	82.5
272.858	83.5
273.09	83.5
273.322	82.5
273.553	72.5
273.785	85.5
274.017	80.5
274.249	83.5
274.481	80.5
274.713	81.5
274.945	82.5
275.176	88.5
275.408	88.5
275.64	78.5
275.872	90.5
276.104	81.5
276.335	90.5
276.567	110.5
276.799	115.5
277.031	99.5
277.262	98.5
277.494	92.5
277.726	94.5
277.957	81.5
278.189	92.5
278.421	88.5
278.652	88.5
278.884	83.5
279.115	82.5
279.347	85.5
279.579	76.5
279.81	84.5
280.042	108.5
280.273	100.5
280.505	81.5
280.736	86.5
280.968	80.5
281.199	84.5
281.431	89.5
281.662	83.5
281.894	83.5
282.125	102.5
282.356	120.5
282.588	155.5
282.819	112.5
283.051	93.5
283.282	84.5
283.513	73.5
283.745	81.5
283.976	81.5
284.207	89.5
284.439	86.5
284.67	83.5
284.901	84.5
285.132	84.5
285.364	94.5
285.595	99.5
285.826	84.5
286.057	89.5
286.288	67.5
286.52	90.5
286.751	81.5
286.982	92.5
287.213	82.5
287.444	99.5
287.675	79.5
287.906	76.5
288.138	91.5
288.369	90.5
288.6	102.5
288.831	87.5
289.062	94.5
289.293	85.5
289.524	77.5
289.755	81.5
289.986	90.5
290.217	87.5
290.448	86.5
290.679	89.5
290.91	72.5
291.141	91.5
291.371	80.5
291.602	76.5
291.833	92.5
292.064	97.5
292.295	89.5
292.526	95.5
292.757	94.5
292.987	80.5
293.218	78.5
293.449	84.5
293.68	82.5
293.91	87.5
294.141	89.5
294.372	83.5
294.603	77.5
294.833	90.5
295.064	100.5
295.295	79.5
295.525	96.5
295.756	106.5
295.987	119.5
296.217	159.5
296.448	128.5
296.679	100.5
296.909	93.5
297.14	73.5
297.37	73.5
297.601	83.5
297.831	87.5
298.062	79.5
298.292	84.5
298.523	97.5
298.753	85.5
298.984	92.5
299.214	86.5
299.445	96.5
299.675	90.5
299.905	109.5
300.136	91.5
300.366	96.5
300.597	94.5
300.827	84.5
301.057	89.5
301.288	90.5
301.518	85.5
301.748	85.5
301.979	90.5
302.209	86.5
302.439	95.5
302.669	105.5
302.9	97.5
303.13	88.5
303.36	103.5
303.59	96.5
303.82	114.5
304.051	95.5
304.281	86.5
304.511	97.5
304.741	85.5
304.971	75.5
305.201	76.5
305.431	93.5
305.661	95.5
305.891	89.5
306.121	95.5
306.352	105.5
306.582	111.5
306.812	88.5
307.042	99.5
307.272	98.5
307.502	103.5
307.731	90.5
307.961	106.5
308.191	82.5
308.421	90.5
308.651	90.5
308.881	105.5
309.111	90.5
309.341	102.5
309.571	107.5
309.8	103.5
310.03	99.5
310.26	89.5
310.49	98.5
310.72	104.5
310.949	109.5
311.179	95.5
311.409	92.5
311.639	95.5
311.868	95.5
312.098	92.5
312.328	112.5
312.557	115.5
312.787	119.5
313.017	99.5
313.246	98.5
313.476	86.5
313.706	96.5
313.935	103.5
314.165	126.5
314.394	93.5
314.624	119.5
314.853	105.5
315.083	97.5
315.312	85.5
315.542	97.5
315.771	97.5
316.001	86.5
316.23	91.5
316.46	100.5
316.689	102.5
316.919	104.5
317.148	93.5
317.377	96.5
317.607	83.5
317.836	83.5
318.065	85.5
318.295	90.5
318.524	100.5
318.753	92.5
318.983	97.5
319.212	98.5
319.441	121.5
319.67	112.5
319.9	87.5
320.129	97.5
320.358	98.5
320.587	105.5
320.816	94.5
321.046	103.5
321.275	106.5
321.504	83.5
321.733	92.5
321.962	84.5
322.191	86.5
322.42	97.5
322.649	108.5
322.878	123.5
323.108	126.5
323.337	119.5
323.566	136.5
323.795	141.5
324.024	192.5
324.253	395.5
324.482	845.5
324.71	1714.5
324.939	2245.5
325.168	860.5
325.397	248.5
325.626	158.5
325.855	143.5
326.084	135.5
326.313	140.5
326.542	154.5
326.77	241.5
326.999	435.5
327.228	889.5
327.457	1592.5
327.686	1295.5
327.914	395.5
328.143	235.5
328.372	199.5
328.6	144.5
328.829	130.5
329.058	147.5
329.287	144.5
329.515	114.5
329.744	127.5
329.972	141.5
330.201	212.5
330.43	297.5
330.658	175.5
330.887	156.5
331.115	154.5
331.344	98.5
331.572	90.5
331.801	106.5
332.03	99.5
332.258	101.5
332.486	93.5
332.715	88.5
332.943	96.5
333.172	91.5
333.4	103.5
333.629	111.5
333.857	139.5
334.085	150.5
334.314	219.5
334.542	325.5
334.771	306.5
334.999	143.5
335.227	99.5
335.455	106.5
335.684	100.5
335.912	101.5
336.14	101.5
336.369	110.5
336.597	94.5
336.825	95.5
337.053	100.5
337.281	90.5
337.51	97.5
337.738	103.5
337.966	96.5
338.194	97.5
338.422	107.5
338.65	86.5
338.878	97.5
339.106	99.5
339.334	93.5
339.562	91.5
339.79	94.5
340.018	96.5
340.246	86.5
340.474	106.5
340.702	97.5
340.93	94.5
341.158	113.5
341.386	105.5
341.614	91.5
341.842	115.5
342.07	94.5
342.298	86.5
342.526	100.5
342.754	106.5
342.981	96.5
343.209	100.5
343.437	105.5
343.665	80.5
343.893	86.5
344.12	77.5
344.348	92.5
344.576	96.5
344.804	92.5
345.031	93.5
345.259	105.5
345.487	95.5
345.714	100.5
345.942	84.5
346.17	90.5
346.397	86.5
346.625	96.5
346.853	90.5
347.08	92.5
347.308	101.5
347.535	98.5
347.763	100.5
347.99	96.5
348.218	110.5
348.445	107.5
348.673	101.5
348.9	97.5
349.128	101.5
349.355	77.5
349.583	91.5
349.81	88.5
350.037	95.5
350.265	106.5
350.492	100.5
350.72	95.5
350.947	104.5
351.174	110.5
351.402	112.5
351.629	112.5
351.856	110.5
352.083	101.5
352.311	115.5
352.538	119.5
352.765	104.5
352.992	119.5
353.22	133.5
353.447	98.5
353.674	101.5
353.901	93.5
354.128	99.5
354.355	97.5
354.583	93.5
354.81	91.5
355.037	101.5
355.264	103.5
355.491	85.5
355.718	85.5
355.945	92.5
356.172	76.5
356.399	90.5
356.626	106.5
356.853	98.5
357.08	92.5
357.307	97.5
357.534	82.5
357.761	98.5
357.988	90.5
358.215	92.5
358.441	82.5
358.668	93.5
358.895	89.5
359.122	91.5
359.349	88.5
359.576	109.5
359.802	93.5
360.029	123.5
360.256	125.5
360.483	91.5
360.709	85.5
360.936	91.5
361.163	98.5
361.39	88.5
361.616	99.5
361.843	87.5
362.07	108.5
362.296	104.5
362.523	91.5
362.749	93.5
362.976	90.5
363.203	92.5
363.429	80.5
363.656	90.5
363.882	91.5
364.109	91.5
364.335	93.5
364.562	76.5
364.788	89.5
365.015	89.5
365.241	93.5
365.468	113.5
365.694	109.5
365.92	111.5
366.147	91.5
366.373	87.5
366.599	99.5
366.826	81.5
367.052	81.5
367.278	97.5
367.505	86.5
367.731	84.5
367.957	100.5
368.184	97.5
368.41	106.5
368.636	137.5
368.862	115.5
369.089	116.5
369.315	95.5
369.541	90.5
369.767	96.5
369.993	97.5
370.219	64.5
370.445	88.5
370.672	81.5
370.898	92.5
371.124	98.5
371.35	91.5
371.576	85.5
371.802	85.5
372.028	75.5
372.254	85.5
372.48	90.5
372.706	86.5
372.932	85.5
373.158	91.5
373.384	76.5
373.61	100.5
373.835	93.5
374.061	99.5
374.287	78.5
374.513	76.5
374.739	80.5
374.965	87.5
375.191	89.5
375.416	90.5
375.642	90.5
375.868	84.5
376.094	76.5
376.319	90.5
376.545	88.5
376.771	83.5
376.997	99.5
377.222	100.5
377.448	98.5
377.674	95.5
377.899	83.5
378.125	88.5
378.35	95.5
378.576	83.5
378.802	96.5
379.027	102.5
379.253	104.5
379.478	87.5
379.704	83.5
379.929	93.5
380.155	102.5
380.38	99.5
380.606	92.5
380.831	93.5
381.057	87.5
381.282	84.5
381.507	96.5
381.733	99.5
381.958	87.5
382.184	89.5
382.409	96.5
382.634	91.5
382.86	91.5
383.085	113.5
383.31	98.5
383.535	85.5
383.761	91.5
383.986	96.5
384.211	89.5
384.436	77.5
384.662	116.5
384.887	89.5
385.112	100.5
385.337	109.5
385.562	110.5
385.787	97.5
386.013	111.5
386.238	107.5
386.463	102.5
386.688	116.5
386.913	93.5
387.138	116.5
387.363	105.5
387.588	93.5
387.813	95.5
388.038	111.5
388.263	97.5
388.488	103.5
388.713	97.5
388.938	87.5
389.163	80.5
389.387	91.5
389.612	95.5
389.837	98.5
390.062	84.5
390.287	91.5
390.512	92.5
390.736	89.5
390.961	84.5
391.186	99.5
391.411	98.5
391.636	100.5
391.86	79.5
392.085	80.5
392.31	84.5
392.534	88.5
392.759	86.5
392.984	90.5
393.208	90.5
393.433	85.5
393.658	82.5
393.882	77.5
394.107	93.5
394.331	77.5
394.556	91.5
394.78	92.5
395.005	92.5
395.229	95.5
395.454	86.5
395.678	78.5
395.903	89.5
396.127	89.5
396.352	86.5
396.576	79.5
396.801	80.5
397.025	78.5
397.249	88.5
397.474	92.5
397.698	86.5
397.922	84.5
398.147	82.5
398.371	86.5
398.595	89.5
398.82	95.5
399.044	72.5
399.268	81.5
399.492	85.5
399.717	82.5
399.941	93.5
400.165	97.5
400.389	88.5
400.613	84.5
400.837	88.5
401.062	93.5
401.286	100.5
401.51	77.5
401.734	95.5
401.958	100.5
402.182	140.5
402.406	190.5
402.63	146.5
402.854	92.5
403.078	89.5
403.302	72.5
403.526	82.5
403.75	108.5
403.974	89.5
404.198	77.5
404.422	85.5
404.645	85.5
404.869	93.5
405.093	110.5
405.317	101.5
405.541	122.5
405.765	109.5
405.988	126.5
406.212	200.5
406.436	267.5
406.66	181.5
406.883	84.5
407.107	79.5
407.331	95.5
407.555	102.5
407.778	99.5
408.002	93.5
408.226	92.5
408.449	98.5
408.673	100.5
408.896	99.5
409.12	100.5
409.344	76.5
409.567	86.5
409.791	83.5
410.014	95.5
410.238	87.5
410.461	102.5
410.685	93.5
410.908	108.5
411.132	121.5
411.355	107.5
411.578	89.5
411.802	86.5
412.025	93.5
412.249	101.5
412.472	82.5
412.695	96.5
412.919	98.5
413.142	81.5
413.365	98.5
413.589	90.5
413.812	87.5
414.035	92.5
414.258	89.5
414.482	89.5
414.705	89.5
414.928	84.5
415.151	89.5
415.374	94.5
415.597	90.5
415.821	95.5
416.044	85.5
416.267	94.5
416.49	90.5
416.713	95.5
416.936	97.5
417.159	90.5
417.382	83.5
417.605	92.5
417.828	101.5
418.051	100.5
418.274	82.5
418.497	83.5
418.72	83.5
418.943	87.5
419.166	88.5
419.389	97.5
419.611	79.5
419.834	91.5
420.057	89.5
420.28	85.5
420.503	85.5
420.726	81.5
420.948	86.5
421.171	86.5
421.394	96.5
421.617	95.5
421.839	83.5
422.062	86.5
422.285	84.5
422.507	80.5
422.73	92.5
422.953	104.5
423.175	98.5
423.398	101.5
423.621	83.5
423.843	91.5
424.066	78.5
424.288	76.5
424.511	92.5
424.733	112.5
424.956	113.5
425.178	99.5
425.401	103.5
425.623	85.5
425.846	94.5
426.068	88.5
426.291	92.5
426.513	96.5
426.735	105.5
426.958	99.5
427.18	106.5
427.402	131.5
427.625	180.5
427.847	155.5
428.069	123.5
428.292	100.5
428.514	73.5
428.736	89.5
428.958	82.5
429.181	90.5
429.403	84.5
429.625	79.5
429.847	79.5
430.069	102.5
430.292	109.5
430.514	78.5
430.736	79.5
430.958	85.5
431.18	91.5
431.402	89.5
431.624	90.5
431.846	81.5
432.068	66.5
432.29	89.5
432.512	93.5
432.734	83.5
432.956	105.5
433.178	108.5
433.4	100.5
433.622	95.5
433.844	85.5
434.066	99.5
434.287	91.5
434.509	91.5
434.731	71.5
434.953	85.5
435.175	74.5
435.397	111.5
435.618	94.5
435.84	114.5
436.062	120.5
436.284	127.5
436.505	100.5
436.727	103.5
436.949	85.5
437.17	96.5
437.392	97.5
437.614	96.5
437.835	111.5
438.057	128.5
438.278	107.5
438.5	98.5
438.721	123.5
438.943	105.5
439.165	90.5
439.386	104.5
439.608	96.5
439.829	88.5
440.05	114.5
440.272	143.5
440.493	103.5
440.715	93.5
440.936	91.5
441.158	98.5
441.379	99.5
441.6	84.5
441.822	96.5
442.043	113.5
442.264	100.5
442.486	96.5
442.707	105.5
442.928	114.5
443.149	136.5
443.371	144.5
443.592	110.5
443.813	107.5
444.034	104.5
444.255	91.5
444.476	84.5
444.698	91.5
444.919	87.5
445.14	124.5
445.361	116.5
445.582	105.5
445.803	146.5
446.024	135.5
446.245	133.5
446.466	115.5
446.687	98.5
446.908	111.5
447.129	91.5
447.35	91.5
447.571	98.5
447.792	96.5
448.013	107.5
448.234	103.5
448.455	97.5
448.675	99.5
448.896	108.5
449.117	94.5
449.338	97.5
449.559	125.5
449.779	127.5
450	96.5
450.221	103.5
450.442	83.5
450.662	92.5
450.883	116.5
451.104	115.5
451.324	103.5
451.545	96.5
451.766	84.5
451.986	81.5
452.207	85.5
452.428	88.5
452.648	106.5
452.869	121.5
453.089	121.5
453.31	129.5
453.53	97.5
453.751	96.5
453.971	100.5
454.192	109.5
454.412	94.5
454.633	94.5
454.853	85.5
455.073	77.5
455.294	85.5
455.514	94.5
455.734	96.5
455.955	86.5
456.175	88.5
456.395	86.5
456.616	90.5
456.836	72.5
457.056	76.5
457.276	76.5
457.497	96.5
457.717	74.5
457.937	84.5
458.157	83.5
458.377	83.5
458.598	106.5
458.818	168.5
459.038	180.5
459.258	127.5
459.478	103.5
459.698	78.5
459.918	80.5
460.138	89.5
460.358	95.5
460.578	85.5
460.798	79.5
461.018	91.5
461.238	94.5
461.458	90.5
461.678	86.5
461.898	73.5
462.118	99.5
462.338	93.5
462.558	83.5
462.777	85.5
462.997	79.5
463.217	82.5
463.437	76.5
463.657	88.5
463.876	85.5
464.096	92.5
464.316	92.5
464.536	93.5
464.755	105.5
464.975	111.5
465.195	180.5
465.414	211.5
465.634	103.5
465.854	90.5
466.073	81.5
466.293	87.5
466.512	90.5
466.732	94.5
466.951	88.5
467.171	92.5
467.391	99.5
467.61	116.5
467.829	117.5
468.049	154.5
468.268	195.5
468.488	104.5
468.707	81.5
468.927	94.5
469.146	79.5
469.365	92.5
469.585	93.5
469.804	100.5
470.023	96.5
470.243	101.5
470.462	114.5
470.681	123.5
470.901	105.5
471.12	80.5
471.339	80.5
471.558	87.5
471.777	92.5
471.997	115.5
472.216	236.5
472.435	432.5
472.654	161.5
472.873	100.5
473.092	87.5
473.311	87.5
473.53	86.5
473.749	99.5
473.968	91.5
474.187	99.5
474.406	109.5
474.625	96.5
474.844	75.5
475.063	81.5
475.282	92.5
475.501	85.5
475.72	92.5
475.939	83.5
476.158	82.5
476.377	83.5
476.596	89.5
476.814	89.5
477.033	87.5
477.252	102.5
477.471	90.5
477.69	97.5
477.908	79.5
478.127	92.5
478.346	111.5
478.564	100.5
478.783	97.5
479.002	98.5
479.22	92.5
479.439	93.5
479.658	102.5
479.876	93.5
480.095	96.5
480.313	100.5
480.532	104.5
480.751	119.5
480.969	247.5
481.188	732.5
481.406	483.5
481.624	131.5
481.843	98.5
482.061	91.5
482.28	96.5
482.498	77.5
482.717	82.5
482.935	101.5
483.153	89.5
483.372	90.5
483.59	95.5
483.808	94.5
484.027	93.5
484.245	88.5
484.463	114.5
484.681	90.5
484.9	94.5
485.118	112.5
485.336	97.5
485.554	111.5
485.772	96.5
485.99	100.5
486.209	95.5
486.427	104.5
486.645	87.5
486.863	114.5
487.081	110.5
487.299	96.5
487.517	109.5
487.735	85.5
487.953	93.5
488.171	89.5
488.389	99.5
488.607	104.5
488.825	96.5
489.043	87.5
489.261	81.5
489.479	94.5
489.696	83.5
489.914	82.5
490.132	100.5
490.35	98.5
490.568	89.5
490.786	94.5
491.003	83.5
491.221	75.5
491.439	95.5
491.657	101.5
491.874	109.5
492.092	95.5
492.31	95.5
492.527	89.5
492.745	76.5
492.963	88.5
493.18	85.5
493.398	86.5
493.615	90.5
493.833	95.5
494.05	90.5
494.268	96.5
494.485	95.5
494.703	100.5
494.92	81.5
495.138	88.5
495.355	83.5
495.573	75.5
495.79	92.5
496.008	95.5
496.225	93.5
496.442	92.5
496.66	80.5
496.877	91.5
497.094	88.5
497.312	88.5
497.529	78.5
497.746	91.5
497.963	90.5
498.181	89.5
498.398	97.5
498.615	104.5
498.832	107.5
499.049	99.5
499.267	88.5
499.484	69.5
499.701	85.5
499.918	99.5
500.135	87.5
500.352	86.5
500.569	100.5
500.786	89.5
501.003	85.5
501.22	94.5
501.437	82.5
501.654	89.5
501.871	115.5
502.088	85.5
502.305	95.5
502.522	91.5
502.739	97.5
502.956	87.5
503.172	98.5
503.389	85.5
503.606	103.5
503.823	88.5
504.04	82.5
504.256	95.5
504.473	92.5
504.69	93.5
504.907	96.5
505.123	93.5
505.34	100.5
505.557	90.5
505.773	86.5
505.99	89.5
506.207	94.5
506.423	90.5
506.64	92.5
506.856	84.5
507.073	87.5
507.289	90.5
507.506	94.5
507.722	114.5
507.939	105.5
508.155	94.5
508.372	88.5
508.588	82.5
508.805	89.5
509.021	97.5
509.238	94.5
509.454	105.5
509.67	103.5
509.887	123.5
510.103	149.5
510.319	236.5
510.536	916.5
510.752	3122.5
510.968	858.5
511.184	184.5
511.401	126.5
511.617	105.5
511.833	90.5
512.049	95.5
512.265	99.5
512.481	104.5
512.698	99.5
512.914	95.5
513.13	92.5
513.346	83.5
513.562	98.5
513.778	88.5
513.994	92.5
514.21	112.5
514.426	136.5
514.642	155.5
514.858	143.5
515.074	189.5
515.29	592.5
515.506	2079.5
515.721	761.5
515.937	189.5
516.153	121.5
516.369	106.5
516.585	103.5
516.801	92.5
517.016	96.5
517.232	96.5
517.448	112.5
517.664	86.5
517.879	102.5
518.095	96.5
518.311	98.5
518.527	93.5
518.742	85.5
518.958	92.5
519.173	89.5
519.389	89.5
519.605	102.5
519.82	104.5
520.036	116.5
520.251	114.5
520.467	112.5
520.682	111.5
520.898	98.5
521.113	108.5
521.329	159.5
521.544	235.5
521.76	722.5
521.975	3364.5
522.19	2047.5
522.406	428.5
522.621	154.5
522.836	109.5
523.052	94.5
523.267	102.5
523.482	102.5
523.698	103.5
523.913	139.5
524.128	108.5
524.343	105.5
524.559	91.5
524.774	85.5
524.989	96.5
525.204	111.5
525.419	107.5
525.634	88.5
525.849	97.5
526.064	86.5
526.28	85.5
526.495	95.5
526.71	101.5
526.925	83.5
527.14	94.5
527.355	82.5
527.57	92.5
527.785	102.5
527.999	84.5
528.214	83.5
528.429	88.5
528.644	91.5
528.859	90.5
529.074	102.5
529.289	146.5
529.503	211.5
529.718	105.5
529.933	95.5
530.148	87.5
530.363	88.5
530.577	92.5
530.792	106.5
531.007	101.5
531.221	82.5
531.436	81.5
531.651	93.5
531.865	96.5
532.08	84.5
532.295	94.5
532.509	100.5
532.724	103.5
532.938	93.5
533.153	94.5
533.367	93.5
533.582	90.5
533.796	89.5
534.011	86.5
534.225	80.5
534.44	94.5
534.654	90.5
