Data from Circ_2008_H10_HRD10591_00056.txt Node
Date: Wed Jan 03 10:17:07 EST 2024
User: Yrep
Spectrometer: HR+D1059
Trigger mode: 1
Integration Time (sec): 1.000000E-1
Scans to average: 1
Electric dark correction enabled: true
Nonlinearity correction enabled: false
Boxcar width: 0
XAxis mode: Wavelengths
Number of Pixels in Spectrum: 2048
>>>>>Begin Spectral Data<<<<<
223.165	-2.12
223.4	-2.12
223.635	-2.12
223.869	-14.12
224.104	-14.12
224.338	-10.12
224.573	-29.12
224.808	-4.12
225.042	-8.12
225.277	-0.12
225.511	-8.12
225.746	-0.12
225.98	10.88
226.215	-1.12
226.449	20.88
226.683	19.88
226.918	18.88
227.152	20.88
227.387	36.88
227.621	43.88
227.856	40.88
228.09	30.88
228.324	65.88
228.559	40.88
228.793	47.88
229.027	52.88
229.262	62.88
229.496	61.88
229.73	76.88
229.964	78.88
230.199	66.88
230.433	76.88
230.667	74.88
230.901	75.88
231.136	66.88
231.37	77.88
231.604	78.88
231.838	80.88
232.072	86.88
232.306	69.88
232.541	73.88
232.775	86.88
233.009	77.88
233.243	73.88
233.477	77.88
233.711	85.88
233.945	85.88
234.179	80.88
234.413	91.88
234.647	78.88
234.881	85.88
235.115	78.88
235.349	81.88
235.583	76.88
235.817	80.88
236.051	83.88
236.285	72.88
236.519	80.88
236.753	77.88
236.987	71.88
237.221	88.88
237.455	76.88
237.689	79.88
237.922	89.88
238.156	72.88
238.39	60.88
238.624	75.88
238.858	84.88
239.091	71.88
239.325	86.88
239.559	78.88
239.793	72.88
240.027	66.88
240.26	75.88
240.494	72.88
240.728	68.88
240.961	72.88
241.195	60.88
241.429	75.88
241.662	61.88
241.896	64.88
242.13	74.88
242.363	73.88
242.597	69.88
242.83	72.88
243.064	73.88
243.298	64.88
243.531	76.88
243.765	87.88
243.998	71.88
244.232	77.88
244.465	86.88
244.699	71.88
244.932	73.88
245.166	72.88
245.399	82.88
245.633	82.88
245.866	66.88
246.099	76.88
246.333	90.88
246.566	66.88
246.8	74.88
247.033	79.88
247.266	85.88
247.5	73.88
247.733	78.88
247.966	84.88
248.2	59.88
248.433	79.88
248.666	76.88
248.899	86.88
249.133	88.88
249.366	84.88
249.599	91.88
249.832	75.88
250.066	94.88
250.299	75.88
250.532	70.88
250.765	71.88
250.998	80.88
251.231	71.88
251.465	74.88
251.698	81.88
251.931	81.88
252.164	79.88
252.397	72.88
252.63	74.88
252.863	80.88
253.096	74.88
253.329	84.88
253.562	68.88
253.795	77.88
254.028	74.88
254.261	79.88
254.494	61.88
254.727	72.88
254.96	78.88
255.193	68.88
255.426	75.88
255.659	79.88
255.892	89.88
256.124	84.88
256.357	67.88
256.59	81.88
256.823	73.88
257.056	73.88
257.289	75.88
257.521	81.88
257.754	80.88
257.987	85.88
258.22	75.88
258.452	77.88
258.685	85.88
258.918	86.88
259.151	83.88
259.383	87.88
259.616	81.88
259.849	84.88
260.081	95.88
260.314	85.88
260.547	67.88
260.779	72.88
261.012	87.88
261.244	81.88
261.477	86.88
261.71	80.88
261.942	102.88
262.175	112.88
262.407	93.88
262.64	91.88
262.872	68.88
263.105	91.88
263.337	89.88
263.57	67.88
263.802	77.88
264.035	78.88
264.267	85.88
264.499	66.88
264.732	79.88
264.964	75.88
265.197	75.88
265.429	76.88
265.661	73.88
265.894	90.88
266.126	86.88
266.358	71.88
266.591	70.88
266.823	77.88
267.055	93.88
267.287	87.88
267.52	66.88
267.752	62.88
267.984	71.88
268.216	78.88
268.448	82.88
268.681	77.88
268.913	88.88
269.145	90.88
269.377	75.88
269.609	75.88
269.841	93.88
270.073	93.88
270.306	65.88
270.538	76.88
270.77	85.88
271.002	73.88
271.234	72.88
271.466	93.88
271.698	81.88
271.93	78.88
272.162	74.88
272.394	90.88
272.626	93.88
272.858	89.88
273.09	69.88
273.322	84.88
273.553	87.88
273.785	73.88
274.017	80.88
274.249	80.88
274.481	89.88
274.713	71.88
274.945	89.88
275.176	81.88
275.408	84.88
275.64	81.88
275.872	68.88
276.104	86.88
276.335	82.88
276.567	92.88
276.799	102.88
277.031	105.88
277.262	99.88
277.494	81.88
277.726	88.88
277.957	77.88
278.189	90.88
278.421	78.88
278.652	87.88
278.884	70.88
279.115	77.88
279.347	80.88
279.579	94.88
279.81	87.88
280.042	86.88
280.273	100.88
280.505	79.88
280.736	90.88
280.968	80.88
281.199	84.88
281.431	82.88
281.662	94.88
281.894	94.88
282.125	101.88
282.356	109.88
282.588	143.88
282.819	106.88
283.051	90.88
283.282	78.88
283.513	82.88
283.745	73.88
283.976	84.88
284.207	80.88
284.439	89.88
284.67	69.88
284.901	74.88
285.132	77.88
285.364	80.88
285.595	71.88
285.826	81.88
286.057	73.88
286.288	83.88
286.52	75.88
286.751	86.88
286.982	88.88
287.213	75.88
287.444	72.88
287.675	86.88
287.906	88.88
288.138	89.88
288.369	82.88
288.6	90.88
288.831	84.88
289.062	85.88
289.293	91.88
289.524	83.88
289.755	91.88
289.986	87.88
290.217	86.88
290.448	86.88
290.679	78.88
290.91	88.88
291.141	87.88
291.371	96.88
291.602	82.88
291.833	79.88
292.064	78.88
292.295	89.88
292.526	75.88
292.757	86.88
292.987	86.88
293.218	83.88
293.449	89.88
293.68	83.88
293.91	91.88
294.141	92.88
294.372	89.88
294.603	87.88
294.833	79.88
295.064	85.88
295.295	86.88
295.525	77.88
295.756	105.88
295.987	102.88
296.217	121.88
296.448	101.88
296.679	95.88
296.909	97.88
297.14	85.88
297.37	88.88
297.601	78.88
297.831	84.88
298.062	81.88
298.292	77.88
298.523	84.88
298.753	88.88
298.984	74.88
299.214	91.88
299.445	86.88
299.675	101.88
299.905	88.88
300.136	90.88
300.366	84.88
300.597	88.88
300.827	92.88
301.057	84.88
301.288	93.88
301.518	84.88
301.748	97.88
301.979	104.88
302.209	90.88
302.439	78.88
302.669	99.88
302.9	82.88
303.13	82.88
303.36	81.88
303.59	100.88
303.82	100.88
304.051	83.88
304.281	89.88
304.511	85.88
304.741	87.88
304.971	80.88
305.201	73.88
305.431	83.88
305.661	85.88
305.891	73.88
306.121	120.88
306.352	104.88
306.582	99.88
306.812	81.88
307.042	91.88
307.272	91.88
307.502	81.88
307.731	103.88
307.961	92.88
308.191	94.88
308.421	89.88
308.651	93.88
308.881	89.88
309.111	85.88
309.341	92.88
309.571	108.88
309.8	96.88
310.03	97.88
310.26	82.88
310.49	79.88
310.72	93.88
310.949	90.88
311.179	93.88
311.409	94.88
311.639	97.88
311.868	77.88
312.098	83.88
312.328	90.88
312.557	95.88
312.787	112.88
313.017	88.88
313.246	101.88
313.476	78.88
313.706	85.88
313.935	98.88
314.165	101.88
314.394	106.88
314.624	94.88
314.853	86.88
315.083	86.88
315.312	87.88
315.542	99.88
315.771	87.88
316.001	100.88
316.23	82.88
316.46	76.88
316.689	90.88
316.919	77.88
317.148	94.88
317.377	76.88
317.607	82.88
317.836	79.88
318.065	90.88
318.295	94.88
318.524	98.88
318.753	94.88
318.983	91.88
319.212	92.88
319.441	101.88
319.67	109.88
319.9	95.88
320.129	90.88
320.358	98.88
320.587	85.88
320.816	97.88
321.046	109.88
321.275	88.88
321.504	72.88
321.733	94.88
321.962	80.88
322.191	90.88
322.42	103.88
322.649	100.88
322.878	107.88
323.108	116.88
323.337	112.88
323.566	111.88
323.795	146.88
324.024	193.88
324.253	340.88
324.482	686.88
324.71	1395.88
324.939	1793.88
325.168	704.88
325.397	212.88
325.626	129.88
325.855	117.88
326.084	113.88
326.313	137.88
326.542	143.88
326.77	221.88
326.999	381.88
327.228	761.88
327.457	1361.88
327.686	1103.88
327.914	337.88
328.143	213.88
328.372	146.88
328.6	124.88
328.829	111.88
329.058	121.88
329.287	118.88
329.515	117.88
329.744	98.88
329.972	108.88
330.201	146.88
330.43	174.88
330.658	145.88
330.887	138.88
331.115	120.88
331.344	97.88
331.572	90.88
331.801	102.88
332.03	98.88
332.258	96.88
332.486	81.88
332.715	79.88
332.943	100.88
333.172	98.88
333.4	95.88
333.629	102.88
333.857	99.88
334.085	116.88
334.314	152.88
334.542	187.88
334.771	176.88
334.999	106.88
335.227	102.88
335.455	89.88
335.684	94.88
335.912	101.88
336.14	96.88
336.369	91.88
336.597	100.88
336.825	93.88
337.053	79.88
337.281	78.88
337.51	99.88
337.738	92.88
337.966	89.88
338.194	84.88
338.422	89.88
338.65	89.88
338.878	83.88
339.106	93.88
339.334	94.88
339.562	84.88
339.79	82.88
340.018	96.88
340.246	84.88
340.474	84.88
340.702	85.88
340.93	99.88
341.158	94.88
341.386	89.88
341.614	88.88
341.842	96.88
342.07	89.88
342.298	80.88
342.526	94.88
342.754	80.88
342.981	105.88
343.209	107.88
343.437	93.88
343.665	96.88
343.893	79.88
344.12	82.88
344.348	88.88
344.576	80.88
344.804	92.88
345.031	93.88
345.259	88.88
345.487	82.88
345.714	72.88
345.942	86.88
346.17	97.88
346.397	93.88
346.625	93.88
346.853	81.88
347.08	94.88
347.308	92.88
347.535	91.88
347.763	104.88
347.99	89.88
348.218	87.88
348.445	89.88
348.673	100.88
348.9	87.88
349.128	100.88
349.355	81.88
349.583	104.88
349.81	80.88
350.037	92.88
350.265	93.88
350.492	95.88
350.72	85.88
350.947	117.88
351.174	105.88
351.402	114.88
351.629	102.88
351.856	109.88
352.083	92.88
352.311	86.88
352.538	98.88
352.765	100.88
352.992	114.88
353.22	110.88
353.447	99.88
353.674	89.88
353.901	90.88
354.128	96.88
354.355	96.88
354.583	95.88
354.81	93.88
355.037	100.88
355.264	91.88
355.491	77.88
355.718	83.88
355.945	88.88
356.172	85.88
356.399	95.88
356.626	100.88
356.853	83.88
357.08	98.88
357.307	91.88
357.534	88.88
357.761	82.88
357.988	91.88
358.215	89.88
358.441	90.88
358.668	76.88
358.895	80.88
359.122	72.88
359.349	88.88
359.576	85.88
359.802	97.88
360.029	116.88
360.256	86.88
360.483	82.88
360.709	85.88
360.936	82.88
361.163	76.88
361.39	82.88
361.616	92.88
361.843	70.88
362.07	110.88
362.296	94.88
362.523	93.88
362.749	85.88
362.976	86.88
363.203	89.88
363.429	75.88
363.656	91.88
363.882	82.88
364.109	92.88
364.335	73.88
364.562	92.88
364.788	82.88
365.015	76.88
365.241	89.88
365.468	111.88
365.694	119.88
365.92	91.88
366.147	70.88
366.373	96.88
366.599	86.88
366.826	97.88
367.052	88.88
367.278	93.88
367.505	72.88
367.731	81.88
367.957	82.88
368.184	89.88
368.41	97.88
368.636	99.88
368.862	118.88
369.089	109.88
369.315	100.88
369.541	72.88
369.767	98.88
369.993	89.88
370.219	91.88
370.445	87.88
370.672	89.88
370.898	91.88
371.124	76.88
371.35	81.88
371.576	89.88
371.802	84.88
372.028	81.88
372.254	85.88
372.48	93.88
372.706	80.88
372.932	91.88
373.158	83.88
373.384	75.88
373.61	77.88
373.835	81.88
374.061	75.88
374.287	87.88
374.513	91.88
374.739	86.88
374.965	72.88
375.191	76.88
375.416	79.88
375.642	86.88
375.868	88.88
376.094	85.88
376.319	82.88
376.545	86.88
376.771	82.88
376.997	86.88
377.222	74.88
377.448	80.88
377.674	87.88
377.899	80.88
378.125	81.88
378.35	90.88
378.576	82.88
378.802	78.88
379.027	93.88
379.253	103.88
379.478	119.88
379.704	93.88
379.929	100.88
380.155	79.88
380.38	87.88
380.606	90.88
380.831	89.88
381.057	95.88
381.282	93.88
381.507	109.88
381.733	96.88
381.958	91.88
382.184	86.88
382.409	95.88
382.634	95.88
382.86	77.88
383.085	85.88
383.31	94.88
383.535	91.88
383.761	110.88
383.986	92.88
384.211	87.88
384.436	98.88
384.662	85.88
384.887	89.88
385.112	96.88
385.337	98.88
385.562	106.88
385.787	106.88
386.013	114.88
386.238	105.88
386.463	105.88
386.688	97.88
386.913	97.88
387.138	91.88
387.363	102.88
387.588	102.88
387.813	92.88
388.038	100.88
388.263	97.88
388.488	107.88
388.713	85.88
388.938	84.88
389.163	104.88
389.387	88.88
389.612	86.88
389.837	82.88
390.062	85.88
390.287	79.88
390.512	86.88
390.736	69.88
390.961	92.88
391.186	86.88
391.411	83.88
391.636	90.88
391.86	87.88
392.085	78.88
392.31	86.88
392.534	84.88
392.759	77.88
392.984	75.88
393.208	98.88
393.433	97.88
393.658	92.88
393.882	92.88
394.107	76.88
394.331	92.88
394.556	80.88
394.78	77.88
395.005	77.88
395.229	85.88
395.454	76.88
395.678	93.88
395.903	83.88
396.127	92.88
396.352	89.88
396.576	83.88
396.801	85.88
397.025	73.88
397.249	78.88
397.474	88.88
397.698	90.88
397.922	96.88
398.147	86.88
398.371	90.88
398.595	76.88
398.82	82.88
399.044	90.88
399.268	82.88
399.492	81.88
399.717	85.88
399.941	82.88
400.165	80.88
400.389	90.88
400.613	74.88
400.837	69.88
401.062	85.88
401.286	73.88
401.51	88.88
401.734	92.88
401.958	88.88
402.182	141.88
402.406	173.88
402.63	111.88
402.854	89.88
403.078	92.88
403.302	89.88
403.526	78.88
403.75	83.88
403.974	83.88
404.198	85.88
404.422	85.88
404.645	56.88
404.869	80.88
405.093	82.88
405.317	97.88
405.541	96.88
405.765	112.88
405.988	101.88
406.212	168.88
406.436	230.88
406.66	152.88
406.883	91.88
407.107	88.88
407.331	101.88
407.555	100.88
407.778	98.88
408.002	96.88
408.226	88.88
408.449	78.88
408.673	89.88
408.896	85.88
409.12	87.88
409.344	85.88
409.567	100.88
409.791	90.88
410.014	88.88
410.238	88.88
410.461	86.88
410.685	91.88
410.908	87.88
411.132	112.88
411.355	100.88
411.578	94.88
411.802	77.88
412.025	77.88
412.249	95.88
412.472	97.88
412.695	99.88
412.919	86.88
413.142	87.88
413.365	79.88
413.589	74.88
413.812	92.88
414.035	87.88
414.258	73.88
414.482	90.88
414.705	80.88
414.928	91.88
415.151	72.88
415.374	83.88
415.597	73.88
415.821	73.88
416.044	90.88
416.267	91.88
416.49	97.88
416.713	93.88
416.936	85.88
417.159	71.88
417.382	85.88
417.605	100.88
417.828	93.88
418.051	107.88
418.274	92.88
418.497	77.88
418.72	91.88
418.943	93.88
419.166	76.88
419.389	81.88
419.611	97.88
419.834	92.88
420.057	81.88
420.28	79.88
420.503	78.88
420.726	86.88
420.948	91.88
421.171	81.88
421.394	109.88
421.617	71.88
421.839	76.88
422.062	73.88
422.285	64.88
422.507	92.88
422.73	95.88
422.953	97.88
423.175	83.88
423.398	87.88
423.621	88.88
423.843	99.88
424.066	86.88
424.288	85.88
424.511	87.88
424.733	102.88
424.956	99.88
425.178	88.88
425.401	93.88
425.623	96.88
425.846	89.88
426.068	88.88
426.291	102.88
426.513	95.88
426.735	81.88
426.958	99.88
427.18	92.88
427.402	120.88
427.625	159.88
427.847	121.88
428.069	114.88
428.292	88.88
428.514	82.88
428.736	76.88
428.958	78.88
429.181	80.88
429.403	80.88
429.625	80.88
429.847	91.88
430.069	88.88
430.292	89.88
430.514	85.88
430.736	72.88
430.958	82.88
431.18	87.88
431.402	81.88
431.624	94.88
431.846	88.88
432.068	95.88
432.29	81.88
432.512	76.88
432.734	91.88
432.956	86.88
433.178	102.88
433.4	74.88
433.622	93.88
433.844	68.88
434.066	82.88
434.287	84.88
434.509	89.88
434.731	94.88
434.953	90.88
435.175	80.88
435.397	56.88
435.618	86.88
435.84	96.88
436.062	108.88
436.284	97.88
436.505	83.88
436.727	92.88
436.949	85.88
437.17	83.88
437.392	85.88
437.614	99.88
437.835	105.88
438.057	115.88
438.278	116.88
438.5	107.88
438.721	104.88
438.943	91.88
439.165	86.88
439.386	89.88
439.608	90.88
439.829	89.88
440.05	120.88
440.272	112.88
440.493	98.88
440.715	98.88
440.936	74.88
441.158	77.88
441.379	87.88
441.6	89.88
441.822	96.88
442.043	92.88
442.264	83.88
442.486	92.88
442.707	103.88
442.928	98.88
443.149	123.88
443.371	103.88
443.592	111.88
443.813	107.88
444.034	83.88
444.255	71.88
444.476	80.88
444.698	81.88
444.919	81.88
445.14	118.88
445.361	105.88
445.582	108.88
445.803	110.88
446.024	128.88
446.245	128.88
446.466	101.88
446.687	86.88
446.908	83.88
447.129	97.88
447.35	94.88
447.571	91.88
447.792	107.88
448.013	101.88
448.234	102.88
448.455	97.88
448.675	111.88
448.896	108.88
449.117	86.88
449.338	106.88
449.559	110.88
449.779	108.88
450	87.88
450.221	80.88
450.442	81.88
450.662	85.88
450.883	98.88
451.104	113.88
451.324	86.88
451.545	74.88
451.766	78.88
451.986	81.88
452.207	94.88
452.428	82.88
452.648	85.88
452.869	107.88
453.089	106.88
453.31	106.88
453.53	95.88
453.751	93.88
453.971	91.88
454.192	97.88
454.412	96.88
454.633	90.88
454.853	92.88
455.073	92.88
455.294	90.88
455.514	92.88
455.734	78.88
455.955	83.88
456.175	77.88
456.395	87.88
456.616	76.88
456.836	84.88
457.056	84.88
457.276	81.88
457.497	84.88
457.717	82.88
457.937	76.88
458.157	81.88
458.377	85.88
458.598	98.88
458.818	148.88
459.038	126.88
459.258	112.88
459.478	90.88
459.698	89.88
459.918	89.88
460.138	84.88
460.358	90.88
460.578	81.88
460.798	83.88
461.018	93.88
461.238	89.88
461.458	80.88
461.678	80.88
461.898	89.88
462.118	84.88
462.338	78.88
462.558	79.88
462.777	91.88
462.997	94.88
463.217	72.88
463.437	79.88
463.657	78.88
463.876	97.88
464.096	88.88
464.316	88.88
464.536	90.88
464.755	89.88
464.975	107.88
465.195	156.88
465.414	153.88
465.634	85.88
465.854	91.88
466.073	80.88
466.293	94.88
466.512	91.88
466.732	82.88
466.951	89.88
467.171	82.88
467.391	85.88
467.61	87.88
467.829	97.88
468.049	127.88
468.268	124.88
468.488	90.88
468.707	80.88
468.927	85.88
469.146	66.88
469.365	90.88
469.585	101.88
469.804	101.88
470.023	93.88
470.243	93.88
470.462	92.88
470.681	92.88
470.901	83.88
471.12	88.88
471.339	76.88
471.558	91.88
471.777	81.88
471.997	103.88
472.216	184.88
472.435	236.88
472.654	109.88
472.873	90.88
473.092	98.88
473.311	82.88
473.53	76.88
473.749	93.88
473.968	86.88
474.187	109.88
474.406	88.88
474.625	84.88
474.844	89.88
475.063	75.88
475.282	88.88
475.501	93.88
475.72	85.88
475.939	86.88
476.158	96.88
476.377	83.88
476.596	92.88
476.814	98.88
477.033	93.88
477.252	93.88
477.471	73.88
477.69	88.88
477.908	93.88
478.127	69.88
478.346	89.88
478.564	104.88
478.783	99.88
479.002	93.88
479.22	86.88
479.439	98.88
479.658	93.88
479.876	82.88
480.095	81.88
480.313	87.88
480.532	92.88
480.751	82.88
480.969	144.88
481.188	373.88
481.406	249.88
481.624	116.88
481.843	76.88
482.061	89.88
482.28	73.88
482.498	89.88
482.717	96.88
482.935	84.88
483.153	89.88
483.372	76.88
483.59	85.88
483.808	85.88
484.027	92.88
484.245	95.88
484.463	90.88
484.681	86.88
484.9	84.88
485.118	91.88
485.336	85.88
485.554	84.88
485.772	84.88
485.99	108.88
486.209	72.88
486.427	87.88
486.645	96.88
486.863	114.88
487.081	102.88
487.299	90.88
487.517	102.88
487.735	101.88
487.953	98.88
488.171	87.88
488.389	86.88
488.607	103.88
488.825	86.88
489.043	93.88
489.261	94.88
489.479	79.88
489.696	99.88
489.914	87.88
490.132	73.88
490.35	98.88
490.568	80.88
490.786	80.88
491.003	87.88
491.221	90.88
491.439	79.88
491.657	85.88
491.874	88.88
492.092	92.88
492.31	95.88
492.527	88.88
492.745	91.88
492.963	80.88
493.18	99.88
493.398	82.88
493.615	92.88
493.833	87.88
494.05	83.88
494.268	94.88
494.485	83.88
494.703	89.88
494.92	99.88
495.138	92.88
495.355	90.88
495.573	81.88
495.79	82.88
496.008	79.88
496.225	75.88
496.442	100.88
496.66	89.88
496.877	81.88
497.094	87.88
497.312	77.88
497.529	92.88
497.746	87.88
497.963	85.88
498.181	81.88
498.398	93.88
498.615	103.88
498.832	100.88
499.049	80.88
499.267	90.88
499.484	82.88
499.701	90.88
499.918	88.88
500.135	95.88
500.352	96.88
500.569	97.88
500.786	85.88
501.003	93.88
501.22	76.88
501.437	87.88
501.654	95.88
501.871	100.88
502.088	98.88
502.305	95.88
502.522	95.88
502.739	82.88
502.956	97.88
503.172	80.88
503.389	82.88
503.606	104.88
503.823	72.88
504.04	85.88
504.256	83.88
504.473	95.88
504.69	86.88
504.907	94.88
505.123	93.88
505.34	80.88
505.557	86.88
505.773	86.88
505.99	81.88
506.207	78.88
506.423	80.88
506.64	100.88
506.856	101.88
507.073	91.88
507.289	97.88
507.506	108.88
507.722	96.88
507.939	97.88
508.155	79.88
508.372	94.88
508.588	88.88
508.805	89.88
509.021	89.88
509.238	85.88
509.454	94.88
509.67	88.88
509.887	104.88
510.103	128.88
510.319	229.88
510.536	754.88
510.752	2548.88
510.968	724.88
511.184	161.88
511.401	102.88
511.617	101.88
511.833	84.88
512.049	86.88
512.265	88.88
512.481	89.88
512.698	96.88
512.914	91.88
513.13	85.88
513.346	78.88
513.562	98.88
513.778	93.88
513.994	76.88
514.21	95.88
514.426	112.88
514.642	114.88
514.858	122.88
515.074	161.88
515.29	449.88
515.506	1544.88
515.721	569.88
515.937	160.88
516.153	112.88
516.369	92.88
516.585	93.88
516.801	94.88
517.016	94.88
