Data from Circ_2008_H10_HRD10591_00036.txt Node
Date: Wed Jan 03 10:17:03 EST 2024
User: Yrep
Spectrometer: HR+D1059
Trigger mode: 1
Integration Time (sec): 1.000000E-1
Scans to average: 1
Electric dark correction enabled: true
Nonlinearity correction enabled: false
Boxcar width: 0
XAxis mode: Wavelengths
Number of Pixels in Spectrum: 2048
>>>>>Begin Spectral Data<<<<<
223.165	-22.38
223.4	-22.38
223.635	-22.38
223.869	-18.38
224.104	-18.38
224.338	-24.38
224.573	-11.38
224.808	-6.38
225.042	-2.38
225.277	-4.38
225.511	-5.38
225.746	0.62
225.98	4.62
226.215	4.62
226.449	17.62
226.683	17.62
226.918	24.62
227.152	43.62
227.387	46.62
227.621	44.62
227.856	43.62
228.09	56.62
228.324	55.62
228.559	64.62
228.793	58.62
229.027	58.62
229.262	62.62
229.496	69.62
229.73	81.62
229.964	80.62
230.199	79.62
230.433	68.62
230.667	85.62
230.901	93.62
231.136	70.62
231.37	101.62
231.604	79.62
231.838	83.62
232.072	75.62
232.306	89.62
232.541	73.62
232.775	76.62
233.009	74.62
233.243	97.62
233.477	80.62
233.711	88.62
233.945	88.62
234.179	83.62
234.413	93.62
234.647	80.62
234.881	78.62
235.115	81.62
235.349	67.62
235.583	85.62
235.817	84.62
236.051	91.62
236.285	73.62
236.519	75.62
236.753	89.62
236.987	82.62
237.221	73.62
237.455	78.62
237.689	82.62
237.922	82.62
238.156	67.62
238.39	69.62
238.624	80.62
238.858	83.62
239.091	71.62
239.325	85.62
239.559	85.62
239.793	77.62
240.027	82.62
240.26	81.62
240.494	83.62
240.728	74.62
240.961	81.62
241.195	75.62
241.429	82.62
241.662	75.62
241.896	84.62
242.13	77.62
242.363	83.62
242.597	82.62
242.83	70.62
243.064	80.62
243.298	81.62
243.531	77.62
243.765	72.62
243.998	76.62
244.232	82.62
244.465	80.62
244.699	73.62
244.932	83.62
245.166	71.62
245.399	77.62
245.633	81.62
245.866	92.62
246.099	82.62
246.333	90.62
246.566	88.62
246.8	80.62
247.033	89.62
247.266	84.62
247.5	81.62
247.733	87.62
247.966	81.62
248.2	85.62
248.433	77.62
248.666	79.62
248.899	88.62
249.133	99.62
249.366	92.62
249.599	82.62
249.832	92.62
250.066	81.62
250.299	84.62
250.532	91.62
250.765	92.62
250.998	92.62
251.231	87.62
251.465	90.62
251.698	82.62
251.931	84.62
252.164	81.62
252.397	82.62
252.63	67.62
252.863	87.62
253.096	81.62
253.329	75.62
253.562	87.62
253.795	71.62
254.028	85.62
254.261	82.62
254.494	93.62
254.727	96.62
254.96	80.62
255.193	83.62
255.426	68.62
255.659	83.62
255.892	82.62
256.124	94.62
256.357	89.62
256.59	86.62
256.823	83.62
257.056	88.62
257.289	68.62
257.521	82.62
257.754	73.62
257.987	68.62
258.22	93.62
258.452	91.62
258.685	80.62
258.918	84.62
259.151	76.62
259.383	82.62
259.616	85.62
259.849	73.62
260.081	91.62
260.314	86.62
260.547	75.62
260.779	71.62
261.012	76.62
261.244	84.62
261.477	85.62
261.71	72.62
261.942	118.62
262.175	112.62
262.407	91.62
262.64	93.62
262.872	73.62
263.105	96.62
263.337	88.62
263.57	77.62
263.802	87.62
264.035	83.62
264.267	72.62
264.499	74.62
264.732	76.62
264.964	97.62
265.197	79.62
265.429	88.62
265.661	79.62
265.894	79.62
266.126	91.62
266.358	93.62
266.591	93.62
266.823	98.62
267.055	85.62
267.287	89.62
267.52	97.62
267.752	85.62
267.984	74.62
268.216	80.62
268.448	89.62
268.681	85.62
268.913	89.62
269.145	83.62
269.377	81.62
269.609	82.62
269.841	89.62
270.073	91.62
270.306	95.62
270.538	80.62
270.77	82.62
271.002	86.62
271.234	103.62
271.466	97.62
271.698	79.62
271.93	74.62
272.162	89.62
272.394	88.62
272.626	71.62
272.858	70.62
273.09	77.62
273.322	90.62
273.553	98.62
273.785	84.62
274.017	81.62
274.249	95.62
274.481	81.62
274.713	88.62
274.945	75.62
275.176	78.62
275.408	80.62
275.64	93.62
275.872	85.62
276.104	85.62
276.335	69.62
276.567	107.62
276.799	91.62
277.031	105.62
277.262	85.62
277.494	87.62
277.726	78.62
277.957	93.62
278.189	92.62
278.421	83.62
278.652	80.62
278.884	86.62
279.115	85.62
279.347	76.62
279.579	94.62
279.81	95.62
280.042	98.62
280.273	89.62
280.505	75.62
280.736	93.62
280.968	89.62
281.199	86.62
281.431	83.62
281.662	85.62
281.894	80.62
282.125	87.62
282.356	107.62
282.588	137.62
282.819	111.62
283.051	90.62
283.282	93.62
283.513	81.62
283.745	82.62
283.976	97.62
284.207	80.62
284.439	90.62
284.67	95.62
284.901	97.62
285.132	76.62
285.364	81.62
285.595	92.62
285.826	90.62
286.057	97.62
286.288	93.62
286.52	82.62
286.751	78.62
286.982	82.62
287.213	85.62
287.444	96.62
287.675	85.62
287.906	80.62
288.138	92.62
288.369	90.62
288.6	88.62
288.831	95.62
289.062	99.62
289.293	88.62
289.524	79.62
289.755	89.62
289.986	93.62
290.217	83.62
290.448	76.62
290.679	85.62
290.91	91.62
291.141	90.62
291.371	96.62
291.602	83.62
291.833	85.62
292.064	89.62
292.295	75.62
292.526	91.62
292.757	90.62
292.987	82.62
293.218	89.62
293.449	81.62
293.68	96.62
293.91	92.62
294.141	76.62
294.372	102.62
294.603	96.62
294.833	92.62
295.064	96.62
295.295	90.62
295.525	84.62
295.756	86.62
295.987	110.62
296.217	137.62
296.448	135.62
296.679	97.62
296.909	103.62
297.14	94.62
297.37	90.62
297.601	96.62
297.831	89.62
298.062	92.62
298.292	82.62
298.523	73.62
298.753	97.62
298.984	96.62
299.214	92.62
299.445	85.62
299.675	92.62
299.905	85.62
300.136	102.62
300.366	92.62
300.597	88.62
300.827	101.62
301.057	111.62
301.288	114.62
301.518	83.62
301.748	103.62
301.979	97.62
302.209	98.62
302.439	85.62
302.669	97.62
302.9	91.62
303.13	101.62
303.36	103.62
303.59	108.62
303.82	88.62
304.051	105.62
304.281	88.62
304.511	95.62
304.741	86.62
304.971	79.62
305.201	97.62
305.431	99.62
305.661	97.62
305.891	98.62
306.121	89.62
306.352	111.62
306.582	95.62
306.812	108.62
307.042	91.62
307.272	100.62
307.502	97.62
307.731	92.62
307.961	92.62
308.191	93.62
308.421	89.62
308.651	104.62
308.881	100.62
309.111	101.62
309.341	106.62
309.571	100.62
309.8	92.62
310.03	94.62
310.26	93.62
310.49	101.62
310.72	97.62
310.949	104.62
311.179	98.62
311.409	100.62
311.639	91.62
311.868	84.62
312.098	92.62
312.328	86.62
312.557	105.62
312.787	103.62
313.017	94.62
313.246	90.62
313.476	97.62
313.706	91.62
313.935	101.62
314.165	92.62
314.394	105.62
314.624	99.62
314.853	83.62
315.083	96.62
315.312	95.62
315.542	90.62
315.771	89.62
316.001	75.62
316.23	99.62
316.46	89.62
316.689	104.62
316.919	95.62
317.148	99.62
317.377	81.62
317.607	89.62
317.836	101.62
318.065	92.62
318.295	76.62
318.524	85.62
318.753	92.62
318.983	91.62
319.212	96.62
319.441	107.62
319.67	115.62
319.9	91.62
320.129	83.62
320.358	93.62
320.587	97.62
320.816	89.62
321.046	99.62
321.275	105.62
321.504	84.62
321.733	78.62
321.962	96.62
322.191	100.62
322.42	97.62
322.649	109.62
322.878	103.62
323.108	124.62
323.337	105.62
323.566	121.62
323.795	130.62
324.024	194.62
324.253	321.62
324.482	683.62
324.71	1370.62
324.939	1807.62
325.168	702.62
325.397	218.62
325.626	141.62
325.855	115.62
326.084	105.62
326.313	116.62
326.542	143.62
326.77	203.62
326.999	387.62
327.228	757.62
327.457	1358.62
327.686	1093.62
327.914	336.62
328.143	185.62
328.372	150.62
328.6	126.62
328.829	103.62
329.058	122.62
329.287	114.62
329.515	101.62
329.744	109.62
329.972	105.62
330.201	117.62
330.43	128.62
330.658	131.62
330.887	128.62
331.115	124.62
331.344	95.62
331.572	100.62
331.801	120.62
332.03	91.62
332.258	112.62
332.486	107.62
332.715	99.62
332.943	94.62
333.172	96.62
333.4	88.62
333.629	93.62
333.857	112.62
334.085	126.62
334.314	140.62
334.542	131.62
334.771	123.62
334.999	92.62
335.227	92.62
335.455	89.62
335.684	93.62
335.912	97.62
336.14	95.62
336.369	124.62
336.597	97.62
336.825	101.62
337.053	90.62
337.281	99.62
337.51	91.62
337.738	101.62
337.966	96.62
338.194	96.62
338.422	97.62
338.65	88.62
338.878	87.62
339.106	88.62
339.334	96.62
339.562	99.62
339.79	95.62
340.018	81.62
340.246	87.62
340.474	91.62
340.702	107.62
340.93	85.62
341.158	105.62
341.386	95.62
341.614	85.62
341.842	95.62
342.07	92.62
342.298	96.62
342.526	77.62
342.754	84.62
342.981	77.62
343.209	100.62
343.437	89.62
343.665	93.62
343.893	92.62
344.12	77.62
344.348	96.62
344.576	109.62
344.804	95.62
345.031	106.62
345.259	94.62
345.487	85.62
345.714	104.62
345.942	93.62
346.17	111.62
346.397	103.62
346.625	100.62
346.853	88.62
347.08	91.62
347.308	97.62
347.535	98.62
347.763	100.62
347.99	112.62
348.218	110.62
348.445	107.62
348.673	98.62
348.9	97.62
349.128	100.62
349.355	95.62
349.583	91.62
349.81	103.62
350.037	94.62
350.265	78.62
350.492	90.62
350.72	108.62
350.947	90.62
351.174	104.62
351.402	114.62
351.629	103.62
351.856	98.62
352.083	100.62
352.311	120.62
352.538	82.62
352.765	111.62
352.992	112.62
353.22	115.62
353.447	96.62
353.674	100.62
353.901	112.62
354.128	96.62
354.355	93.62
354.583	91.62
354.81	114.62
355.037	96.62
355.264	84.62
355.491	86.62
355.718	90.62
355.945	93.62
356.172	98.62
356.399	105.62
356.626	105.62
356.853	93.62
357.08	98.62
357.307	88.62
357.534	89.62
357.761	95.62
357.988	111.62
358.215	103.62
358.441	88.62
358.668	98.62
358.895	87.62
359.122	82.62
359.349	89.62
359.576	89.62
359.802	100.62
360.029	115.62
360.256	117.62
360.483	105.62
360.709	96.62
360.936	94.62
361.163	99.62
361.39	79.62
361.616	85.62
361.843	93.62
362.07	91.62
362.296	84.62
362.523	97.62
362.749	101.62
362.976	90.62
363.203	91.62
363.429	96.62
363.656	90.62
363.882	89.62
364.109	101.62
364.335	88.62
364.562	97.62
364.788	91.62
365.015	87.62
365.241	108.62
365.468	97.62
365.694	97.62
365.92	101.62
366.147	86.62
366.373	99.62
366.599	85.62
366.826	86.62
367.052	85.62
367.278	83.62
367.505	81.62
367.731	95.62
367.957	89.62
368.184	88.62
368.41	97.62
368.636	98.62
368.862	106.62
369.089	109.62
369.315	92.62
369.541	97.62
369.767	92.62
369.993	86.62
370.219	88.62
370.445	80.62
370.672	75.62
370.898	92.62
371.124	86.62
371.35	88.62
371.576	89.62
371.802	86.62
372.028	83.62
372.254	87.62
372.48	97.62
372.706	93.62
372.932	83.62
373.158	81.62
373.384	87.62
373.61	91.62
373.835	104.62
374.061	92.62
374.287	82.62
374.513	82.62
374.739	83.62
374.965	86.62
375.191	82.62
375.416	88.62
375.642	99.62
375.868	84.62
376.094	95.62
376.319	85.62
376.545	83.62
376.771	86.62
376.997	88.62
377.222	91.62
377.448	94.62
377.674	92.62
377.899	101.62
378.125	95.62
378.35	89.62
378.576	94.62
378.802	81.62
379.027	95.62
379.253	101.62
379.478	105.62
379.704	81.62
379.929	92.62
380.155	96.62
380.38	82.62
380.606	94.62
380.831	96.62
381.057	83.62
381.282	96.62
381.507	84.62
381.733	93.62
381.958	96.62
382.184	115.62
382.409	88.62
382.634	97.62
382.86	98.62
383.085	103.62
383.31	105.62
383.535	104.62
383.761	100.62
383.986	100.62
384.211	93.62
384.436	95.62
384.662	96.62
384.887	110.62
385.112	112.62
385.337	100.62
385.562	91.62
385.787	109.62
386.013	107.62
386.238	112.62
386.463	107.62
386.688	106.62
386.913	113.62
387.138	106.62
387.363	104.62
387.588	99.62
387.813	94.62
388.038	103.62
388.263	116.62
388.488	88.62
388.713	89.62
388.938	95.62
389.163	105.62
389.387	105.62
389.612	88.62
389.837	96.62
390.062	85.62
390.287	95.62
390.512	98.62
390.736	100.62
390.961	87.62
391.186	100.62
391.411	95.62
391.636	96.62
391.86	89.62
392.085	74.62
392.31	83.62
392.534	88.62
392.759	85.62
392.984	91.62
393.208	95.62
393.433	88.62
393.658	98.62
393.882	85.62
394.107	92.62
394.331	81.62
394.556	80.62
394.78	102.62
395.005	85.62
395.229	83.62
395.454	84.62
395.678	96.62
395.903	100.62
396.127	94.62
396.352	89.62
396.576	76.62
396.801	94.62
397.025	98.62
397.249	97.62
397.474	85.62
397.698	97.62
397.922	88.62
398.147	84.62
398.371	100.62
398.595	81.62
398.82	71.62
399.044	85.62
399.268	96.62
399.492	74.62
399.717	83.62
399.941	94.62
400.165	88.62
400.389	79.62
400.613	87.62
400.837	87.62
401.062	81.62
401.286	92.62
401.51	96.62
401.734	70.62
401.958	105.62
402.182	149.62
402.406	157.62
402.63	123.62
402.854	95.62
403.078	91.62
403.302	89.62
403.526	91.62
403.75	78.62
403.974	80.62
404.198	92.62
404.422	88.62
404.645	100.62
404.869	90.62
405.093	109.62
405.317	116.62
405.541	83.62
405.765	95.62
405.988	124.62
406.212	163.62
406.436	228.62
406.66	145.62
406.883	97.62
407.107	85.62
407.331	100.62
407.555	95.62
407.778	88.62
408.002	90.62
408.226	84.62
408.449	95.62
408.673	89.62
408.896	93.62
409.12	86.62
409.344	84.62
409.567	78.62
409.791	88.62
410.014	79.62
410.238	104.62
410.461	85.62
410.685	99.62
410.908	96.62
411.132	101.62
411.355	89.62
411.578	107.62
411.802	87.62
412.025	72.62
412.249	96.62
412.472	94.62
412.695	89.62
412.919	96.62
413.142	90.62
413.365	91.62
413.589	92.62
413.812	79.62
414.035	90.62
414.258	100.62
414.482	93.62
414.705	87.62
414.928	85.62
415.151	82.62
415.374	90.62
415.597	91.62
415.821	92.62
416.044	94.62
416.267	79.62
416.49	100.62
416.713	77.62
416.936	96.62
417.159	87.62
417.382	80.62
417.605	91.62
417.828	105.62
418.051	100.62
418.274	91.62
418.497	92.62
418.72	72.62
418.943	89.62
419.166	89.62
419.389	91.62
419.611	89.62
419.834	88.62
420.057	92.62
420.28	94.62
420.503	85.62
420.726	96.62
420.948	83.62
421.171	103.62
421.394	109.62
421.617	88.62
421.839	91.62
422.062	87.62
422.285	100.62
422.507	102.62
422.73	115.62
422.953	92.62
423.175	88.62
423.398	80.62
423.621	85.62
423.843	89.62
424.066	77.62
424.288	79.62
424.511	83.62
424.733	76.62
424.956	105.62
425.178	93.62
425.401	107.62
425.623	89.62
425.846	85.62
426.068	98.62
426.291	81.62
426.513	88.62
426.735	91.62
426.958	76.62
427.18	105.62
427.402	116.62
427.625	135.62
427.847	149.62
428.069	105.62
428.292	85.62
428.514	102.62
428.736	91.62
428.958	89.62
429.181	94.62
429.403	91.62
429.625	80.62
429.847	96.62
430.069	88.62
430.292	89.62
430.514	80.62
430.736	78.62
430.958	97.62
431.18	79.62
431.402	72.62
431.624	99.62
431.846	96.62
432.068	79.62
432.29	84.62
432.512	85.62
432.734	88.62
432.956	83.62
433.178	95.62
433.4	92.62
433.622	95.62
433.844	96.62
434.066	97.62
434.287	94.62
434.509	91.62
434.731	95.62
434.953	85.62
435.175	89.62
435.397	85.62
435.618	85.62
435.84	103.62
436.062	119.62
436.284	119.62
436.505	69.62
436.727	91.62
436.949	84.62
437.17	87.62
437.392	77.62
437.614	100.62
437.835	112.62
438.057	99.62
438.278	89.62
438.5	92.62
438.721	108.62
438.943	109.62
439.165	81.62
439.386	79.62
439.608	95.62
439.829	91.62
440.05	112.62
440.272	126.62
440.493	85.62
440.715	95.62
440.936	75.62
441.158	93.62
441.379	107.62
441.6	93.62
441.822	89.62
442.043	81.62
442.264	94.62
442.486	86.62
442.707	97.62
442.928	91.62
443.149	116.62
443.371	112.62
443.592	100.62
443.813	103.62
444.034	106.62
444.255	78.62
444.476	94.62
444.698	90.62
444.919	99.62
445.14	143.62
445.361	129.62
445.582	115.62
445.803	128.62
446.024	95.62
446.245	126.62
446.466	103.62
446.687	84.62
446.908	81.62
447.129	85.62
447.35	79.62
447.571	91.62
447.792	107.62
448.013	104.62
448.234	100.62
448.455	103.62
448.675	95.62
448.896	111.62
449.117	97.62
449.338	102.62
449.559	110.62
449.779	130.62
450	87.62
450.221	95.62
450.442	88.62
450.662	104.62
450.883	107.62
451.104	125.62
451.324	82.62
451.545	83.62
451.766	79.62
451.986	88.62
452.207	94.62
452.428	92.62
452.648	96.62
452.869	82.62
453.089	116.62
453.31	101.62
453.53	90.62
453.751	88.62
453.971	96.62
454.192	101.62
454.412	93.62
454.633	98.62
454.853	93.62
455.073	95.62
455.294	81.62
455.514	86.62
455.734	89.62
455.955	89.62
456.175	84.62
456.395	75.62
456.616	95.62
456.836	74.62
457.056	84.62
457.276	69.62
457.497	83.62
457.717	90.62
457.937	85.62
458.157	87.62
458.377	89.62
458.598	123.62
458.818	144.62
459.038	139.62
459.258	111.62
459.478	84.62
459.698	95.62
459.918	82.62
460.138	84.62
460.358	92.62
460.578	84.62
460.798	77.62
461.018	73.62
461.238	85.62
461.458	76.62
461.678	85.62
461.898	103.62
462.118	96.62
462.338	90.62
462.558	86.62
462.777	87.62
462.997	82.62
463.217	85.62
463.437	98.62
463.657	95.62
463.876	94.62
464.096	82.62
464.316	110.62
464.536	108.62
464.755	88.62
464.975	95.62
465.195	140.62
465.414	146.62
465.634	104.62
465.854	90.62
466.073	81.62
466.293	84.62
466.512	92.62
466.732	84.62
466.951	92.62
467.171	88.62
467.391	98.62
467.61	109.62
467.829	85.62
468.049	93.62
468.268	103.62
468.488	85.62
468.707	76.62
468.927	104.62
469.146	85.62
469.365	95.62
469.585	101.62
469.804	114.62
470.023	91.62
470.243	101.62
470.462	98.62
470.681	117.62
470.901	83.62
471.12	92.62
471.339	97.62
471.558	82.62
471.777	96.62
471.997	81.62
472.216	106.62
472.435	173.62
472.654	98.62
472.873	90.62
473.092	81.62
473.311	85.62
473.53	79.62
473.749	94.62
473.968	101.62
474.187	91.62
474.406	84.62
474.625	84.62
474.844	72.62
475.063	89.62
475.282	97.62
475.501	93.62
475.72	107.62
475.939	72.62
476.158	96.62
476.377	85.62
476.596	96.62
476.814	102.62
477.033	82.62
477.252	88.62
477.471	89.62
477.69	92.62
477.908	89.62
478.127	97.62
478.346	81.62
478.564	95.62
478.783	92.62
479.002	89.62
479.22	92.62
479.439	97.62
479.658	93.62
479.876	105.62
480.095	86.62
480.313	96.62
480.532	77.62
480.751	94.62
480.969	129.62
481.188	220.62
481.406	161.62
481.624	108.62
481.843	96.62
482.061	79.62
482.28	100.62
482.498	91.62
482.717	83.62
482.935	76.62
483.153	87.62
483.372	91.62
483.59	85.62
483.808	85.62
484.027	100.62
484.245	82.62
484.463	84.62
484.681	93.62
484.9	88.62
485.118	82.62
485.336	93.62
485.554	82.62
485.772	85.62
485.99	88.62
486.209	98.62
486.427	103.62
486.645	104.62
486.863	114.62
487.081	103.62
487.299	81.62
487.517	92.62
487.735	71.62
487.953	89.62
488.171	84.62
488.389	99.62
488.607	94.62
488.825	69.62
489.043	88.62
489.261	82.62
489.479	81.62
489.696	81.62
489.914	95.62
490.132	86.62
490.35	92.62
490.568	81.62
490.786	88.62
491.003	79.62
491.221	78.62
491.439	95.62
491.657	96.62
491.874	90.62
492.092	93.62
492.31	105.62
492.527	95.62
492.745	94.62
492.963	84.62
493.18	87.62
493.398	109.62
493.615	89.62
493.833	107.62
494.05	93.62
494.268	92.62
494.485	100.62
494.703	93.62
494.92	89.62
495.138	98.62
495.355	91.62
495.573	88.62
495.79	91.62
496.008	89.62
496.225	83.62
496.442	91.62
496.66	85.62
496.877	94.62
497.094	92.62
497.312	93.62
497.529	95.62
497.746	81.62
497.963	80.62
498.181	90.62
498.398	92.62
498.615	122.62
498.832	94.62
499.049	95.62
499.267	92.62
499.484	100.62
499.701	86.62
499.918	99.62
500.135	91.62
500.352	85.62
500.569	73.62
500.786	79.62
501.003	86.62
501.22	84.62
501.437	88.62
501.654	89.62
501.871	90.62
502.088	78.62
502.305	97.62
502.522	78.62
502.739	93.62
502.956	88.62
503.172	89.62
503.389	91.62
503.606	97.62
503.823	109.62
504.04	87.62
504.256	87.62
504.473	87.62
504.69	96.62
504.907	90.62
505.123	85.62
505.34	78.62
505.557	95.62
505.773	96.62
505.99	89.62
506.207	76.62
506.423	69.62
506.64	95.62
506.856	84.62
507.073	107.62
507.289	88.62
507.506	88.62
507.722	110.62
507.939	114.62
508.155	87.62
508.372	94.62
508.588	80.62
508.805	92.62
509.021	83.62
509.238	98.62
509.454	96.62
509.67	93.62
509.887	107.62
510.103	147.62
510.319	201.62
510.536	759.62
510.752	2509.62
510.968	721.62
511.184	167.62
511.401	124.62
511.617	104.62
511.833	101.62
512.049	100.62
512.265	97.62
512.481	86.62
512.698	93.62
512.914	83.62
513.13	81.62
513.346	90.62
513.562	87.62
513.778	93.62
513.994	92.62
514.21	85.62
514.426	118.62
514.642	139.62
514.858	146.62
515.074	160.62
515.29	435.62
515.506	1472.62
515.721	531.62
515.937	140.62
