Data from Circ_2008_H10_HRD10591_00072.txt Node
Date: Wed Jan 03 10:17:10 EST 2024
User: Yrep
Spectrometer: HR+D1059
Trigger mode: 1
Integration Time (sec): 1.000000E-1
Scans to average: 1
Electric dark correction enabled: true
Nonlinearity correction enabled: false
Boxcar width: 0
XAxis mode: Wavelengths
Number of Pixels in Spectrum: 2048
>>>>>Begin Spectral Data<<<<<
223.165	-8.94
223.4	-8.94
223.635	-8.94
223.869	-15.94
224.104	-16.94
224.338	-3.94
224.573	-16.94
224.808	-2.94
225.042	-13.94
225.277	-0.94
225.511	0.06
225.746	12.06
225.98	3.06
226.215	-3.94
226.449	7.06
226.683	9.06
226.918	28.06
227.152	25.06
227.387	41.06
227.621	31.06
227.856	52.06
228.09	55.06
228.324	42.06
228.559	66.06
228.793	52.06
229.027	66.06
229.262	65.06
229.496	69.06
229.73	104.06
229.964	84.06
230.199	85.06
230.433	81.06
230.667	88.06
230.901	82.06
231.136	71.06
231.37	83.06
231.604	72.06
231.838	85.06
232.072	91.06
232.306	91.06
232.541	86.06
232.775	84.06
233.009	89.06
233.243	79.06
233.477	81.06
233.711	80.06
233.945	95.06
234.179	77.06
234.413	90.06
234.647	87.06
234.881	72.06
235.115	83.06
235.349	73.06
235.583	75.06
235.817	81.06
236.051	67.06
236.285	75.06
236.519	79.06
236.753	76.06
236.987	78.06
237.221	90.06
237.455	82.06
237.689	77.06
237.922	86.06
238.156	82.06
238.39	84.06
238.624	73.06
238.858	78.06
239.091	72.06
239.325	77.06
239.559	93.06
239.793	87.06
240.027	76.06
240.26	72.06
240.494	66.06
240.728	84.06
240.961	71.06
241.195	81.06
241.429	80.06
241.662	81.06
241.896	77.06
242.13	79.06
242.363	85.06
242.597	75.06
242.83	78.06
243.064	85.06
243.298	73.06
243.531	77.06
243.765	77.06
243.998	80.06
244.232	86.06
244.465	87.06
244.699	80.06
244.932	71.06
245.166	78.06
245.399	73.06
245.633	74.06
245.866	88.06
246.099	68.06
246.333	73.06
246.566	84.06
246.8	65.06
247.033	79.06
247.266	72.06
247.5	83.06
247.733	82.06
247.966	68.06
248.2	91.06
248.433	84.06
248.666	77.06
248.899	84.06
249.133	85.06
249.366	91.06
249.599	95.06
249.832	85.06
250.066	88.06
250.299	87.06
250.532	62.06
250.765	73.06
250.998	79.06
251.231	67.06
251.465	84.06
251.698	84.06
251.931	70.06
252.164	77.06
252.397	79.06
252.63	68.06
252.863	70.06
253.096	75.06
253.329	81.06
253.562	86.06
253.795	81.06
254.028	89.06
254.261	91.06
254.494	82.06
254.727	78.06
254.96	69.06
255.193	82.06
255.426	90.06
255.659	87.06
255.892	82.06
256.124	83.06
256.357	89.06
256.59	82.06
256.823	65.06
257.056	73.06
257.289	94.06
257.521	78.06
257.754	84.06
257.987	82.06
258.22	90.06
258.452	72.06
258.685	96.06
258.918	76.06
259.151	75.06
259.383	84.06
259.616	91.06
259.849	88.06
260.081	63.06
260.314	77.06
260.547	84.06
260.779	81.06
261.012	79.06
261.244	78.06
261.477	79.06
261.71	99.06
261.942	116.06
262.175	107.06
262.407	73.06
262.64	96.06
262.872	89.06
263.105	80.06
263.337	92.06
263.57	77.06
263.802	99.06
264.035	80.06
264.267	77.06
264.499	92.06
264.732	84.06
264.964	82.06
265.197	81.06
265.429	93.06
265.661	87.06
265.894	90.06
266.126	84.06
266.358	91.06
266.591	91.06
266.823	68.06
267.055	79.06
267.287	77.06
267.52	83.06
267.752	83.06
267.984	71.06
268.216	91.06
268.448	85.06
268.681	91.06
268.913	75.06
269.145	85.06
269.377	104.06
269.609	93.06
269.841	86.06
270.073	91.06
270.306	77.06
270.538	87.06
270.77	83.06
271.002	86.06
271.234	88.06
271.466	98.06
271.698	82.06
271.93	89.06
272.162	81.06
272.394	95.06
272.626	93.06
272.858	92.06
273.09	86.06
273.322	83.06
273.553	78.06
273.785	90.06
274.017	89.06
274.249	90.06
274.481	92.06
274.713	82.06
274.945	96.06
275.176	85.06
275.408	82.06
275.64	90.06
275.872	91.06
276.104	87.06
276.335	94.06
276.567	99.06
276.799	101.06
277.031	100.06
277.262	92.06
277.494	89.06
277.726	84.06
277.957	85.06
278.189	72.06
278.421	84.06
278.652	78.06
278.884	90.06
279.115	77.06
279.347	88.06
279.579	76.06
279.81	89.06
280.042	102.06
280.273	89.06
280.505	91.06
280.736	73.06
280.968	104.06
281.199	96.06
281.431	86.06
281.662	85.06
281.894	88.06
282.125	98.06
282.356	115.06
282.588	141.06
282.819	114.06
283.051	84.06
283.282	78.06
283.513	77.06
283.745	86.06
283.976	83.06
284.207	106.06
284.439	100.06
284.67	88.06
284.901	97.06
285.132	105.06
285.364	92.06
285.595	87.06
285.826	88.06
286.057	82.06
286.288	88.06
286.52	93.06
286.751	76.06
286.982	84.06
287.213	95.06
287.444	99.06
287.675	87.06
287.906	84.06
288.138	94.06
288.369	103.06
288.6	100.06
288.831	81.06
289.062	90.06
289.293	92.06
289.524	110.06
289.755	93.06
289.986	87.06
290.217	99.06
290.448	90.06
290.679	76.06
290.91	90.06
291.141	87.06
291.371	97.06
291.602	104.06
291.833	91.06
292.064	99.06
292.295	78.06
292.526	90.06
292.757	86.06
292.987	88.06
293.218	84.06
293.449	93.06
293.68	89.06
293.91	85.06
294.141	71.06
294.372	83.06
294.603	93.06
294.833	88.06
295.064	90.06
295.295	80.06
295.525	92.06
295.756	104.06
295.987	108.06
296.217	127.06
296.448	128.06
296.679	100.06
296.909	93.06
297.14	91.06
297.37	85.06
297.601	89.06
297.831	93.06
298.062	96.06
298.292	90.06
298.523	91.06
298.753	100.06
298.984	91.06
299.214	110.06
299.445	88.06
299.675	95.06
299.905	107.06
300.136	83.06
300.366	86.06
300.597	88.06
300.827	93.06
301.057	111.06
301.288	103.06
301.518	80.06
301.748	88.06
301.979	106.06
302.209	92.06
302.439	88.06
302.669	101.06
302.9	94.06
303.13	92.06
303.36	87.06
303.59	104.06
303.82	105.06
304.051	94.06
304.281	96.06
304.511	81.06
304.741	95.06
304.971	81.06
305.201	97.06
305.431	97.06
305.661	97.06
305.891	92.06
306.121	93.06
306.352	93.06
306.582	91.06
306.812	98.06
307.042	104.06
307.272	78.06
307.502	109.06
307.731	104.06
307.961	91.06
308.191	91.06
308.421	100.06
308.651	83.06
308.881	98.06
309.111	89.06
309.341	104.06
309.571	106.06
309.8	92.06
310.03	105.06
310.26	100.06
310.49	95.06
310.72	92.06
310.949	99.06
311.179	92.06
311.409	89.06
311.639	89.06
311.868	97.06
312.098	93.06
312.328	100.06
312.557	105.06
312.787	119.06
313.017	92.06
313.246	97.06
313.476	103.06
313.706	87.06
313.935	99.06
314.165	104.06
314.394	99.06
314.624	107.06
314.853	93.06
315.083	109.06
315.312	90.06
315.542	96.06
315.771	80.06
316.001	89.06
316.23	92.06
316.46	75.06
316.689	91.06
316.919	84.06
317.148	101.06
317.377	97.06
317.607	95.06
317.836	77.06
318.065	79.06
318.295	93.06
318.524	96.06
318.753	84.06
318.983	93.06
319.212	104.06
319.441	115.06
319.67	103.06
319.9	89.06
320.129	99.06
320.358	95.06
320.587	88.06
320.816	93.06
321.046	98.06
321.275	92.06
321.504	93.06
321.733	100.06
321.962	102.06
322.191	98.06
322.42	106.06
322.649	115.06
322.878	106.06
323.108	106.06
323.337	116.06
323.566	139.06
323.795	141.06
324.024	194.06
324.253	329.06
324.482	708.06
324.71	1412.06
324.939	1844.06
325.168	714.06
325.397	215.06
325.626	137.06
325.855	124.06
326.084	119.06
326.313	121.06
326.542	161.06
326.77	211.06
326.999	403.06
327.228	775.06
327.457	1386.06
327.686	1111.06
327.914	346.06
328.143	201.06
328.372	183.06
328.6	128.06
328.829	114.06
329.058	117.06
329.287	113.06
329.515	116.06
329.744	105.06
329.972	126.06
330.201	161.06
330.43	188.06
330.658	156.06
330.887	164.06
331.115	124.06
331.344	113.06
331.572	108.06
331.801	108.06
332.03	91.06
332.258	99.06
332.486	103.06
332.715	88.06
332.943	95.06
333.172	106.06
333.4	77.06
333.629	107.06
333.857	122.06
334.085	121.06
334.314	139.06
334.542	217.06
334.771	202.06
334.999	114.06
335.227	99.06
335.455	97.06
335.684	92.06
335.912	100.06
336.14	109.06
336.369	96.06
336.597	108.06
336.825	102.06
337.053	105.06
337.281	99.06
337.51	110.06
337.738	89.06
337.966	85.06
338.194	89.06
338.422	106.06
338.65	101.06
338.878	90.06
339.106	82.06
339.334	90.06
339.562	94.06
339.79	94.06
340.018	89.06
340.246	96.06
340.474	103.06
340.702	92.06
340.93	80.06
341.158	92.06
341.386	96.06
341.614	80.06
341.842	92.06
342.07	96.06
342.298	108.06
342.526	90.06
342.754	79.06
342.981	97.06
343.209	89.06
343.437	106.06
343.665	93.06
343.893	75.06
344.12	96.06
344.348	80.06
344.576	99.06
344.804	107.06
345.031	104.06
345.259	103.06
345.487	99.06
345.714	98.06
345.942	91.06
346.17	103.06
346.397	114.06
346.625	100.06
346.853	79.06
347.08	92.06
347.308	95.06
347.535	104.06
347.763	100.06
347.99	82.06
348.218	116.06
348.445	90.06
348.673	97.06
348.9	88.06
349.128	113.06
349.355	106.06
349.583	89.06
349.81	84.06
350.037	95.06
350.265	90.06
350.492	109.06
350.72	101.06
350.947	95.06
351.174	106.06
351.402	108.06
351.629	106.06
351.856	115.06
352.083	100.06
352.311	115.06
352.538	119.06
352.765	107.06
352.992	108.06
353.22	119.06
353.447	102.06
353.674	101.06
353.901	96.06
354.128	108.06
354.355	73.06
354.583	110.06
354.81	98.06
355.037	100.06
355.264	87.06
355.491	97.06
355.718	74.06
355.945	104.06
356.172	100.06
356.399	85.06
356.626	100.06
356.853	103.06
357.08	88.06
357.307	96.06
357.534	92.06
357.761	93.06
357.988	93.06
358.215	102.06
358.441	93.06
358.668	112.06
358.895	102.06
359.122	84.06
359.349	96.06
359.576	93.06
359.802	93.06
360.029	92.06
360.256	105.06
360.483	84.06
360.709	86.06
360.936	97.06
361.163	90.06
361.39	83.06
361.616	86.06
361.843	91.06
362.07	91.06
362.296	91.06
362.523	86.06
362.749	95.06
362.976	99.06
363.203	100.06
363.429	94.06
363.656	77.06
363.882	85.06
364.109	88.06
364.335	100.06
364.562	109.06
364.788	82.06
365.015	119.06
365.241	111.06
365.468	126.06
365.694	104.06
365.92	98.06
366.147	97.06
366.373	95.06
366.599	100.06
366.826	90.06
367.052	88.06
367.278	86.06
367.505	103.06
367.731	93.06
367.957	91.06
368.184	90.06
368.41	90.06
368.636	121.06
368.862	117.06
369.089	112.06
369.315	91.06
369.541	94.06
369.767	103.06
369.993	92.06
370.219	95.06
370.445	89.06
370.672	91.06
370.898	88.06
371.124	91.06
371.35	98.06
371.576	90.06
371.802	90.06
372.028	79.06
372.254	97.06
372.48	91.06
372.706	87.06
372.932	78.06
373.158	90.06
373.384	88.06
373.61	98.06
373.835	90.06
374.061	95.06
374.287	97.06
374.513	84.06
374.739	75.06
374.965	94.06
375.191	83.06
375.416	97.06
375.642	91.06
375.868	91.06
376.094	98.06
376.319	97.06
376.545	99.06
376.771	92.06
376.997	85.06
377.222	96.06
377.448	105.06
377.674	100.06
377.899	90.06
378.125	97.06
378.35	96.06
378.576	84.06
378.802	88.06
379.027	91.06
379.253	98.06
379.478	90.06
379.704	84.06
379.929	80.06
380.155	99.06
380.38	97.06
380.606	103.06
380.831	89.06
381.057	95.06
381.282	109.06
381.507	84.06
381.733	88.06
381.958	99.06
382.184	102.06
382.409	107.06
382.634	99.06
382.86	106.06
383.085	102.06
383.31	110.06
383.535	93.06
383.761	108.06
383.986	98.06
384.211	95.06
384.436	109.06
384.662	101.06
384.887	100.06
385.112	104.06
385.337	107.06
385.562	103.06
385.787	100.06
386.013	97.06
386.238	99.06
386.463	105.06
386.688	108.06
386.913	108.06
387.138	101.06
387.363	105.06
387.588	103.06
387.813	92.06
388.038	122.06
388.263	116.06
388.488	109.06
388.713	94.06
388.938	87.06
389.163	83.06
389.387	93.06
389.612	88.06
389.837	86.06
390.062	95.06
390.287	102.06
390.512	89.06
390.736	98.06
390.961	92.06
391.186	104.06
391.411	95.06
391.636	101.06
391.86	97.06
392.085	100.06
392.31	98.06
392.534	86.06
392.759	94.06
392.984	87.06
393.208	90.06
393.433	94.06
393.658	87.06
393.882	79.06
394.107	72.06
394.331	91.06
394.556	101.06
394.78	80.06
395.005	90.06
395.229	82.06
395.454	84.06
395.678	78.06
395.903	91.06
396.127	108.06
396.352	94.06
396.576	74.06
396.801	100.06
397.025	80.06
397.249	95.06
397.474	98.06
397.698	105.06
397.922	82.06
398.147	93.06
398.371	95.06
398.595	71.06
398.82	97.06
399.044	88.06
399.268	84.06
399.492	73.06
399.717	83.06
399.941	85.06
400.165	85.06
400.389	84.06
400.613	85.06
400.837	82.06
401.062	81.06
401.286	81.06
401.51	85.06
401.734	101.06
401.958	85.06
402.182	116.06
402.406	150.06
402.63	114.06
402.854	93.06
403.078	82.06
403.302	83.06
403.526	93.06
403.75	97.06
403.974	100.06
404.198	90.06
404.422	93.06
404.645	95.06
404.869	77.06
405.093	102.06
405.317	94.06
405.541	94.06
405.765	92.06
405.988	122.06
406.212	155.06
406.436	211.06
406.66	141.06
406.883	101.06
407.107	95.06
407.331	103.06
407.555	101.06
407.778	85.06
408.002	78.06
408.226	102.06
408.449	81.06
408.673	85.06
408.896	82.06
409.12	92.06
409.344	99.06
409.567	77.06
409.791	90.06
410.014	84.06
410.238	89.06
410.461	89.06
410.685	100.06
410.908	92.06
411.132	108.06
411.355	100.06
411.578	81.06
411.802	85.06
412.025	85.06
412.249	88.06
412.472	90.06
412.695	94.06
412.919	85.06
413.142	97.06
413.365	100.06
413.589	87.06
413.812	103.06
414.035	93.06
414.258	92.06
414.482	91.06
414.705	77.06
414.928	88.06
415.151	101.06
415.374	90.06
415.597	98.06
415.821	77.06
416.044	91.06
416.267	82.06
416.49	87.06
416.713	91.06
416.936	87.06
417.159	96.06
417.382	79.06
417.605	82.06
417.828	101.06
418.051	97.06
418.274	96.06
418.497	89.06
418.72	84.06
418.943	96.06
419.166	83.06
419.389	89.06
419.611	87.06
419.834	92.06
420.057	102.06
420.28	87.06
420.503	92.06
420.726	80.06
420.948	92.06
421.171	78.06
421.394	81.06
421.617	89.06
421.839	95.06
422.062	88.06
422.285	101.06
422.507	100.06
422.73	105.06
422.953	99.06
423.175	88.06
423.398	94.06
423.621	89.06
423.843	84.06
424.066	83.06
424.288	102.06
424.511	75.06
424.733	92.06
424.956	118.06
425.178	84.06
425.401	85.06
425.623	97.06
425.846	90.06
426.068	89.06
426.291	103.06
426.513	101.06
426.735	103.06
426.958	88.06
427.18	105.06
427.402	139.06
427.625	157.06
427.847	132.06
428.069	123.06
428.292	98.06
428.514	83.06
428.736	96.06
428.958	84.06
429.181	87.06
429.403	89.06
429.625	88.06
429.847	105.06
430.069	90.06
430.292	96.06
430.514	90.06
430.736	97.06
430.958	94.06
431.18	100.06
431.402	82.06
431.624	102.06
431.846	89.06
432.068	78.06
432.29	88.06
432.512	95.06
432.734	79.06
432.956	86.06
433.178	94.06
433.4	98.06
433.622	85.06
433.844	97.06
434.066	93.06
434.287	85.06
434.509	98.06
434.731	90.06
434.953	91.06
435.175	85.06
435.397	97.06
435.618	91.06
435.84	107.06
436.062	92.06
436.284	103.06
436.505	114.06
436.727	96.06
436.949	79.06
437.17	92.06
437.392	88.06
437.614	95.06
437.835	91.06
438.057	108.06
438.278	108.06
438.5	91.06
438.721	100.06
438.943	90.06
439.165	92.06
439.386	93.06
439.608	102.06
439.829	106.06
440.05	127.06
440.272	130.06
440.493	95.06
440.715	91.06
440.936	84.06
441.158	79.06
441.379	83.06
441.6	101.06
441.822	94.06
442.043	91.06
442.264	96.06
442.486	94.06
442.707	106.06
442.928	119.06
443.149	129.06
443.371	141.06
443.592	104.06
443.813	123.06
444.034	91.06
444.255	94.06
444.476	91.06
444.698	92.06
444.919	84.06
445.14	132.06
445.361	122.06
445.582	117.06
445.803	130.06
446.024	121.06
446.245	136.06
446.466	111.06
446.687	103.06
446.908	76.06
447.129	78.06
447.35	73.06
447.571	86.06
447.792	104.06
448.013	107.06
448.234	103.06
448.455	105.06
448.675	108.06
448.896	116.06
449.117	99.06
449.338	104.06
449.559	117.06
449.779	123.06
450	97.06
450.221	85.06
450.442	82.06
450.662	102.06
450.883	105.06
451.104	103.06
451.324	88.06
451.545	106.06
451.766	95.06
451.986	81.06
452.207	88.06
452.428	91.06
452.648	85.06
452.869	102.06
453.089	115.06
453.31	115.06
453.53	106.06
453.751	91.06
453.971	102.06
454.192	111.06
454.412	87.06
454.633	86.06
454.853	79.06
455.073	89.06
455.294	76.06
455.514	92.06
455.734	85.06
455.955	92.06
456.175	86.06
456.395	100.06
456.616	83.06
456.836	85.06
457.056	94.06
457.276	91.06
457.497	69.06
457.717	95.06
457.937	101.06
458.157	88.06
458.377	87.06
458.598	99.06
458.818	142.06
459.038	163.06
459.258	127.06
459.478	80.06
459.698	82.06
459.918	77.06
460.138	95.06
460.358	81.06
460.578	96.06
460.798	88.06
461.018	108.06
461.238	87.06
461.458	83.06
461.678	90.06
461.898	80.06
462.118	90.06
462.338	95.06
462.558	85.06
462.777	105.06
462.997	89.06
463.217	82.06
463.437	94.06
463.657	95.06
463.876	88.06
464.096	85.06
464.316	99.06
464.536	103.06
464.755	96.06
464.975	102.06
465.195	154.06
465.414	157.06
465.634	102.06
465.854	96.06
466.073	85.06
466.293	87.06
466.512	104.06
466.732	96.06
466.951	92.06
467.171	85.06
467.391	98.06
467.61	111.06
467.829	94.06
468.049	115.06
468.268	127.06
468.488	89.06
468.707	87.06
468.927	85.06
469.146	100.06
469.365	85.06
469.585	97.06
469.804	93.06
470.023	100.06
470.243	78.06
470.462	105.06
470.681	109.06
470.901	95.06
471.12	96.06
471.339	82.06
471.558	83.06
471.777	95.06
471.997	94.06
472.216	180.06
472.435	259.06
472.654	125.06
472.873	86.06
473.092	98.06
473.311	101.06
473.53	97.06
473.749	103.06
473.968	94.06
474.187	120.06
474.406	111.06
474.625	79.06
474.844	94.06
475.063	87.06
475.282	85.06
475.501	91.06
475.72	91.06
475.939	91.06
476.158	80.06
476.377	97.06
476.596	88.06
476.814	81.06
477.033	78.06
477.252	92.06
477.471	83.06
477.69	103.06
477.908	98.06
478.127	98.06
478.346	95.06
478.564	104.06
478.783	100.06
479.002	94.06
479.22	92.06
479.439	101.06
479.658	96.06
479.876	91.06
480.095	95.06
480.313	100.06
480.532	104.06
480.751	120.06
480.969	171.06
481.188	420.06
481.406	291.06
481.624	120.06
481.843	95.06
482.061	90.06
482.28	76.06
482.498	87.06
482.717	81.06
482.935	95.06
483.153	85.06
483.372	89.06
483.59	81.06
483.808	87.06
484.027	108.06
484.245	100.06
484.463	85.06
484.681	101.06
484.9	85.06
485.118	110.06
485.336	88.06
485.554	98.06
485.772	89.06
485.99	99.06
486.209	93.06
486.427	100.06
486.645	105.06
486.863	98.06
487.081	104.06
487.299	99.06
487.517	100.06
487.735	85.06
487.953	100.06
488.171	99.06
488.389	94.06
488.607	92.06
488.825	99.06
489.043	86.06
489.261	102.06
489.479	92.06
489.696	94.06
489.914	97.06
490.132	95.06
490.35	104.06
490.568	84.06
490.786	89.06
491.003	91.06
491.221	74.06
491.439	96.06
491.657	79.06
491.874	102.06
492.092	98.06
492.31	92.06
492.527	84.06
492.745	96.06
492.963	106.06
493.18	91.06
493.398	102.06
493.615	104.06
493.833	98.06
494.05	78.06
494.268	93.06
494.485	94.06
494.703	93.06
494.92	88.06
495.138	102.06
495.355	101.06
495.573	97.06
495.79	85.06
496.008	97.06
496.225	85.06
496.442	79.06
496.66	87.06
496.877	102.06
497.094	88.06
497.312	88.06
497.529	82.06
497.746	87.06
497.963	94.06
498.181	98.06
498.398	96.06
498.615	111.06
498.832	97.06
499.049	96.06
499.267	106.06
499.484	87.06
499.701	100.06
499.918	87.06
500.135	89.06
500.352	98.06
500.569	99.06
500.786	98.06
501.003	95.06
501.22	85.06
501.437	105.06
501.654	86.06
501.871	101.06
502.088	96.06
502.305	88.06
502.522	100.06
502.739	96.06
502.956	92.06
503.172	97.06
503.389	95.06
503.606	113.06
503.823	114.06
504.04	92.06
504.256	98.06
504.473	81.06
504.69	103.06
504.907	96.06
505.123	95.06
505.34	92.06
505.557	96.06
505.773	87.06
505.99	88.06
506.207	88.06
506.423	90.06
506.64	100.06
506.856	92.06
507.073	104.06
507.289	99.06
507.506	102.06
507.722	107.06
507.939	103.06
508.155	82.06
508.372	85.06
508.588	76.06
508.805	86.06
509.021	103.06
509.238	107.06
509.454	88.06
509.67	102.06
509.887	95.06
510.103	124.06
510.319	219.06
510.536	781.06
510.752	2556.06
510.968	738.06
511.184	167.06
511.401	114.06
511.617	102.06
511.833	93.06
512.049	97.06
512.265	91.06
512.481	89.06
512.698	91.06
512.914	111.06
513.13	112.06
513.346	96.06
513.562	99.06
513.778	102.06
513.994	103.06
514.21	104.06
514.426	103.06
514.642	127.06
514.858	114.06
