Data from Circ_2008_H10_HRD10591_00030.txt Node
Date: Wed Jan 03 10:17:02 EST 2024
User: Yrep
Spectrometer: HR+D1059
Trigger mode: 1
Integration Time (sec): 1.000000E-1
Scans to average: 1
Electric dark correction enabled: true
Nonlinearity correction enabled: false
Boxcar width: 0
XAxis mode: Wavelengths
Number of Pixels in Spectrum: 2048
>>>>>Begin Spectral Data<<<<<
223.165	0.56
223.4	0.56
223.635	0.56
223.869	-26.44
224.104	-9.44
224.338	-1.44
224.573	-7.44
224.808	-8.44
225.042	-11.44
225.277	-5.44
225.511	-5.44
225.746	-3.44
225.98	-11.44
226.215	15.56
226.449	2.56
226.683	12.56
226.918	28.56
227.152	30.56
227.387	20.56
227.621	41.56
227.856	42.56
228.09	39.56
228.324	41.56
228.559	56.56
228.793	40.56
229.027	60.56
229.262	64.56
229.496	56.56
229.73	70.56
229.964	69.56
230.199	64.56
230.433	68.56
230.667	76.56
230.901	77.56
231.136	72.56
231.37	77.56
231.604	77.56
231.838	54.56
232.072	81.56
232.306	68.56
232.541	69.56
232.775	68.56
233.009	84.56
233.243	75.56
233.477	93.56
233.711	72.56
233.945	75.56
234.179	80.56
234.413	73.56
234.647	95.56
234.881	81.56
235.115	78.56
235.349	75.56
235.583	76.56
235.817	73.56
236.051	74.56
236.285	85.56
236.519	83.56
236.753	76.56
236.987	63.56
237.221	79.56
237.455	87.56
237.689	65.56
237.922	73.56
238.156	66.56
238.39	70.56
238.624	65.56
238.858	74.56
239.091	80.56
239.325	80.56
239.559	67.56
239.793	80.56
240.027	80.56
240.26	83.56
240.494	80.56
240.728	69.56
240.961	70.56
241.195	62.56
241.429	81.56
241.662	88.56
241.896	81.56
242.13	78.56
242.363	76.56
242.597	75.56
242.83	77.56
243.064	73.56
243.298	65.56
243.531	80.56
243.765	81.56
243.998	75.56
244.232	69.56
244.465	83.56
244.699	87.56
244.932	69.56
245.166	90.56
245.399	92.56
245.633	76.56
245.866	75.56
246.099	91.56
246.333	83.56
246.566	81.56
246.8	72.56
247.033	76.56
247.266	78.56
247.5	73.56
247.733	82.56
247.966	68.56
248.2	92.56
248.433	76.56
248.666	87.56
248.899	94.56
249.133	78.56
249.366	104.56
249.599	92.56
249.832	80.56
250.066	85.56
250.299	75.56
250.532	68.56
250.765	78.56
250.998	82.56
251.231	71.56
251.465	71.56
251.698	70.56
251.931	81.56
252.164	74.56
252.397	78.56
252.63	74.56
252.863	84.56
253.096	74.56
253.329	79.56
253.562	76.56
253.795	82.56
254.028	68.56
254.261	69.56
254.494	80.56
254.727	79.56
254.96	66.56
255.193	62.56
255.426	63.56
255.659	75.56
255.892	73.56
256.124	89.56
256.357	83.56
256.59	84.56
256.823	69.56
257.056	82.56
257.289	69.56
257.521	70.56
257.754	69.56
257.987	92.56
258.22	81.56
258.452	80.56
258.685	88.56
258.918	90.56
259.151	80.56
259.383	63.56
259.616	87.56
259.849	93.56
260.081	81.56
260.314	80.56
260.547	89.56
260.779	73.56
261.012	84.56
261.244	69.56
261.477	80.56
261.71	100.56
261.942	117.56
262.175	111.56
262.407	78.56
262.64	76.56
262.872	89.56
263.105	57.56
263.337	82.56
263.57	92.56
263.802	95.56
264.035	70.56
264.267	89.56
264.499	83.56
264.732	76.56
264.964	96.56
265.197	85.56
265.429	88.56
265.661	94.56
265.894	68.56
266.126	86.56
266.358	90.56
266.591	102.56
266.823	89.56
267.055	81.56
267.287	79.56
267.52	77.56
267.752	82.56
267.984	91.56
268.216	87.56
268.448	88.56
268.681	71.56
268.913	88.56
269.145	72.56
269.377	85.56
269.609	91.56
269.841	81.56
270.073	67.56
270.306	93.56
270.538	85.56
270.77	79.56
271.002	72.56
271.234	77.56
271.466	80.56
271.698	82.56
271.93	94.56
272.162	94.56
272.394	85.56
272.626	82.56
272.858	88.56
273.09	73.56
273.322	74.56
273.553	87.56
273.785	84.56
274.017	83.56
274.249	82.56
274.481	83.56
274.713	94.56
274.945	84.56
275.176	88.56
275.408	89.56
275.64	88.56
275.872	94.56
276.104	94.56
276.335	92.56
276.567	103.56
276.799	104.56
277.031	88.56
277.262	76.56
277.494	86.56
277.726	99.56
277.957	90.56
278.189	82.56
278.421	100.56
278.652	86.56
278.884	76.56
279.115	68.56
279.347	81.56
279.579	88.56
279.81	86.56
280.042	81.56
280.273	83.56
280.505	92.56
280.736	78.56
280.968	69.56
281.199	92.56
281.431	81.56
281.662	73.56
281.894	90.56
282.125	92.56
282.356	132.56
282.588	152.56
282.819	130.56
283.051	87.56
283.282	85.56
283.513	80.56
283.745	86.56
283.976	88.56
284.207	89.56
284.439	79.56
284.67	79.56
284.901	89.56
285.132	88.56
285.364	77.56
285.595	88.56
285.826	66.56
286.057	101.56
286.288	78.56
286.52	85.56
286.751	70.56
286.982	76.56
287.213	82.56
287.444	88.56
287.675	89.56
287.906	90.56
288.138	77.56
288.369	97.56
288.6	96.56
288.831	87.56
289.062	81.56
289.293	93.56
289.524	89.56
289.755	90.56
289.986	88.56
290.217	98.56
290.448	98.56
290.679	86.56
290.91	72.56
291.141	75.56
291.371	88.56
291.602	85.56
291.833	85.56
292.064	106.56
292.295	94.56
292.526	76.56
292.757	95.56
292.987	89.56
293.218	78.56
293.449	86.56
293.68	77.56
293.91	81.56
294.141	91.56
294.372	80.56
294.603	94.56
294.833	86.56
295.064	87.56
295.295	61.56
295.525	87.56
295.756	89.56
295.987	113.56
296.217	136.56
296.448	136.56
296.679	106.56
296.909	98.56
297.14	86.56
297.37	95.56
297.601	83.56
297.831	99.56
298.062	81.56
298.292	74.56
298.523	74.56
298.753	90.56
298.984	86.56
299.214	90.56
299.445	94.56
299.675	85.56
299.905	94.56
300.136	76.56
300.366	84.56
300.597	95.56
300.827	95.56
301.057	104.56
301.288	109.56
301.518	97.56
301.748	82.56
301.979	95.56
302.209	89.56
302.439	84.56
302.669	86.56
302.9	70.56
303.13	83.56
303.36	103.56
303.59	88.56
303.82	109.56
304.051	92.56
304.281	82.56
304.511	96.56
304.741	81.56
304.971	92.56
305.201	88.56
305.431	88.56
305.661	92.56
305.891	84.56
306.121	93.56
306.352	104.56
306.582	94.56
306.812	90.56
307.042	102.56
307.272	84.56
307.502	106.56
307.731	103.56
307.961	87.56
308.191	95.56
308.421	83.56
308.651	80.56
308.881	84.56
309.111	82.56
309.341	72.56
309.571	86.56
309.8	96.56
310.03	109.56
310.26	116.56
310.49	96.56
310.72	94.56
310.949	112.56
311.179	101.56
311.409	92.56
311.639	92.56
311.868	110.56
312.098	83.56
312.328	73.56
312.557	100.56
312.787	100.56
313.017	109.56
313.246	92.56
313.476	94.56
313.706	112.56
313.935	94.56
314.165	96.56
314.394	108.56
314.624	85.56
314.853	84.56
315.083	91.56
315.312	99.56
315.542	89.56
315.771	80.56
316.001	93.56
316.23	94.56
316.46	87.56
316.689	86.56
316.919	90.56
317.148	94.56
317.377	96.56
317.607	88.56
317.836	97.56
318.065	88.56
318.295	82.56
318.524	81.56
318.753	84.56
318.983	100.56
319.212	108.56
319.441	109.56
319.67	105.56
319.9	99.56
320.129	88.56
320.358	98.56
320.587	103.56
320.816	98.56
321.046	107.56
321.275	91.56
321.504	116.56
321.733	100.56
321.962	104.56
322.191	97.56
322.42	102.56
322.649	113.56
322.878	119.56
323.108	112.56
323.337	133.56
323.566	126.56
323.795	143.56
324.024	197.56
324.253	391.56
324.482	777.56
324.71	1574.56
324.939	2028.56
325.168	789.56
325.397	251.56
325.626	158.56
325.855	133.56
326.084	136.56
326.313	121.56
326.542	146.56
326.77	224.56
326.999	423.56
327.228	862.56
327.457	1504.56
327.686	1229.56
327.914	349.56
328.143	204.56
328.372	171.56
328.6	111.56
328.829	116.56
329.058	122.56
329.287	136.56
329.515	110.56
329.744	93.56
329.972	109.56
330.201	114.56
330.43	136.56
330.658	147.56
330.887	141.56
331.115	128.56
331.344	106.56
331.572	101.56
331.801	116.56
332.03	107.56
332.258	92.56
332.486	82.56
332.715	89.56
332.943	106.56
333.172	103.56
333.4	108.56
333.629	104.56
333.857	109.56
334.085	112.56
334.314	124.56
334.542	152.56
334.771	137.56
334.999	99.56
335.227	95.56
335.455	107.56
335.684	82.56
335.912	85.56
336.14	100.56
336.369	106.56
336.597	96.56
336.825	100.56
337.053	92.56
337.281	90.56
337.51	85.56
337.738	100.56
337.966	98.56
338.194	104.56
338.422	112.56
338.65	112.56
338.878	89.56
339.106	92.56
339.334	95.56
339.562	92.56
339.79	94.56
340.018	85.56
340.246	85.56
340.474	89.56
340.702	89.56
340.93	87.56
341.158	87.56
341.386	93.56
341.614	82.56
341.842	96.56
342.07	89.56
342.298	91.56
342.526	94.56
342.754	96.56
342.981	97.56
343.209	82.56
343.437	101.56
343.665	90.56
343.893	99.56
344.12	104.56
344.348	93.56
344.576	90.56
344.804	87.56
345.031	88.56
345.259	95.56
345.487	106.56
345.714	88.56
345.942	104.56
346.17	81.56
346.397	90.56
346.625	105.56
346.853	100.56
347.08	97.56
347.308	88.56
347.535	88.56
347.763	107.56
347.99	112.56
348.218	98.56
348.445	106.56
348.673	95.56
348.9	88.56
349.128	97.56
349.355	92.56
349.583	90.56
349.81	97.56
350.037	81.56
350.265	81.56
350.492	81.56
350.72	105.56
350.947	106.56
351.174	101.56
351.402	108.56
351.629	97.56
351.856	100.56
352.083	109.56
352.311	92.56
352.538	103.56
352.765	101.56
352.992	121.56
353.22	113.56
353.447	104.56
353.674	104.56
353.901	95.56
354.128	78.56
354.355	90.56
354.583	86.56
354.81	100.56
355.037	105.56
355.264	98.56
355.491	101.56
355.718	89.56
355.945	86.56
356.172	92.56
356.399	84.56
356.626	80.56
356.853	93.56
357.08	97.56
357.307	89.56
357.534	82.56
357.761	98.56
357.988	85.56
358.215	98.56
358.441	86.56
358.668	92.56
358.895	83.56
359.122	85.56
359.349	102.56
359.576	101.56
359.802	105.56
360.029	112.56
360.256	104.56
360.483	100.56
360.709	101.56
360.936	103.56
361.163	84.56
361.39	90.56
361.616	102.56
361.843	94.56
362.07	87.56
362.296	100.56
362.523	93.56
362.749	95.56
362.976	93.56
363.203	87.56
363.429	80.56
363.656	90.56
363.882	91.56
364.109	73.56
364.335	91.56
364.562	92.56
364.788	99.56
365.015	100.56
365.241	104.56
365.468	117.56
365.694	104.56
365.92	92.56
366.147	98.56
366.373	97.56
366.599	80.56
366.826	80.56
367.052	89.56
367.278	89.56
367.505	92.56
367.731	86.56
367.957	93.56
368.184	86.56
368.41	94.56
368.636	117.56
368.862	134.56
369.089	108.56
369.315	99.56
369.541	91.56
369.767	95.56
369.993	94.56
370.219	90.56
370.445	88.56
370.672	99.56
370.898	84.56
371.124	81.56
371.35	93.56
371.576	86.56
371.802	84.56
372.028	84.56
372.254	95.56
372.48	71.56
372.706	80.56
372.932	88.56
373.158	84.56
373.384	92.56
373.61	96.56
373.835	97.56
374.061	92.56
374.287	91.56
374.513	87.56
374.739	85.56
374.965	89.56
375.191	83.56
375.416	96.56
375.642	97.56
375.868	79.56
376.094	96.56
376.319	92.56
376.545	81.56
376.771	91.56
376.997	81.56
377.222	89.56
377.448	81.56
377.674	93.56
377.899	91.56
378.125	95.56
378.35	69.56
378.576	85.56
378.802	86.56
379.027	88.56
379.253	89.56
379.478	94.56
379.704	102.56
379.929	91.56
380.155	97.56
380.38	101.56
380.606	97.56
380.831	101.56
381.057	104.56
381.282	82.56
381.507	94.56
381.733	103.56
381.958	80.56
382.184	98.56
382.409	91.56
382.634	100.56
382.86	106.56
383.085	102.56
383.31	103.56
383.535	98.56
383.761	98.56
383.986	94.56
384.211	110.56
384.436	105.56
384.662	105.56
384.887	101.56
385.112	97.56
385.337	112.56
385.562	100.56
385.787	120.56
386.013	120.56
386.238	122.56
386.463	119.56
386.688	93.56
386.913	105.56
387.138	100.56
387.363	103.56
387.588	104.56
387.813	94.56
388.038	113.56
388.263	103.56
388.488	120.56
388.713	98.56
388.938	81.56
389.163	96.56
389.387	89.56
389.612	81.56
389.837	81.56
390.062	77.56
390.287	80.56
390.512	86.56
390.736	85.56
390.961	94.56
391.186	82.56
391.411	91.56
391.636	86.56
391.86	83.56
392.085	86.56
392.31	86.56
392.534	97.56
392.759	82.56
392.984	99.56
393.208	79.56
393.433	108.56
393.658	104.56
393.882	84.56
394.107	84.56
394.331	93.56
394.556	87.56
394.78	88.56
395.005	77.56
395.229	91.56
395.454	75.56
395.678	82.56
395.903	92.56
396.127	83.56
396.352	90.56
396.576	97.56
396.801	85.56
397.025	85.56
397.249	78.56
397.474	86.56
397.698	79.56
397.922	81.56
398.147	86.56
398.371	81.56
398.595	70.56
398.82	86.56
399.044	65.56
399.268	90.56
399.492	91.56
399.717	89.56
399.941	87.56
400.165	95.56
400.389	91.56
400.613	87.56
400.837	87.56
401.062	82.56
401.286	67.56
401.51	86.56
401.734	85.56
401.958	102.56
402.182	132.56
402.406	164.56
402.63	127.56
402.854	91.56
403.078	95.56
403.302	76.56
403.526	81.56
403.75	85.56
403.974	79.56
404.198	76.56
404.422	78.56
404.645	93.56
404.869	99.56
405.093	94.56
405.317	81.56
405.541	100.56
405.765	111.56
405.988	119.56
406.212	203.56
406.436	268.56
406.66	167.56
406.883	113.56
407.107	85.56
407.331	87.56
407.555	76.56
407.778	97.56
408.002	87.56
408.226	82.56
408.449	92.56
408.673	81.56
408.896	90.56
409.12	100.56
409.344	101.56
409.567	82.56
409.791	71.56
410.014	81.56
410.238	90.56
410.461	97.56
410.685	92.56
410.908	87.56
411.132	91.56
411.355	95.56
411.578	85.56
411.802	82.56
412.025	99.56
412.249	79.56
412.472	88.56
412.695	76.56
412.919	78.56
413.142	82.56
413.365	95.56
413.589	84.56
413.812	73.56
414.035	89.56
414.258	79.56
414.482	97.56
414.705	94.56
414.928	93.56
415.151	87.56
415.374	98.56
415.597	102.56
415.821	85.56
416.044	93.56
416.267	88.56
416.49	80.56
416.713	85.56
416.936	92.56
417.159	83.56
417.382	71.56
417.605	91.56
417.828	84.56
418.051	85.56
418.274	82.56
418.497	91.56
418.72	94.56
418.943	91.56
419.166	78.56
419.389	91.56
419.611	84.56
419.834	99.56
420.057	90.56
420.28	82.56
420.503	78.56
420.726	84.56
420.948	85.56
421.171	71.56
421.394	97.56
421.617	86.56
421.839	90.56
422.062	101.56
422.285	104.56
422.507	95.56
422.73	109.56
422.953	97.56
423.175	81.56
423.398	82.56
423.621	72.56
423.843	90.56
424.066	79.56
424.288	89.56
424.511	80.56
424.733	95.56
424.956	108.56
425.178	118.56
425.401	91.56
425.623	99.56
425.846	92.56
426.068	88.56
426.291	93.56
426.513	92.56
426.735	103.56
426.958	92.56
427.18	93.56
427.402	140.56
427.625	174.56
427.847	134.56
428.069	92.56
428.292	80.56
428.514	91.56
428.736	82.56
428.958	76.56
429.181	93.56
429.403	96.56
429.625	90.56
429.847	97.56
430.069	92.56
430.292	86.56
430.514	77.56
430.736	99.56
430.958	81.56
431.18	73.56
431.402	92.56
431.624	72.56
431.846	81.56
432.068	77.56
432.29	78.56
432.512	78.56
432.734	88.56
432.956	108.56
433.178	86.56
433.4	105.56
433.622	85.56
433.844	80.56
434.066	86.56
434.287	92.56
434.509	84.56
434.731	82.56
434.953	95.56
435.175	97.56
435.397	91.56
435.618	93.56
435.84	88.56
436.062	105.56
436.284	116.56
436.505	94.56
436.727	96.56
436.949	94.56
437.17	92.56
437.392	89.56
437.614	96.56
437.835	90.56
438.057	108.56
438.278	102.56
438.5	109.56
438.721	117.56
438.943	104.56
439.165	77.56
439.386	95.56
439.608	93.56
439.829	101.56
440.05	139.56
440.272	135.56
440.493	86.56
440.715	82.56
440.936	96.56
441.158	86.56
441.379	85.56
441.6	84.56
441.822	94.56
442.043	110.56
442.264	91.56
442.486	103.56
442.707	79.56
442.928	110.56
443.149	132.56
443.371	142.56
443.592	99.56
443.813	100.56
444.034	92.56
444.255	101.56
444.476	85.56
444.698	87.56
444.919	92.56
445.14	139.56
445.361	117.56
445.582	121.56
445.803	121.56
446.024	133.56
446.245	144.56
446.466	105.56
446.687	95.56
446.908	90.56
447.129	87.56
447.35	97.56
447.571	82.56
447.792	96.56
448.013	102.56
448.234	101.56
448.455	100.56
448.675	108.56
448.896	110.56
449.117	105.56
449.338	104.56
449.559	118.56
449.779	130.56
450	92.56
450.221	84.56
450.442	92.56
450.662	105.56
450.883	107.56
451.104	125.56
451.324	97.56
451.545	85.56
451.766	94.56
451.986	80.56
452.207	80.56
452.428	89.56
452.648	93.56
452.869	101.56
453.089	107.56
453.31	135.56
453.53	108.56
453.751	95.56
453.971	111.56
454.192	122.56
454.412	86.56
454.633	72.56
454.853	89.56
455.073	97.56
455.294	81.56
455.514	90.56
455.734	87.56
455.955	78.56
456.175	94.56
456.395	73.56
456.616	88.56
456.836	83.56
457.056	90.56
457.276	91.56
457.497	93.56
457.717	78.56
457.937	83.56
458.157	92.56
458.377	86.56
458.598	97.56
458.818	151.56
459.038	156.56
459.258	103.56
459.478	99.56
459.698	90.56
459.918	72.56
460.138	85.56
460.358	86.56
460.578	86.56
460.798	90.56
461.018	99.56
461.238	74.56
461.458	75.56
461.678	88.56
461.898	84.56
462.118	87.56
462.338	86.56
462.558	76.56
462.777	77.56
462.997	95.56
463.217	85.56
463.437	94.56
463.657	90.56
463.876	85.56
464.096	90.56
464.316	101.56
464.536	85.56
464.755	109.56
464.975	107.56
465.195	167.56
465.414	157.56
465.634	95.56
465.854	85.56
466.073	81.56
466.293	80.56
466.512	79.56
466.732	86.56
466.951	91.56
467.171	98.56
467.391	98.56
467.61	115.56
467.829	92.56
468.049	104.56
468.268	105.56
468.488	84.56
468.707	95.56
468.927	76.56
469.146	81.56
469.365	79.56
469.585	101.56
469.804	96.56
470.023	86.56
470.243	88.56
470.462	86.56
470.681	106.56
470.901	94.56
471.12	87.56
471.339	77.56
471.558	92.56
471.777	80.56
471.997	75.56
472.216	104.56
472.435	170.56
472.654	104.56
472.873	82.56
473.092	82.56
473.311	74.56
473.53	81.56
473.749	80.56
473.968	92.56
474.187	87.56
474.406	106.56
474.625	77.56
474.844	83.56
475.063	81.56
475.282	75.56
475.501	93.56
475.72	93.56
475.939	80.56
476.158	82.56
476.377	85.56
476.596	98.56
476.814	94.56
477.033	93.56
477.252	73.56
477.471	84.56
477.69	92.56
477.908	100.56
478.127	86.56
478.346	82.56
478.564	86.56
478.783	84.56
479.002	108.56
479.22	86.56
479.439	106.56
479.658	108.56
479.876	84.56
480.095	82.56
480.313	84.56
480.532	100.56
480.751	106.56
480.969	119.56
481.188	230.56
481.406	146.56
481.624	89.56
481.843	97.56
482.061	75.56
482.28	84.56
482.498	87.56
482.717	86.56
482.935	87.56
483.153	73.56
483.372	77.56
483.59	80.56
483.808	89.56
484.027	77.56
484.245	89.56
484.463	88.56
484.681	100.56
484.9	85.56
485.118	108.56
485.336	92.56
485.554	94.56
485.772	80.56
485.99	83.56
486.209	96.56
486.427	97.56
486.645	97.56
486.863	119.56
487.081	104.56
487.299	96.56
487.517	86.56
487.735	82.56
487.953	87.56
488.171	84.56
488.389	92.56
488.607	102.56
488.825	79.56
489.043	83.56
489.261	105.56
489.479	89.56
489.696	86.56
489.914	77.56
490.132	78.56
490.35	100.56
490.568	82.56
490.786	86.56
491.003	87.56
491.221	89.56
491.439	90.56
491.657	76.56
491.874	86.56
492.092	93.56
492.31	82.56
492.527	85.56
492.745	96.56
492.963	85.56
493.18	95.56
493.398	95.56
493.615	91.56
493.833	108.56
494.05	87.56
494.268	101.56
494.485	91.56
494.703	84.56
494.92	87.56
495.138	75.56
495.355	86.56
495.573	90.56
495.79	80.56
496.008	80.56
496.225	92.56
496.442	103.56
496.66	90.56
496.877	89.56
497.094	95.56
497.312	93.56
497.529	74.56
497.746	68.56
497.963	76.56
498.181	94.56
498.398	89.56
498.615	111.56
498.832	93.56
499.049	80.56
499.267	97.56
499.484	95.56
499.701	86.56
499.918	100.56
500.135	77.56
500.352	74.56
500.569	79.56
500.786	103.56
501.003	87.56
501.22	91.56
501.437	79.56
501.654	93.56
501.871	113.56
502.088	90.56
502.305	89.56
502.522	85.56
502.739	77.56
502.956	89.56
503.172	94.56
503.389	75.56
503.606	101.56
503.823	92.56
504.04	93.56
504.256	94.56
504.473	99.56
504.69	78.56
504.907	86.56
505.123	93.56
505.34	68.56
505.557	81.56
505.773	84.56
505.99	84.56
506.207	85.56
506.423	86.56
506.64	87.56
506.856	81.56
507.073	86.56
507.289	94.56
507.506	96.56
507.722	106.56
507.939	116.56
508.155	94.56
508.372	89.56
508.588	95.56
508.805	103.56
509.021	84.56
509.238	80.56
509.454	78.56
509.67	113.56
509.887	113.56
510.103	154.56
510.319	270.56
510.536	968.56
510.752	3148.56
510.968	892.56
511.184	168.56
511.401	118.56
511.617	100.56
511.833	87.56
512.049	94.56
512.265	88.56
512.481	93.56
512.698	93.56
512.914	77.56
513.13	87.56
513.346	94.56
513.562	101.56
513.778	96.56
513.994	97.56
514.21	92.56
514.426	144.56
514.642	150.56
514.858	129.56
515.074	191.56
515.29	566.56
515.506	1957.56
515.721	734.56
515.937	167.56
