Data from Circ_2008_H10_HRD10591_00077.txt Node
Date: Wed Jan 03 10:17:11 EST 2024
User: Yrep
Spectrometer: HR+D1059
Trigger mode: 1
Integration Time (sec): 1.000000E-1
Scans to average: 1
Electric dark correction enabled: true
Nonlinearity correction enabled: false
Boxcar width: 0
XAxis mode: Wavelengths
Number of Pixels in Spectrum: 2048
>>>>>Begin Spectral Data<<<<<
223.165	-18.12
223.4	-18.12
223.635	-18.12
223.869	-19.12
224.104	-27.12
224.338	-13.12
224.573	-13.12
224.808	-14.12
225.042	-4.12
225.277	-0.12
225.511	-1.12
225.746	6.88
225.98	14.88
226.215	-2.12
226.449	6.88
226.683	21.88
226.918	32.88
227.152	28.88
227.387	45.88
227.621	31.88
227.856	42.88
228.09	45.88
228.324	49.88
228.559	63.88
228.793	55.88
229.027	51.88
229.262	74.88
229.496	68.88
229.73	82.88
229.964	82.88
230.199	83.88
230.433	81.88
230.667	98.88
230.901	86.88
231.136	79.88
231.37	81.88
231.604	86.88
231.838	69.88
232.072	82.88
232.306	71.88
232.541	71.88
232.775	84.88
233.009	84.88
233.243	86.88
233.477	91.88
233.711	79.88
233.945	86.88
234.179	93.88
234.413	74.88
234.647	70.88
234.881	89.88
235.115	84.88
235.349	79.88
235.583	78.88
235.817	79.88
236.051	79.88
236.285	78.88
236.519	83.88
236.753	90.88
236.987	73.88
237.221	78.88
237.455	92.88
237.689	65.88
237.922	73.88
238.156	67.88
238.39	79.88
238.624	85.88
238.858	90.88
239.091	80.88
239.325	86.88
239.559	86.88
239.793	68.88
240.027	76.88
240.26	66.88
240.494	81.88
240.728	71.88
240.961	77.88
241.195	76.88
241.429	79.88
241.662	70.88
241.896	78.88
242.13	74.88
242.363	76.88
242.597	81.88
242.83	77.88
243.064	84.88
243.298	87.88
243.531	83.88
243.765	79.88
243.998	93.88
244.232	78.88
244.465	87.88
244.699	77.88
244.932	83.88
245.166	70.88
245.399	68.88
245.633	92.88
245.866	83.88
246.099	68.88
246.333	81.88
246.566	85.88
246.8	78.88
247.033	85.88
247.266	87.88
247.5	82.88
247.733	88.88
247.966	83.88
248.2	71.88
248.433	69.88
248.666	86.88
248.899	75.88
249.133	80.88
249.366	105.88
249.599	90.88
249.832	88.88
250.066	74.88
250.299	80.88
250.532	98.88
250.765	84.88
250.998	94.88
251.231	88.88
251.465	78.88
251.698	75.88
251.931	84.88
252.164	98.88
252.397	80.88
252.63	86.88
252.863	75.88
253.096	84.88
253.329	82.88
253.562	95.88
253.795	75.88
254.028	84.88
254.261	96.88
254.494	90.88
254.727	80.88
254.96	98.88
255.193	93.88
255.426	81.88
255.659	77.88
255.892	84.88
256.124	100.88
256.357	78.88
256.59	80.88
256.823	89.88
257.056	91.88
257.289	82.88
257.521	84.88
257.754	87.88
257.987	93.88
258.22	75.88
258.452	95.88
258.685	79.88
258.918	75.88
259.151	91.88
259.383	88.88
259.616	86.88
259.849	89.88
260.081	86.88
260.314	89.88
260.547	71.88
260.779	88.88
261.012	89.88
261.244	86.88
261.477	85.88
261.71	95.88
261.942	105.88
262.175	123.88
262.407	91.88
262.64	74.88
262.872	86.88
263.105	92.88
263.337	92.88
263.57	87.88
263.802	80.88
264.035	78.88
264.267	91.88
264.499	82.88
264.732	97.88
264.964	91.88
265.197	88.88
265.429	89.88
265.661	83.88
265.894	81.88
266.126	92.88
266.358	86.88
266.591	82.88
266.823	76.88
267.055	85.88
267.287	93.88
267.52	89.88
267.752	89.88
267.984	102.88
268.216	91.88
268.448	76.88
268.681	89.88
268.913	83.88
269.145	90.88
269.377	105.88
269.609	74.88
269.841	86.88
270.073	83.88
270.306	93.88
270.538	98.88
270.77	81.88
271.002	87.88
271.234	78.88
271.466	94.88
271.698	99.88
271.93	79.88
272.162	86.88
272.394	76.88
272.626	92.88
272.858	89.88
273.09	94.88
273.322	84.88
273.553	96.88
273.785	79.88
274.017	101.88
274.249	88.88
274.481	81.88
274.713	75.88
274.945	75.88
275.176	94.88
275.408	97.88
275.64	97.88
275.872	86.88
276.104	69.88
276.335	86.88
276.567	100.88
276.799	121.88
277.031	102.88
277.262	97.88
277.494	98.88
277.726	107.88
277.957	104.88
278.189	88.88
278.421	88.88
278.652	80.88
278.884	93.88
279.115	91.88
279.347	81.88
279.579	102.88
279.81	106.88
280.042	96.88
280.273	97.88
280.505	94.88
280.736	83.88
280.968	81.88
281.199	88.88
281.431	86.88
281.662	103.88
281.894	105.88
282.125	109.88
282.356	109.88
282.588	142.88
282.819	109.88
283.051	101.88
283.282	81.88
283.513	101.88
283.745	94.88
283.976	85.88
284.207	100.88
284.439	79.88
284.67	78.88
284.901	91.88
285.132	93.88
285.364	91.88
285.595	95.88
285.826	91.88
286.057	96.88
286.288	76.88
286.52	72.88
286.751	71.88
286.982	84.88
287.213	87.88
287.444	84.88
287.675	87.88
287.906	86.88
288.138	97.88
288.369	87.88
288.6	93.88
288.831	89.88
289.062	101.88
289.293	103.88
289.524	72.88
289.755	95.88
289.986	92.88
290.217	100.88
290.448	84.88
290.679	90.88
290.91	105.88
291.141	84.88
291.371	81.88
291.602	88.88
291.833	81.88
292.064	87.88
292.295	73.88
292.526	91.88
292.757	90.88
292.987	92.88
293.218	93.88
293.449	90.88
293.68	108.88
293.91	83.88
294.141	85.88
294.372	88.88
294.603	92.88
294.833	90.88
295.064	84.88
295.295	87.88
295.525	97.88
295.756	114.88
295.987	121.88
296.217	155.88
296.448	125.88
296.679	101.88
296.909	87.88
297.14	94.88
297.37	89.88
297.601	92.88
297.831	81.88
298.062	111.88
298.292	78.88
298.523	82.88
298.753	93.88
298.984	84.88
299.214	92.88
299.445	86.88
299.675	85.88
299.905	104.88
300.136	102.88
300.366	91.88
300.597	75.88
300.827	96.88
301.057	98.88
301.288	114.88
301.518	94.88
301.748	95.88
301.979	99.88
302.209	96.88
302.439	79.88
302.669	85.88
302.9	86.88
303.13	87.88
303.36	96.88
303.59	124.88
303.82	102.88
304.051	88.88
304.281	99.88
304.511	105.88
304.741	85.88
304.971	100.88
305.201	91.88
305.431	97.88
305.661	93.88
305.891	93.88
306.121	92.88
306.352	95.88
306.582	108.88
306.812	93.88
307.042	100.88
307.272	98.88
307.502	105.88
307.731	109.88
307.961	108.88
308.191	89.88
308.421	96.88
308.651	90.88
308.881	98.88
309.111	108.88
309.341	106.88
309.571	112.88
309.8	97.88
310.03	108.88
310.26	106.88
310.49	90.88
310.72	102.88
310.949	96.88
311.179	106.88
311.409	98.88
311.639	101.88
311.868	84.88
312.098	98.88
312.328	95.88
312.557	101.88
312.787	94.88
313.017	111.88
313.246	96.88
313.476	89.88
313.706	100.88
313.935	83.88
314.165	106.88
314.394	90.88
314.624	87.88
314.853	116.88
315.083	91.88
315.312	105.88
315.542	96.88
315.771	103.88
316.001	93.88
316.23	77.88
316.46	84.88
316.689	90.88
316.919	94.88
317.148	119.88
317.377	101.88
317.607	77.88
317.836	79.88
318.065	84.88
318.295	93.88
318.524	89.88
318.753	93.88
318.983	97.88
319.212	93.88
319.441	106.88
319.67	91.88
319.9	92.88
320.129	82.88
320.358	93.88
320.587	86.88
320.816	110.88
321.046	102.88
321.275	91.88
321.504	96.88
321.733	102.88
321.962	107.88
322.191	109.88
322.42	100.88
322.649	101.88
322.878	111.88
323.108	117.88
323.337	118.88
323.566	138.88
323.795	161.88
324.024	194.88
324.253	364.88
324.482	733.88
324.71	1440.88
324.939	1906.88
325.168	717.88
325.397	236.88
325.626	147.88
325.855	141.88
326.084	117.88
326.313	146.88
326.542	157.88
326.77	205.88
326.999	392.88
327.228	803.88
327.457	1365.88
327.686	1104.88
327.914	339.88
328.143	203.88
328.372	195.88
328.6	133.88
328.829	123.88
329.058	129.88
329.287	137.88
329.515	124.88
329.744	114.88
329.972	115.88
330.201	169.88
330.43	229.88
330.658	149.88
330.887	154.88
331.115	127.88
331.344	106.88
331.572	97.88
331.801	114.88
332.03	111.88
332.258	105.88
332.486	102.88
332.715	102.88
332.943	87.88
333.172	105.88
333.4	113.88
333.629	115.88
333.857	120.88
334.085	141.88
334.314	185.88
334.542	255.88
334.771	242.88
334.999	130.88
335.227	110.88
335.455	108.88
335.684	116.88
335.912	96.88
336.14	98.88
336.369	106.88
336.597	92.88
336.825	93.88
337.053	87.88
337.281	97.88
337.51	98.88
337.738	107.88
337.966	87.88
338.194	101.88
338.422	104.88
338.65	105.88
338.878	108.88
339.106	98.88
339.334	103.88
339.562	90.88
339.79	103.88
340.018	86.88
340.246	97.88
340.474	94.88
340.702	105.88
340.93	92.88
341.158	99.88
341.386	81.88
341.614	99.88
341.842	106.88
342.07	87.88
342.298	93.88
342.526	85.88
342.754	100.88
342.981	105.88
343.209	101.88
343.437	93.88
343.665	84.88
343.893	85.88
344.12	87.88
344.348	89.88
344.576	95.88
344.804	100.88
345.031	90.88
345.259	84.88
345.487	98.88
345.714	83.88
345.942	100.88
346.17	105.88
346.397	97.88
346.625	104.88
346.853	103.88
347.08	83.88
347.308	100.88
347.535	89.88
347.763	89.88
347.99	104.88
348.218	108.88
348.445	102.88
348.673	95.88
348.9	102.88
349.128	104.88
349.355	100.88
349.583	86.88
349.81	80.88
350.037	108.88
350.265	102.88
350.492	106.88
350.72	102.88
350.947	106.88
351.174	103.88
351.402	113.88
351.629	100.88
351.856	110.88
352.083	99.88
352.311	100.88
352.538	91.88
352.765	105.88
352.992	123.88
353.22	121.88
353.447	118.88
353.674	102.88
353.901	94.88
354.128	85.88
354.355	96.88
354.583	93.88
354.81	101.88
355.037	106.88
355.264	91.88
355.491	86.88
355.718	95.88
355.945	93.88
356.172	88.88
356.399	105.88
356.626	99.88
356.853	91.88
357.08	96.88
357.307	101.88
357.534	107.88
357.761	89.88
357.988	97.88
358.215	88.88
358.441	92.88
358.668	91.88
358.895	98.88
359.122	110.88
359.349	93.88
359.576	104.88
359.802	112.88
360.029	114.88
360.256	105.88
360.483	90.88
360.709	91.88
360.936	106.88
361.163	93.88
361.39	97.88
361.616	100.88
361.843	95.88
362.07	103.88
362.296	106.88
362.523	84.88
362.749	89.88
362.976	88.88
363.203	101.88
363.429	98.88
363.656	104.88
363.882	90.88
364.109	108.88
364.335	107.88
364.562	77.88
364.788	98.88
365.015	85.88
365.241	106.88
365.468	125.88
365.694	113.88
365.92	94.88
366.147	83.88
366.373	98.88
366.599	76.88
366.826	99.88
367.052	94.88
367.278	91.88
367.505	86.88
367.731	90.88
367.957	91.88
368.184	110.88
368.41	107.88
368.636	114.88
368.862	135.88
369.089	111.88
369.315	94.88
369.541	85.88
369.767	94.88
369.993	88.88
370.219	96.88
370.445	84.88
370.672	78.88
370.898	98.88
371.124	100.88
371.35	75.88
371.576	101.88
371.802	96.88
372.028	97.88
372.254	108.88
372.48	89.88
372.706	92.88
372.932	83.88
373.158	95.88
373.384	104.88
373.61	109.88
373.835	107.88
374.061	90.88
374.287	91.88
374.513	85.88
374.739	85.88
374.965	91.88
375.191	104.88
375.416	95.88
375.642	90.88
375.868	100.88
376.094	91.88
376.319	85.88
376.545	99.88
376.771	99.88
376.997	102.88
377.222	99.88
377.448	97.88
377.674	94.88
377.899	107.88
378.125	100.88
378.35	76.88
378.576	87.88
378.802	95.88
379.027	97.88
379.253	94.88
379.478	102.88
379.704	90.88
379.929	101.88
380.155	106.88
380.38	90.88
380.606	101.88
380.831	97.88
381.057	101.88
381.282	95.88
381.507	103.88
381.733	91.88
381.958	88.88
382.184	106.88
382.409	105.88
382.634	112.88
382.86	100.88
383.085	99.88
383.31	102.88
383.535	102.88
383.761	92.88
383.986	104.88
384.211	100.88
384.436	90.88
384.662	101.88
384.887	124.88
385.112	112.88
385.337	110.88
385.562	110.88
385.787	103.88
386.013	101.88
386.238	120.88
386.463	110.88
386.688	108.88
386.913	98.88
387.138	107.88
387.363	98.88
387.588	108.88
387.813	99.88
388.038	106.88
388.263	110.88
388.488	112.88
388.713	97.88
388.938	104.88
389.163	97.88
389.387	90.88
389.612	95.88
389.837	96.88
390.062	105.88
390.287	101.88
390.512	84.88
390.736	79.88
390.961	99.88
391.186	85.88
391.411	81.88
391.636	92.88
391.86	90.88
392.085	99.88
392.31	90.88
392.534	93.88
392.759	77.88
392.984	75.88
393.208	92.88
393.433	99.88
393.658	93.88
393.882	102.88
394.107	91.88
394.331	87.88
394.556	96.88
394.78	87.88
395.005	85.88
395.229	89.88
395.454	84.88
395.678	80.88
395.903	76.88
396.127	95.88
396.352	90.88
396.576	94.88
396.801	87.88
397.025	86.88
397.249	93.88
397.474	84.88
397.698	99.88
397.922	94.88
398.147	95.88
398.371	90.88
398.595	97.88
398.82	81.88
399.044	85.88
399.268	94.88
399.492	91.88
399.717	87.88
399.941	99.88
400.165	95.88
400.389	109.88
400.613	88.88
400.837	91.88
401.062	95.88
401.286	100.88
401.51	98.88
401.734	91.88
401.958	108.88
402.182	143.88
402.406	174.88
402.63	127.88
402.854	96.88
403.078	83.88
403.302	91.88
403.526	92.88
403.75	90.88
403.974	95.88
404.198	88.88
404.422	87.88
404.645	92.88
404.869	91.88
405.093	96.88
405.317	100.88
405.541	113.88
405.765	100.88
405.988	117.88
406.212	195.88
406.436	250.88
406.66	158.88
406.883	111.88
407.107	118.88
407.331	85.88
407.555	98.88
407.778	113.88
408.002	98.88
408.226	76.88
408.449	90.88
408.673	90.88
408.896	94.88
409.12	84.88
409.344	94.88
409.567	87.88
409.791	95.88
410.014	98.88
410.238	93.88
410.461	82.88
410.685	99.88
410.908	90.88
411.132	96.88
411.355	107.88
411.578	90.88
411.802	107.88
412.025	90.88
412.249	93.88
412.472	94.88
412.695	92.88
412.919	91.88
413.142	85.88
413.365	76.88
413.589	90.88
413.812	82.88
414.035	101.88
414.258	84.88
414.482	88.88
414.705	92.88
414.928	95.88
415.151	90.88
415.374	97.88
415.597	95.88
415.821	94.88
416.044	85.88
416.267	105.88
416.49	89.88
416.713	87.88
416.936	98.88
417.159	85.88
417.382	92.88
417.605	84.88
417.828	103.88
418.051	103.88
418.274	97.88
418.497	94.88
418.72	89.88
418.943	91.88
419.166	94.88
419.389	99.88
419.611	95.88
419.834	88.88
420.057	93.88
420.28	91.88
420.503	92.88
420.726	84.88
420.948	98.88
421.171	108.88
421.394	108.88
421.617	83.88
421.839	91.88
422.062	79.88
422.285	83.88
422.507	81.88
422.73	101.88
422.953	95.88
423.175	101.88
423.398	103.88
423.621	105.88
423.843	93.88
424.066	87.88
424.288	96.88
424.511	84.88
424.733	97.88
424.956	103.88
425.178	87.88
425.401	98.88
425.623	113.88
425.846	79.88
426.068	88.88
426.291	96.88
426.513	92.88
426.735	95.88
426.958	100.88
427.18	108.88
427.402	126.88
427.625	174.88
427.847	150.88
428.069	125.88
428.292	88.88
428.514	87.88
428.736	92.88
428.958	77.88
429.181	82.88
429.403	73.88
429.625	90.88
429.847	89.88
430.069	105.88
430.292	100.88
430.514	90.88
430.736	86.88
430.958	80.88
431.18	84.88
431.402	82.88
431.624	105.88
431.846	96.88
432.068	87.88
432.29	87.88
432.512	89.88
432.734	82.88
432.956	94.88
433.178	96.88
433.4	92.88
433.622	101.88
433.844	102.88
434.066	93.88
434.287	82.88
434.509	85.88
434.731	98.88
434.953	97.88
435.175	80.88
435.397	93.88
435.618	102.88
435.84	107.88
436.062	128.88
436.284	88.88
436.505	103.88
436.727	96.88
436.949	102.88
437.17	100.88
437.392	95.88
437.614	108.88
437.835	112.88
438.057	128.88
438.278	100.88
438.5	85.88
438.721	106.88
438.943	102.88
439.165	101.88
439.386	75.88
439.608	95.88
439.829	100.88
440.05	105.88
440.272	121.88
440.493	90.88
440.715	94.88
440.936	100.88
441.158	108.88
441.379	85.88
441.6	87.88
441.822	105.88
442.043	100.88
442.264	109.88
442.486	100.88
442.707	87.88
442.928	115.88
443.149	115.88
443.371	122.88
443.592	114.88
443.813	106.88
444.034	94.88
444.255	110.88
444.476	90.88
444.698	90.88
444.919	84.88
445.14	132.88
445.361	132.88
445.582	121.88
445.803	149.88
446.024	130.88
446.245	121.88
446.466	111.88
446.687	103.88
446.908	83.88
447.129	84.88
447.35	93.88
447.571	97.88
447.792	94.88
448.013	104.88
448.234	117.88
448.455	99.88
448.675	106.88
448.896	118.88
449.117	89.88
449.338	103.88
449.559	123.88
449.779	137.88
450	101.88
450.221	76.88
450.442	86.88
450.662	101.88
450.883	111.88
451.104	123.88
451.324	94.88
451.545	101.88
451.766	85.88
451.986	98.88
452.207	95.88
452.428	79.88
452.648	108.88
452.869	114.88
453.089	129.88
453.31	118.88
453.53	88.88
453.751	88.88
453.971	100.88
454.192	109.88
454.412	94.88
454.633	91.88
454.853	85.88
455.073	78.88
455.294	85.88
455.514	89.88
455.734	79.88
455.955	82.88
456.175	86.88
456.395	90.88
456.616	97.88
456.836	96.88
457.056	83.88
457.276	86.88
457.497	96.88
457.717	94.88
457.937	90.88
458.157	85.88
458.377	97.88
458.598	93.88
458.818	150.88
459.038	159.88
459.258	126.88
459.478	100.88
459.698	86.88
459.918	95.88
460.138	86.88
460.358	97.88
460.578	81.88
460.798	111.88
461.018	90.88
461.238	89.88
461.458	84.88
461.678	87.88
461.898	85.88
462.118	84.88
462.338	100.88
462.558	90.88
462.777	95.88
462.997	95.88
463.217	100.88
463.437	83.88
463.657	76.88
463.876	80.88
464.096	99.88
464.316	99.88
464.536	83.88
464.755	91.88
464.975	97.88
465.195	169.88
465.414	167.88
465.634	111.88
465.854	75.88
466.073	98.88
466.293	91.88
466.512	84.88
466.732	81.88
466.951	94.88
467.171	93.88
467.391	101.88
467.61	109.88
467.829	108.88
468.049	141.88
468.268	151.88
468.488	107.88
468.707	80.88
468.927	82.88
469.146	93.88
469.365	105.88
469.585	91.88
469.804	82.88
470.023	95.88
470.243	106.88
470.462	95.88
470.681	111.88
470.901	97.88
471.12	101.88
471.339	99.88
471.558	91.88
471.777	93.88
471.997	117.88
472.216	200.88
472.435	325.88
472.654	139.88
472.873	89.88
473.092	71.88
473.311	85.88
473.53	88.88
473.749	91.88
473.968	95.88
474.187	102.88
474.406	92.88
474.625	99.88
474.844	80.88
475.063	89.88
475.282	87.88
475.501	88.88
475.72	89.88
475.939	84.88
476.158	105.88
476.377	93.88
476.596	89.88
476.814	100.88
477.033	86.88
477.252	101.88
477.471	82.88
477.69	91.88
477.908	101.88
478.127	112.88
478.346	104.88
478.564	101.88
478.783	94.88
479.002	84.88
479.22	109.88
479.439	109.88
479.658	113.88
479.876	106.88
480.095	104.88
480.313	104.88
480.532	94.88
480.751	115.88
480.969	193.88
481.188	533.88
481.406	353.88
481.624	106.88
481.843	113.88
482.061	99.88
482.28	98.88
482.498	76.88
482.717	93.88
482.935	91.88
483.153	82.88
483.372	103.88
483.59	103.88
483.808	78.88
484.027	91.88
484.245	76.88
484.463	90.88
484.681	100.88
484.9	104.88
485.118	111.88
485.336	97.88
485.554	100.88
485.772	101.88
485.99	107.88
486.209	106.88
486.427	95.88
486.645	108.88
486.863	115.88
487.081	103.88
487.299	105.88
487.517	91.88
487.735	96.88
487.953	84.88
488.171	106.88
488.389	103.88
488.607	105.88
488.825	93.88
489.043	85.88
489.261	91.88
489.479	89.88
489.696	102.88
489.914	78.88
490.132	91.88
490.35	92.88
490.568	99.88
490.786	105.88
491.003	78.88
491.221	99.88
491.439	78.88
491.657	97.88
491.874	104.88
492.092	99.88
492.31	88.88
492.527	112.88
492.745	91.88
492.963	76.88
493.18	90.88
493.398	94.88
493.615	102.88
493.833	90.88
494.05	92.88
494.268	101.88
494.485	93.88
494.703	87.88
494.92	96.88
495.138	93.88
495.355	98.88
495.573	102.88
495.79	90.88
496.008	94.88
496.225	102.88
496.442	93.88
496.66	94.88
496.877	87.88
497.094	101.88
497.312	102.88
497.529	85.88
497.746	79.88
497.963	90.88
498.181	88.88
498.398	98.88
498.615	107.88
498.832	106.88
499.049	102.88
499.267	102.88
499.484	75.88
499.701	101.88
499.918	94.88
500.135	82.88
500.352	89.88
500.569	90.88
500.786	97.88
501.003	97.88
501.22	91.88
501.437	99.88
501.654	90.88
501.871	106.88
502.088	79.88
502.305	92.88
502.522	93.88
502.739	86.88
502.956	96.88
503.172	92.88
503.389	91.88
503.606	103.88
503.823	95.88
504.04	102.88
504.256	95.88
504.473	100.88
504.69	93.88
504.907	102.88
505.123	88.88
505.34	98.88
505.557	90.88
505.773	108.88
505.99	91.88
506.207	95.88
506.423	93.88
506.64	95.88
506.856	89.88
507.073	106.88
507.289	100.88
507.506	101.88
507.722	129.88
507.939	121.88
508.155	95.88
508.372	82.88
508.588	93.88
508.805	106.88
509.021	100.88
509.238	102.88
509.454	100.88
509.67	108.88
509.887	113.88
510.103	135.88
510.319	223.88
510.536	848.88
510.752	2837.88
510.968	793.88
511.184	174.88
511.401	121.88
511.617	104.88
511.833	101.88
512.049	107.88
512.265	101.88
512.481	98.88
512.698	100.88
512.914	90.88
513.13	94.88
513.346	109.88
513.562	112.88
513.778	94.88
