Data from Circ_2008_H10_HRD10591_00078.txt Node
Date: Wed Jan 03 10:17:11 EST 2024
User: Yrep
Spectrometer: HR+D1059
Trigger mode: 1
Integration Time (sec): 1.000000E-1
Scans to average: 1
Electric dark correction enabled: true
Nonlinearity correction enabled: false
Boxcar width: 0
XAxis mode: Wavelengths
Number of Pixels in Spectrum: 2048
>>>>>Begin Spectral Data<<<<<
223.165	-20.69
223.4	-20.69
223.635	-20.69
223.869	-18.69
224.104	-14.69
224.338	-27.69
224.573	-11.69
224.808	-10.69
225.042	-1.69
225.277	-14.69
225.511	-14.69
225.746	4.31
225.98	10.31
226.215	12.31
226.449	24.31
226.683	22.31
226.918	35.31
227.152	26.31
227.387	38.31
227.621	32.31
227.856	46.31
228.09	50.31
228.324	44.31
228.559	62.31
228.793	52.31
229.027	57.31
229.262	66.31
229.496	67.31
229.73	91.31
229.964	86.31
230.199	76.31
230.433	84.31
230.667	66.31
230.901	82.31
231.136	78.31
231.37	83.31
231.604	74.31
231.838	79.31
232.072	79.31
232.306	85.31
232.541	83.31
232.775	73.31
233.009	97.31
233.243	95.31
233.477	82.31
233.711	101.31
233.945	84.31
234.179	77.31
234.413	83.31
234.647	91.31
234.881	90.31
235.115	82.31
235.349	82.31
235.583	87.31
235.817	80.31
236.051	67.31
236.285	89.31
236.519	76.31
236.753	89.31
236.987	75.31
237.221	81.31
237.455	97.31
237.689	90.31
237.922	75.31
238.156	65.31
238.39	75.31
238.624	78.31
238.858	53.31
239.091	77.31
239.325	81.31
239.559	72.31
239.793	69.31
240.027	76.31
240.26	86.31
240.494	69.31
240.728	87.31
240.961	81.31
241.195	78.31
241.429	85.31
241.662	72.31
241.896	85.31
242.13	70.31
242.363	69.31
242.597	71.31
242.83	75.31
243.064	85.31
243.298	77.31
243.531	81.31
243.765	70.31
243.998	82.31
244.232	86.31
244.465	91.31
244.699	84.31
244.932	89.31
245.166	84.31
245.399	87.31
245.633	81.31
245.866	84.31
246.099	78.31
246.333	76.31
246.566	78.31
246.8	78.31
247.033	81.31
247.266	79.31
247.5	69.31
247.733	85.31
247.966	74.31
248.2	68.31
248.433	84.31
248.666	82.31
248.899	77.31
249.133	80.31
249.366	92.31
249.599	95.31
249.832	78.31
250.066	80.31
250.299	75.31
250.532	80.31
250.765	76.31
250.998	84.31
251.231	88.31
251.465	85.31
251.698	81.31
251.931	74.31
252.164	81.31
252.397	96.31
252.63	71.31
252.863	82.31
253.096	80.31
253.329	86.31
253.562	84.31
253.795	84.31
254.028	86.31
254.261	77.31
254.494	81.31
254.727	76.31
254.96	76.31
255.193	99.31
255.426	78.31
255.659	85.31
255.892	80.31
256.124	76.31
256.357	84.31
256.59	81.31
256.823	70.31
257.056	82.31
257.289	80.31
257.521	81.31
257.754	79.31
257.987	77.31
258.22	75.31
258.452	81.31
258.685	75.31
258.918	76.31
259.151	84.31
259.383	85.31
259.616	72.31
259.849	92.31
260.081	90.31
260.314	89.31
260.547	76.31
260.779	79.31
261.012	84.31
261.244	95.31
261.477	83.31
261.71	96.31
261.942	109.31
262.175	121.31
262.407	93.31
262.64	89.31
262.872	88.31
263.105	70.31
263.337	81.31
263.57	99.31
263.802	78.31
264.035	90.31
264.267	84.31
264.499	76.31
264.732	88.31
264.964	92.31
265.197	84.31
265.429	76.31
265.661	75.31
265.894	81.31
266.126	75.31
266.358	88.31
266.591	82.31
266.823	78.31
267.055	80.31
267.287	85.31
267.52	94.31
267.752	89.31
267.984	78.31
268.216	82.31
268.448	85.31
268.681	98.31
268.913	86.31
269.145	84.31
269.377	80.31
269.609	73.31
269.841	82.31
270.073	92.31
270.306	85.31
270.538	79.31
270.77	78.31
271.002	76.31
271.234	78.31
271.466	106.31
271.698	89.31
271.93	88.31
272.162	79.31
272.394	84.31
272.626	72.31
272.858	82.31
273.09	83.31
273.322	77.31
273.553	82.31
273.785	90.31
274.017	73.31
274.249	92.31
274.481	88.31
274.713	89.31
274.945	103.31
275.176	77.31
275.408	91.31
275.64	88.31
275.872	76.31
276.104	83.31
276.335	93.31
276.567	106.31
276.799	107.31
277.031	91.31
277.262	98.31
277.494	94.31
277.726	75.31
277.957	81.31
278.189	79.31
278.421	97.31
278.652	101.31
278.884	82.31
279.115	77.31
279.347	95.31
279.579	98.31
279.81	79.31
280.042	95.31
280.273	92.31
280.505	97.31
280.736	88.31
280.968	83.31
281.199	88.31
281.431	90.31
281.662	96.31
281.894	98.31
282.125	94.31
282.356	116.31
282.588	148.31
282.819	114.31
283.051	93.31
283.282	81.31
283.513	89.31
283.745	78.31
283.976	94.31
284.207	92.31
284.439	96.31
284.67	84.31
284.901	79.31
285.132	90.31
285.364	98.31
285.595	100.31
285.826	82.31
286.057	88.31
286.288	90.31
286.52	80.31
286.751	78.31
286.982	93.31
287.213	86.31
287.444	89.31
287.675	92.31
287.906	79.31
288.138	98.31
288.369	95.31
288.6	95.31
288.831	99.31
289.062	91.31
289.293	101.31
289.524	74.31
289.755	79.31
289.986	91.31
290.217	84.31
290.448	86.31
290.679	91.31
290.91	88.31
291.141	91.31
291.371	79.31
291.602	96.31
291.833	100.31
292.064	91.31
292.295	80.31
292.526	100.31
292.757	92.31
292.987	87.31
293.218	94.31
293.449	98.31
293.68	93.31
293.91	75.31
294.141	86.31
294.372	77.31
294.603	84.31
294.833	89.31
295.064	101.31
295.295	83.31
295.525	80.31
295.756	106.31
295.987	121.31
296.217	140.31
296.448	123.31
296.679	94.31
296.909	92.31
297.14	85.31
297.37	96.31
297.601	93.31
297.831	90.31
298.062	88.31
298.292	84.31
298.523	86.31
298.753	86.31
298.984	88.31
299.214	94.31
299.445	85.31
299.675	94.31
299.905	104.31
300.136	89.31
300.366	78.31
300.597	101.31
300.827	77.31
301.057	110.31
301.288	102.31
301.518	88.31
301.748	77.31
301.979	97.31
302.209	97.31
302.439	87.31
302.669	92.31
302.9	81.31
303.13	84.31
303.36	87.31
303.59	99.31
303.82	104.31
304.051	108.31
304.281	100.31
304.511	72.31
304.741	91.31
304.971	91.31
305.201	90.31
305.431	92.31
305.661	95.31
305.891	84.31
306.121	84.31
306.352	89.31
306.582	105.31
306.812	102.31
307.042	95.31
307.272	93.31
307.502	100.31
307.731	97.31
307.961	82.31
308.191	96.31
308.421	89.31
308.651	91.31
308.881	94.31
309.111	92.31
309.341	97.31
309.571	102.31
309.8	92.31
310.03	80.31
310.26	105.31
310.49	86.31
310.72	108.31
310.949	101.31
311.179	105.31
311.409	89.31
311.639	95.31
311.868	89.31
312.098	85.31
312.328	97.31
312.557	101.31
312.787	125.31
313.017	99.31
313.246	97.31
313.476	83.31
313.706	95.31
313.935	91.31
314.165	97.31
314.394	114.31
314.624	100.31
314.853	81.31
315.083	90.31
315.312	96.31
315.542	113.31
315.771	72.31
316.001	98.31
316.23	98.31
316.46	104.31
316.689	79.31
316.919	95.31
317.148	101.31
317.377	109.31
317.607	102.31
317.836	111.31
318.065	91.31
318.295	93.31
318.524	95.31
318.753	100.31
318.983	96.31
319.212	96.31
319.441	109.31
319.67	107.31
319.9	72.31
320.129	95.31
320.358	96.31
320.587	93.31
320.816	98.31
321.046	128.31
321.275	98.31
321.504	100.31
321.733	108.31
321.962	85.31
322.191	104.31
322.42	107.31
322.649	100.31
322.878	108.31
323.108	117.31
323.337	129.31
323.566	123.31
323.795	157.31
324.024	207.31
324.253	365.31
324.482	757.31
324.71	1534.31
324.939	2010.31
325.168	773.31
325.397	233.31
325.626	140.31
325.855	121.31
326.084	127.31
326.313	124.31
326.542	172.31
326.77	231.31
326.999	415.31
327.228	832.31
327.457	1517.31
327.686	1214.31
327.914	352.31
328.143	213.31
328.372	192.31
328.6	131.31
328.829	137.31
329.058	138.31
329.287	141.31
329.515	115.31
329.744	117.31
329.972	144.31
330.201	201.31
330.43	277.31
330.658	188.31
330.887	153.31
331.115	124.31
331.344	101.31
331.572	109.31
331.801	104.31
332.03	118.31
332.258	114.31
332.486	106.31
332.715	88.31
332.943	101.31
333.172	95.31
333.4	102.31
333.629	120.31
333.857	136.31
334.085	145.31
334.314	205.31
334.542	282.31
334.771	284.31
334.999	150.31
335.227	107.31
335.455	95.31
335.684	101.31
335.912	96.31
336.14	101.31
336.369	96.31
336.597	96.31
336.825	88.31
337.053	98.31
337.281	86.31
337.51	87.31
337.738	97.31
337.966	97.31
338.194	96.31
338.422	84.31
338.65	92.31
338.878	101.31
339.106	80.31
339.334	106.31
339.562	78.31
339.79	86.31
340.018	90.31
340.246	90.31
340.474	117.31
340.702	93.31
340.93	90.31
341.158	98.31
341.386	101.31
341.614	91.31
341.842	100.31
342.07	99.31
342.298	87.31
342.526	90.31
342.754	92.31
342.981	87.31
343.209	73.31
343.437	123.31
343.665	80.31
343.893	96.31
344.12	94.31
344.348	102.31
344.576	95.31
344.804	90.31
345.031	96.31
345.259	90.31
345.487	111.31
345.714	109.31
345.942	91.31
346.17	105.31
346.397	96.31
346.625	84.31
346.853	104.31
347.08	99.31
347.308	99.31
347.535	95.31
347.763	101.31
347.99	89.31
348.218	86.31
348.445	107.31
348.673	99.31
348.9	98.31
349.128	97.31
349.355	78.31
349.583	88.31
349.81	105.31
350.037	91.31
350.265	99.31
350.492	90.31
350.72	95.31
350.947	103.31
351.174	109.31
351.402	113.31
351.629	120.31
351.856	96.31
352.083	108.31
352.311	100.31
352.538	104.31
352.765	111.31
352.992	117.31
353.22	101.31
353.447	116.31
353.674	110.31
353.901	89.31
354.128	90.31
354.355	91.31
354.583	102.31
354.81	88.31
355.037	102.31
355.264	88.31
355.491	88.31
355.718	78.31
355.945	95.31
356.172	93.31
356.399	94.31
356.626	99.31
356.853	95.31
357.08	85.31
357.307	110.31
357.534	85.31
357.761	100.31
357.988	109.31
358.215	106.31
358.441	94.31
358.668	80.31
358.895	80.31
359.122	93.31
359.349	82.31
359.576	92.31
359.802	102.31
360.029	120.31
360.256	115.31
360.483	105.31
360.709	100.31
360.936	99.31
361.163	93.31
361.39	99.31
361.616	100.31
361.843	85.31
362.07	96.31
362.296	105.31
362.523	98.31
362.749	98.31
362.976	100.31
363.203	83.31
363.429	75.31
363.656	84.31
363.882	84.31
364.109	92.31
364.335	92.31
364.562	100.31
364.788	78.31
365.015	95.31
365.241	90.31
365.468	107.31
365.694	106.31
365.92	98.31
366.147	97.31
366.373	92.31
366.599	91.31
366.826	83.31
367.052	91.31
367.278	92.31
367.505	80.31
367.731	105.31
367.957	100.31
368.184	108.31
368.41	111.31
368.636	112.31
368.862	121.31
369.089	119.31
369.315	81.31
369.541	91.31
369.767	99.31
369.993	90.31
370.219	84.31
370.445	78.31
370.672	76.31
370.898	105.31
371.124	98.31
371.35	88.31
371.576	94.31
371.802	103.31
372.028	91.31
372.254	87.31
372.48	92.31
372.706	96.31
372.932	80.31
373.158	104.31
373.384	94.31
373.61	92.31
373.835	86.31
374.061	90.31
374.287	80.31
374.513	80.31
374.739	91.31
374.965	79.31
375.191	91.31
375.416	90.31
375.642	95.31
375.868	81.31
376.094	89.31
376.319	83.31
376.545	79.31
376.771	94.31
376.997	92.31
377.222	84.31
377.448	100.31
377.674	89.31
377.899	96.31
378.125	94.31
378.35	85.31
378.576	83.31
378.802	97.31
379.027	91.31
379.253	98.31
379.478	93.31
379.704	89.31
379.929	100.31
380.155	90.31
380.38	86.31
380.606	83.31
380.831	102.31
381.057	112.31
381.282	105.31
381.507	92.31
381.733	97.31
381.958	106.31
382.184	94.31
382.409	93.31
382.634	103.31
382.86	101.31
383.085	106.31
383.31	115.31
383.535	109.31
383.761	102.31
383.986	102.31
384.211	99.31
384.436	106.31
384.662	98.31
384.887	109.31
385.112	102.31
385.337	111.31
385.562	115.31
385.787	111.31
386.013	102.31
386.238	117.31
386.463	109.31
386.688	101.31
386.913	98.31
387.138	99.31
387.363	102.31
387.588	96.31
387.813	90.31
388.038	114.31
388.263	92.31
388.488	115.31
388.713	93.31
388.938	99.31
389.163	86.31
389.387	97.31
389.612	105.31
389.837	91.31
390.062	101.31
390.287	101.31
390.512	87.31
390.736	88.31
390.961	85.31
391.186	98.31
391.411	102.31
391.636	100.31
391.86	97.31
392.085	102.31
392.31	75.31
392.534	90.31
392.759	86.31
392.984	84.31
393.208	95.31
393.433	91.31
393.658	89.31
393.882	98.31
394.107	84.31
394.331	85.31
394.556	81.31
394.78	93.31
395.005	94.31
395.229	85.31
395.454	88.31
395.678	86.31
395.903	80.31
396.127	81.31
396.352	90.31
396.576	96.31
396.801	91.31
397.025	91.31
397.249	91.31
397.474	81.31
397.698	90.31
397.922	89.31
398.147	91.31
398.371	74.31
398.595	95.31
398.82	94.31
399.044	97.31
399.268	90.31
399.492	94.31
399.717	83.31
399.941	69.31
400.165	84.31
400.389	96.31
400.613	90.31
400.837	104.31
401.062	91.31
401.286	92.31
401.51	85.31
401.734	106.31
401.958	90.31
402.182	121.31
402.406	160.31
402.63	109.31
402.854	93.31
403.078	86.31
403.302	88.31
403.526	102.31
403.75	90.31
403.974	89.31
404.198	84.31
404.422	90.31
404.645	88.31
404.869	88.31
405.093	93.31
405.317	106.31
405.541	107.31
405.765	99.31
405.988	106.31
406.212	190.31
406.436	234.31
406.66	157.31
406.883	106.31
407.107	99.31
407.331	92.31
407.555	99.31
407.778	97.31
408.002	103.31
408.226	91.31
408.449	83.31
408.673	100.31
408.896	89.31
409.12	97.31
409.344	113.31
409.567	86.31
409.791	92.31
410.014	107.31
410.238	70.31
410.461	96.31
410.685	93.31
410.908	112.31
411.132	97.31
411.355	92.31
411.578	81.31
411.802	97.31
412.025	88.31
412.249	92.31
412.472	94.31
412.695	118.31
412.919	109.31
413.142	91.31
413.365	79.31
413.589	79.31
413.812	101.31
414.035	88.31
414.258	79.31
414.482	90.31
414.705	95.31
414.928	80.31
415.151	90.31
415.374	96.31
415.597	90.31
415.821	91.31
416.044	72.31
416.267	90.31
416.49	85.31
416.713	92.31
416.936	81.31
417.159	72.31
417.382	99.31
417.605	82.31
417.828	91.31
418.051	92.31
418.274	92.31
418.497	83.31
418.72	86.31
418.943	83.31
419.166	83.31
419.389	97.31
419.611	100.31
419.834	89.31
420.057	88.31
420.28	82.31
420.503	98.31
420.726	100.31
420.948	84.31
421.171	81.31
421.394	92.31
421.617	82.31
421.839	80.31
422.062	102.31
422.285	89.31
422.507	104.31
422.73	112.31
422.953	75.31
423.175	85.31
423.398	93.31
423.621	109.31
423.843	96.31
424.066	80.31
424.288	81.31
424.511	98.31
424.733	95.31
424.956	105.31
425.178	89.31
425.401	103.31
425.623	97.31
425.846	87.31
426.068	103.31
426.291	90.31
426.513	97.31
426.735	91.31
426.958	90.31
427.18	97.31
427.402	142.31
427.625	176.31
427.847	144.31
428.069	107.31
428.292	112.31
428.514	86.31
428.736	84.31
428.958	79.31
429.181	84.31
429.403	90.31
429.625	97.31
429.847	97.31
430.069	106.31
430.292	105.31
430.514	85.31
430.736	85.31
430.958	81.31
431.18	83.31
431.402	83.31
431.624	101.31
431.846	104.31
432.068	80.31
432.29	85.31
432.512	90.31
432.734	77.31
432.956	97.31
433.178	94.31
433.4	99.31
433.622	74.31
433.844	105.31
434.066	87.31
434.287	89.31
434.509	75.31
434.731	110.31
434.953	86.31
435.175	90.31
435.397	91.31
435.618	92.31
435.84	117.31
436.062	113.31
436.284	110.31
436.505	100.31
436.727	96.31
436.949	92.31
437.17	96.31
437.392	73.31
437.614	89.31
437.835	98.31
438.057	117.31
438.278	115.31
438.5	115.31
438.721	121.31
438.943	115.31
439.165	95.31
439.386	88.31
439.608	95.31
439.829	111.31
440.05	124.31
440.272	124.31
440.493	112.31
440.715	94.31
440.936	90.31
441.158	95.31
441.379	81.31
441.6	88.31
441.822	98.31
442.043	94.31
442.264	103.31
442.486	97.31
442.707	105.31
442.928	105.31
443.149	137.31
443.371	136.31
443.592	101.31
443.813	96.31
444.034	101.31
444.255	90.31
444.476	82.31
444.698	103.31
444.919	92.31
445.14	126.31
445.361	124.31
445.582	133.31
445.803	137.31
446.024	142.31
446.245	140.31
446.466	107.31
446.687	92.31
446.908	101.31
447.129	94.31
447.35	103.31
447.571	90.31
447.792	94.31
448.013	92.31
448.234	104.31
448.455	100.31
448.675	118.31
448.896	113.31
449.117	104.31
449.338	110.31
449.559	136.31
449.779	125.31
450	93.31
450.221	100.31
450.442	91.31
450.662	96.31
450.883	98.31
451.104	115.31
451.324	97.31
451.545	85.31
451.766	80.31
451.986	83.31
452.207	84.31
452.428	84.31
452.648	94.31
452.869	106.31
453.089	126.31
453.31	118.31
453.53	96.31
453.751	93.31
453.971	106.31
454.192	117.31
454.412	95.31
454.633	93.31
454.853	98.31
455.073	98.31
455.294	89.31
455.514	106.31
455.734	91.31
455.955	93.31
456.175	105.31
456.395	74.31
456.616	82.31
456.836	89.31
457.056	89.31
457.276	77.31
457.497	95.31
457.717	86.31
457.937	79.31
458.157	91.31
458.377	83.31
458.598	109.31
458.818	162.31
459.038	170.31
459.258	113.31
459.478	89.31
459.698	89.31
459.918	92.31
460.138	90.31
460.358	94.31
460.578	70.31
460.798	83.31
461.018	93.31
461.238	84.31
461.458	78.31
461.678	91.31
461.898	81.31
462.118	100.31
462.338	91.31
462.558	84.31
462.777	81.31
462.997	95.31
463.217	94.31
463.437	88.31
463.657	102.31
463.876	89.31
464.096	96.31
464.316	97.31
464.536	99.31
464.755	97.31
464.975	111.31
465.195	157.31
465.414	164.31
465.634	90.31
465.854	102.31
466.073	99.31
466.293	91.31
466.512	95.31
466.732	89.31
466.951	80.31
467.171	83.31
467.391	86.31
467.61	103.31
467.829	105.31
468.049	158.31
468.268	178.31
468.488	103.31
468.707	93.31
468.927	99.31
469.146	78.31
469.365	80.31
469.585	92.31
469.804	108.31
470.023	101.31
470.243	95.31
470.462	104.31
470.681	115.31
470.901	97.31
471.12	94.31
471.339	104.31
471.558	93.31
471.777	97.31
471.997	111.31
472.216	203.31
472.435	376.31
472.654	129.31
472.873	93.31
473.092	92.31
473.311	99.31
473.53	91.31
473.749	109.31
473.968	88.31
474.187	98.31
474.406	118.31
474.625	85.31
474.844	87.31
475.063	89.31
475.282	84.31
475.501	78.31
475.72	88.31
475.939	84.31
476.158	89.31
476.377	93.31
476.596	86.31
476.814	88.31
477.033	98.31
477.252	84.31
477.471	93.31
477.69	88.31
477.908	102.31
478.127	83.31
478.346	97.31
478.564	84.31
478.783	100.31
479.002	102.31
479.22	90.31
479.439	97.31
479.658	101.31
479.876	99.31
480.095	85.31
480.313	83.31
480.532	101.31
480.751	118.31
480.969	219.31
481.188	637.31
481.406	413.31
481.624	149.31
481.843	91.31
482.061	87.31
482.28	76.31
482.498	79.31
482.717	90.31
482.935	86.31
483.153	97.31
483.372	93.31
483.59	88.31
483.808	84.31
484.027	86.31
484.245	90.31
484.463	88.31
484.681	93.31
484.9	88.31
485.118	100.31
485.336	82.31
485.554	97.31
485.772	92.31
485.99	104.31
486.209	88.31
486.427	93.31
486.645	119.31
486.863	118.31
487.081	115.31
487.299	105.31
487.517	88.31
487.735	96.31
487.953	73.31
488.171	84.31
488.389	86.31
488.607	99.31
488.825	80.31
489.043	85.31
489.261	86.31
489.479	104.31
489.696	74.31
489.914	94.31
490.132	90.31
490.35	94.31
490.568	85.31
490.786	82.31
491.003	99.31
491.221	84.31
491.439	91.31
491.657	100.31
491.874	82.31
492.092	104.31
492.31	85.31
492.527	103.31
492.745	75.31
492.963	107.31
493.18	88.31
493.398	89.31
493.615	99.31
493.833	101.31
494.05	86.31
494.268	93.31
494.485	84.31
494.703	81.31
494.92	93.31
495.138	98.31
495.355	104.31
495.573	102.31
495.79	83.31
496.008	89.31
496.225	88.31
496.442	98.31
496.66	89.31
496.877	85.31
497.094	97.31
497.312	92.31
497.529	85.31
497.746	108.31
497.963	103.31
498.181	104.31
498.398	103.31
498.615	125.31
498.832	111.31
499.049	102.31
499.267	90.31
499.484	100.31
499.701	93.31
499.918	89.31
500.135	98.31
500.352	107.31
500.569	90.31
500.786	83.31
501.003	96.31
501.22	98.31
501.437	95.31
501.654	92.31
501.871	101.31
502.088	81.31
502.305	93.31
502.522	87.31
502.739	99.31
502.956	76.31
503.172	97.31
503.389	92.31
503.606	98.31
503.823	96.31
504.04	93.31
504.256	91.31
504.473	88.31
504.69	91.31
504.907	96.31
505.123	89.31
505.34	89.31
505.557	99.31
505.773	84.31
505.99	85.31
506.207	83.31
506.423	92.31
506.64	87.31
506.856	88.31
507.073	88.31
507.289	100.31
507.506	85.31
507.722	106.31
507.939	117.31
508.155	89.31
508.372	86.31
508.588	104.31
508.805	96.31
509.021	99.31
509.238	109.31
509.454	105.31
509.67	88.31
509.887	102.31
510.103	144.31
510.319	207.31
510.536	806.31
510.752	2633.31
510.968	745.31
511.184	163.31
511.401	112.31
511.617	86.31
511.833	93.31
512.049	82.31
512.265	94.31
512.481	98.31
512.698	87.31
512.914	94.31
513.13	97.31
513.346	90.31
513.562	91.31
513.778	91.31
513.994	97.31
514.21	96.31
514.426	120.31
514.642	155.31
514.858	130.31
