Data from Circ_2008_H10_HRD10591_00023.txt Node
Date: Wed Jan 03 10:17:00 EST 2024
User: Yrep
Spectrometer: HR+D1059
Trigger mode: 1
Integration Time (sec): 1.000000E-1
Scans to average: 1
Electric dark correction enabled: true
Nonlinearity correction enabled: false
Boxcar width: 0
XAxis mode: Wavelengths
Number of Pixels in Spectrum: 2048
>>>>>Begin Spectral Data<<<<<
223.165	-24.81
223.4	-24.81
223.635	-24.81
223.869	-10.81
224.104	-14.81
224.338	-14.81
224.573	-23.81
224.808	-19.81
225.042	-5.81
225.277	-5.81
225.511	-15.81
225.746	3.19
225.98	9.19
226.215	18.19
226.449	19.19
226.683	28.19
226.918	23.19
227.152	35.19
227.387	38.19
227.621	37.19
227.856	40.19
228.09	51.19
228.324	45.19
228.559	58.19
228.793	46.19
229.027	64.19
229.262	72.19
229.496	78.19
229.73	84.19
229.964	71.19
230.199	71.19
230.433	75.19
230.667	76.19
230.901	87.19
231.136	81.19
231.37	77.19
231.604	83.19
231.838	77.19
232.072	83.19
232.306	80.19
232.541	85.19
232.775	85.19
233.009	88.19
233.243	79.19
233.477	81.19
233.711	69.19
233.945	72.19
234.179	87.19
234.413	79.19
234.647	75.19
234.881	76.19
235.115	89.19
235.349	82.19
235.583	83.19
235.817	81.19
236.051	81.19
236.285	87.19
236.519	82.19
236.753	90.19
236.987	82.19
237.221	81.19
237.455	93.19
237.689	64.19
237.922	84.19
238.156	86.19
238.39	76.19
238.624	76.19
238.858	76.19
239.091	83.19
239.325	82.19
239.559	98.19
239.793	76.19
240.027	87.19
240.26	79.19
240.494	77.19
240.728	78.19
240.961	86.19
241.195	70.19
241.429	70.19
241.662	73.19
241.896	78.19
242.13	72.19
242.363	69.19
242.597	67.19
242.83	68.19
243.064	72.19
243.298	81.19
243.531	79.19
243.765	74.19
243.998	78.19
244.232	80.19
244.465	91.19
244.699	77.19
244.932	83.19
245.166	85.19
245.399	89.19
245.633	71.19
245.866	78.19
246.099	77.19
246.333	87.19
246.566	79.19
246.8	82.19
247.033	78.19
247.266	81.19
247.5	83.19
247.733	83.19
247.966	93.19
248.2	82.19
248.433	89.19
248.666	82.19
248.899	80.19
249.133	88.19
249.366	122.19
249.599	86.19
249.832	93.19
250.066	86.19
250.299	73.19
250.532	77.19
250.765	86.19
250.998	69.19
251.231	75.19
251.465	68.19
251.698	78.19
251.931	82.19
252.164	86.19
252.397	79.19
252.63	79.19
252.863	78.19
253.096	79.19
253.329	81.19
253.562	79.19
253.795	81.19
254.028	97.19
254.261	79.19
254.494	67.19
254.727	87.19
254.96	87.19
255.193	93.19
255.426	73.19
255.659	82.19
255.892	81.19
256.124	80.19
256.357	94.19
256.59	89.19
256.823	70.19
257.056	81.19
257.289	75.19
257.521	87.19
257.754	76.19
257.987	80.19
258.22	83.19
258.452	86.19
258.685	82.19
258.918	77.19
259.151	78.19
259.383	93.19
259.616	90.19
259.849	82.19
260.081	78.19
260.314	99.19
260.547	71.19
260.779	78.19
261.012	73.19
261.244	85.19
261.477	99.19
261.71	75.19
261.942	98.19
262.175	113.19
262.407	90.19
262.64	107.19
262.872	89.19
263.105	84.19
263.337	82.19
263.57	79.19
263.802	92.19
264.035	96.19
264.267	92.19
264.499	92.19
264.732	90.19
264.964	88.19
265.197	77.19
265.429	74.19
265.661	90.19
265.894	86.19
266.126	82.19
266.358	92.19
266.591	94.19
266.823	87.19
267.055	99.19
267.287	90.19
267.52	86.19
267.752	91.19
267.984	99.19
268.216	81.19
268.448	82.19
268.681	91.19
268.913	87.19
269.145	91.19
269.377	80.19
269.609	77.19
269.841	77.19
270.073	80.19
270.306	101.19
270.538	97.19
270.77	95.19
271.002	101.19
271.234	79.19
271.466	75.19
271.698	80.19
271.93	92.19
272.162	86.19
272.394	91.19
272.626	84.19
272.858	82.19
273.09	94.19
273.322	82.19
273.553	100.19
273.785	86.19
274.017	82.19
274.249	81.19
274.481	97.19
274.713	85.19
274.945	71.19
275.176	99.19
275.408	82.19
275.64	89.19
275.872	77.19
276.104	102.19
276.335	104.19
276.567	97.19
276.799	121.19
277.031	94.19
277.262	87.19
277.494	100.19
277.726	82.19
277.957	80.19
278.189	76.19
278.421	93.19
278.652	98.19
278.884	73.19
279.115	77.19
279.347	86.19
279.579	80.19
279.81	78.19
280.042	84.19
280.273	77.19
280.505	93.19
280.736	101.19
280.968	86.19
281.199	81.19
281.431	89.19
281.662	94.19
281.894	86.19
282.125	97.19
282.356	129.19
282.588	142.19
282.819	109.19
283.051	98.19
283.282	90.19
283.513	98.19
283.745	91.19
283.976	80.19
284.207	83.19
284.439	78.19
284.67	87.19
284.901	97.19
285.132	91.19
285.364	89.19
285.595	98.19
285.826	83.19
286.057	81.19
286.288	84.19
286.52	95.19
286.751	90.19
286.982	89.19
287.213	81.19
287.444	94.19
287.675	98.19
287.906	78.19
288.138	83.19
288.369	94.19
288.6	98.19
288.831	87.19
289.062	85.19
289.293	91.19
289.524	94.19
289.755	91.19
289.986	82.19
290.217	87.19
290.448	91.19
290.679	82.19
290.91	96.19
291.141	77.19
291.371	82.19
291.602	82.19
291.833	75.19
292.064	105.19
292.295	107.19
292.526	103.19
292.757	89.19
292.987	78.19
293.218	87.19
293.449	78.19
293.68	86.19
293.91	87.19
294.141	87.19
294.372	88.19
294.603	80.19
294.833	82.19
295.064	84.19
295.295	91.19
295.525	91.19
295.756	98.19
295.987	128.19
296.217	122.19
296.448	122.19
296.679	97.19
296.909	97.19
297.14	88.19
297.37	86.19
297.601	76.19
297.831	102.19
298.062	86.19
298.292	88.19
298.523	100.19
298.753	91.19
298.984	90.19
299.214	93.19
299.445	90.19
299.675	81.19
299.905	95.19
300.136	111.19
300.366	96.19
300.597	91.19
300.827	101.19
301.057	76.19
301.288	103.19
301.518	97.19
301.748	84.19
301.979	100.19
302.209	97.19
302.439	110.19
302.669	91.19
302.9	91.19
303.13	90.19
303.36	97.19
303.59	102.19
303.82	118.19
304.051	101.19
304.281	94.19
304.511	95.19
304.741	84.19
304.971	89.19
305.201	95.19
305.431	84.19
305.661	89.19
305.891	101.19
306.121	102.19
306.352	91.19
306.582	96.19
306.812	90.19
307.042	86.19
307.272	93.19
307.502	90.19
307.731	100.19
307.961	98.19
308.191	100.19
308.421	91.19
308.651	90.19
308.881	83.19
309.111	96.19
309.341	115.19
309.571	103.19
309.8	77.19
310.03	88.19
310.26	101.19
310.49	101.19
310.72	91.19
310.949	99.19
311.179	97.19
311.409	106.19
311.639	100.19
311.868	111.19
312.098	98.19
312.328	105.19
312.557	103.19
312.787	98.19
313.017	101.19
313.246	91.19
313.476	95.19
313.706	90.19
313.935	114.19
314.165	105.19
314.394	99.19
314.624	100.19
314.853	94.19
315.083	82.19
315.312	86.19
315.542	102.19
315.771	93.19
316.001	89.19
316.23	114.19
316.46	93.19
316.689	94.19
316.919	95.19
317.148	105.19
317.377	95.19
317.607	85.19
317.836	98.19
318.065	103.19
318.295	97.19
318.524	104.19
318.753	93.19
318.983	94.19
319.212	105.19
319.441	111.19
319.67	108.19
319.9	92.19
320.129	91.19
320.358	91.19
320.587	106.19
320.816	90.19
321.046	98.19
321.275	96.19
321.504	98.19
321.733	93.19
321.962	99.19
322.191	77.19
322.42	100.19
322.649	97.19
322.878	115.19
323.108	122.19
323.337	121.19
323.566	127.19
323.795	139.19
324.024	188.19
324.253	368.19
324.482	774.19
324.71	1505.19
324.939	2040.19
325.168	738.19
325.397	230.19
325.626	157.19
325.855	127.19
326.084	109.19
326.313	126.19
326.542	149.19
326.77	211.19
326.999	423.19
327.228	843.19
327.457	1510.19
327.686	1188.19
327.914	342.19
328.143	197.19
328.372	139.19
328.6	119.19
328.829	121.19
329.058	125.19
329.287	124.19
329.515	116.19
329.744	102.19
329.972	121.19
330.201	108.19
330.43	125.19
330.658	113.19
330.887	134.19
331.115	113.19
331.344	99.19
331.572	106.19
331.801	109.19
332.03	104.19
332.258	96.19
332.486	103.19
332.715	98.19
332.943	90.19
333.172	104.19
333.4	95.19
333.629	103.19
333.857	120.19
334.085	112.19
334.314	110.19
334.542	126.19
334.771	119.19
334.999	84.19
335.227	88.19
335.455	99.19
335.684	98.19
335.912	96.19
336.14	101.19
336.369	93.19
336.597	100.19
336.825	109.19
337.053	93.19
337.281	102.19
337.51	91.19
337.738	94.19
337.966	80.19
338.194	101.19
338.422	106.19
338.65	106.19
338.878	99.19
339.106	98.19
339.334	115.19
339.562	84.19
339.79	101.19
340.018	91.19
340.246	93.19
340.474	90.19
340.702	100.19
340.93	82.19
341.158	93.19
341.386	102.19
341.614	104.19
341.842	88.19
342.07	81.19
342.298	91.19
342.526	86.19
342.754	81.19
342.981	96.19
343.209	74.19
343.437	98.19
343.665	88.19
343.893	95.19
344.12	96.19
344.348	97.19
344.576	102.19
344.804	85.19
345.031	111.19
345.259	97.19
345.487	102.19
345.714	97.19
345.942	87.19
346.17	99.19
346.397	91.19
346.625	89.19
346.853	91.19
347.08	84.19
347.308	98.19
347.535	97.19
347.763	103.19
347.99	88.19
348.218	91.19
348.445	112.19
348.673	95.19
348.9	108.19
349.128	99.19
349.355	89.19
349.583	96.19
349.81	100.19
350.037	91.19
350.265	89.19
350.492	92.19
350.72	104.19
350.947	113.19
351.174	111.19
351.402	113.19
351.629	95.19
351.856	106.19
352.083	93.19
352.311	111.19
352.538	115.19
352.765	111.19
352.992	100.19
353.22	117.19
353.447	114.19
353.674	107.19
353.901	86.19
354.128	97.19
354.355	105.19
354.583	100.19
354.81	108.19
355.037	104.19
355.264	97.19
355.491	89.19
355.718	111.19
355.945	97.19
356.172	92.19
356.399	103.19
356.626	85.19
356.853	93.19
357.08	93.19
357.307	95.19
357.534	93.19
357.761	96.19
357.988	99.19
358.215	93.19
358.441	89.19
358.668	99.19
358.895	79.19
359.122	94.19
359.349	91.19
359.576	95.19
359.802	98.19
360.029	123.19
360.256	109.19
360.483	107.19
360.709	93.19
360.936	105.19
361.163	85.19
361.39	104.19
361.616	96.19
361.843	91.19
362.07	86.19
362.296	100.19
362.523	78.19
362.749	97.19
362.976	83.19
363.203	86.19
363.429	92.19
363.656	93.19
363.882	108.19
364.109	90.19
364.335	105.19
364.562	85.19
364.788	92.19
365.015	100.19
365.241	93.19
365.468	107.19
365.694	106.19
365.92	86.19
366.147	109.19
366.373	91.19
366.599	93.19
366.826	97.19
367.052	96.19
367.278	92.19
367.505	92.19
367.731	89.19
367.957	98.19
368.184	99.19
368.41	113.19
368.636	113.19
368.862	104.19
369.089	125.19
369.315	82.19
369.541	111.19
369.767	105.19
369.993	105.19
370.219	97.19
370.445	80.19
370.672	81.19
370.898	87.19
371.124	102.19
371.35	93.19
371.576	95.19
371.802	86.19
372.028	94.19
372.254	98.19
372.48	89.19
372.706	96.19
372.932	95.19
373.158	95.19
373.384	83.19
373.61	71.19
373.835	86.19
374.061	94.19
374.287	97.19
374.513	97.19
374.739	98.19
374.965	97.19
375.191	88.19
375.416	80.19
375.642	95.19
375.868	92.19
376.094	85.19
376.319	98.19
376.545	100.19
376.771	86.19
376.997	96.19
377.222	88.19
377.448	97.19
377.674	107.19
377.899	100.19
378.125	88.19
378.35	82.19
378.576	86.19
378.802	92.19
379.027	99.19
379.253	87.19
379.478	99.19
379.704	110.19
379.929	101.19
380.155	105.19
380.38	106.19
380.606	98.19
380.831	102.19
381.057	96.19
381.282	92.19
381.507	108.19
381.733	103.19
381.958	100.19
382.184	100.19
382.409	111.19
382.634	110.19
382.86	99.19
383.085	105.19
383.31	125.19
383.535	121.19
383.761	92.19
383.986	100.19
384.211	108.19
384.436	117.19
384.662	117.19
384.887	121.19
385.112	109.19
385.337	110.19
385.562	120.19
385.787	119.19
386.013	129.19
386.238	123.19
386.463	130.19
386.688	128.19
386.913	134.19
387.138	107.19
387.363	109.19
387.588	100.19
387.813	88.19
388.038	103.19
388.263	129.19
388.488	121.19
388.713	98.19
388.938	90.19
389.163	94.19
389.387	93.19
389.612	86.19
389.837	92.19
390.062	87.19
390.287	98.19
390.512	92.19
390.736	92.19
390.961	97.19
391.186	99.19
391.411	94.19
391.636	107.19
391.86	91.19
392.085	86.19
392.31	93.19
392.534	98.19
392.759	82.19
392.984	102.19
393.208	86.19
393.433	102.19
393.658	111.19
393.882	96.19
394.107	106.19
394.331	100.19
394.556	88.19
394.78	97.19
395.005	83.19
395.229	89.19
395.454	94.19
395.678	92.19
395.903	91.19
396.127	86.19
396.352	81.19
396.576	90.19
396.801	94.19
397.025	111.19
397.249	90.19
397.474	93.19
397.698	90.19
397.922	103.19
398.147	91.19
398.371	94.19
398.595	95.19
398.82	92.19
399.044	87.19
399.268	79.19
399.492	93.19
399.717	99.19
399.941	96.19
400.165	89.19
400.389	92.19
400.613	94.19
400.837	94.19
401.062	95.19
401.286	86.19
401.51	95.19
401.734	104.19
401.958	87.19
402.182	129.19
402.406	164.19
402.63	114.19
402.854	81.19
403.078	79.19
403.302	89.19
403.526	85.19
403.75	92.19
403.974	91.19
404.198	92.19
404.422	83.19
404.645	87.19
404.869	89.19
405.093	99.19
405.317	98.19
405.541	89.19
405.765	92.19
405.988	124.19
406.212	160.19
406.436	254.19
406.66	156.19
406.883	107.19
407.107	93.19
407.331	93.19
407.555	97.19
407.778	95.19
408.002	86.19
408.226	100.19
408.449	77.19
408.673	77.19
408.896	104.19
409.12	85.19
409.344	84.19
409.567	76.19
409.791	102.19
410.014	103.19
410.238	93.19
410.461	95.19
410.685	104.19
410.908	90.19
411.132	102.19
411.355	95.19
411.578	87.19
411.802	106.19
412.025	86.19
412.249	100.19
412.472	100.19
412.695	87.19
412.919	78.19
413.142	89.19
413.365	89.19
413.589	99.19
413.812	88.19
414.035	92.19
414.258	77.19
414.482	95.19
414.705	95.19
414.928	94.19
415.151	96.19
415.374	88.19
415.597	95.19
415.821	99.19
416.044	91.19
416.267	96.19
416.49	81.19
416.713	67.19
416.936	86.19
417.159	84.19
417.382	92.19
417.605	98.19
417.828	104.19
418.051	97.19
418.274	84.19
418.497	95.19
418.72	83.19
418.943	96.19
419.166	91.19
419.389	74.19
419.611	93.19
419.834	108.19
420.057	82.19
420.28	73.19
420.503	103.19
420.726	79.19
420.948	99.19
421.171	95.19
421.394	97.19
421.617	90.19
421.839	109.19
422.062	74.19
422.285	88.19
422.507	98.19
422.73	105.19
422.953	102.19
423.175	89.19
423.398	93.19
423.621	95.19
423.843	92.19
424.066	99.19
424.288	97.19
424.511	92.19
424.733	94.19
424.956	98.19
425.178	90.19
425.401	112.19
425.623	101.19
425.846	90.19
426.068	97.19
426.291	87.19
426.513	97.19
426.735	80.19
426.958	89.19
427.18	103.19
427.402	127.19
427.625	180.19
427.847	117.19
428.069	107.19
428.292	100.19
428.514	94.19
428.736	106.19
428.958	89.19
429.181	78.19
429.403	104.19
429.625	80.19
429.847	103.19
430.069	113.19
430.292	97.19
430.514	93.19
430.736	86.19
430.958	91.19
431.18	87.19
431.402	97.19
431.624	100.19
431.846	91.19
432.068	91.19
432.29	91.19
432.512	95.19
432.734	84.19
432.956	93.19
433.178	105.19
433.4	93.19
433.622	86.19
433.844	85.19
434.066	81.19
434.287	95.19
434.509	103.19
434.731	102.19
434.953	87.19
435.175	101.19
435.397	94.19
435.618	95.19
435.84	93.19
436.062	108.19
436.284	123.19
436.505	97.19
436.727	101.19
436.949	100.19
437.17	75.19
437.392	96.19
437.614	94.19
437.835	94.19
438.057	116.19
438.278	103.19
438.5	114.19
438.721	108.19
438.943	105.19
439.165	103.19
439.386	92.19
439.608	99.19
439.829	93.19
440.05	121.19
440.272	141.19
440.493	95.19
440.715	103.19
440.936	74.19
441.158	85.19
441.379	76.19
441.6	90.19
441.822	94.19
442.043	99.19
442.264	99.19
442.486	95.19
442.707	108.19
442.928	104.19
443.149	138.19
443.371	127.19
443.592	93.19
443.813	113.19
444.034	88.19
444.255	98.19
444.476	83.19
444.698	84.19
444.919	85.19
445.14	126.19
445.361	104.19
445.582	101.19
445.803	121.19
446.024	142.19
446.245	118.19
446.466	101.19
446.687	88.19
446.908	92.19
447.129	92.19
447.35	91.19
447.571	96.19
447.792	98.19
448.013	90.19
448.234	111.19
448.455	93.19
448.675	120.19
448.896	109.19
449.117	110.19
449.338	107.19
449.559	130.19
449.779	116.19
450	97.19
450.221	89.19
450.442	88.19
450.662	98.19
450.883	127.19
451.104	125.19
451.324	94.19
451.545	100.19
451.766	87.19
451.986	74.19
452.207	80.19
452.428	92.19
452.648	99.19
452.869	96.19
453.089	105.19
453.31	117.19
453.53	83.19
453.751	99.19
453.971	116.19
454.192	123.19
454.412	99.19
454.633	92.19
454.853	72.19
455.073	83.19
455.294	90.19
455.514	86.19
455.734	86.19
455.955	94.19
456.175	85.19
456.395	109.19
456.616	99.19
456.836	81.19
457.056	87.19
457.276	90.19
457.497	82.19
457.717	85.19
457.937	97.19
458.157	98.19
458.377	104.19
458.598	104.19
458.818	146.19
459.038	143.19
459.258	120.19
459.478	97.19
459.698	90.19
459.918	90.19
460.138	93.19
460.358	92.19
460.578	105.19
460.798	89.19
461.018	81.19
461.238	83.19
461.458	95.19
461.678	74.19
461.898	101.19
462.118	100.19
462.338	82.19
462.558	87.19
462.777	91.19
462.997	91.19
463.217	97.19
463.437	103.19
463.657	92.19
463.876	75.19
464.096	99.19
464.316	89.19
464.536	81.19
464.755	98.19
464.975	97.19
465.195	162.19
465.414	166.19
465.634	102.19
465.854	87.19
466.073	89.19
466.293	85.19
466.512	90.19
466.732	93.19
466.951	93.19
467.171	78.19
467.391	85.19
467.61	101.19
467.829	90.19
468.049	108.19
468.268	101.19
468.488	75.19
468.707	95.19
468.927	106.19
469.146	89.19
469.365	89.19
469.585	90.19
469.804	94.19
470.023	95.19
470.243	94.19
470.462	95.19
470.681	118.19
470.901	98.19
471.12	91.19
471.339	86.19
471.558	86.19
471.777	92.19
471.997	105.19
472.216	104.19
472.435	124.19
472.654	97.19
472.873	103.19
473.092	99.19
473.311	103.19
473.53	77.19
473.749	94.19
473.968	107.19
474.187	107.19
474.406	94.19
474.625	99.19
474.844	80.19
475.063	89.19
475.282	91.19
475.501	93.19
475.72	105.19
475.939	91.19
476.158	80.19
476.377	87.19
476.596	79.19
476.814	84.19
477.033	96.19
477.252	94.19
477.471	93.19
477.69	93.19
477.908	87.19
478.127	97.19
478.346	91.19
478.564	87.19
478.783	100.19
479.002	94.19
479.22	103.19
479.439	100.19
479.658	111.19
479.876	84.19
480.095	100.19
480.313	96.19
480.532	95.19
480.751	102.19
480.969	108.19
481.188	179.19
481.406	144.19
481.624	89.19
481.843	95.19
482.061	89.19
482.28	102.19
482.498	97.19
482.717	94.19
482.935	81.19
483.153	85.19
483.372	83.19
483.59	91.19
483.808	93.19
484.027	100.19
484.245	98.19
484.463	90.19
484.681	97.19
484.9	103.19
485.118	87.19
485.336	94.19
485.554	103.19
485.772	102.19
485.99	101.19
486.209	112.19
486.427	107.19
486.645	122.19
486.863	116.19
487.081	95.19
487.299	97.19
487.517	86.19
487.735	97.19
487.953	100.19
488.171	102.19
488.389	92.19
488.607	89.19
488.825	93.19
489.043	88.19
489.261	83.19
489.479	100.19
489.696	90.19
489.914	90.19
490.132	88.19
490.35	85.19
490.568	97.19
490.786	85.19
491.003	101.19
491.221	98.19
491.439	96.19
491.657	98.19
491.874	82.19
492.092	103.19
492.31	83.19
492.527	99.19
492.745	95.19
492.963	93.19
493.18	94.19
493.398	89.19
493.615	95.19
493.833	95.19
494.05	95.19
494.268	89.19
494.485	90.19
494.703	99.19
494.92	103.19
495.138	85.19
495.355	92.19
495.573	92.19
495.79	81.19
496.008	89.19
496.225	92.19
496.442	86.19
496.66	87.19
496.877	82.19
497.094	91.19
497.312	85.19
497.529	98.19
497.746	96.19
497.963	91.19
498.181	96.19
498.398	96.19
498.615	108.19
498.832	121.19
499.049	109.19
499.267	84.19
499.484	106.19
499.701	98.19
499.918	98.19
500.135	93.19
500.352	93.19
500.569	92.19
500.786	95.19
501.003	81.19
501.22	93.19
501.437	98.19
501.654	96.19
501.871	111.19
502.088	100.19
502.305	89.19
502.522	91.19
502.739	95.19
502.956	89.19
503.172	91.19
503.389	98.19
503.606	109.19
503.823	99.19
504.04	92.19
504.256	94.19
504.473	83.19
504.69	92.19
504.907	105.19
505.123	86.19
505.34	85.19
505.557	97.19
505.773	74.19
505.99	107.19
506.207	90.19
506.423	90.19
506.64	78.19
506.856	102.19
507.073	92.19
507.289	83.19
507.506	94.19
507.722	117.19
507.939	116.19
508.155	109.19
508.372	96.19
508.588	100.19
508.805	88.19
509.021	93.19
509.238	106.19
509.454	106.19
509.67	114.19
509.887	107.19
510.103	145.19
510.319	223.19
510.536	852.19
510.752	2757.19
510.968	767.19
511.184	174.19
511.401	126.19
511.617	104.19
511.833	103.19
512.049	104.19
512.265	95.19
512.481	91.19
512.698	86.19
512.914	92.19
513.13	85.19
513.346	91.19
513.562	93.19
513.778	106.19
513.994	102.19
514.21	106.19
514.426	122.19
514.642	148.19
514.858	135.19
