Data from Circ_2008_H10_HRD10591_00061.txt Node
Date: Wed Jan 03 10:17:08 EST 2024
User: Yrep
Spectrometer: HR+D1059
Trigger mode: 1
Integration Time (sec): 1.000000E-1
Scans to average: 1
Electric dark correction enabled: true
Nonlinearity correction enabled: false
Boxcar width: 0
XAxis mode: Wavelengths
Number of Pixels in Spectrum: 2048
>>>>>Begin Spectral Data<<<<<
223.165	-18.69
223.4	-18.69
223.635	-18.69
223.869	-18.69
224.104	-26.69
224.338	-22.69
224.573	-14.69
224.808	-11.69
225.042	7.31
225.277	-1.69
225.511	-13.69
225.746	1.31
225.98	17.31
226.215	19.31
226.449	11.31
226.683	12.31
226.918	32.31
227.152	27.31
227.387	31.31
227.621	44.31
227.856	50.31
228.09	41.31
228.324	40.31
228.559	56.31
228.793	55.31
229.027	45.31
229.262	53.31
229.496	77.31
229.73	79.31
229.964	64.31
230.199	71.31
230.433	86.31
230.667	91.31
230.901	69.31
231.136	62.31
231.37	63.31
231.604	87.31
231.838	87.31
232.072	73.31
232.306	93.31
232.541	87.31
232.775	89.31
233.009	83.31
233.243	86.31
233.477	58.31
233.711	81.31
233.945	73.31
234.179	73.31
234.413	83.31
234.647	79.31
234.881	66.31
235.115	80.31
235.349	82.31
235.583	82.31
235.817	76.31
236.051	73.31
236.285	80.31
236.519	93.31
236.753	74.31
236.987	89.31
237.221	83.31
237.455	81.31
237.689	86.31
237.922	71.31
238.156	88.31
238.39	70.31
238.624	69.31
238.858	80.31
239.091	81.31
239.325	87.31
239.559	87.31
239.793	93.31
240.027	81.31
240.26	66.31
240.494	81.31
240.728	71.31
240.961	70.31
241.195	66.31
241.429	72.31
241.662	62.31
241.896	78.31
242.13	81.31
242.363	70.31
242.597	67.31
242.83	83.31
243.064	91.31
243.298	78.31
243.531	76.31
243.765	68.31
243.998	77.31
244.232	86.31
244.465	83.31
244.699	87.31
244.932	82.31
245.166	83.31
245.399	87.31
245.633	82.31
245.866	89.31
246.099	66.31
246.333	81.31
246.566	82.31
246.8	78.31
247.033	63.31
247.266	82.31
247.5	79.31
247.733	75.31
247.966	76.31
248.2	73.31
248.433	78.31
248.666	72.31
248.899	78.31
249.133	78.31
249.366	89.31
249.599	107.31
249.832	83.31
250.066	92.31
250.299	79.31
250.532	82.31
250.765	65.31
250.998	61.31
251.231	60.31
251.465	74.31
251.698	72.31
251.931	77.31
252.164	77.31
252.397	73.31
252.63	86.31
252.863	83.31
253.096	78.31
253.329	77.31
253.562	70.31
253.795	93.31
254.028	58.31
254.261	71.31
254.494	91.31
254.727	96.31
254.96	69.31
255.193	85.31
255.426	83.31
255.659	88.31
255.892	82.31
256.124	88.31
256.357	77.31
256.59	68.31
256.823	71.31
257.056	78.31
257.289	74.31
257.521	79.31
257.754	82.31
257.987	83.31
258.22	82.31
258.452	80.31
258.685	82.31
258.918	74.31
259.151	80.31
259.383	71.31
259.616	87.31
259.849	79.31
260.081	84.31
260.314	79.31
260.547	91.31
260.779	80.31
261.012	77.31
261.244	80.31
261.477	80.31
261.71	87.31
261.942	117.31
262.175	112.31
262.407	85.31
262.64	72.31
262.872	73.31
263.105	74.31
263.337	87.31
263.57	81.31
263.802	84.31
264.035	71.31
264.267	84.31
264.499	75.31
264.732	88.31
264.964	73.31
265.197	83.31
265.429	79.31
265.661	74.31
265.894	82.31
266.126	79.31
266.358	76.31
266.591	89.31
266.823	73.31
267.055	76.31
267.287	77.31
267.52	84.31
267.752	90.31
267.984	89.31
268.216	84.31
268.448	70.31
268.681	71.31
268.913	80.31
269.145	71.31
269.377	95.31
269.609	89.31
269.841	77.31
270.073	87.31
270.306	89.31
270.538	91.31
270.77	90.31
271.002	79.31
271.234	81.31
271.466	94.31
271.698	79.31
271.93	74.31
272.162	67.31
272.394	82.31
272.626	79.31
272.858	102.31
273.09	94.31
273.322	85.31
273.553	83.31
273.785	79.31
274.017	77.31
274.249	81.31
274.481	78.31
274.713	84.31
274.945	74.31
275.176	82.31
275.408	73.31
275.64	87.31
275.872	74.31
276.104	76.31
276.335	91.31
276.567	106.31
276.799	111.31
277.031	104.31
277.262	96.31
277.494	89.31
277.726	89.31
277.957	84.31
278.189	89.31
278.421	75.31
278.652	79.31
278.884	82.31
279.115	77.31
279.347	74.31
279.579	87.31
279.81	93.31
280.042	96.31
280.273	104.31
280.505	92.31
280.736	90.31
280.968	89.31
281.199	90.31
281.431	90.31
281.662	70.31
281.894	90.31
282.125	105.31
282.356	111.31
282.588	150.31
282.819	104.31
283.051	87.31
283.282	80.31
283.513	77.31
283.745	78.31
283.976	73.31
284.207	82.31
284.439	91.31
284.67	94.31
284.901	97.31
285.132	67.31
285.364	92.31
285.595	85.31
285.826	89.31
286.057	89.31
286.288	89.31
286.52	83.31
286.751	83.31
286.982	69.31
287.213	75.31
287.444	85.31
287.675	87.31
287.906	73.31
288.138	89.31
288.369	92.31
288.6	104.31
288.831	82.31
289.062	91.31
289.293	80.31
289.524	89.31
289.755	90.31
289.986	98.31
290.217	85.31
290.448	80.31
290.679	87.31
290.91	89.31
291.141	88.31
291.371	97.31
291.602	89.31
291.833	78.31
292.064	91.31
292.295	90.31
292.526	89.31
292.757	91.31
292.987	77.31
293.218	99.31
293.449	95.31
293.68	93.31
293.91	98.31
294.141	89.31
294.372	80.31
294.603	98.31
294.833	93.31
295.064	89.31
295.295	100.31
295.525	82.31
295.756	92.31
295.987	110.31
296.217	152.31
296.448	117.31
296.679	97.31
296.909	91.31
297.14	88.31
297.37	92.31
297.601	87.31
297.831	100.31
298.062	94.31
298.292	75.31
298.523	99.31
298.753	93.31
298.984	81.31
299.214	96.31
299.445	87.31
299.675	90.31
299.905	101.31
300.136	87.31
300.366	90.31
300.597	102.31
300.827	102.31
301.057	105.31
301.288	105.31
301.518	94.31
301.748	81.31
301.979	106.31
302.209	88.31
302.439	81.31
302.669	75.31
302.9	82.31
303.13	86.31
303.36	95.31
303.59	101.31
303.82	111.31
304.051	100.31
304.281	97.31
304.511	99.31
304.741	98.31
304.971	75.31
305.201	89.31
305.431	85.31
305.661	91.31
305.891	85.31
306.121	102.31
306.352	90.31
306.582	103.31
306.812	88.31
307.042	78.31
307.272	96.31
307.502	96.31
307.731	94.31
307.961	92.31
308.191	86.31
308.421	82.31
308.651	97.31
308.881	87.31
309.111	89.31
309.341	91.31
309.571	89.31
309.8	90.31
310.03	86.31
310.26	107.31
310.49	101.31
310.72	99.31
310.949	90.31
311.179	110.31
311.409	92.31
311.639	83.31
311.868	96.31
312.098	92.31
312.328	98.31
312.557	106.31
312.787	113.31
313.017	102.31
313.246	111.31
313.476	95.31
313.706	95.31
313.935	87.31
314.165	90.31
314.394	88.31
314.624	94.31
314.853	88.31
315.083	68.31
315.312	89.31
315.542	75.31
315.771	89.31
316.001	76.31
316.23	74.31
316.46	90.31
316.689	95.31
316.919	92.31
317.148	85.31
317.377	86.31
317.607	102.31
317.836	110.31
318.065	89.31
318.295	88.31
318.524	89.31
318.753	74.31
318.983	93.31
319.212	98.31
319.441	101.31
319.67	106.31
319.9	78.31
320.129	94.31
320.358	115.31
320.587	85.31
320.816	101.31
321.046	104.31
321.275	86.31
321.504	81.31
321.733	86.31
321.962	106.31
322.191	91.31
322.42	93.31
322.649	97.31
322.878	98.31
323.108	108.31
323.337	113.31
323.566	114.31
323.795	140.31
324.024	191.31
324.253	337.31
324.482	698.31
324.71	1404.31
324.939	1834.31
325.168	691.31
325.397	229.31
325.626	139.31
325.855	119.31
326.084	124.31
326.313	119.31
326.542	133.31
326.77	211.31
326.999	395.31
327.228	775.31
327.457	1362.31
327.686	1082.31
327.914	332.31
328.143	191.31
328.372	170.31
328.6	155.31
328.829	129.31
329.058	140.31
329.287	132.31
329.515	113.31
329.744	112.31
329.972	119.31
330.201	151.31
330.43	166.31
330.658	140.31
330.887	141.31
331.115	108.31
331.344	90.31
331.572	93.31
331.801	106.31
332.03	103.31
332.258	89.31
332.486	90.31
332.715	89.31
332.943	105.31
333.172	94.31
333.4	89.31
333.629	113.31
333.857	123.31
334.085	125.31
334.314	147.31
334.542	191.31
334.771	198.31
334.999	113.31
335.227	90.31
335.455	90.31
335.684	90.31
335.912	85.31
336.14	109.31
336.369	95.31
336.597	110.31
336.825	88.31
337.053	88.31
337.281	94.31
337.51	76.31
337.738	81.31
337.966	92.31
338.194	91.31
338.422	91.31
338.65	83.31
338.878	95.31
339.106	92.31
339.334	83.31
339.562	85.31
339.79	92.31
340.018	81.31
340.246	75.31
340.474	88.31
340.702	93.31
340.93	89.31
341.158	92.31
341.386	83.31
341.614	97.31
341.842	96.31
342.07	95.31
342.298	97.31
342.526	86.31
342.754	89.31
342.981	96.31
343.209	78.31
343.437	102.31
343.665	77.31
343.893	97.31
344.12	105.31
344.348	95.31
344.576	86.31
344.804	101.31
345.031	85.31
345.259	95.31
345.487	87.31
345.714	82.31
345.942	87.31
346.17	89.31
346.397	87.31
346.625	85.31
346.853	95.31
347.08	83.31
347.308	104.31
347.535	104.31
347.763	100.31
347.99	100.31
348.218	101.31
348.445	110.31
348.673	93.31
348.9	90.31
349.128	89.31
349.355	84.31
349.583	93.31
349.81	92.31
350.037	90.31
350.265	79.31
350.492	92.31
350.72	94.31
350.947	96.31
351.174	105.31
351.402	102.31
351.629	97.31
351.856	88.31
352.083	88.31
352.311	94.31
352.538	113.31
352.765	107.31
352.992	116.31
353.22	103.31
353.447	94.31
353.674	96.31
353.901	91.31
354.128	88.31
354.355	103.31
354.583	91.31
354.81	87.31
355.037	96.31
355.264	97.31
355.491	89.31
355.718	81.31
355.945	90.31
356.172	96.31
356.399	98.31
356.626	101.31
356.853	92.31
357.08	88.31
357.307	94.31
357.534	99.31
357.761	89.31
357.988	88.31
358.215	79.31
358.441	94.31
358.668	75.31
358.895	78.31
359.122	91.31
359.349	93.31
359.576	96.31
359.802	104.31
360.029	114.31
360.256	109.31
360.483	79.31
360.709	90.31
360.936	78.31
361.163	85.31
361.39	80.31
361.616	96.31
361.843	85.31
362.07	87.31
362.296	89.31
362.523	76.31
362.749	75.31
362.976	98.31
363.203	86.31
363.429	83.31
363.656	92.31
363.882	79.31
364.109	80.31
364.335	81.31
364.562	79.31
364.788	90.31
365.015	84.31
365.241	107.31
365.468	93.31
365.694	102.31
365.92	81.31
366.147	85.31
366.373	96.31
366.599	77.31
366.826	85.31
367.052	88.31
367.278	94.31
367.505	90.31
367.731	83.31
367.957	95.31
368.184	76.31
368.41	93.31
368.636	109.31
368.862	115.31
369.089	92.31
369.315	86.31
369.541	79.31
369.767	94.31
369.993	90.31
370.219	86.31
370.445	87.31
370.672	90.31
370.898	95.31
371.124	90.31
371.35	103.31
371.576	89.31
371.802	90.31
372.028	90.31
372.254	76.31
372.48	83.31
372.706	83.31
372.932	97.31
373.158	86.31
373.384	100.31
373.61	97.31
373.835	97.31
374.061	82.31
374.287	86.31
374.513	86.31
374.739	82.31
374.965	79.31
375.191	82.31
375.416	103.31
375.642	96.31
375.868	100.31
376.094	89.31
376.319	98.31
376.545	95.31
376.771	88.31
376.997	70.31
377.222	62.31
377.448	91.31
377.674	94.31
377.899	81.31
378.125	81.31
378.35	86.31
378.576	87.31
378.802	81.31
379.027	96.31
379.253	87.31
379.478	74.31
379.704	82.31
379.929	87.31
380.155	102.31
380.38	85.31
380.606	88.31
380.831	105.31
381.057	105.31
381.282	105.31
381.507	98.31
381.733	106.31
381.958	81.31
382.184	88.31
382.409	105.31
382.634	104.31
382.86	97.31
383.085	102.31
383.31	93.31
383.535	99.31
383.761	89.31
383.986	101.31
384.211	103.31
384.436	92.31
384.662	101.31
384.887	103.31
385.112	103.31
385.337	98.31
385.562	105.31
385.787	97.31
386.013	112.31
386.238	104.31
386.463	95.31
386.688	113.31
386.913	108.31
387.138	101.31
387.363	102.31
387.588	83.31
387.813	91.31
388.038	84.31
388.263	99.31
388.488	105.31
388.713	101.31
388.938	109.31
389.163	107.31
389.387	94.31
389.612	84.31
389.837	96.31
390.062	94.31
390.287	81.31
390.512	87.31
390.736	89.31
390.961	111.31
391.186	93.31
391.411	90.31
391.636	93.31
391.86	76.31
392.085	85.31
392.31	85.31
392.534	91.31
392.759	87.31
392.984	82.31
393.208	83.31
393.433	101.31
393.658	82.31
393.882	83.31
394.107	83.31
394.331	83.31
394.556	87.31
394.78	92.31
395.005	72.31
395.229	90.31
395.454	97.31
395.678	78.31
395.903	89.31
396.127	86.31
396.352	87.31
396.576	74.31
396.801	101.31
397.025	82.31
397.249	93.31
397.474	89.31
397.698	90.31
397.922	89.31
398.147	77.31
398.371	97.31
398.595	71.31
398.82	82.31
399.044	95.31
399.268	83.31
399.492	80.31
399.717	87.31
399.941	81.31
400.165	93.31
400.389	88.31
400.613	89.31
400.837	80.31
401.062	73.31
401.286	86.31
401.51	94.31
401.734	89.31
401.958	105.31
402.182	123.31
402.406	183.31
402.63	107.31
402.854	89.31
403.078	98.31
403.302	102.31
403.526	78.31
403.75	82.31
403.974	79.31
404.198	74.31
404.422	97.31
404.645	81.31
404.869	83.31
405.093	88.31
405.317	102.31
405.541	97.31
405.765	94.31
405.988	110.31
406.212	176.31
406.436	224.31
406.66	149.31
406.883	81.31
407.107	88.31
407.331	89.31
407.555	98.31
407.778	93.31
408.002	97.31
408.226	84.31
408.449	85.31
408.673	94.31
408.896	81.31
409.12	91.31
409.344	103.31
409.567	86.31
409.791	85.31
410.014	80.31
410.238	89.31
410.461	99.31
410.685	102.31
410.908	93.31
411.132	96.31
411.355	83.31
411.578	78.31
411.802	89.31
412.025	93.31
412.249	91.31
412.472	89.31
412.695	96.31
412.919	79.31
413.142	95.31
413.365	96.31
413.589	96.31
413.812	88.31
414.035	85.31
414.258	90.31
414.482	81.31
414.705	94.31
414.928	99.31
415.151	80.31
415.374	104.31
415.597	90.31
415.821	98.31
416.044	94.31
416.267	82.31
416.49	77.31
416.713	88.31
416.936	90.31
417.159	90.31
417.382	89.31
417.605	94.31
417.828	93.31
418.051	92.31
418.274	73.31
418.497	85.31
418.72	77.31
418.943	92.31
419.166	90.31
419.389	89.31
419.611	89.31
419.834	77.31
420.057	75.31
420.28	92.31
420.503	95.31
420.726	88.31
420.948	87.31
421.171	77.31
421.394	89.31
421.617	92.31
421.839	88.31
422.062	98.31
422.285	69.31
422.507	79.31
422.73	87.31
422.953	97.31
423.175	91.31
423.398	98.31
423.621	96.31
423.843	69.31
424.066	77.31
424.288	82.31
424.511	104.31
424.733	88.31
424.956	112.31
425.178	101.31
425.401	95.31
425.623	87.31
425.846	87.31
426.068	87.31
426.291	88.31
426.513	83.31
426.735	84.31
426.958	101.31
427.18	96.31
427.402	124.31
427.625	153.31
427.847	142.31
428.069	99.31
428.292	89.31
428.514	89.31
428.736	81.31
428.958	81.31
429.181	84.31
429.403	88.31
429.625	83.31
429.847	85.31
430.069	88.31
430.292	91.31
430.514	75.31
430.736	90.31
430.958	87.31
431.18	89.31
431.402	90.31
431.624	83.31
431.846	74.31
432.068	87.31
432.29	86.31
432.512	75.31
432.734	76.31
432.956	96.31
433.178	94.31
433.4	87.31
433.622	88.31
433.844	91.31
434.066	93.31
434.287	95.31
434.509	94.31
434.731	94.31
434.953	97.31
435.175	94.31
435.397	95.31
435.618	88.31
435.84	107.31
436.062	110.31
436.284	82.31
436.505	101.31
436.727	99.31
436.949	85.31
437.17	76.31
437.392	75.31
437.614	90.31
437.835	98.31
438.057	109.31
438.278	106.31
438.5	91.31
438.721	88.31
438.943	109.31
439.165	75.31
439.386	81.31
439.608	96.31
439.829	88.31
440.05	112.31
440.272	138.31
440.493	99.31
440.715	90.31
440.936	98.31
441.158	89.31
441.379	70.31
441.6	84.31
441.822	93.31
442.043	91.31
442.264	79.31
442.486	82.31
442.707	83.31
442.928	89.31
443.149	122.31
443.371	126.31
443.592	104.31
443.813	100.31
444.034	90.31
444.255	100.31
444.476	87.31
444.698	81.31
444.919	96.31
445.14	103.31
445.361	125.31
445.582	101.31
445.803	111.31
446.024	125.31
446.245	122.31
446.466	104.31
446.687	99.31
446.908	89.31
447.129	97.31
447.35	84.31
447.571	80.31
447.792	89.31
448.013	94.31
448.234	111.31
448.455	97.31
448.675	110.31
448.896	94.31
449.117	96.31
449.338	100.31
449.559	111.31
449.779	118.31
450	95.31
450.221	92.31
450.442	90.31
450.662	90.31
450.883	111.31
451.104	111.31
451.324	91.31
451.545	89.31
451.766	73.31
451.986	75.31
452.207	88.31
452.428	92.31
452.648	87.31
452.869	117.31
453.089	117.31
453.31	115.31
453.53	98.31
453.751	103.31
453.971	111.31
454.192	108.31
454.412	90.31
454.633	74.31
454.853	74.31
455.073	82.31
455.294	84.31
455.514	93.31
455.734	93.31
455.955	76.31
456.175	99.31
456.395	74.31
456.616	85.31
456.836	89.31
457.056	92.31
457.276	83.31
457.497	86.31
457.717	85.31
457.937	95.31
458.157	83.31
458.377	94.31
458.598	99.31
458.818	138.31
459.038	161.31
459.258	119.31
459.478	93.31
459.698	93.31
459.918	95.31
460.138	79.31
460.358	87.31
460.578	95.31
460.798	79.31
461.018	96.31
461.238	94.31
461.458	72.31
461.678	97.31
461.898	96.31
462.118	78.31
462.338	79.31
462.558	90.31
462.777	87.31
462.997	93.31
463.217	73.31
463.437	81.31
463.657	98.31
463.876	82.31
464.096	83.31
464.316	90.31
464.536	87.31
464.755	92.31
464.975	95.31
465.195	152.31
465.414	159.31
465.634	105.31
465.854	88.31
466.073	94.31
466.293	100.31
466.512	77.31
466.732	86.31
466.951	93.31
467.171	85.31
467.391	91.31
467.61	102.31
467.829	104.31
468.049	122.31
468.268	124.31
468.488	90.31
468.707	74.31
468.927	85.31
469.146	83.31
469.365	91.31
469.585	81.31
469.804	86.31
470.023	81.31
470.243	79.31
470.462	113.31
470.681	101.31
470.901	96.31
471.12	91.31
471.339	85.31
471.558	89.31
471.777	90.31
471.997	83.31
472.216	157.31
472.435	253.31
472.654	108.31
472.873	95.31
473.092	83.31
473.311	89.31
473.53	101.31
473.749	79.31
473.968	89.31
474.187	88.31
474.406	87.31
474.625	88.31
474.844	73.31
475.063	94.31
475.282	79.31
475.501	74.31
475.72	73.31
475.939	73.31
476.158	81.31
476.377	99.31
476.596	93.31
476.814	89.31
477.033	91.31
477.252	86.31
477.471	87.31
477.69	93.31
477.908	82.31
478.127	92.31
478.346	85.31
478.564	84.31
478.783	88.31
479.002	94.31
479.22	91.31
479.439	100.31
479.658	104.31
479.876	89.31
480.095	102.31
480.313	101.31
480.532	94.31
480.751	95.31
480.969	161.31
481.188	401.31
481.406	272.31
481.624	108.31
481.843	80.31
482.061	89.31
482.28	100.31
482.498	71.31
482.717	78.31
482.935	87.31
483.153	83.31
483.372	72.31
483.59	74.31
483.808	82.31
484.027	74.31
484.245	80.31
484.463	91.31
484.681	94.31
484.9	82.31
485.118	94.31
485.336	85.31
485.554	82.31
485.772	99.31
485.99	90.31
486.209	97.31
486.427	83.31
486.645	97.31
486.863	96.31
487.081	88.31
487.299	73.31
487.517	86.31
487.735	90.31
487.953	95.31
488.171	99.31
488.389	94.31
488.607	94.31
488.825	93.31
489.043	97.31
489.261	89.31
489.479	74.31
489.696	101.31
489.914	80.31
490.132	92.31
490.35	91.31
490.568	97.31
490.786	88.31
491.003	87.31
491.221	86.31
491.439	83.31
491.657	85.31
491.874	90.31
492.092	92.31
492.31	77.31
492.527	89.31
492.745	92.31
492.963	85.31
493.18	90.31
493.398	95.31
493.615	106.31
493.833	94.31
494.05	90.31
494.268	89.31
494.485	89.31
494.703	102.31
494.92	85.31
495.138	87.31
495.355	76.31
495.573	91.31
495.79	86.31
496.008	100.31
496.225	79.31
496.442	82.31
496.66	88.31
496.877	97.31
497.094	88.31
497.312	84.31
497.529	103.31
497.746	89.31
497.963	91.31
498.181	79.31
498.398	95.31
498.615	103.31
498.832	98.31
499.049	90.31
499.267	90.31
499.484	94.31
499.701	80.31
499.918	88.31
500.135	89.31
500.352	83.31
500.569	78.31
500.786	84.31
501.003	95.31
501.22	95.31
501.437	89.31
501.654	83.31
501.871	116.31
502.088	88.31
502.305	93.31
502.522	87.31
502.739	94.31
502.956	90.31
503.172	81.31
503.389	111.31
503.606	104.31
503.823	111.31
504.04	103.31
504.256	88.31
504.473	99.31
504.69	88.31
504.907	99.31
505.123	102.31
505.34	94.31
505.557	90.31
505.773	102.31
505.99	98.31
506.207	95.31
506.423	88.31
506.64	95.31
506.856	105.31
507.073	97.31
507.289	94.31
507.506	97.31
507.722	125.31
507.939	107.31
508.155	91.31
508.372	81.31
508.588	85.31
508.805	88.31
509.021	93.31
509.238	97.31
509.454	91.31
509.67	100.31
509.887	100.31
510.103	126.31
510.319	215.31
510.536	805.31
510.752	2675.31
510.968	724.31
511.184	154.31
511.401	97.31
511.617	83.31
511.833	90.31
512.049	98.31
512.265	95.31
512.481	82.31
512.698	95.31
512.914	100.31
513.13	101.31
513.346	96.31
513.562	93.31
513.778	86.31
513.994	102.31
514.21	98.31
514.426	115.31
514.642	125.31
514.858	111.31
515.074	167.31
515.29	464.31
515.506	1611.31
515.721	599.31
515.937	151.31
516.153	118.31
516.369	97.31
