Data from Circ_2008_H10_HRD10591_00050.txt Node
Date: Wed Jan 03 10:17:06 EST 2024
User: Yrep
Spectrometer: HR+D1059
Trigger mode: 1
Integration Time (sec): 1.000000E-1
Scans to average: 1
Electric dark correction enabled: true
Nonlinearity correction enabled: false
Boxcar width: 0
XAxis mode: Wavelengths
Number of Pixels in Spectrum: 2048
>>>>>Begin Spectral Data<<<<<
223.165	1.94
223.4	1.94
223.635	1.94
223.869	-13.06
224.104	-3.06
224.338	-28.06
224.573	-19.06
224.808	-16.06
225.042	-4.06
225.277	1.94
225.511	3.94
225.746	-3.06
225.98	6.94
226.215	7.94
226.449	12.94
226.683	9.94
226.918	10.94
227.152	29.94
227.387	23.94
227.621	44.94
227.856	48.94
228.09	58.94
228.324	53.94
228.559	55.94
228.793	50.94
229.027	66.94
229.262	63.94
229.496	66.94
229.73	82.94
229.964	76.94
230.199	62.94
230.433	80.94
230.667	85.94
230.901	79.94
231.136	80.94
231.37	64.94
231.604	74.94
231.838	82.94
232.072	85.94
232.306	81.94
232.541	78.94
232.775	87.94
233.009	83.94
233.243	75.94
233.477	76.94
233.711	88.94
233.945	74.94
234.179	72.94
234.413	67.94
234.647	79.94
234.881	68.94
235.115	88.94
235.349	65.94
235.583	67.94
235.817	72.94
236.051	82.94
236.285	75.94
236.519	77.94
236.753	68.94
236.987	80.94
237.221	85.94
237.455	76.94
237.689	68.94
237.922	90.94
238.156	72.94
238.39	77.94
238.624	72.94
238.858	91.94
239.091	59.94
239.325	76.94
239.559	90.94
239.793	84.94
240.027	77.94
240.26	85.94
240.494	71.94
240.728	82.94
240.961	65.94
241.195	83.94
241.429	61.94
241.662	84.94
241.896	75.94
242.13	84.94
242.363	76.94
242.597	83.94
242.83	83.94
243.064	89.94
243.298	65.94
243.531	79.94
243.765	88.94
243.998	90.94
244.232	69.94
244.465	98.94
244.699	82.94
244.932	81.94
245.166	77.94
245.399	84.94
245.633	75.94
245.866	75.94
246.099	78.94
246.333	73.94
246.566	81.94
246.8	62.94
247.033	79.94
247.266	74.94
247.5	73.94
247.733	81.94
247.966	75.94
248.2	89.94
248.433	62.94
248.666	81.94
248.899	85.94
249.133	83.94
249.366	83.94
249.599	93.94
249.832	79.94
250.066	71.94
250.299	80.94
250.532	85.94
250.765	87.94
250.998	70.94
251.231	72.94
251.465	65.94
251.698	82.94
251.931	79.94
252.164	72.94
252.397	70.94
252.63	83.94
252.863	82.94
253.096	80.94
253.329	82.94
253.562	81.94
253.795	87.94
254.028	73.94
254.261	75.94
254.494	70.94
254.727	87.94
254.96	68.94
255.193	88.94
255.426	78.94
255.659	77.94
255.892	86.94
256.124	92.94
256.357	92.94
256.59	77.94
256.823	85.94
257.056	69.94
257.289	72.94
257.521	97.94
257.754	81.94
257.987	91.94
258.22	85.94
258.452	74.94
258.685	87.94
258.918	86.94
259.151	62.94
259.383	80.94
259.616	80.94
259.849	71.94
260.081	79.94
260.314	80.94
260.547	87.94
260.779	66.94
261.012	73.94
261.244	68.94
261.477	85.94
261.71	87.94
261.942	99.94
262.175	107.94
262.407	95.94
262.64	76.94
262.872	86.94
263.105	91.94
263.337	91.94
263.57	83.94
263.802	79.94
264.035	76.94
264.267	88.94
264.499	93.94
264.732	88.94
264.964	89.94
265.197	83.94
265.429	75.94
265.661	71.94
265.894	85.94
266.126	87.94
266.358	83.94
266.591	93.94
266.823	92.94
267.055	86.94
267.287	81.94
267.52	72.94
267.752	84.94
267.984	80.94
268.216	93.94
268.448	83.94
268.681	91.94
268.913	100.94
269.145	71.94
269.377	85.94
269.609	74.94
269.841	84.94
270.073	80.94
270.306	91.94
270.538	93.94
270.77	88.94
271.002	74.94
271.234	94.94
271.466	91.94
271.698	89.94
271.93	95.94
272.162	86.94
272.394	66.94
272.626	88.94
272.858	95.94
273.09	75.94
273.322	84.94
273.553	89.94
273.785	82.94
274.017	99.94
274.249	77.94
274.481	92.94
274.713	95.94
274.945	69.94
275.176	89.94
275.408	85.94
275.64	81.94
275.872	90.94
276.104	84.94
276.335	98.94
276.567	89.94
276.799	115.94
277.031	81.94
277.262	90.94
277.494	83.94
277.726	88.94
277.957	82.94
278.189	92.94
278.421	91.94
278.652	101.94
278.884	91.94
279.115	73.94
279.347	80.94
279.579	85.94
279.81	82.94
280.042	89.94
280.273	90.94
280.505	83.94
280.736	78.94
280.968	93.94
281.199	80.94
281.431	95.94
281.662	84.94
281.894	90.94
282.125	79.94
282.356	101.94
282.588	129.94
282.819	112.94
283.051	82.94
283.282	92.94
283.513	78.94
283.745	84.94
283.976	102.94
284.207	87.94
284.439	98.94
284.67	73.94
284.901	85.94
285.132	83.94
285.364	88.94
285.595	89.94
285.826	80.94
286.057	81.94
286.288	82.94
286.52	96.94
286.751	77.94
286.982	80.94
287.213	94.94
287.444	95.94
287.675	88.94
287.906	87.94
288.138	93.94
288.369	88.94
288.6	97.94
288.831	82.94
289.062	87.94
289.293	86.94
289.524	92.94
289.755	67.94
289.986	86.94
290.217	97.94
290.448	85.94
290.679	75.94
290.91	90.94
291.141	87.94
291.371	95.94
291.602	81.94
291.833	84.94
292.064	75.94
292.295	77.94
292.526	83.94
292.757	104.94
292.987	84.94
293.218	85.94
293.449	93.94
293.68	84.94
293.91	89.94
294.141	97.94
294.372	102.94
294.603	84.94
294.833	95.94
295.064	83.94
295.295	81.94
295.525	92.94
295.756	114.94
295.987	132.94
296.217	146.94
296.448	125.94
296.679	105.94
296.909	87.94
297.14	93.94
297.37	89.94
297.601	87.94
297.831	91.94
298.062	98.94
298.292	83.94
298.523	79.94
298.753	93.94
298.984	82.94
299.214	87.94
299.445	87.94
299.675	88.94
299.905	97.94
300.136	84.94
300.366	73.94
300.597	83.94
300.827	95.94
301.057	88.94
301.288	107.94
301.518	92.94
301.748	86.94
301.979	101.94
302.209	92.94
302.439	96.94
302.669	76.94
302.9	96.94
303.13	84.94
303.36	96.94
303.59	113.94
303.82	120.94
304.051	82.94
304.281	94.94
304.511	99.94
304.741	94.94
304.971	91.94
305.201	106.94
305.431	92.94
305.661	92.94
305.891	95.94
306.121	90.94
306.352	98.94
306.582	93.94
306.812	91.94
307.042	89.94
307.272	94.94
307.502	97.94
307.731	103.94
307.961	96.94
308.191	99.94
308.421	91.94
308.651	99.94
308.881	94.94
309.111	84.94
309.341	88.94
309.571	96.94
309.8	93.94
310.03	100.94
310.26	106.94
310.49	78.94
310.72	80.94
310.949	99.94
311.179	112.94
311.409	91.94
311.639	89.94
311.868	96.94
312.098	91.94
312.328	111.94
312.557	102.94
312.787	112.94
313.017	126.94
313.246	104.94
313.476	91.94
313.706	87.94
313.935	89.94
314.165	86.94
314.394	111.94
314.624	89.94
314.853	96.94
315.083	91.94
315.312	85.94
315.542	95.94
315.771	93.94
316.001	101.94
316.23	97.94
316.46	95.94
316.689	93.94
316.919	80.94
317.148	96.94
317.377	98.94
317.607	99.94
317.836	83.94
318.065	100.94
318.295	80.94
318.524	90.94
318.753	112.94
318.983	106.94
319.212	107.94
319.441	119.94
319.67	110.94
319.9	96.94
320.129	100.94
320.358	72.94
320.587	99.94
320.816	100.94
321.046	90.94
321.275	112.94
321.504	88.94
321.733	114.94
321.962	101.94
322.191	88.94
322.42	122.94
322.649	95.94
322.878	109.94
323.108	109.94
323.337	126.94
323.566	107.94
323.795	119.94
324.024	169.94
324.253	318.94
324.482	701.94
324.71	1338.94
324.939	1828.94
325.168	699.94
325.397	233.94
325.626	145.94
325.855	125.94
326.084	122.94
326.313	139.94
326.542	134.94
326.77	195.94
326.999	390.94
327.228	731.94
327.457	1356.94
327.686	1077.94
327.914	339.94
328.143	191.94
328.372	158.94
328.6	136.94
328.829	123.94
329.058	122.94
329.287	125.94
329.515	112.94
329.744	105.94
329.972	135.94
330.201	148.94
330.43	172.94
330.658	135.94
330.887	137.94
331.115	129.94
331.344	112.94
331.572	95.94
331.801	98.94
332.03	95.94
332.258	108.94
332.486	100.94
332.715	83.94
332.943	100.94
333.172	93.94
333.4	96.94
333.629	104.94
333.857	133.94
334.085	125.94
334.314	140.94
334.542	198.94
334.771	171.94
334.999	115.94
335.227	109.94
335.455	112.94
335.684	107.94
335.912	99.94
336.14	106.94
336.369	95.94
336.597	91.94
336.825	95.94
337.053	89.94
337.281	100.94
337.51	91.94
337.738	84.94
337.966	98.94
338.194	96.94
338.422	98.94
338.65	96.94
338.878	83.94
339.106	94.94
339.334	95.94
339.562	101.94
339.79	89.94
340.018	86.94
340.246	97.94
340.474	82.94
340.702	94.94
340.93	84.94
341.158	105.94
341.386	106.94
341.614	104.94
341.842	106.94
342.07	99.94
342.298	103.94
342.526	95.94
342.754	81.94
342.981	85.94
343.209	85.94
343.437	98.94
343.665	89.94
343.893	90.94
344.12	90.94
344.348	97.94
344.576	99.94
344.804	96.94
345.031	97.94
345.259	98.94
345.487	96.94
345.714	98.94
345.942	107.94
346.17	103.94
346.397	87.94
346.625	96.94
346.853	89.94
347.08	94.94
347.308	97.94
347.535	92.94
347.763	112.94
347.99	96.94
348.218	109.94
348.445	94.94
348.673	89.94
348.9	98.94
349.128	100.94
349.355	89.94
349.583	94.94
349.81	92.94
350.037	77.94
350.265	79.94
350.492	104.94
350.72	93.94
350.947	92.94
351.174	108.94
351.402	122.94
351.629	94.94
351.856	103.94
352.083	92.94
352.311	95.94
352.538	109.94
352.765	110.94
352.992	104.94
353.22	105.94
353.447	104.94
353.674	110.94
353.901	88.94
354.128	91.94
354.355	114.94
354.583	94.94
354.81	101.94
355.037	89.94
355.264	89.94
355.491	109.94
355.718	93.94
355.945	92.94
356.172	96.94
356.399	102.94
356.626	95.94
356.853	97.94
357.08	102.94
357.307	75.94
357.534	89.94
357.761	96.94
357.988	85.94
358.215	101.94
358.441	100.94
358.668	99.94
358.895	100.94
359.122	96.94
359.349	94.94
359.576	92.94
359.802	97.94
360.029	103.94
360.256	107.94
360.483	103.94
360.709	99.94
360.936	90.94
361.163	100.94
361.39	85.94
361.616	90.94
361.843	93.94
362.07	88.94
362.296	90.94
362.523	87.94
362.749	96.94
362.976	97.94
363.203	88.94
363.429	98.94
363.656	91.94
363.882	82.94
364.109	86.94
364.335	86.94
364.562	102.94
364.788	103.94
365.015	92.94
365.241	96.94
365.468	95.94
365.694	95.94
365.92	92.94
366.147	83.94
366.373	87.94
366.599	103.94
366.826	90.94
367.052	87.94
367.278	89.94
367.505	89.94
367.731	99.94
367.957	99.94
368.184	90.94
368.41	97.94
368.636	93.94
368.862	123.94
369.089	101.94
369.315	90.94
369.541	86.94
369.767	81.94
369.993	92.94
370.219	78.94
370.445	87.94
370.672	94.94
370.898	91.94
371.124	96.94
371.35	85.94
371.576	89.94
371.802	89.94
372.028	90.94
372.254	89.94
372.48	99.94
372.706	86.94
372.932	99.94
373.158	79.94
373.384	91.94
373.61	97.94
373.835	85.94
374.061	98.94
374.287	89.94
374.513	75.94
374.739	88.94
374.965	99.94
375.191	90.94
375.416	90.94
375.642	72.94
375.868	101.94
376.094	85.94
376.319	99.94
376.545	88.94
376.771	83.94
376.997	102.94
377.222	89.94
377.448	105.94
377.674	80.94
377.899	92.94
378.125	84.94
378.35	108.94
378.576	88.94
378.802	89.94
379.027	90.94
379.253	84.94
379.478	77.94
379.704	93.94
379.929	78.94
380.155	92.94
380.38	95.94
380.606	95.94
380.831	73.94
381.057	94.94
381.282	98.94
381.507	97.94
381.733	87.94
381.958	100.94
382.184	100.94
382.409	105.94
382.634	109.94
382.86	100.94
383.085	106.94
383.31	95.94
383.535	95.94
383.761	88.94
383.986	83.94
384.211	95.94
384.436	108.94
384.662	91.94
384.887	103.94
385.112	90.94
385.337	100.94
385.562	96.94
385.787	91.94
386.013	107.94
386.238	108.94
386.463	105.94
386.688	106.94
386.913	107.94
387.138	102.94
387.363	107.94
387.588	110.94
387.813	104.94
388.038	108.94
388.263	112.94
388.488	106.94
388.713	107.94
388.938	99.94
389.163	105.94
389.387	91.94
389.612	93.94
389.837	75.94
390.062	81.94
390.287	100.94
390.512	81.94
390.736	88.94
390.961	92.94
391.186	87.94
391.411	97.94
391.636	101.94
391.86	94.94
392.085	86.94
392.31	79.94
392.534	83.94
392.759	92.94
392.984	93.94
393.208	85.94
393.433	101.94
393.658	84.94
393.882	94.94
394.107	92.94
394.331	83.94
394.556	99.94
394.78	93.94
395.005	85.94
395.229	80.94
395.454	98.94
395.678	82.94
395.903	80.94
396.127	88.94
396.352	101.94
396.576	83.94
396.801	76.94
397.025	75.94
397.249	88.94
397.474	95.94
397.698	91.94
397.922	73.94
398.147	86.94
398.371	83.94
398.595	91.94
398.82	85.94
399.044	97.94
399.268	95.94
399.492	104.94
399.717	87.94
399.941	82.94
400.165	92.94
400.389	81.94
400.613	78.94
400.837	83.94
401.062	87.94
401.286	70.94
401.51	84.94
401.734	82.94
401.958	110.94
402.182	136.94
402.406	158.94
402.63	122.94
402.854	108.94
403.078	96.94
403.302	93.94
403.526	106.94
403.75	99.94
403.974	105.94
404.198	78.94
404.422	85.94
404.645	86.94
404.869	88.94
405.093	91.94
405.317	89.94
405.541	108.94
405.765	109.94
405.988	117.94
406.212	179.94
406.436	236.94
406.66	148.94
406.883	96.94
407.107	89.94
407.331	98.94
407.555	106.94
407.778	95.94
408.002	86.94
408.226	79.94
408.449	95.94
408.673	86.94
408.896	109.94
409.12	97.94
409.344	95.94
409.567	91.94
409.791	85.94
410.014	91.94
410.238	95.94
410.461	92.94
410.685	88.94
410.908	80.94
411.132	114.94
411.355	103.94
411.578	82.94
411.802	88.94
412.025	83.94
412.249	101.94
412.472	84.94
412.695	87.94
412.919	96.94
413.142	85.94
413.365	80.94
413.589	79.94
413.812	82.94
414.035	90.94
414.258	91.94
414.482	96.94
414.705	98.94
414.928	90.94
415.151	91.94
415.374	85.94
415.597	77.94
415.821	85.94
416.044	91.94
416.267	78.94
416.49	81.94
416.713	84.94
416.936	90.94
417.159	80.94
417.382	86.94
417.605	76.94
417.828	94.94
418.051	91.94
418.274	80.94
418.497	87.94
418.72	80.94
418.943	113.94
419.166	92.94
419.389	97.94
419.611	88.94
419.834	90.94
420.057	82.94
420.28	79.94
420.503	74.94
420.726	79.94
420.948	93.94
421.171	92.94
421.394	104.94
421.617	75.94
421.839	93.94
422.062	75.94
422.285	87.94
422.507	104.94
422.73	111.94
422.953	98.94
423.175	87.94
423.398	85.94
423.621	88.94
423.843	97.94
424.066	85.94
424.288	98.94
424.511	95.94
424.733	94.94
424.956	103.94
425.178	111.94
425.401	93.94
425.623	101.94
425.846	109.94
426.068	97.94
426.291	87.94
426.513	100.94
426.735	99.94
426.958	76.94
427.18	87.94
427.402	122.94
427.625	155.94
427.847	144.94
428.069	106.94
428.292	108.94
428.514	85.94
428.736	79.94
428.958	74.94
429.181	74.94
429.403	100.94
429.625	75.94
429.847	93.94
430.069	101.94
430.292	81.94
430.514	94.94
430.736	98.94
430.958	98.94
431.18	81.94
431.402	95.94
431.624	94.94
431.846	90.94
432.068	91.94
432.29	95.94
432.512	92.94
432.734	81.94
432.956	82.94
433.178	99.94
433.4	107.94
433.622	91.94
433.844	81.94
434.066	112.94
434.287	92.94
434.509	95.94
434.731	93.94
434.953	90.94
435.175	82.94
435.397	86.94
435.618	87.94
435.84	109.94
436.062	110.94
436.284	112.94
436.505	91.94
436.727	93.94
436.949	97.94
437.17	80.94
437.392	89.94
437.614	78.94
437.835	100.94
438.057	100.94
438.278	101.94
438.5	93.94
438.721	125.94
438.943	105.94
439.165	83.94
439.386	95.94
439.608	90.94
439.829	94.94
440.05	115.94
440.272	133.94
440.493	96.94
440.715	87.94
440.936	79.94
441.158	89.94
441.379	90.94
441.6	82.94
441.822	98.94
442.043	77.94
442.264	111.94
442.486	86.94
442.707	96.94
442.928	112.94
443.149	123.94
443.371	126.94
443.592	116.94
443.813	113.94
444.034	97.94
444.255	83.94
444.476	90.94
444.698	93.94
444.919	88.94
445.14	122.94
445.361	117.94
445.582	108.94
445.803	116.94
446.024	124.94
446.245	121.94
446.466	102.94
446.687	92.94
446.908	86.94
447.129	94.94
447.35	81.94
447.571	89.94
447.792	104.94
448.013	90.94
448.234	99.94
448.455	76.94
448.675	112.94
448.896	103.94
449.117	91.94
449.338	94.94
449.559	107.94
449.779	113.94
450	91.94
450.221	71.94
450.442	85.94
450.662	81.94
450.883	114.94
451.104	119.94
451.324	110.94
451.545	85.94
451.766	83.94
451.986	75.94
452.207	95.94
452.428	94.94
452.648	104.94
452.869	102.94
453.089	121.94
453.31	102.94
453.53	92.94
453.751	86.94
453.971	93.94
454.192	112.94
454.412	88.94
454.633	85.94
454.853	88.94
455.073	83.94
455.294	108.94
455.514	106.94
455.734	100.94
455.955	87.94
456.175	75.94
456.395	66.94
456.616	89.94
456.836	89.94
457.056	89.94
457.276	71.94
457.497	79.94
457.717	103.94
457.937	94.94
458.157	110.94
458.377	95.94
458.598	103.94
458.818	147.94
459.038	158.94
459.258	112.94
459.478	92.94
459.698	85.94
459.918	77.94
460.138	88.94
460.358	83.94
460.578	79.94
460.798	97.94
461.018	89.94
461.238	66.94
461.458	89.94
461.678	90.94
461.898	81.94
462.118	85.94
462.338	72.94
462.558	83.94
462.777	76.94
462.997	95.94
463.217	89.94
463.437	92.94
463.657	89.94
463.876	85.94
464.096	87.94
464.316	85.94
464.536	87.94
464.755	103.94
464.975	101.94
465.195	160.94
465.414	147.94
465.634	102.94
465.854	88.94
466.073	76.94
466.293	88.94
466.512	101.94
466.732	88.94
466.951	78.94
467.171	108.94
467.391	104.94
467.61	111.94
467.829	94.94
468.049	130.94
468.268	126.94
468.488	93.94
468.707	90.94
468.927	74.94
469.146	86.94
469.365	90.94
469.585	91.94
469.804	82.94
470.023	92.94
470.243	97.94
470.462	98.94
470.681	110.94
470.901	92.94
471.12	87.94
471.339	87.94
471.558	99.94
471.777	80.94
471.997	100.94
472.216	142.94
472.435	223.94
472.654	121.94
472.873	98.94
473.092	93.94
473.311	81.94
473.53	72.94
473.749	95.94
473.968	99.94
474.187	94.94
474.406	91.94
474.625	85.94
474.844	96.94
475.063	80.94
475.282	88.94
475.501	91.94
475.72	81.94
475.939	94.94
476.158	98.94
476.377	66.94
476.596	77.94
476.814	87.94
477.033	91.94
477.252	88.94
477.471	86.94
477.69	102.94
477.908	82.94
478.127	93.94
478.346	95.94
478.564	98.94
478.783	100.94
479.002	90.94
479.22	106.94
479.439	95.94
479.658	110.94
479.876	106.94
480.095	90.94
480.313	93.94
480.532	94.94
480.751	110.94
480.969	133.94
481.188	343.94
481.406	244.94
481.624	111.94
481.843	95.94
482.061	93.94
482.28	97.94
482.498	91.94
482.717	84.94
482.935	71.94
483.153	80.94
483.372	87.94
483.59	90.94
483.808	81.94
484.027	109.94
484.245	83.94
484.463	87.94
484.681	91.94
484.9	83.94
485.118	99.94
485.336	92.94
485.554	86.94
485.772	88.94
485.99	96.94
486.209	104.94
486.427	100.94
486.645	111.94
486.863	97.94
487.081	91.94
487.299	97.94
487.517	83.94
487.735	84.94
487.953	96.94
488.171	97.94
488.389	91.94
488.607	92.94
488.825	84.94
489.043	88.94
489.261	87.94
489.479	83.94
489.696	91.94
489.914	99.94
490.132	96.94
490.35	75.94
490.568	99.94
490.786	98.94
491.003	95.94
491.221	82.94
491.439	82.94
491.657	86.94
491.874	92.94
492.092	79.94
492.31	84.94
492.527	91.94
492.745	88.94
492.963	84.94
493.18	77.94
493.398	91.94
493.615	83.94
493.833	108.94
494.05	99.94
494.268	77.94
494.485	85.94
494.703	83.94
494.92	94.94
495.138	77.94
495.355	91.94
495.573	91.94
495.79	82.94
496.008	93.94
496.225	87.94
496.442	96.94
496.66	92.94
496.877	92.94
497.094	93.94
497.312	94.94
497.529	99.94
497.746	103.94
497.963	88.94
498.181	94.94
498.398	93.94
498.615	100.94
498.832	108.94
499.049	105.94
499.267	83.94
499.484	85.94
499.701	87.94
499.918	104.94
500.135	88.94
500.352	91.94
500.569	84.94
500.786	91.94
501.003	89.94
501.22	88.94
501.437	101.94
501.654	89.94
501.871	120.94
502.088	79.94
502.305	91.94
502.522	83.94
502.739	85.94
502.956	74.94
503.172	96.94
503.389	101.94
503.606	97.94
503.823	91.94
504.04	105.94
504.256	92.94
504.473	94.94
504.69	84.94
504.907	78.94
505.123	81.94
505.34	75.94
505.557	90.94
505.773	80.94
505.99	90.94
506.207	88.94
506.423	87.94
506.64	79.94
506.856	77.94
507.073	88.94
507.289	91.94
507.506	85.94
507.722	107.94
507.939	106.94
508.155	102.94
508.372	84.94
508.588	89.94
508.805	100.94
509.021	95.94
509.238	85.94
509.454	103.94
509.67	101.94
509.887	115.94
510.103	130.94
510.319	231.94
510.536	762.94
510.752	2519.94
510.968	711.94
511.184	174.94
511.401	121.94
511.617	85.94
511.833	98.94
512.049	102.94
512.265	84.94
512.481	84.94
512.698	89.94
512.914	94.94
513.13	91.94
513.346	86.94
513.562	101.94
513.778	93.94
513.994	94.94
514.21	106.94
514.426	121.94
514.642	135.94
514.858	134.94
515.074	163.94
515.29	462.94
515.506	1540.94
515.721	561.94
