Data from Circ_2008_H10_HRD10591_00062.txt Node
Date: Wed Jan 03 10:17:08 EST 2024
User: Yrep
Spectrometer: HR+D1059
Trigger mode: 1
Integration Time (sec): 1.000000E-1
Scans to average: 1
Electric dark correction enabled: true
Nonlinearity correction enabled: false
Boxcar width: 0
XAxis mode: Wavelengths
Number of Pixels in Spectrum: 2048
>>>>>Begin Spectral Data<<<<<
223.165	-12.19
223.4	-12.19
223.635	-12.19
223.869	-8.19
224.104	-25.19
224.338	-17.19
224.573	-17.19
224.808	-8.19
225.042	-5.19
225.277	-1.19
225.511	-5.19
225.746	9.81
225.98	3.81
226.215	15.81
226.449	7.81
226.683	20.81
226.918	16.81
227.152	24.81
227.387	30.81
227.621	38.81
227.856	54.81
228.09	55.81
228.324	47.81
228.559	40.81
228.793	70.81
229.027	63.81
229.262	65.81
229.496	58.81
229.73	79.81
229.964	88.81
230.199	93.81
230.433	70.81
230.667	81.81
230.901	83.81
231.136	82.81
231.37	83.81
231.604	89.81
231.838	76.81
232.072	89.81
232.306	71.81
232.541	107.81
232.775	75.81
233.009	82.81
233.243	81.81
233.477	72.81
233.711	83.81
233.945	82.81
234.179	84.81
234.413	70.81
234.647	79.81
234.881	84.81
235.115	74.81
235.349	74.81
235.583	76.81
235.817	74.81
236.051	81.81
236.285	87.81
236.519	74.81
236.753	75.81
236.987	79.81
237.221	58.81
237.455	87.81
237.689	86.81
237.922	61.81
238.156	67.81
238.39	70.81
238.624	84.81
238.858	73.81
239.091	80.81
239.325	74.81
239.559	69.81
239.793	66.81
240.027	80.81
240.26	84.81
240.494	81.81
240.728	79.81
240.961	88.81
241.195	82.81
241.429	78.81
241.662	61.81
241.896	83.81
242.13	78.81
242.363	75.81
242.597	85.81
242.83	84.81
243.064	67.81
243.298	66.81
243.531	75.81
243.765	71.81
243.998	81.81
244.232	84.81
244.465	87.81
244.699	62.81
244.932	90.81
245.166	83.81
245.399	64.81
245.633	86.81
245.866	69.81
246.099	76.81
246.333	95.81
246.566	83.81
246.8	90.81
247.033	101.81
247.266	66.81
247.5	76.81
247.733	75.81
247.966	88.81
248.2	84.81
248.433	81.81
248.666	74.81
248.899	82.81
249.133	79.81
249.366	107.81
249.599	99.81
249.832	90.81
250.066	83.81
250.299	84.81
250.532	78.81
250.765	82.81
250.998	89.81
251.231	78.81
251.465	77.81
251.698	70.81
251.931	75.81
252.164	81.81
252.397	79.81
252.63	78.81
252.863	81.81
253.096	80.81
253.329	90.81
253.562	84.81
253.795	85.81
254.028	75.81
254.261	73.81
254.494	70.81
254.727	75.81
254.96	79.81
255.193	91.81
255.426	77.81
255.659	86.81
255.892	82.81
256.124	79.81
256.357	75.81
256.59	79.81
256.823	71.81
257.056	80.81
257.289	57.81
257.521	93.81
257.754	74.81
257.987	87.81
258.22	88.81
258.452	71.81
258.685	60.81
258.918	82.81
259.151	94.81
259.383	76.81
259.616	86.81
259.849	79.81
260.081	77.81
260.314	91.81
260.547	81.81
260.779	92.81
261.012	68.81
261.244	84.81
261.477	99.81
261.71	79.81
261.942	111.81
262.175	120.81
262.407	83.81
262.64	88.81
262.872	79.81
263.105	85.81
263.337	93.81
263.57	68.81
263.802	84.81
264.035	83.81
264.267	89.81
264.499	71.81
264.732	82.81
264.964	73.81
265.197	73.81
265.429	76.81
265.661	76.81
265.894	89.81
266.126	84.81
266.358	83.81
266.591	66.81
266.823	81.81
267.055	84.81
267.287	87.81
267.52	92.81
267.752	79.81
267.984	105.81
268.216	76.81
268.448	86.81
268.681	104.81
268.913	83.81
269.145	80.81
269.377	78.81
269.609	77.81
269.841	93.81
270.073	103.81
270.306	92.81
270.538	86.81
270.77	81.81
271.002	92.81
271.234	87.81
271.466	100.81
271.698	106.81
271.93	84.81
272.162	70.81
272.394	77.81
272.626	89.81
272.858	95.81
273.09	90.81
273.322	82.81
273.553	76.81
273.785	77.81
274.017	71.81
274.249	78.81
274.481	78.81
274.713	83.81
274.945	91.81
275.176	93.81
275.408	92.81
275.64	92.81
275.872	91.81
276.104	96.81
276.335	102.81
276.567	97.81
276.799	112.81
277.031	89.81
277.262	90.81
277.494	91.81
277.726	89.81
277.957	68.81
278.189	85.81
278.421	79.81
278.652	88.81
278.884	94.81
279.115	82.81
279.347	102.81
279.579	82.81
279.81	85.81
280.042	76.81
280.273	94.81
280.505	82.81
280.736	86.81
280.968	84.81
281.199	93.81
281.431	91.81
281.662	93.81
281.894	92.81
282.125	96.81
282.356	111.81
282.588	124.81
282.819	111.81
283.051	81.81
283.282	86.81
283.513	88.81
283.745	89.81
283.976	98.81
284.207	81.81
284.439	82.81
284.67	74.81
284.901	86.81
285.132	87.81
285.364	86.81
285.595	93.81
285.826	72.81
286.057	110.81
286.288	82.81
286.52	78.81
286.751	83.81
286.982	89.81
287.213	75.81
287.444	83.81
287.675	82.81
287.906	92.81
288.138	88.81
288.369	93.81
288.6	84.81
288.831	93.81
289.062	96.81
289.293	96.81
289.524	98.81
289.755	81.81
289.986	82.81
290.217	96.81
290.448	93.81
290.679	101.81
290.91	79.81
291.141	90.81
291.371	87.81
291.602	83.81
291.833	85.81
292.064	81.81
292.295	92.81
292.526	97.81
292.757	76.81
292.987	90.81
293.218	100.81
293.449	86.81
293.68	87.81
293.91	76.81
294.141	99.81
294.372	96.81
294.603	82.81
294.833	77.81
295.064	85.81
295.295	82.81
295.525	81.81
295.756	104.81
295.987	120.81
296.217	120.81
296.448	126.81
296.679	93.81
296.909	77.81
297.14	77.81
297.37	79.81
297.601	87.81
297.831	94.81
298.062	88.81
298.292	106.81
298.523	86.81
298.753	83.81
298.984	83.81
299.214	78.81
299.445	93.81
299.675	96.81
299.905	103.81
300.136	83.81
300.366	88.81
300.597	95.81
300.827	85.81
301.057	93.81
301.288	95.81
301.518	90.81
301.748	98.81
301.979	91.81
302.209	92.81
302.439	85.81
302.669	84.81
302.9	95.81
303.13	92.81
303.36	102.81
303.59	97.81
303.82	116.81
304.051	82.81
304.281	98.81
304.511	75.81
304.741	89.81
304.971	98.81
305.201	96.81
305.431	98.81
305.661	84.81
305.891	93.81
306.121	106.81
306.352	109.81
306.582	118.81
306.812	86.81
307.042	93.81
307.272	94.81
307.502	101.81
307.731	94.81
307.961	105.81
308.191	74.81
308.421	86.81
308.651	89.81
308.881	92.81
309.111	81.81
309.341	84.81
309.571	103.81
309.8	91.81
310.03	99.81
310.26	108.81
310.49	99.81
310.72	106.81
310.949	93.81
311.179	90.81
311.409	95.81
311.639	96.81
311.868	90.81
312.098	82.81
312.328	95.81
312.557	94.81
312.787	102.81
313.017	102.81
313.246	91.81
313.476	93.81
313.706	93.81
313.935	98.81
314.165	108.81
314.394	103.81
314.624	84.81
314.853	97.81
315.083	102.81
315.312	74.81
315.542	95.81
315.771	94.81
316.001	85.81
316.23	88.81
316.46	92.81
316.689	87.81
316.919	88.81
317.148	102.81
317.377	90.81
317.607	100.81
317.836	81.81
318.065	88.81
318.295	95.81
318.524	89.81
318.753	86.81
318.983	89.81
319.212	105.81
319.441	103.81
319.67	109.81
319.9	100.81
320.129	100.81
320.358	95.81
320.587	86.81
320.816	92.81
321.046	98.81
321.275	95.81
321.504	90.81
321.733	103.81
321.962	98.81
322.191	104.81
322.42	93.81
322.649	106.81
322.878	118.81
323.108	121.81
323.337	129.81
323.566	141.81
323.795	154.81
324.024	188.81
324.253	337.81
324.482	728.81
324.71	1506.81
324.939	1952.81
325.168	754.81
325.397	240.81
325.626	142.81
325.855	115.81
326.084	110.81
326.313	115.81
326.542	155.81
326.77	197.81
326.999	412.81
327.228	795.81
327.457	1451.81
327.686	1175.81
327.914	354.81
328.143	194.81
328.372	161.81
328.6	137.81
328.829	108.81
329.058	129.81
329.287	121.81
329.515	120.81
329.744	93.81
329.972	118.81
330.201	150.81
330.43	172.81
330.658	134.81
330.887	141.81
331.115	111.81
331.344	100.81
331.572	101.81
331.801	106.81
332.03	103.81
332.258	86.81
332.486	90.81
332.715	88.81
332.943	91.81
333.172	93.81
333.4	90.81
333.629	111.81
333.857	113.81
334.085	126.81
334.314	170.81
334.542	194.81
334.771	199.81
334.999	115.81
335.227	95.81
335.455	94.81
335.684	91.81
335.912	88.81
336.14	106.81
336.369	91.81
336.597	101.81
336.825	95.81
337.053	102.81
337.281	90.81
337.51	97.81
337.738	99.81
337.966	106.81
338.194	93.81
338.422	99.81
338.65	85.81
338.878	102.81
339.106	96.81
339.334	90.81
339.562	84.81
339.79	90.81
340.018	102.81
340.246	79.81
340.474	92.81
340.702	93.81
340.93	80.81
341.158	90.81
341.386	87.81
341.614	94.81
341.842	96.81
342.07	101.81
342.298	86.81
342.526	75.81
342.754	93.81
342.981	92.81
343.209	93.81
343.437	87.81
343.665	87.81
343.893	90.81
344.12	95.81
344.348	102.81
344.576	75.81
344.804	82.81
345.031	85.81
345.259	97.81
345.487	89.81
345.714	92.81
345.942	89.81
346.17	82.81
346.397	71.81
346.625	90.81
346.853	89.81
347.08	74.81
347.308	97.81
347.535	106.81
347.763	107.81
347.99	111.81
348.218	106.81
348.445	85.81
348.673	99.81
348.9	88.81
349.128	91.81
349.355	90.81
349.583	78.81
349.81	92.81
350.037	84.81
350.265	109.81
350.492	91.81
350.72	101.81
350.947	98.81
351.174	111.81
351.402	105.81
351.629	118.81
351.856	106.81
352.083	98.81
352.311	106.81
352.538	97.81
352.765	98.81
352.992	102.81
353.22	109.81
353.447	95.81
353.674	105.81
353.901	116.81
354.128	108.81
354.355	84.81
354.583	111.81
354.81	100.81
355.037	92.81
355.264	109.81
355.491	97.81
355.718	99.81
355.945	91.81
356.172	98.81
356.399	92.81
356.626	94.81
356.853	80.81
357.08	93.81
357.307	77.81
357.534	97.81
357.761	88.81
357.988	105.81
358.215	83.81
358.441	86.81
358.668	83.81
358.895	87.81
359.122	97.81
359.349	90.81
359.576	90.81
359.802	108.81
360.029	103.81
360.256	104.81
360.483	91.81
360.709	84.81
360.936	93.81
361.163	88.81
361.39	97.81
361.616	88.81
361.843	95.81
362.07	90.81
362.296	109.81
362.523	95.81
362.749	92.81
362.976	91.81
363.203	83.81
363.429	92.81
363.656	106.81
363.882	91.81
364.109	87.81
364.335	82.81
364.562	102.81
364.788	91.81
365.015	92.81
365.241	106.81
365.468	106.81
365.694	96.81
365.92	93.81
366.147	80.81
366.373	96.81
366.599	85.81
366.826	89.81
367.052	90.81
367.278	78.81
367.505	86.81
367.731	97.81
367.957	100.81
368.184	88.81
368.41	99.81
368.636	110.81
368.862	121.81
369.089	113.81
369.315	91.81
369.541	82.81
369.767	74.81
369.993	79.81
370.219	92.81
370.445	75.81
370.672	98.81
370.898	83.81
371.124	93.81
371.35	74.81
371.576	97.81
371.802	106.81
372.028	77.81
372.254	89.81
372.48	92.81
372.706	90.81
372.932	96.81
373.158	88.81
373.384	95.81
373.61	86.81
373.835	95.81
374.061	81.81
374.287	92.81
374.513	85.81
374.739	90.81
374.965	80.81
375.191	83.81
375.416	74.81
375.642	94.81
375.868	93.81
376.094	92.81
376.319	85.81
376.545	95.81
376.771	93.81
376.997	89.81
377.222	79.81
377.448	83.81
377.674	95.81
377.899	86.81
378.125	88.81
378.35	84.81
378.576	97.81
378.802	84.81
379.027	97.81
379.253	93.81
379.478	89.81
379.704	76.81
379.929	86.81
380.155	81.81
380.38	90.81
380.606	74.81
380.831	94.81
381.057	83.81
381.282	87.81
381.507	96.81
381.733	83.81
381.958	93.81
382.184	91.81
382.409	95.81
382.634	107.81
382.86	93.81
383.085	118.81
383.31	97.81
383.535	93.81
383.761	96.81
383.986	83.81
384.211	102.81
384.436	99.81
384.662	93.81
384.887	114.81
385.112	105.81
385.337	96.81
385.562	102.81
385.787	102.81
386.013	92.81
386.238	121.81
386.463	95.81
386.688	104.81
386.913	105.81
387.138	96.81
387.363	97.81
387.588	92.81
387.813	100.81
388.038	88.81
388.263	125.81
388.488	111.81
388.713	107.81
388.938	94.81
389.163	96.81
389.387	85.81
389.612	94.81
389.837	79.81
390.062	92.81
390.287	98.81
390.512	87.81
390.736	88.81
390.961	95.81
391.186	84.81
391.411	82.81
391.636	83.81
391.86	87.81
392.085	88.81
392.31	71.81
392.534	88.81
392.759	87.81
392.984	75.81
393.208	70.81
393.433	77.81
393.658	89.81
393.882	94.81
394.107	97.81
394.331	90.81
394.556	79.81
394.78	82.81
395.005	62.81
395.229	83.81
395.454	76.81
395.678	68.81
395.903	82.81
396.127	89.81
396.352	88.81
396.576	84.81
396.801	86.81
397.025	73.81
397.249	95.81
397.474	95.81
397.698	71.81
397.922	94.81
398.147	88.81
398.371	82.81
398.595	82.81
398.82	74.81
399.044	80.81
399.268	90.81
399.492	86.81
399.717	91.81
399.941	97.81
400.165	82.81
400.389	90.81
400.613	93.81
400.837	81.81
401.062	92.81
401.286	97.81
401.51	93.81
401.734	97.81
401.958	87.81
402.182	130.81
402.406	174.81
402.63	121.81
402.854	104.81
403.078	87.81
403.302	79.81
403.526	85.81
403.75	92.81
403.974	86.81
404.198	96.81
404.422	99.81
404.645	81.81
404.869	89.81
405.093	93.81
405.317	93.81
405.541	94.81
405.765	96.81
405.988	130.81
406.212	175.81
406.436	223.81
406.66	158.81
406.883	94.81
407.107	83.81
407.331	86.81
407.555	98.81
407.778	89.81
408.002	105.81
408.226	95.81
408.449	94.81
408.673	83.81
408.896	82.81
409.12	96.81
409.344	97.81
409.567	96.81
409.791	88.81
410.014	92.81
410.238	81.81
410.461	74.81
410.685	89.81
410.908	110.81
411.132	96.81
411.355	91.81
411.578	89.81
411.802	73.81
412.025	88.81
412.249	90.81
412.472	95.81
412.695	93.81
412.919	91.81
413.142	90.81
413.365	91.81
413.589	80.81
413.812	97.81
414.035	89.81
414.258	77.81
414.482	82.81
414.705	91.81
414.928	92.81
415.151	102.81
415.374	100.81
415.597	80.81
415.821	87.81
416.044	106.81
416.267	88.81
416.49	80.81
416.713	93.81
416.936	85.81
417.159	101.81
417.382	101.81
417.605	95.81
417.828	92.81
418.051	83.81
418.274	83.81
418.497	89.81
418.72	66.81
418.943	97.81
419.166	84.81
419.389	97.81
419.611	91.81
419.834	90.81
420.057	80.81
420.28	68.81
420.503	102.81
420.726	82.81
420.948	85.81
421.171	83.81
421.394	93.81
421.617	90.81
421.839	76.81
422.062	94.81
422.285	88.81
422.507	94.81
422.73	106.81
422.953	92.81
423.175	91.81
423.398	93.81
423.621	97.81
423.843	79.81
424.066	75.81
424.288	83.81
424.511	89.81
424.733	96.81
424.956	109.81
425.178	90.81
425.401	91.81
425.623	90.81
425.846	84.81
426.068	84.81
426.291	91.81
426.513	81.81
426.735	94.81
426.958	96.81
427.18	110.81
427.402	130.81
427.625	145.81
427.847	139.81
428.069	112.81
428.292	73.81
428.514	94.81
428.736	102.81
428.958	88.81
429.181	77.81
429.403	84.81
429.625	84.81
429.847	81.81
430.069	81.81
430.292	92.81
430.514	77.81
430.736	87.81
430.958	82.81
431.18	77.81
431.402	80.81
431.624	82.81
431.846	67.81
432.068	66.81
432.29	86.81
432.512	89.81
432.734	74.81
432.956	98.81
433.178	97.81
433.4	103.81
433.622	92.81
433.844	84.81
434.066	88.81
434.287	89.81
434.509	94.81
434.731	83.81
434.953	91.81
435.175	87.81
435.397	98.81
435.618	109.81
435.84	93.81
436.062	98.81
436.284	111.81
436.505	85.81
436.727	92.81
436.949	86.81
437.17	90.81
437.392	82.81
437.614	92.81
437.835	111.81
438.057	96.81
438.278	97.81
438.5	92.81
438.721	104.81
438.943	111.81
439.165	65.81
439.386	87.81
439.608	89.81
439.829	88.81
440.05	108.81
440.272	121.81
440.493	94.81
440.715	98.81
440.936	94.81
441.158	88.81
441.379	88.81
441.6	99.81
441.822	83.81
442.043	98.81
442.264	95.81
442.486	109.81
442.707	96.81
442.928	107.81
443.149	115.81
443.371	119.81
443.592	112.81
443.813	107.81
444.034	99.81
444.255	93.81
444.476	80.81
444.698	105.81
444.919	96.81
445.14	119.81
445.361	120.81
445.582	105.81
445.803	102.81
446.024	112.81
446.245	123.81
446.466	102.81
446.687	97.81
446.908	85.81
447.129	77.81
447.35	80.81
447.571	89.81
447.792	102.81
448.013	98.81
448.234	104.81
448.455	97.81
448.675	95.81
448.896	106.81
449.117	97.81
449.338	93.81
449.559	110.81
449.779	122.81
450	80.81
450.221	89.81
450.442	88.81
450.662	102.81
450.883	103.81
451.104	113.81
451.324	90.81
451.545	79.81
451.766	85.81
451.986	95.81
452.207	89.81
452.428	97.81
452.648	97.81
452.869	115.81
453.089	102.81
453.31	116.81
453.53	96.81
453.751	99.81
453.971	104.81
454.192	119.81
454.412	92.81
454.633	83.81
454.853	81.81
455.073	92.81
455.294	89.81
455.514	88.81
455.734	87.81
455.955	82.81
456.175	83.81
456.395	72.81
456.616	78.81
456.836	76.81
457.056	78.81
457.276	91.81
457.497	84.81
457.717	88.81
457.937	65.81
458.157	84.81
458.377	82.81
458.598	116.81
458.818	149.81
459.038	154.81
459.258	123.81
459.478	97.81
459.698	99.81
459.918	88.81
460.138	86.81
460.358	63.81
460.578	79.81
460.798	102.81
461.018	91.81
461.238	83.81
461.458	92.81
461.678	83.81
461.898	75.81
462.118	93.81
462.338	70.81
462.558	93.81
462.777	102.81
462.997	92.81
463.217	73.81
463.437	83.81
463.657	87.81
463.876	81.81
464.096	86.81
464.316	91.81
464.536	86.81
464.755	89.81
464.975	102.81
465.195	172.81
465.414	164.81
465.634	98.81
465.854	82.81
466.073	82.81
466.293	90.81
466.512	94.81
466.732	81.81
466.951	86.81
467.171	95.81
467.391	95.81
467.61	109.81
467.829	89.81
468.049	123.81
468.268	135.81
468.488	94.81
468.707	93.81
468.927	84.81
469.146	85.81
469.365	83.81
469.585	90.81
469.804	94.81
470.023	105.81
470.243	108.81
470.462	106.81
470.681	118.81
470.901	88.81
471.12	81.81
471.339	75.81
471.558	85.81
471.777	82.81
471.997	95.81
472.216	166.81
472.435	245.81
472.654	125.81
472.873	92.81
473.092	87.81
473.311	84.81
473.53	81.81
473.749	101.81
473.968	101.81
474.187	97.81
474.406	95.81
474.625	93.81
474.844	81.81
475.063	84.81
475.282	87.81
475.501	82.81
475.72	75.81
475.939	82.81
476.158	70.81
476.377	90.81
476.596	78.81
476.814	105.81
477.033	89.81
477.252	94.81
477.471	87.81
477.69	86.81
477.908	75.81
478.127	91.81
478.346	91.81
478.564	74.81
478.783	68.81
479.002	87.81
479.22	90.81
479.439	86.81
479.658	96.81
479.876	97.81
480.095	94.81
480.313	100.81
480.532	81.81
480.751	100.81
480.969	160.81
481.188	366.81
481.406	267.81
481.624	99.81
481.843	82.81
482.061	71.81
482.28	104.81
482.498	77.81
482.717	90.81
482.935	92.81
483.153	89.81
483.372	100.81
483.59	82.81
483.808	89.81
484.027	81.81
484.245	93.81
484.463	88.81
484.681	98.81
484.9	93.81
485.118	77.81
485.336	91.81
485.554	97.81
485.772	112.81
485.99	99.81
486.209	95.81
486.427	104.81
486.645	110.81
486.863	101.81
487.081	103.81
487.299	100.81
487.517	91.81
487.735	84.81
487.953	99.81
488.171	92.81
488.389	91.81
488.607	93.81
488.825	78.81
489.043	79.81
489.261	96.81
489.479	91.81
489.696	82.81
489.914	76.81
490.132	87.81
490.35	93.81
490.568	101.81
490.786	94.81
491.003	100.81
491.221	87.81
491.439	81.81
491.657	87.81
491.874	93.81
492.092	87.81
492.31	87.81
492.527	92.81
492.745	111.81
492.963	88.81
493.18	106.81
493.398	96.81
493.615	91.81
493.833	81.81
494.05	82.81
494.268	95.81
494.485	84.81
494.703	90.81
494.92	84.81
495.138	93.81
495.355	86.81
495.573	95.81
495.79	86.81
496.008	90.81
496.225	88.81
496.442	87.81
496.66	94.81
496.877	92.81
497.094	107.81
497.312	103.81
497.529	87.81
497.746	109.81
497.963	75.81
498.181	92.81
498.398	99.81
498.615	91.81
498.832	96.81
499.049	95.81
499.267	88.81
499.484	86.81
499.701	106.81
499.918	76.81
500.135	94.81
500.352	83.81
500.569	84.81
500.786	83.81
501.003	81.81
501.22	83.81
501.437	86.81
501.654	91.81
501.871	100.81
502.088	84.81
502.305	82.81
502.522	90.81
502.739	100.81
502.956	91.81
503.172	91.81
503.389	81.81
503.606	111.81
503.823	78.81
504.04	95.81
504.256	89.81
504.473	91.81
504.69	83.81
504.907	88.81
505.123	91.81
505.34	67.81
505.557	90.81
505.773	87.81
505.99	82.81
506.207	97.81
506.423	82.81
506.64	87.81
506.856	75.81
507.073	97.81
507.289	105.81
507.506	89.81
507.722	123.81
507.939	110.81
508.155	105.81
508.372	85.81
508.588	82.81
508.805	107.81
509.021	92.81
509.238	90.81
509.454	92.81
509.67	88.81
509.887	116.81
510.103	144.81
510.319	229.81
510.536	840.81
510.752	2783.81
510.968	787.81
511.184	174.81
511.401	100.81
511.617	101.81
511.833	90.81
512.049	87.81
512.265	89.81
512.481	87.81
512.698	90.81
512.914	90.81
513.13	105.81
513.346	87.81
513.562	88.81
513.778	107.81
513.994	108.81
514.21	93.81
514.426	120.81
514.642	128.81
514.858	125.81
515.074	178.81
515.29	475.81
515.506	1689.81
515.721	644.81
515.937	170.81
516.153	115.81
