Data from Circ_2008_H10_HRD10591_00047.txt Node
Date: Wed Jan 03 10:17:05 EST 2024
User: Yrep
Spectrometer: HR+D1059
Trigger mode: 1
Integration Time (sec): 1.000000E-1
Scans to average: 1
Electric dark correction enabled: true
Nonlinearity correction enabled: false
Boxcar width: 0
XAxis mode: Wavelengths
Number of Pixels in Spectrum: 2048
>>>>>Begin Spectral Data<<<<<
223.165	-15.69
223.4	-15.69
223.635	-15.69
223.869	-14.69
224.104	-17.69
224.338	-26.69
224.573	-23.69
224.808	-11.69
225.042	-12.69
225.277	-2.69
225.511	-6.69
225.746	1.31
225.98	3.31
226.215	17.31
226.449	12.31
226.683	34.31
226.918	35.31
227.152	28.31
227.387	36.31
227.621	51.31
227.856	29.31
228.09	40.31
228.324	51.31
228.559	51.31
228.793	53.31
229.027	54.31
229.262	55.31
229.496	61.31
229.73	75.31
229.964	72.31
230.199	64.31
230.433	71.31
230.667	77.31
230.901	81.31
231.136	73.31
231.37	81.31
231.604	77.31
231.838	87.31
232.072	70.31
232.306	81.31
232.541	60.31
232.775	71.31
233.009	73.31
233.243	87.31
233.477	68.31
233.711	81.31
233.945	71.31
234.179	67.31
234.413	73.31
234.647	64.31
234.881	70.31
235.115	86.31
235.349	81.31
235.583	71.31
235.817	75.31
236.051	66.31
236.285	57.31
236.519	73.31
236.753	81.31
236.987	64.31
237.221	69.31
237.455	89.31
237.689	85.31
237.922	64.31
238.156	67.31
238.39	70.31
238.624	77.31
238.858	81.31
239.091	73.31
239.325	71.31
239.559	81.31
239.793	72.31
240.027	81.31
240.26	83.31
240.494	71.31
240.728	67.31
240.961	76.31
241.195	77.31
241.429	75.31
241.662	82.31
241.896	61.31
242.13	68.31
242.363	60.31
242.597	69.31
242.83	61.31
243.064	74.31
243.298	85.31
243.531	77.31
243.765	71.31
243.998	83.31
244.232	72.31
244.465	70.31
244.699	74.31
244.932	72.31
245.166	67.31
245.399	75.31
245.633	72.31
245.866	75.31
246.099	75.31
246.333	68.31
246.566	67.31
246.8	81.31
247.033	74.31
247.266	77.31
247.5	69.31
247.733	64.31
247.966	59.31
248.2	58.31
248.433	72.31
248.666	76.31
248.899	76.31
249.133	77.31
249.366	97.31
249.599	104.31
249.832	90.31
250.066	81.31
250.299	78.31
250.532	81.31
250.765	67.31
250.998	75.31
251.231	73.31
251.465	94.31
251.698	85.31
251.931	77.31
252.164	84.31
252.397	91.31
252.63	67.31
252.863	77.31
253.096	80.31
253.329	87.31
253.562	86.31
253.795	86.31
254.028	85.31
254.261	66.31
254.494	88.31
254.727	74.31
254.96	73.31
255.193	77.31
255.426	64.31
255.659	62.31
255.892	79.31
256.124	78.31
256.357	73.31
256.59	76.31
256.823	73.31
257.056	80.31
257.289	87.31
257.521	76.31
257.754	75.31
257.987	85.31
258.22	79.31
258.452	76.31
258.685	83.31
258.918	69.31
259.151	77.31
259.383	72.31
259.616	86.31
259.849	81.31
260.081	73.31
260.314	85.31
260.547	67.31
260.779	83.31
261.012	84.31
261.244	88.31
261.477	91.31
261.71	78.31
261.942	94.31
262.175	111.31
262.407	83.31
262.64	73.31
262.872	78.31
263.105	82.31
263.337	98.31
263.57	82.31
263.802	71.31
264.035	76.31
264.267	71.31
264.499	72.31
264.732	94.31
264.964	71.31
265.197	77.31
265.429	76.31
265.661	81.31
265.894	88.31
266.126	81.31
266.358	77.31
266.591	78.31
266.823	84.31
267.055	73.31
267.287	76.31
267.52	87.31
267.752	85.31
267.984	58.31
268.216	89.31
268.448	82.31
268.681	81.31
268.913	81.31
269.145	80.31
269.377	88.31
269.609	70.31
269.841	104.31
270.073	57.31
270.306	91.31
270.538	71.31
270.77	84.31
271.002	89.31
271.234	76.31
271.466	74.31
271.698	80.31
271.93	86.31
272.162	89.31
272.394	72.31
272.626	93.31
272.858	75.31
273.09	77.31
273.322	78.31
273.553	66.31
273.785	84.31
274.017	79.31
274.249	81.31
274.481	92.31
274.713	89.31
274.945	85.31
275.176	80.31
275.408	89.31
275.64	76.31
275.872	77.31
276.104	80.31
276.335	76.31
276.567	89.31
276.799	115.31
277.031	104.31
277.262	92.31
277.494	92.31
277.726	84.31
277.957	91.31
278.189	93.31
278.421	84.31
278.652	86.31
278.884	83.31
279.115	84.31
279.347	81.31
279.579	74.31
279.81	92.31
280.042	81.31
280.273	100.31
280.505	77.31
280.736	79.31
280.968	86.31
281.199	94.31
281.431	71.31
281.662	87.31
281.894	88.31
282.125	88.31
282.356	111.31
282.588	139.31
282.819	105.31
283.051	95.31
283.282	87.31
283.513	87.31
283.745	80.31
283.976	93.31
284.207	80.31
284.439	72.31
284.67	99.31
284.901	93.31
285.132	76.31
285.364	92.31
285.595	84.31
285.826	89.31
286.057	77.31
286.288	73.31
286.52	72.31
286.751	78.31
286.982	77.31
287.213	84.31
287.444	81.31
287.675	95.31
287.906	78.31
288.138	96.31
288.369	93.31
288.6	86.31
288.831	89.31
289.062	82.31
289.293	83.31
289.524	88.31
289.755	85.31
289.986	87.31
290.217	88.31
290.448	82.31
290.679	80.31
290.91	81.31
291.141	86.31
291.371	95.31
291.602	88.31
291.833	99.31
292.064	91.31
292.295	86.31
292.526	75.31
292.757	89.31
292.987	87.31
293.218	85.31
293.449	81.31
293.68	86.31
293.91	102.31
294.141	87.31
294.372	83.31
294.603	95.31
294.833	87.31
295.064	84.31
295.295	97.31
295.525	99.31
295.756	97.31
295.987	110.31
296.217	134.31
296.448	115.31
296.679	89.31
296.909	72.31
297.14	79.31
297.37	86.31
297.601	80.31
297.831	77.31
298.062	77.31
298.292	88.31
298.523	90.31
298.753	87.31
298.984	83.31
299.214	84.31
299.445	92.31
299.675	84.31
299.905	78.31
300.136	88.31
300.366	84.31
300.597	79.31
300.827	90.31
301.057	95.31
301.288	90.31
301.518	88.31
301.748	91.31
301.979	98.31
302.209	90.31
302.439	82.31
302.669	88.31
302.9	86.31
303.13	89.31
303.36	95.31
303.59	104.31
303.82	106.31
304.051	75.31
304.281	74.31
304.511	75.31
304.741	92.31
304.971	77.31
305.201	91.31
305.431	97.31
305.661	80.31
305.891	85.31
306.121	87.31
306.352	101.31
306.582	94.31
306.812	81.31
307.042	100.31
307.272	88.31
307.502	102.31
307.731	98.31
307.961	88.31
308.191	95.31
308.421	78.31
308.651	89.31
308.881	100.31
309.111	92.31
309.341	95.31
309.571	96.31
309.8	84.31
310.03	89.31
310.26	108.31
310.49	92.31
310.72	94.31
310.949	92.31
311.179	87.31
311.409	94.31
311.639	86.31
311.868	74.31
312.098	89.31
312.328	95.31
312.557	124.31
312.787	105.31
313.017	92.31
313.246	71.31
313.476	80.31
313.706	92.31
313.935	83.31
314.165	99.31
314.394	102.31
314.624	80.31
314.853	79.31
315.083	95.31
315.312	83.31
315.542	92.31
315.771	93.31
316.001	94.31
316.23	75.31
316.46	89.31
316.689	89.31
316.919	96.31
317.148	83.31
317.377	78.31
317.607	74.31
317.836	85.31
318.065	82.31
318.295	88.31
318.524	91.31
318.753	89.31
318.983	76.31
319.212	109.31
319.441	102.31
319.67	100.31
319.9	93.31
320.129	99.31
320.358	82.31
320.587	104.31
320.816	83.31
321.046	93.31
321.275	101.31
321.504	102.31
321.733	88.31
321.962	83.31
322.191	102.31
322.42	107.31
322.649	108.31
322.878	106.31
323.108	100.31
323.337	127.31
323.566	132.31
323.795	151.31
324.024	190.31
324.253	334.31
324.482	741.31
324.71	1475.31
324.939	1964.31
325.168	745.31
325.397	212.31
325.626	136.31
325.855	120.31
326.084	112.31
326.313	135.31
326.542	138.31
326.77	205.31
326.999	409.31
327.228	801.31
327.457	1442.31
327.686	1172.31
327.914	351.31
328.143	202.31
328.372	163.31
328.6	137.31
328.829	102.31
329.058	120.31
329.287	123.31
329.515	103.31
329.744	109.31
329.972	121.31
330.201	143.31
330.43	153.31
330.658	127.31
330.887	141.31
331.115	128.31
331.344	97.31
331.572	83.31
331.801	104.31
332.03	96.31
332.258	92.31
332.486	100.31
332.715	95.31
332.943	84.31
333.172	95.31
333.4	98.31
333.629	103.31
333.857	119.31
334.085	128.31
334.314	123.31
334.542	164.31
334.771	171.31
334.999	104.31
335.227	117.31
335.455	101.31
335.684	81.31
335.912	102.31
336.14	100.31
336.369	96.31
336.597	96.31
336.825	94.31
337.053	91.31
337.281	88.31
337.51	90.31
337.738	102.31
337.966	98.31
338.194	101.31
338.422	89.31
338.65	85.31
338.878	104.31
339.106	99.31
339.334	94.31
339.562	89.31
339.79	77.31
340.018	91.31
340.246	90.31
340.474	77.31
340.702	88.31
340.93	84.31
341.158	73.31
341.386	81.31
341.614	102.31
341.842	80.31
342.07	76.31
342.298	93.31
342.526	92.31
342.754	83.31
342.981	93.31
343.209	91.31
343.437	79.31
343.665	94.31
343.893	91.31
344.12	108.31
344.348	72.31
344.576	90.31
344.804	93.31
345.031	88.31
345.259	106.31
345.487	93.31
345.714	100.31
345.942	95.31
346.17	89.31
346.397	84.31
346.625	92.31
346.853	93.31
347.08	85.31
347.308	104.31
347.535	97.31
347.763	90.31
347.99	93.31
348.218	94.31
348.445	91.31
348.673	77.31
348.9	90.31
349.128	92.31
349.355	83.31
349.583	84.31
349.81	89.31
350.037	104.31
350.265	100.31
350.492	77.31
350.72	93.31
350.947	100.31
351.174	106.31
351.402	99.31
351.629	80.31
351.856	100.31
352.083	107.31
352.311	95.31
352.538	95.31
352.765	102.31
352.992	115.31
353.22	106.31
353.447	109.31
353.674	94.31
353.901	89.31
354.128	80.31
354.355	103.31
354.583	99.31
354.81	89.31
355.037	107.31
355.264	90.31
355.491	84.31
355.718	79.31
355.945	84.31
356.172	101.31
356.399	103.31
356.626	84.31
356.853	81.31
357.08	92.31
357.307	92.31
357.534	97.31
357.761	89.31
357.988	91.31
358.215	107.31
358.441	99.31
358.668	102.31
358.895	88.31
359.122	78.31
359.349	80.31
359.576	101.31
359.802	101.31
360.029	91.31
360.256	104.31
360.483	93.31
360.709	94.31
360.936	93.31
361.163	99.31
361.39	94.31
361.616	96.31
361.843	87.31
362.07	83.31
362.296	71.31
362.523	88.31
362.749	80.31
362.976	98.31
363.203	98.31
363.429	86.31
363.656	79.31
363.882	94.31
364.109	100.31
364.335	103.31
364.562	92.31
364.788	91.31
365.015	84.31
365.241	99.31
365.468	105.31
365.694	101.31
365.92	80.31
366.147	87.31
366.373	80.31
366.599	84.31
366.826	88.31
367.052	81.31
367.278	95.31
367.505	75.31
367.731	94.31
367.957	95.31
368.184	101.31
368.41	98.31
368.636	107.31
368.862	113.31
369.089	103.31
369.315	95.31
369.541	99.31
369.767	75.31
369.993	86.31
370.219	83.31
370.445	88.31
370.672	73.31
370.898	78.31
371.124	92.31
371.35	84.31
371.576	101.31
371.802	86.31
372.028	80.31
372.254	90.31
372.48	99.31
372.706	77.31
372.932	87.31
373.158	83.31
373.384	82.31
373.61	95.31
373.835	81.31
374.061	88.31
374.287	97.31
374.513	86.31
374.739	100.31
374.965	81.31
375.191	91.31
375.416	72.31
375.642	85.31
375.868	83.31
376.094	78.31
376.319	80.31
376.545	93.31
376.771	80.31
376.997	101.31
377.222	98.31
377.448	104.31
377.674	85.31
377.899	91.31
378.125	80.31
378.35	91.31
378.576	87.31
378.802	86.31
379.027	84.31
379.253	93.31
379.478	93.31
379.704	85.31
379.929	100.31
380.155	89.31
380.38	86.31
380.606	107.31
380.831	93.31
381.057	99.31
381.282	89.31
381.507	100.31
381.733	92.31
381.958	104.31
382.184	90.31
382.409	110.31
382.634	112.31
382.86	93.31
383.085	107.31
383.31	103.31
383.535	100.31
383.761	89.31
383.986	102.31
384.211	109.31
384.436	104.31
384.662	110.31
384.887	115.31
385.112	115.31
385.337	107.31
385.562	95.31
385.787	105.31
386.013	114.31
386.238	117.31
386.463	109.31
386.688	99.31
386.913	117.31
387.138	112.31
387.363	87.31
387.588	100.31
387.813	104.31
388.038	91.31
388.263	104.31
388.488	106.31
388.713	89.31
388.938	90.31
389.163	92.31
389.387	77.31
389.612	81.31
389.837	100.31
390.062	75.31
390.287	88.31
390.512	91.31
390.736	97.31
390.961	93.31
391.186	87.31
391.411	91.31
391.636	97.31
391.86	96.31
392.085	75.31
392.31	71.31
392.534	85.31
392.759	90.31
392.984	78.31
393.208	89.31
393.433	103.31
393.658	94.31
393.882	92.31
394.107	81.31
394.331	80.31
394.556	79.31
394.78	84.31
395.005	74.31
395.229	76.31
395.454	92.31
395.678	79.31
395.903	105.31
396.127	86.31
396.352	95.31
396.576	100.31
396.801	104.31
397.025	97.31
397.249	91.31
397.474	70.31
397.698	90.31
397.922	89.31
398.147	90.31
398.371	73.31
398.595	85.31
398.82	71.31
399.044	78.31
399.268	88.31
399.492	87.31
399.717	84.31
399.941	91.31
400.165	90.31
400.389	82.31
400.613	76.31
400.837	92.31
401.062	82.31
401.286	84.31
401.51	80.31
401.734	73.31
401.958	98.31
402.182	134.31
402.406	150.31
402.63	112.31
402.854	88.31
403.078	85.31
403.302	79.31
403.526	93.31
403.75	83.31
403.974	97.31
404.198	89.31
404.422	87.31
404.645	77.31
404.869	89.31
405.093	88.31
405.317	93.31
405.541	94.31
405.765	94.31
405.988	130.31
406.212	184.31
406.436	255.31
406.66	144.31
406.883	92.31
407.107	91.31
407.331	93.31
407.555	99.31
407.778	91.31
408.002	95.31
408.226	89.31
408.449	87.31
408.673	98.31
408.896	102.31
409.12	84.31
409.344	80.31
409.567	91.31
409.791	83.31
410.014	87.31
410.238	97.31
410.461	81.31
410.685	89.31
410.908	93.31
411.132	98.31
411.355	107.31
411.578	91.31
411.802	91.31
412.025	90.31
412.249	77.31
412.472	96.31
412.695	88.31
412.919	79.31
413.142	80.31
413.365	85.31
413.589	73.31
413.812	86.31
414.035	83.31
414.258	89.31
414.482	88.31
414.705	74.31
414.928	88.31
415.151	86.31
415.374	94.31
415.597	83.31
415.821	81.31
416.044	83.31
416.267	80.31
416.49	102.31
416.713	87.31
416.936	85.31
417.159	95.31
417.382	81.31
417.605	100.31
417.828	84.31
418.051	92.31
418.274	92.31
418.497	85.31
418.72	88.31
418.943	78.31
419.166	87.31
419.389	84.31
419.611	104.31
419.834	81.31
420.057	84.31
420.28	81.31
420.503	80.31
420.726	72.31
420.948	93.31
421.171	107.31
421.394	95.31
421.617	86.31
421.839	92.31
422.062	86.31
422.285	92.31
422.507	100.31
422.73	103.31
422.953	78.31
423.175	87.31
423.398	77.31
423.621	79.31
423.843	95.31
424.066	100.31
424.288	86.31
424.511	88.31
424.733	93.31
424.956	93.31
425.178	87.31
425.401	102.31
425.623	108.31
425.846	94.31
426.068	92.31
426.291	92.31
426.513	92.31
426.735	81.31
426.958	102.31
427.18	91.31
427.402	141.31
427.625	171.31
427.847	136.31
428.069	116.31
428.292	80.31
428.514	87.31
428.736	70.31
428.958	78.31
429.181	78.31
429.403	79.31
429.625	91.31
429.847	79.31
430.069	97.31
430.292	93.31
430.514	95.31
430.736	73.31
430.958	91.31
431.18	76.31
431.402	73.31
431.624	87.31
431.846	89.31
432.068	90.31
432.29	87.31
432.512	89.31
432.734	84.31
432.956	95.31
433.178	96.31
433.4	88.31
433.622	99.31
433.844	96.31
434.066	81.31
434.287	95.31
434.509	82.31
434.731	92.31
434.953	92.31
435.175	93.31
435.397	94.31
435.618	78.31
435.84	97.31
436.062	118.31
436.284	113.31
436.505	88.31
436.727	99.31
436.949	83.31
437.17	82.31
437.392	89.31
437.614	93.31
437.835	93.31
438.057	116.31
438.278	111.31
438.5	101.31
438.721	119.31
438.943	88.31
439.165	87.31
439.386	74.31
439.608	88.31
439.829	91.31
440.05	109.31
440.272	126.31
440.493	95.31
440.715	80.31
440.936	83.31
441.158	81.31
441.379	85.31
441.6	100.31
441.822	96.31
442.043	97.31
442.264	99.31
442.486	115.31
442.707	99.31
442.928	96.31
443.149	126.31
443.371	120.31
443.592	100.31
443.813	104.31
444.034	115.31
444.255	93.31
444.476	104.31
444.698	83.31
444.919	75.31
445.14	122.31
445.361	112.31
445.582	105.31
445.803	112.31
446.024	123.31
446.245	118.31
446.466	119.31
446.687	85.31
446.908	90.31
447.129	101.31
447.35	78.31
447.571	94.31
447.792	87.31
448.013	92.31
448.234	103.31
448.455	97.31
448.675	99.31
448.896	113.31
449.117	86.31
449.338	99.31
449.559	121.31
449.779	110.31
450	96.31
450.221	72.31
450.442	91.31
450.662	108.31
450.883	112.31
451.104	108.31
451.324	100.31
451.545	76.31
451.766	75.31
451.986	78.31
452.207	85.31
452.428	90.31
452.648	94.31
452.869	112.31
453.089	118.31
453.31	108.31
453.53	81.31
453.751	87.31
453.971	102.31
454.192	102.31
454.412	104.31
454.633	84.31
454.853	97.31
455.073	95.31
455.294	85.31
455.514	99.31
455.734	84.31
455.955	75.31
456.175	88.31
456.395	87.31
456.616	71.31
456.836	78.31
457.056	104.31
457.276	89.31
457.497	83.31
457.717	73.31
457.937	95.31
458.157	85.31
458.377	85.31
458.598	112.31
458.818	156.31
459.038	167.31
459.258	99.31
459.478	84.31
459.698	80.31
459.918	84.31
460.138	102.31
460.358	97.31
460.578	79.31
460.798	77.31
461.018	77.31
461.238	79.31
461.458	78.31
461.678	92.31
461.898	71.31
462.118	85.31
462.338	75.31
462.558	90.31
462.777	86.31
462.997	88.31
463.217	77.31
463.437	83.31
463.657	86.31
463.876	83.31
464.096	75.31
464.316	96.31
464.536	107.31
464.755	92.31
464.975	89.31
465.195	173.31
465.414	157.31
465.634	103.31
465.854	93.31
466.073	76.31
466.293	90.31
466.512	85.31
466.732	94.31
466.951	79.31
467.171	105.31
467.391	99.31
467.61	92.31
467.829	94.31
468.049	96.31
468.268	126.31
468.488	102.31
468.707	86.31
468.927	74.31
469.146	80.31
469.365	86.31
469.585	97.31
469.804	99.31
470.023	87.31
470.243	84.31
470.462	104.31
470.681	99.31
470.901	80.31
471.12	84.31
471.339	101.31
471.558	105.31
471.777	94.31
471.997	110.31
472.216	138.31
472.435	223.31
472.654	124.31
472.873	90.31
473.092	74.31
473.311	84.31
473.53	89.31
473.749	95.31
473.968	87.31
474.187	94.31
474.406	92.31
474.625	84.31
474.844	91.31
475.063	89.31
475.282	100.31
475.501	83.31
475.72	87.31
475.939	84.31
476.158	101.31
476.377	85.31
476.596	87.31
476.814	82.31
477.033	89.31
477.252	79.31
477.471	84.31
477.69	99.31
477.908	95.31
478.127	82.31
478.346	97.31
478.564	93.31
478.783	103.31
479.002	84.31
479.22	99.31
479.439	106.31
479.658	108.31
479.876	94.31
480.095	89.31
480.313	76.31
480.532	93.31
480.751	105.31
480.969	153.31
481.188	308.31
481.406	225.31
481.624	106.31
481.843	77.31
482.061	88.31
482.28	84.31
482.498	82.31
482.717	81.31
482.935	107.31
483.153	78.31
483.372	84.31
483.59	72.31
483.808	83.31
484.027	100.31
484.245	88.31
484.463	88.31
484.681	97.31
484.9	93.31
485.118	92.31
485.336	84.31
485.554	91.31
485.772	97.31
485.99	85.31
486.209	103.31
486.427	107.31
486.645	110.31
486.863	105.31
487.081	104.31
487.299	96.31
487.517	92.31
487.735	91.31
487.953	85.31
488.171	100.31
488.389	94.31
488.607	101.31
488.825	83.31
489.043	83.31
489.261	100.31
489.479	94.31
489.696	83.31
489.914	80.31
490.132	86.31
490.35	99.31
490.568	94.31
490.786	87.31
491.003	85.31
491.221	87.31
491.439	93.31
491.657	88.31
491.874	84.31
492.092	84.31
492.31	85.31
492.527	77.31
492.745	76.31
492.963	86.31
493.18	90.31
493.398	77.31
493.615	94.31
493.833	86.31
494.05	93.31
494.268	95.31
494.485	102.31
494.703	89.31
494.92	85.31
495.138	77.31
495.355	85.31
495.573	97.31
495.79	83.31
496.008	100.31
496.225	94.31
496.442	92.31
496.66	87.31
496.877	100.31
497.094	80.31
497.312	77.31
497.529	77.31
497.746	91.31
497.963	81.31
498.181	92.31
498.398	87.31
498.615	96.31
498.832	97.31
499.049	95.31
499.267	95.31
499.484	85.31
499.701	80.31
499.918	73.31
500.135	85.31
500.352	72.31
500.569	92.31
500.786	79.31
501.003	87.31
501.22	88.31
501.437	87.31
501.654	91.31
501.871	111.31
502.088	95.31
502.305	91.31
502.522	83.31
502.739	71.31
502.956	90.31
503.172	103.31
503.389	95.31
503.606	112.31
503.823	79.31
504.04	88.31
504.256	75.31
504.473	96.31
504.69	84.31
504.907	89.31
505.123	72.31
505.34	87.31
505.557	81.31
505.773	86.31
505.99	76.31
506.207	80.31
506.423	79.31
506.64	84.31
506.856	90.31
507.073	93.31
507.289	86.31
507.506	103.31
507.722	109.31
507.939	96.31
508.155	95.31
508.372	86.31
508.588	95.31
508.805	97.31
509.021	104.31
509.238	84.31
509.454	82.31
509.67	103.31
509.887	94.31
510.103	109.31
510.319	230.31
510.536	819.31
510.752	2726.31
510.968	743.31
511.184	181.31
511.401	101.31
511.617	95.31
511.833	87.31
512.049	93.31
512.265	82.31
512.481	90.31
512.698	99.31
512.914	86.31
513.13	93.31
513.346	96.31
513.562	96.31
513.778	84.31
513.994	78.31
514.21	87.31
514.426	117.31
514.642	137.31
514.858	116.31
515.074	177.31
515.29	486.31
515.506	1645.31
515.721	600.31
515.937	163.31
516.153	108.31
