Data from Circ_2008_H10_HRD10591_00046.txt Node
Date: Wed Jan 03 10:17:05 EST 2024
User: Yrep
Spectrometer: HR+D1059
Trigger mode: 1
Integration Time (sec): 1.000000E-1
Scans to average: 1
Electric dark correction enabled: true
Nonlinearity correction enabled: false
Boxcar width: 0
XAxis mode: Wavelengths
Number of Pixels in Spectrum: 2048
>>>>>Begin Spectral Data<<<<<
223.165	-6.81
223.4	-6.81
223.635	-6.81
223.869	-19.81
224.104	-30.81
224.338	-8.81
224.573	-5.81
224.808	-9.81
225.042	-11.81
225.277	-11.81
225.511	-7.81
225.746	-3.81
225.98	-2.81
226.215	16.19
226.449	19.19
226.683	25.19
226.918	26.19
227.152	33.19
227.387	41.19
227.621	40.19
227.856	45.19
228.09	44.19
228.324	34.19
228.559	54.19
228.793	64.19
229.027	57.19
229.262	76.19
229.496	64.19
229.73	68.19
229.964	75.19
230.199	73.19
230.433	59.19
230.667	90.19
230.901	83.19
231.136	68.19
231.37	67.19
231.604	86.19
231.838	91.19
232.072	78.19
232.306	80.19
232.541	102.19
232.775	85.19
233.009	80.19
233.243	76.19
233.477	88.19
233.711	78.19
233.945	68.19
234.179	87.19
234.413	90.19
234.647	77.19
234.881	84.19
235.115	64.19
235.349	73.19
235.583	83.19
235.817	71.19
236.051	80.19
236.285	71.19
236.519	87.19
236.753	75.19
236.987	86.19
237.221	81.19
237.455	86.19
237.689	82.19
237.922	68.19
238.156	60.19
238.39	79.19
238.624	83.19
238.858	92.19
239.091	71.19
239.325	81.19
239.559	76.19
239.793	72.19
240.027	81.19
240.26	66.19
240.494	85.19
240.728	80.19
240.961	77.19
241.195	78.19
241.429	67.19
241.662	69.19
241.896	68.19
242.13	78.19
242.363	82.19
242.597	88.19
242.83	72.19
243.064	96.19
243.298	80.19
243.531	81.19
243.765	65.19
243.998	68.19
244.232	75.19
244.465	74.19
244.699	88.19
244.932	75.19
245.166	72.19
245.399	75.19
245.633	81.19
245.866	84.19
246.099	71.19
246.333	73.19
246.566	74.19
246.8	74.19
247.033	91.19
247.266	93.19
247.5	76.19
247.733	82.19
247.966	74.19
248.2	82.19
248.433	88.19
248.666	74.19
248.899	79.19
249.133	75.19
249.366	104.19
249.599	91.19
249.832	72.19
250.066	89.19
250.299	75.19
250.532	84.19
250.765	76.19
250.998	96.19
251.231	76.19
251.465	76.19
251.698	75.19
251.931	67.19
252.164	87.19
252.397	84.19
252.63	70.19
252.863	70.19
253.096	83.19
253.329	86.19
253.562	82.19
253.795	80.19
254.028	82.19
254.261	77.19
254.494	70.19
254.727	78.19
254.96	84.19
255.193	84.19
255.426	88.19
255.659	84.19
255.892	80.19
256.124	69.19
256.357	82.19
256.59	75.19
256.823	83.19
257.056	91.19
257.289	81.19
257.521	79.19
257.754	85.19
257.987	77.19
258.22	53.19
258.452	64.19
258.685	88.19
258.918	79.19
259.151	82.19
259.383	76.19
259.616	69.19
259.849	88.19
260.081	72.19
260.314	64.19
260.547	91.19
260.779	94.19
261.012	77.19
261.244	79.19
261.477	94.19
261.71	87.19
261.942	99.19
262.175	102.19
262.407	75.19
262.64	88.19
262.872	82.19
263.105	81.19
263.337	77.19
263.57	83.19
263.802	89.19
264.035	77.19
264.267	82.19
264.499	86.19
264.732	78.19
264.964	79.19
265.197	76.19
265.429	79.19
265.661	88.19
265.894	87.19
266.126	77.19
266.358	92.19
266.591	86.19
266.823	80.19
267.055	87.19
267.287	92.19
267.52	78.19
267.752	92.19
267.984	80.19
268.216	71.19
268.448	89.19
268.681	73.19
268.913	75.19
269.145	75.19
269.377	97.19
269.609	60.19
269.841	91.19
270.073	83.19
270.306	93.19
270.538	75.19
270.77	85.19
271.002	82.19
271.234	90.19
271.466	80.19
271.698	87.19
271.93	86.19
272.162	84.19
272.394	77.19
272.626	80.19
272.858	84.19
273.09	96.19
273.322	70.19
273.553	89.19
273.785	76.19
274.017	84.19
274.249	76.19
274.481	80.19
274.713	89.19
274.945	88.19
275.176	82.19
275.408	98.19
275.64	85.19
275.872	85.19
276.104	81.19
276.335	85.19
276.567	99.19
276.799	113.19
277.031	109.19
277.262	94.19
277.494	95.19
277.726	98.19
277.957	88.19
278.189	94.19
278.421	98.19
278.652	90.19
278.884	89.19
279.115	69.19
279.347	96.19
279.579	82.19
279.81	86.19
280.042	79.19
280.273	87.19
280.505	89.19
280.736	98.19
280.968	99.19
281.199	74.19
281.431	78.19
281.662	78.19
281.894	96.19
282.125	100.19
282.356	105.19
282.588	125.19
282.819	104.19
283.051	94.19
283.282	83.19
283.513	75.19
283.745	77.19
283.976	94.19
284.207	98.19
284.439	82.19
284.67	75.19
284.901	94.19
285.132	73.19
285.364	83.19
285.595	82.19
285.826	80.19
286.057	87.19
286.288	78.19
286.52	91.19
286.751	98.19
286.982	89.19
287.213	90.19
287.444	101.19
287.675	94.19
287.906	86.19
288.138	77.19
288.369	84.19
288.6	91.19
288.831	90.19
289.062	85.19
289.293	83.19
289.524	72.19
289.755	82.19
289.986	96.19
290.217	85.19
290.448	89.19
290.679	80.19
290.91	86.19
291.141	86.19
291.371	87.19
291.602	97.19
291.833	73.19
292.064	88.19
292.295	77.19
292.526	82.19
292.757	88.19
292.987	86.19
293.218	78.19
293.449	96.19
293.68	89.19
293.91	100.19
294.141	95.19
294.372	99.19
294.603	91.19
294.833	84.19
295.064	83.19
295.295	79.19
295.525	82.19
295.756	85.19
295.987	97.19
296.217	147.19
296.448	120.19
296.679	99.19
296.909	92.19
297.14	94.19
297.37	84.19
297.601	84.19
297.831	104.19
298.062	81.19
298.292	89.19
298.523	67.19
298.753	74.19
298.984	97.19
299.214	84.19
299.445	91.19
299.675	86.19
299.905	104.19
300.136	80.19
300.366	68.19
300.597	85.19
300.827	89.19
301.057	106.19
301.288	102.19
301.518	87.19
301.748	91.19
301.979	84.19
302.209	90.19
302.439	91.19
302.669	73.19
302.9	78.19
303.13	106.19
303.36	98.19
303.59	96.19
303.82	106.19
304.051	90.19
304.281	97.19
304.511	94.19
304.741	98.19
304.971	85.19
305.201	81.19
305.431	83.19
305.661	103.19
305.891	97.19
306.121	102.19
306.352	81.19
306.582	92.19
306.812	87.19
307.042	99.19
307.272	90.19
307.502	96.19
307.731	80.19
307.961	82.19
308.191	92.19
308.421	101.19
308.651	88.19
308.881	84.19
309.111	91.19
309.341	84.19
309.571	92.19
309.8	96.19
310.03	101.19
310.26	94.19
310.49	88.19
310.72	80.19
310.949	111.19
311.179	108.19
311.409	92.19
311.639	108.19
311.868	87.19
312.098	85.19
312.328	91.19
312.557	83.19
312.787	122.19
313.017	101.19
313.246	107.19
313.476	92.19
313.706	95.19
313.935	88.19
314.165	89.19
314.394	90.19
314.624	89.19
314.853	106.19
315.083	100.19
315.312	83.19
315.542	93.19
315.771	91.19
316.001	101.19
316.23	99.19
316.46	88.19
316.689	85.19
316.919	100.19
317.148	95.19
317.377	87.19
317.607	97.19
317.836	85.19
318.065	83.19
318.295	90.19
318.524	94.19
318.753	85.19
318.983	80.19
319.212	103.19
319.441	100.19
319.67	103.19
319.9	89.19
320.129	96.19
320.358	86.19
320.587	89.19
320.816	94.19
321.046	100.19
321.275	92.19
321.504	92.19
321.733	90.19
321.962	91.19
322.191	96.19
322.42	91.19
322.649	115.19
322.878	118.19
323.108	97.19
323.337	116.19
323.566	127.19
323.795	120.19
324.024	172.19
324.253	326.19
324.482	639.19
324.71	1281.19
324.939	1643.19
325.168	664.19
325.397	231.19
325.626	138.19
325.855	106.19
326.084	111.19
326.313	135.19
326.542	130.19
326.77	198.19
326.999	354.19
327.228	715.19
327.457	1260.19
327.686	1004.19
327.914	299.19
328.143	172.19
328.372	152.19
328.6	125.19
328.829	108.19
329.058	126.19
329.287	120.19
329.515	99.19
329.744	93.19
329.972	111.19
330.201	127.19
330.43	150.19
330.658	136.19
330.887	128.19
331.115	120.19
331.344	101.19
331.572	91.19
331.801	74.19
332.03	90.19
332.258	100.19
332.486	88.19
332.715	100.19
332.943	96.19
333.172	92.19
333.4	90.19
333.629	102.19
333.857	109.19
334.085	119.19
334.314	128.19
334.542	149.19
334.771	156.19
334.999	98.19
335.227	98.19
335.455	98.19
335.684	90.19
335.912	96.19
336.14	90.19
336.369	94.19
336.597	98.19
336.825	88.19
337.053	90.19
337.281	81.19
337.51	78.19
337.738	75.19
337.966	97.19
338.194	92.19
338.422	99.19
338.65	97.19
338.878	97.19
339.106	79.19
339.334	79.19
339.562	86.19
339.79	92.19
340.018	80.19
340.246	79.19
340.474	77.19
340.702	88.19
340.93	95.19
341.158	99.19
341.386	97.19
341.614	77.19
341.842	75.19
342.07	97.19
342.298	96.19
342.526	85.19
342.754	78.19
342.981	88.19
343.209	94.19
343.437	102.19
343.665	92.19
343.893	88.19
344.12	90.19
344.348	75.19
344.576	83.19
344.804	95.19
345.031	92.19
345.259	107.19
345.487	101.19
345.714	86.19
345.942	87.19
346.17	83.19
346.397	103.19
346.625	93.19
346.853	91.19
347.08	87.19
347.308	94.19
347.535	83.19
347.763	106.19
347.99	85.19
348.218	105.19
348.445	102.19
348.673	101.19
348.9	99.19
349.128	105.19
349.355	82.19
349.583	105.19
349.81	84.19
350.037	101.19
350.265	97.19
350.492	80.19
350.72	95.19
350.947	103.19
351.174	94.19
351.402	114.19
351.629	105.19
351.856	95.19
352.083	108.19
352.311	107.19
352.538	97.19
352.765	112.19
352.992	107.19
353.22	110.19
353.447	108.19
353.674	98.19
353.901	86.19
354.128	98.19
354.355	104.19
354.583	98.19
354.81	99.19
355.037	96.19
355.264	94.19
355.491	96.19
355.718	94.19
355.945	95.19
356.172	88.19
356.399	101.19
356.626	90.19
356.853	94.19
357.08	94.19
357.307	88.19
357.534	90.19
357.761	90.19
357.988	103.19
358.215	94.19
358.441	93.19
358.668	84.19
358.895	94.19
359.122	84.19
359.349	83.19
359.576	85.19
359.802	84.19
360.029	115.19
360.256	106.19
360.483	110.19
360.709	100.19
360.936	84.19
361.163	83.19
361.39	89.19
361.616	89.19
361.843	102.19
362.07	90.19
362.296	89.19
362.523	77.19
362.749	89.19
362.976	86.19
363.203	86.19
363.429	88.19
363.656	97.19
363.882	85.19
364.109	87.19
364.335	83.19
364.562	84.19
364.788	86.19
365.015	80.19
365.241	103.19
365.468	102.19
365.694	98.19
365.92	91.19
366.147	93.19
366.373	94.19
366.599	68.19
366.826	71.19
367.052	90.19
367.278	85.19
367.505	101.19
367.731	90.19
367.957	84.19
368.184	91.19
368.41	81.19
368.636	110.19
368.862	107.19
369.089	104.19
369.315	90.19
369.541	94.19
369.767	85.19
369.993	94.19
370.219	94.19
370.445	100.19
370.672	89.19
370.898	91.19
371.124	84.19
371.35	88.19
371.576	95.19
371.802	92.19
372.028	82.19
372.254	85.19
372.48	78.19
372.706	92.19
372.932	89.19
373.158	76.19
373.384	96.19
373.61	79.19
373.835	80.19
374.061	87.19
374.287	89.19
374.513	94.19
374.739	98.19
374.965	82.19
375.191	70.19
375.416	102.19
375.642	98.19
375.868	94.19
376.094	99.19
376.319	86.19
376.545	96.19
376.771	88.19
376.997	86.19
377.222	78.19
377.448	76.19
377.674	95.19
377.899	86.19
378.125	88.19
378.35	83.19
378.576	83.19
378.802	85.19
379.027	92.19
379.253	97.19
379.478	88.19
379.704	92.19
379.929	99.19
380.155	89.19
380.38	88.19
380.606	75.19
380.831	82.19
381.057	88.19
381.282	94.19
381.507	94.19
381.733	99.19
381.958	97.19
382.184	108.19
382.409	94.19
382.634	97.19
382.86	101.19
383.085	95.19
383.31	112.19
383.535	111.19
383.761	115.19
383.986	92.19
384.211	102.19
384.436	108.19
384.662	104.19
384.887	103.19
385.112	96.19
385.337	97.19
385.562	99.19
385.787	95.19
386.013	101.19
386.238	115.19
386.463	109.19
386.688	106.19
386.913	86.19
387.138	99.19
387.363	104.19
387.588	101.19
387.813	102.19
388.038	119.19
388.263	102.19
388.488	105.19
388.713	96.19
388.938	88.19
389.163	98.19
389.387	100.19
389.612	90.19
389.837	96.19
390.062	83.19
390.287	81.19
390.512	100.19
390.736	83.19
390.961	102.19
391.186	95.19
391.411	106.19
391.636	77.19
391.86	86.19
392.085	92.19
392.31	97.19
392.534	98.19
392.759	103.19
392.984	86.19
393.208	92.19
393.433	101.19
393.658	102.19
393.882	91.19
394.107	87.19
394.331	74.19
394.556	84.19
394.78	90.19
395.005	92.19
395.229	96.19
395.454	95.19
395.678	67.19
395.903	85.19
396.127	67.19
396.352	90.19
396.576	91.19
396.801	91.19
397.025	73.19
397.249	86.19
397.474	94.19
397.698	96.19
397.922	82.19
398.147	82.19
398.371	86.19
398.595	87.19
398.82	71.19
399.044	78.19
399.268	90.19
399.492	95.19
399.717	93.19
399.941	83.19
400.165	90.19
400.389	81.19
400.613	90.19
400.837	97.19
401.062	86.19
401.286	78.19
401.51	91.19
401.734	96.19
401.958	102.19
402.182	127.19
402.406	155.19
402.63	116.19
402.854	97.19
403.078	99.19
403.302	94.19
403.526	96.19
403.75	86.19
403.974	72.19
404.198	83.19
404.422	74.19
404.645	83.19
404.869	66.19
405.093	90.19
405.317	96.19
405.541	99.19
405.765	99.19
405.988	99.19
406.212	142.19
406.436	214.19
406.66	146.19
406.883	100.19
407.107	69.19
407.331	98.19
407.555	98.19
407.778	96.19
408.002	100.19
408.226	91.19
408.449	81.19
408.673	83.19
408.896	88.19
409.12	104.19
409.344	96.19
409.567	79.19
409.791	78.19
410.014	78.19
410.238	98.19
410.461	78.19
410.685	99.19
410.908	84.19
411.132	87.19
411.355	92.19
411.578	81.19
411.802	73.19
412.025	85.19
412.249	89.19
412.472	102.19
412.695	99.19
412.919	96.19
413.142	90.19
413.365	92.19
413.589	71.19
413.812	90.19
414.035	93.19
414.258	85.19
414.482	92.19
414.705	96.19
414.928	84.19
415.151	96.19
415.374	100.19
415.597	76.19
415.821	89.19
416.044	89.19
416.267	88.19
416.49	89.19
416.713	89.19
416.936	98.19
417.159	72.19
417.382	81.19
417.605	82.19
417.828	96.19
418.051	94.19
418.274	76.19
418.497	84.19
418.72	92.19
418.943	87.19
419.166	83.19
419.389	102.19
419.611	97.19
419.834	92.19
420.057	75.19
420.28	80.19
420.503	85.19
420.726	96.19
420.948	84.19
421.171	98.19
421.394	88.19
421.617	74.19
421.839	88.19
422.062	91.19
422.285	105.19
422.507	103.19
422.73	94.19
422.953	80.19
423.175	70.19
423.398	87.19
423.621	94.19
423.843	89.19
424.066	84.19
424.288	83.19
424.511	94.19
424.733	92.19
424.956	98.19
425.178	86.19
425.401	110.19
425.623	91.19
425.846	96.19
426.068	82.19
426.291	90.19
426.513	82.19
426.735	78.19
426.958	89.19
427.18	88.19
427.402	107.19
427.625	159.19
427.847	129.19
428.069	110.19
428.292	88.19
428.514	93.19
428.736	77.19
428.958	82.19
429.181	76.19
429.403	75.19
429.625	78.19
429.847	99.19
430.069	89.19
430.292	90.19
430.514	99.19
430.736	80.19
430.958	77.19
431.18	97.19
431.402	91.19
431.624	88.19
431.846	64.19
432.068	85.19
432.29	83.19
432.512	82.19
432.734	87.19
432.956	90.19
433.178	96.19
433.4	97.19
433.622	89.19
433.844	105.19
434.066	79.19
434.287	97.19
434.509	83.19
434.731	103.19
434.953	74.19
435.175	83.19
435.397	88.19
435.618	92.19
435.84	94.19
436.062	107.19
436.284	97.19
436.505	91.19
436.727	93.19
436.949	96.19
437.17	81.19
437.392	97.19
437.614	87.19
437.835	108.19
438.057	113.19
438.278	95.19
438.5	85.19
438.721	98.19
438.943	95.19
439.165	113.19
439.386	81.19
439.608	84.19
439.829	89.19
440.05	100.19
440.272	127.19
440.493	91.19
440.715	91.19
440.936	75.19
441.158	81.19
441.379	70.19
441.6	89.19
441.822	95.19
442.043	93.19
442.264	92.19
442.486	88.19
442.707	89.19
442.928	95.19
443.149	122.19
443.371	120.19
443.592	88.19
443.813	92.19
444.034	88.19
444.255	81.19
444.476	90.19
444.698	81.19
444.919	91.19
445.14	119.19
445.361	122.19
445.582	115.19
445.803	115.19
446.024	131.19
446.245	111.19
446.466	106.19
446.687	94.19
446.908	89.19
447.129	88.19
447.35	83.19
447.571	92.19
447.792	101.19
448.013	108.19
448.234	106.19
448.455	116.19
448.675	103.19
448.896	105.19
449.117	95.19
449.338	91.19
449.559	118.19
449.779	106.19
450	78.19
450.221	74.19
450.442	86.19
450.662	88.19
450.883	105.19
451.104	102.19
451.324	89.19
451.545	84.19
451.766	74.19
451.986	79.19
452.207	85.19
452.428	75.19
452.648	87.19
452.869	106.19
453.089	101.19
453.31	107.19
453.53	94.19
453.751	87.19
453.971	104.19
454.192	129.19
454.412	93.19
454.633	79.19
454.853	76.19
455.073	79.19
455.294	69.19
455.514	92.19
455.734	93.19
455.955	96.19
456.175	82.19
456.395	74.19
456.616	85.19
456.836	97.19
457.056	87.19
457.276	87.19
457.497	82.19
457.717	70.19
457.937	89.19
458.157	98.19
458.377	79.19
458.598	97.19
458.818	142.19
459.038	148.19
459.258	121.19
459.478	102.19
459.698	83.19
459.918	75.19
460.138	83.19
460.358	102.19
460.578	101.19
460.798	92.19
461.018	87.19
461.238	71.19
461.458	80.19
461.678	82.19
461.898	96.19
462.118	76.19
462.338	81.19
462.558	102.19
462.777	85.19
462.997	92.19
463.217	94.19
463.437	84.19
463.657	89.19
463.876	85.19
464.096	78.19
464.316	80.19
464.536	77.19
464.755	95.19
464.975	103.19
465.195	136.19
465.414	145.19
465.634	102.19
465.854	75.19
466.073	84.19
466.293	90.19
466.512	87.19
466.732	80.19
466.951	84.19
467.171	93.19
467.391	90.19
467.61	97.19
467.829	92.19
468.049	106.19
468.268	123.19
468.488	87.19
468.707	75.19
468.927	85.19
469.146	91.19
469.365	79.19
469.585	84.19
469.804	89.19
470.023	91.19
470.243	93.19
470.462	82.19
470.681	89.19
470.901	78.19
471.12	79.19
471.339	89.19
471.558	88.19
471.777	95.19
471.997	103.19
472.216	133.19
472.435	170.19
472.654	104.19
472.873	82.19
473.092	75.19
473.311	77.19
473.53	78.19
473.749	102.19
473.968	92.19
474.187	104.19
474.406	92.19
474.625	95.19
474.844	82.19
475.063	78.19
475.282	83.19
475.501	93.19
475.72	100.19
475.939	96.19
476.158	79.19
476.377	100.19
476.596	80.19
476.814	87.19
477.033	88.19
477.252	93.19
477.471	69.19
477.69	76.19
477.908	99.19
478.127	79.19
478.346	81.19
478.564	90.19
478.783	96.19
479.002	81.19
479.22	100.19
479.439	100.19
479.658	98.19
479.876	88.19
480.095	83.19
480.313	80.19
480.532	95.19
480.751	111.19
480.969	126.19
481.188	277.19
481.406	200.19
481.624	111.19
481.843	101.19
482.061	87.19
482.28	91.19
482.498	84.19
482.717	86.19
482.935	90.19
483.153	89.19
483.372	80.19
483.59	98.19
483.808	84.19
484.027	81.19
484.245	90.19
484.463	76.19
484.681	91.19
484.9	74.19
485.118	87.19
485.336	94.19
485.554	86.19
485.772	99.19
485.99	87.19
486.209	99.19
486.427	99.19
486.645	108.19
486.863	119.19
487.081	97.19
487.299	91.19
487.517	90.19
487.735	95.19
487.953	94.19
488.171	87.19
488.389	98.19
488.607	87.19
488.825	92.19
489.043	84.19
489.261	95.19
489.479	83.19
489.696	90.19
489.914	81.19
490.132	83.19
490.35	91.19
490.568	88.19
490.786	91.19
491.003	86.19
491.221	87.19
491.439	88.19
491.657	99.19
491.874	90.19
492.092	89.19
492.31	85.19
492.527	80.19
492.745	81.19
492.963	91.19
493.18	82.19
493.398	90.19
493.615	89.19
493.833	83.19
494.05	81.19
494.268	88.19
494.485	97.19
494.703	83.19
494.92	80.19
495.138	75.19
495.355	85.19
495.573	86.19
495.79	92.19
496.008	84.19
496.225	95.19
496.442	95.19
496.66	90.19
496.877	89.19
497.094	90.19
497.312	100.19
497.529	91.19
497.746	86.19
497.963	95.19
498.181	95.19
498.398	98.19
498.615	104.19
498.832	108.19
499.049	89.19
499.267	94.19
499.484	106.19
499.701	100.19
499.918	87.19
500.135	84.19
500.352	83.19
500.569	74.19
500.786	91.19
501.003	89.19
501.22	95.19
501.437	86.19
501.654	103.19
501.871	98.19
502.088	83.19
502.305	83.19
502.522	87.19
502.739	88.19
502.956	92.19
503.172	87.19
503.389	85.19
503.606	118.19
503.823	80.19
504.04	92.19
504.256	100.19
504.473	87.19
504.69	92.19
504.907	88.19
505.123	84.19
505.34	90.19
505.557	84.19
505.773	95.19
505.99	97.19
506.207	94.19
506.423	101.19
506.64	91.19
506.856	92.19
507.073	101.19
507.289	93.19
507.506	94.19
507.722	111.19
507.939	112.19
508.155	92.19
508.372	85.19
508.588	88.19
508.805	91.19
509.021	95.19
509.238	97.19
509.454	95.19
509.67	99.19
509.887	109.19
510.103	113.19
510.319	208.19
510.536	750.19
510.752	2372.19
510.968	702.19
511.184	157.19
511.401	84.19
511.617	94.19
511.833	81.19
512.049	83.19
512.265	86.19
512.481	92.19
512.698	98.19
512.914	96.19
513.13	76.19
513.346	92.19
513.562	83.19
513.778	91.19
513.994	89.19
514.21	97.19
514.426	111.19
514.642	133.19
514.858	101.19
515.074	159.19
515.29	422.19
515.506	1394.19
515.721	538.19
515.937	153.19
516.153	107.19
516.369	89.19
516.585	88.19
