Data from Circ_2008_H10_HRD10591_00084.txt Node
Date: Wed Jan 03 10:17:13 EST 2024
User: Yrep
Spectrometer: HR+D1059
Trigger mode: 1
Integration Time (sec): 1.000000E-1
Scans to average: 1
Electric dark correction enabled: true
Nonlinearity correction enabled: false
Boxcar width: 0
XAxis mode: Wavelengths
Number of Pixels in Spectrum: 2048
>>>>>Begin Spectral Data<<<<<
223.165	-32.69
223.4	-32.69
223.635	-32.69
223.869	-11.69
224.104	-13.69
224.338	-8.69
224.573	-16.69
224.808	-7.69
225.042	-5.69
225.277	-10.69
225.511	-6.69
225.746	6.31
225.98	15.31
226.215	6.31
226.449	23.31
226.683	9.31
226.918	30.31
227.152	23.31
227.387	35.31
227.621	33.31
227.856	45.31
228.09	46.31
228.324	59.31
228.559	52.31
228.793	65.31
229.027	77.31
229.262	70.31
229.496	64.31
229.73	86.31
229.964	78.31
230.199	71.31
230.433	87.31
230.667	73.31
230.901	77.31
231.136	92.31
231.37	84.31
231.604	95.31
231.838	79.31
232.072	78.31
232.306	85.31
232.541	79.31
232.775	82.31
233.009	92.31
233.243	86.31
233.477	85.31
233.711	87.31
233.945	74.31
234.179	82.31
234.413	86.31
234.647	86.31
234.881	77.31
235.115	78.31
235.349	100.31
235.583	88.31
235.817	78.31
236.051	74.31
236.285	70.31
236.519	72.31
236.753	91.31
236.987	86.31
237.221	75.31
237.455	84.31
237.689	75.31
237.922	68.31
238.156	88.31
238.39	79.31
238.624	67.31
238.858	76.31
239.091	88.31
239.325	94.31
239.559	75.31
239.793	76.31
240.027	87.31
240.26	76.31
240.494	89.31
240.728	85.31
240.961	62.31
241.195	85.31
241.429	93.31
241.662	75.31
241.896	71.31
242.13	72.31
242.363	87.31
242.597	83.31
242.83	68.31
243.064	86.31
243.298	70.31
243.531	73.31
243.765	76.31
243.998	83.31
244.232	76.31
244.465	90.31
244.699	80.31
244.932	81.31
245.166	83.31
245.399	95.31
245.633	83.31
245.866	76.31
246.099	77.31
246.333	85.31
246.566	78.31
246.8	82.31
247.033	86.31
247.266	90.31
247.5	93.31
247.733	78.31
247.966	66.31
248.2	74.31
248.433	91.31
248.666	84.31
248.899	82.31
249.133	92.31
249.366	100.31
249.599	94.31
249.832	77.31
250.066	85.31
250.299	91.31
250.532	77.31
250.765	86.31
250.998	74.31
251.231	86.31
251.465	87.31
251.698	76.31
251.931	86.31
252.164	86.31
252.397	86.31
252.63	82.31
252.863	93.31
253.096	83.31
253.329	83.31
253.562	105.31
253.795	74.31
254.028	77.31
254.261	84.31
254.494	91.31
254.727	84.31
254.96	79.31
255.193	83.31
255.426	82.31
255.659	87.31
255.892	95.31
256.124	81.31
256.357	79.31
256.59	86.31
256.823	87.31
257.056	84.31
257.289	81.31
257.521	77.31
257.754	79.31
257.987	86.31
258.22	75.31
258.452	86.31
258.685	92.31
258.918	82.31
259.151	96.31
259.383	80.31
259.616	81.31
259.849	102.31
260.081	77.31
260.314	86.31
260.547	85.31
260.779	95.31
261.012	95.31
261.244	89.31
261.477	114.31
261.71	85.31
261.942	117.31
262.175	128.31
262.407	83.31
262.64	80.31
262.872	86.31
263.105	78.31
263.337	90.31
263.57	79.31
263.802	90.31
264.035	91.31
264.267	95.31
264.499	85.31
264.732	77.31
264.964	85.31
265.197	87.31
265.429	86.31
265.661	84.31
265.894	81.31
266.126	82.31
266.358	88.31
266.591	87.31
266.823	67.31
267.055	82.31
267.287	89.31
267.52	93.31
267.752	91.31
267.984	84.31
268.216	91.31
268.448	93.31
268.681	87.31
268.913	96.31
269.145	97.31
269.377	73.31
269.609	80.31
269.841	83.31
270.073	92.31
270.306	91.31
270.538	90.31
270.77	74.31
271.002	77.31
271.234	93.31
271.466	80.31
271.698	96.31
271.93	91.31
272.162	86.31
272.394	81.31
272.626	85.31
272.858	91.31
273.09	88.31
273.322	85.31
273.553	73.31
273.785	78.31
274.017	89.31
274.249	87.31
274.481	86.31
274.713	83.31
274.945	87.31
275.176	89.31
275.408	96.31
275.64	92.31
275.872	81.31
276.104	94.31
276.335	107.31
276.567	95.31
276.799	114.31
277.031	115.31
277.262	105.31
277.494	84.31
277.726	75.31
277.957	78.31
278.189	101.31
278.421	87.31
278.652	70.31
278.884	79.31
279.115	83.31
279.347	80.31
279.579	86.31
279.81	91.31
280.042	97.31
280.273	110.31
280.505	93.31
280.736	97.31
280.968	105.31
281.199	93.31
281.431	85.31
281.662	91.31
281.894	95.31
282.125	90.31
282.356	118.31
282.588	129.31
282.819	118.31
283.051	87.31
283.282	86.31
283.513	83.31
283.745	80.31
283.976	82.31
284.207	78.31
284.439	83.31
284.67	86.31
284.901	93.31
285.132	94.31
285.364	98.31
285.595	94.31
285.826	86.31
286.057	85.31
286.288	80.31
286.52	77.31
286.751	92.31
286.982	98.31
287.213	84.31
287.444	91.31
287.675	97.31
287.906	86.31
288.138	86.31
288.369	85.31
288.6	111.31
288.831	114.31
289.062	101.31
289.293	77.31
289.524	89.31
289.755	92.31
289.986	79.31
290.217	100.31
290.448	93.31
290.679	72.31
290.91	91.31
291.141	100.31
291.371	93.31
291.602	82.31
291.833	94.31
292.064	81.31
292.295	93.31
292.526	83.31
292.757	89.31
292.987	100.31
293.218	71.31
293.449	85.31
293.68	87.31
293.91	96.31
294.141	96.31
294.372	94.31
294.603	84.31
294.833	81.31
295.064	87.31
295.295	86.31
295.525	91.31
295.756	105.31
295.987	121.31
296.217	150.31
296.448	145.31
296.679	102.31
296.909	86.31
297.14	98.31
297.37	101.31
297.601	78.31
297.831	84.31
298.062	85.31
298.292	88.31
298.523	94.31
298.753	92.31
298.984	94.31
299.214	95.31
299.445	111.31
299.675	108.31
299.905	86.31
300.136	87.31
300.366	97.31
300.597	94.31
300.827	94.31
301.057	107.31
301.288	100.31
301.518	89.31
301.748	95.31
301.979	92.31
302.209	87.31
302.439	88.31
302.669	93.31
302.9	108.31
303.13	82.31
303.36	100.31
303.59	110.31
303.82	123.31
304.051	99.31
304.281	95.31
304.511	89.31
304.741	92.31
304.971	91.31
305.201	91.31
305.431	93.31
305.661	92.31
305.891	96.31
306.121	93.31
306.352	93.31
306.582	111.31
306.812	97.31
307.042	99.31
307.272	86.31
307.502	117.31
307.731	106.31
307.961	88.31
308.191	95.31
308.421	94.31
308.651	94.31
308.881	93.31
309.111	97.31
309.341	100.31
309.571	97.31
309.8	86.31
310.03	111.31
310.26	101.31
310.49	110.31
310.72	97.31
310.949	117.31
311.179	107.31
311.409	99.31
311.639	95.31
311.868	101.31
312.098	102.31
312.328	101.31
312.557	103.31
312.787	109.31
313.017	113.31
313.246	94.31
313.476	95.31
313.706	107.31
313.935	93.31
314.165	104.31
314.394	105.31
314.624	93.31
314.853	104.31
315.083	106.31
315.312	97.31
315.542	93.31
315.771	102.31
316.001	106.31
316.23	95.31
316.46	92.31
316.689	85.31
316.919	85.31
317.148	105.31
317.377	94.31
317.607	96.31
317.836	114.31
318.065	88.31
318.295	100.31
318.524	99.31
318.753	101.31
318.983	87.31
319.212	122.31
319.441	120.31
319.67	110.31
319.9	92.31
320.129	83.31
320.358	94.31
320.587	97.31
320.816	105.31
321.046	111.31
321.275	107.31
321.504	97.31
321.733	97.31
321.962	95.31
322.191	96.31
322.42	109.31
322.649	118.31
322.878	126.31
323.108	107.31
323.337	110.31
323.566	143.31
323.795	157.31
324.024	207.31
324.253	364.31
324.482	737.31
324.71	1534.31
324.939	2027.31
325.168	726.31
325.397	246.31
325.626	146.31
325.855	131.31
326.084	113.31
326.313	141.31
326.542	151.31
326.77	218.31
326.999	420.31
327.228	831.31
327.457	1484.31
327.686	1210.31
327.914	350.31
328.143	229.31
328.372	215.31
328.6	147.31
328.829	124.31
329.058	149.31
329.287	148.31
329.515	106.31
329.744	130.31
329.972	146.31
330.201	226.31
330.43	297.31
330.658	178.31
330.887	158.31
331.115	140.31
331.344	97.31
331.572	94.31
331.801	108.31
332.03	93.31
332.258	100.31
332.486	97.31
332.715	90.31
332.943	102.31
333.172	102.31
333.4	100.31
333.629	110.31
333.857	128.31
334.085	156.31
334.314	212.31
334.542	336.31
334.771	325.31
334.999	147.31
335.227	114.31
335.455	101.31
335.684	95.31
335.912	118.31
336.14	107.31
336.369	109.31
336.597	95.31
336.825	113.31
337.053	97.31
337.281	90.31
337.51	92.31
337.738	97.31
337.966	97.31
338.194	107.31
338.422	105.31
338.65	94.31
338.878	103.31
339.106	99.31
339.334	87.31
339.562	92.31
339.79	94.31
340.018	110.31
340.246	103.31
340.474	112.31
340.702	97.31
340.93	89.31
341.158	92.31
341.386	79.31
341.614	90.31
341.842	94.31
342.07	79.31
342.298	94.31
342.526	95.31
342.754	101.31
342.981	82.31
343.209	95.31
343.437	100.31
343.665	82.31
343.893	98.31
344.12	90.31
344.348	83.31
344.576	84.31
344.804	89.31
345.031	103.31
345.259	108.31
345.487	92.31
345.714	94.31
345.942	101.31
346.17	104.31
346.397	98.31
346.625	106.31
346.853	90.31
347.08	86.31
347.308	97.31
347.535	93.31
347.763	108.31
347.99	98.31
348.218	101.31
348.445	104.31
348.673	100.31
348.9	98.31
349.128	104.31
349.355	106.31
349.583	105.31
349.81	87.31
350.037	108.31
350.265	114.31
350.492	83.31
350.72	93.31
350.947	93.31
351.174	108.31
351.402	125.31
351.629	107.31
351.856	115.31
352.083	99.31
352.311	94.31
352.538	99.31
352.765	116.31
352.992	110.31
353.22	114.31
353.447	102.31
353.674	99.31
353.901	90.31
354.128	91.31
354.355	122.31
354.583	109.31
354.81	102.31
355.037	98.31
355.264	97.31
355.491	98.31
355.718	79.31
355.945	107.31
356.172	97.31
356.399	98.31
356.626	87.31
356.853	83.31
357.08	102.31
357.307	96.31
357.534	87.31
357.761	78.31
357.988	97.31
358.215	92.31
358.441	88.31
358.668	80.31
358.895	97.31
359.122	92.31
359.349	90.31
359.576	89.31
359.802	108.31
360.029	112.31
360.256	101.31
360.483	100.31
360.709	101.31
360.936	105.31
361.163	103.31
361.39	93.31
361.616	96.31
361.843	81.31
362.07	96.31
362.296	86.31
362.523	89.31
362.749	91.31
362.976	85.31
363.203	95.31
363.429	87.31
363.656	91.31
363.882	89.31
364.109	104.31
364.335	106.31
364.562	98.31
364.788	97.31
365.015	94.31
365.241	92.31
365.468	103.31
365.694	100.31
365.92	108.31
366.147	100.31
366.373	86.31
366.599	87.31
366.826	86.31
367.052	86.31
367.278	108.31
367.505	96.31
367.731	103.31
367.957	121.31
368.184	98.31
368.41	94.31
368.636	102.31
368.862	131.31
369.089	113.31
369.315	107.31
369.541	104.31
369.767	99.31
369.993	79.31
370.219	90.31
370.445	84.31
370.672	85.31
370.898	86.31
371.124	86.31
371.35	96.31
371.576	86.31
371.802	91.31
372.028	87.31
372.254	78.31
372.48	92.31
372.706	84.31
372.932	96.31
373.158	97.31
373.384	86.31
373.61	89.31
373.835	91.31
374.061	89.31
374.287	98.31
374.513	92.31
374.739	88.31
374.965	92.31
375.191	82.31
375.416	87.31
375.642	96.31
375.868	81.31
376.094	106.31
376.319	98.31
376.545	85.31
376.771	88.31
376.997	98.31
377.222	93.31
377.448	102.31
377.674	107.31
377.899	82.31
378.125	103.31
378.35	97.31
378.576	93.31
378.802	91.31
379.027	102.31
379.253	97.31
379.478	93.31
379.704	81.31
379.929	96.31
380.155	89.31
380.38	82.31
380.606	93.31
380.831	97.31
381.057	89.31
381.282	93.31
381.507	107.31
381.733	92.31
381.958	98.31
382.184	114.31
382.409	92.31
382.634	101.31
382.86	96.31
383.085	87.31
383.31	91.31
383.535	97.31
383.761	115.31
383.986	102.31
384.211	77.31
384.436	98.31
384.662	89.31
384.887	100.31
385.112	103.31
385.337	98.31
385.562	95.31
385.787	93.31
386.013	121.31
386.238	117.31
386.463	108.31
386.688	113.31
386.913	101.31
387.138	123.31
387.363	109.31
387.588	105.31
387.813	95.31
388.038	98.31
388.263	107.31
388.488	114.31
388.713	110.31
388.938	98.31
389.163	105.31
389.387	106.31
389.612	85.31
389.837	82.31
390.062	91.31
390.287	87.31
390.512	100.31
390.736	87.31
390.961	83.31
391.186	100.31
391.411	87.31
391.636	89.31
391.86	82.31
392.085	87.31
392.31	76.31
392.534	81.31
392.759	96.31
392.984	80.31
393.208	110.31
393.433	86.31
393.658	99.31
393.882	91.31
394.107	81.31
394.331	96.31
394.556	92.31
394.78	82.31
395.005	95.31
395.229	97.31
395.454	86.31
395.678	90.31
395.903	99.31
396.127	92.31
396.352	84.31
396.576	99.31
396.801	89.31
397.025	76.31
397.249	77.31
397.474	87.31
397.698	93.31
397.922	93.31
398.147	97.31
398.371	85.31
398.595	94.31
398.82	93.31
399.044	77.31
399.268	93.31
399.492	88.31
399.717	94.31
399.941	93.31
400.165	89.31
400.389	86.31
400.613	90.31
400.837	83.31
401.062	89.31
401.286	105.31
401.51	99.31
401.734	98.31
401.958	110.31
402.182	119.31
402.406	174.31
402.63	111.31
402.854	99.31
403.078	84.31
403.302	99.31
403.526	82.31
403.75	105.31
403.974	89.31
404.198	90.31
404.422	86.31
404.645	78.31
404.869	98.31
405.093	94.31
405.317	90.31
405.541	107.31
405.765	97.31
405.988	120.31
406.212	184.31
406.436	233.31
406.66	169.31
406.883	95.31
407.107	91.31
407.331	91.31
407.555	107.31
407.778	97.31
408.002	90.31
408.226	92.31
408.449	101.31
408.673	95.31
408.896	102.31
409.12	85.31
409.344	84.31
409.567	93.31
409.791	93.31
410.014	95.31
410.238	90.31
410.461	95.31
410.685	95.31
410.908	99.31
411.132	112.31
411.355	88.31
411.578	94.31
411.802	94.31
412.025	82.31
412.249	95.31
412.472	108.31
412.695	98.31
412.919	93.31
413.142	87.31
413.365	91.31
413.589	100.31
413.812	81.31
414.035	87.31
414.258	102.31
414.482	92.31
414.705	88.31
414.928	89.31
415.151	108.31
415.374	79.31
415.597	98.31
415.821	86.31
416.044	87.31
416.267	102.31
416.49	88.31
416.713	92.31
416.936	97.31
417.159	85.31
417.382	91.31
417.605	90.31
417.828	90.31
418.051	107.31
418.274	85.31
418.497	91.31
418.72	87.31
418.943	95.31
419.166	80.31
419.389	95.31
419.611	82.31
419.834	95.31
420.057	93.31
420.28	105.31
420.503	91.31
420.726	95.31
420.948	85.31
421.171	99.31
421.394	101.31
421.617	84.31
421.839	79.31
422.062	97.31
422.285	85.31
422.507	107.31
422.73	107.31
422.953	97.31
423.175	92.31
423.398	97.31
423.621	81.31
423.843	107.31
424.066	92.31
424.288	75.31
424.511	101.31
424.733	109.31
424.956	113.31
425.178	100.31
425.401	103.31
425.623	101.31
425.846	93.31
426.068	98.31
426.291	96.31
426.513	90.31
426.735	95.31
426.958	86.31
427.18	105.31
427.402	130.31
427.625	159.31
427.847	159.31
428.069	141.31
428.292	96.31
428.514	102.31
428.736	99.31
428.958	84.31
429.181	81.31
429.403	97.31
429.625	90.31
429.847	96.31
430.069	96.31
430.292	96.31
430.514	85.31
430.736	94.31
430.958	94.31
431.18	84.31
431.402	79.31
431.624	79.31
431.846	90.31
432.068	91.31
432.29	94.31
432.512	72.31
432.734	86.31
432.956	100.31
433.178	97.31
433.4	96.31
433.622	78.31
433.844	97.31
434.066	114.31
434.287	92.31
434.509	90.31
434.731	87.31
434.953	90.31
435.175	81.31
435.397	96.31
435.618	104.31
435.84	93.31
436.062	115.31
436.284	112.31
436.505	105.31
436.727	115.31
436.949	82.31
437.17	93.31
437.392	99.31
437.614	101.31
437.835	114.31
438.057	121.31
438.278	108.31
438.5	103.31
438.721	136.31
438.943	121.31
439.165	94.31
439.386	84.31
439.608	101.31
439.829	96.31
440.05	114.31
440.272	141.31
440.493	110.31
440.715	95.31
440.936	96.31
441.158	99.31
441.379	94.31
441.6	95.31
441.822	93.31
442.043	85.31
442.264	101.31
442.486	102.31
442.707	87.31
442.928	111.31
443.149	131.31
443.371	138.31
443.592	99.31
443.813	111.31
444.034	106.31
444.255	85.31
444.476	87.31
444.698	95.31
444.919	91.31
445.14	122.31
445.361	130.31
445.582	125.31
445.803	150.31
446.024	141.31
446.245	139.31
446.466	108.31
446.687	97.31
446.908	89.31
447.129	92.31
447.35	86.31
447.571	90.31
447.792	91.31
448.013	87.31
448.234	102.31
448.455	104.31
448.675	118.31
448.896	123.31
449.117	101.31
449.338	113.31
449.559	124.31
449.779	131.31
450	94.31
450.221	86.31
450.442	86.31
450.662	101.31
450.883	110.31
451.104	130.31
451.324	98.31
451.545	95.31
451.766	107.31
451.986	91.31
452.207	97.31
452.428	105.31
452.648	98.31
452.869	110.31
453.089	127.31
453.31	128.31
453.53	100.31
453.751	106.31
453.971	104.31
454.192	99.31
454.412	95.31
454.633	87.31
454.853	90.31
455.073	91.31
455.294	92.31
455.514	105.31
455.734	76.31
455.955	94.31
456.175	83.31
456.395	83.31
456.616	94.31
456.836	83.31
457.056	93.31
457.276	74.31
457.497	94.31
457.717	98.31
457.937	108.31
458.157	93.31
458.377	102.31
458.598	114.31
458.818	147.31
459.038	183.31
459.258	116.31
459.478	91.31
459.698	107.31
459.918	93.31
460.138	90.31
460.358	95.31
460.578	85.31
460.798	83.31
461.018	76.31
461.238	89.31
461.458	93.31
461.678	89.31
461.898	92.31
462.118	96.31
462.338	99.31
462.558	86.31
462.777	78.31
462.997	94.31
463.217	83.31
463.437	88.31
463.657	100.31
463.876	99.31
464.096	91.31
464.316	93.31
464.536	92.31
464.755	99.31
464.975	102.31
465.195	166.31
465.414	176.31
465.634	103.31
465.854	96.31
466.073	93.31
466.293	67.31
466.512	109.31
466.732	91.31
466.951	90.31
467.171	95.31
467.391	84.31
467.61	113.31
467.829	114.31
468.049	148.31
468.268	169.31
468.488	116.31
468.707	89.31
468.927	92.31
469.146	87.31
469.365	109.31
469.585	106.31
469.804	115.31
470.023	99.31
470.243	90.31
470.462	90.31
470.681	127.31
470.901	98.31
471.12	95.31
471.339	101.31
471.558	102.31
471.777	97.31
471.997	125.31
472.216	237.31
472.435	430.31
472.654	158.31
472.873	109.31
473.092	82.31
473.311	83.31
473.53	83.31
473.749	90.31
473.968	105.31
474.187	101.31
474.406	95.31
474.625	88.31
474.844	101.31
475.063	95.31
475.282	105.31
475.501	103.31
475.72	80.31
475.939	84.31
476.158	97.31
476.377	95.31
476.596	92.31
476.814	108.31
477.033	101.31
477.252	86.31
477.471	80.31
477.69	105.31
477.908	86.31
478.127	92.31
478.346	100.31
478.564	90.31
478.783	113.31
479.002	95.31
479.22	93.31
479.439	97.31
479.658	110.31
479.876	113.31
480.095	108.31
480.313	103.31
480.532	101.31
480.751	104.31
480.969	221.31
481.188	677.31
481.406	459.31
481.624	126.31
481.843	101.31
482.061	94.31
482.28	109.31
482.498	94.31
482.717	101.31
482.935	92.31
483.153	87.31
483.372	92.31
483.59	105.31
483.808	93.31
484.027	83.31
484.245	93.31
484.463	98.31
484.681	109.31
484.9	91.31
485.118	89.31
485.336	89.31
485.554	93.31
485.772	93.31
485.99	88.31
486.209	109.31
486.427	96.31
486.645	100.31
486.863	109.31
487.081	101.31
487.299	108.31
487.517	99.31
487.735	95.31
487.953	92.31
488.171	92.31
488.389	97.31
488.607	95.31
488.825	97.31
489.043	101.31
489.261	84.31
489.479	103.31
489.696	84.31
489.914	92.31
490.132	93.31
490.35	92.31
490.568	86.31
490.786	99.31
491.003	86.31
491.221	83.31
491.439	82.31
491.657	92.31
491.874	100.31
492.092	92.31
492.31	91.31
492.527	101.31
492.745	99.31
492.963	92.31
493.18	89.31
493.398	90.31
493.615	93.31
493.833	83.31
494.05	85.31
494.268	87.31
494.485	85.31
494.703	91.31
494.92	87.31
495.138	97.31
495.355	93.31
495.573	84.31
495.79	95.31
496.008	83.31
496.225	92.31
496.442	94.31
496.66	108.31
496.877	106.31
497.094	101.31
497.312	89.31
497.529	83.31
497.746	96.31
497.963	97.31
498.181	93.31
498.398	105.31
498.615	107.31
498.832	106.31
499.049	85.31
499.267	103.31
499.484	98.31
499.701	100.31
499.918	93.31
500.135	80.31
500.352	95.31
500.569	95.31
500.786	91.31
501.003	96.31
501.22	94.31
501.437	103.31
501.654	99.31
501.871	113.31
502.088	93.31
502.305	90.31
502.522	78.31
502.739	86.31
502.956	83.31
503.172	85.31
503.389	105.31
503.606	98.31
503.823	88.31
504.04	93.31
504.256	86.31
504.473	89.31
504.69	92.31
504.907	101.31
505.123	82.31
505.34	101.31
505.557	102.31
505.773	92.31
505.99	86.31
506.207	85.31
506.423	89.31
506.64	81.31
506.856	104.31
507.073	102.31
507.289	92.31
507.506	88.31
507.722	120.31
507.939	107.31
508.155	90.31
508.372	90.31
508.588	90.31
508.805	94.31
509.021	94.31
509.238	105.31
509.454	105.31
509.67	111.31
509.887	108.31
510.103	139.31
510.319	233.31
510.536	787.31
510.752	2653.31
510.968	758.31
511.184	180.31
511.401	129.31
511.617	112.31
511.833	91.31
512.049	96.31
512.265	100.31
512.481	96.31
512.698	88.31
512.914	88.31
513.13	80.31
513.346	99.31
513.562	89.31
513.778	94.31
513.994	87.31
514.21	111.31
514.426	128.31
