Data from Circ_2008_H10_HRD10591_00007.txt Node
Date: Wed Jan 03 10:16:57 EST 2024
User: Yrep
Spectrometer: HR+D1059
Trigger mode: 1
Integration Time (sec): 1.000000E-1
Scans to average: 1
Electric dark correction enabled: true
Nonlinearity correction enabled: false
Boxcar width: 0
XAxis mode: Wavelengths
Number of Pixels in Spectrum: 2048
>>>>>Begin Spectral Data<<<<<
223.165	-16.56
223.4	-16.56
223.635	-16.56
223.869	-10.56
224.104	-9.56
224.338	-6.56
224.573	-19.56
224.808	-13.56
225.042	-11.56
225.277	-0.56
225.511	-13.56
225.746	7.44
225.98	-0.56
226.215	2.44
226.449	17.44
226.683	23.44
226.918	40.44
227.152	11.44
227.387	34.44
227.621	44.44
227.856	46.44
228.09	33.44
228.324	52.44
228.559	54.44
228.793	54.44
229.027	60.44
229.262	66.44
229.496	71.44
229.73	82.44
229.964	78.44
230.199	62.44
230.433	64.44
230.667	63.44
230.901	75.44
231.136	71.44
231.37	75.44
231.604	70.44
231.838	74.44
232.072	78.44
232.306	79.44
232.541	77.44
232.775	68.44
233.009	67.44
233.243	78.44
233.477	66.44
233.711	95.44
233.945	63.44
234.179	74.44
234.413	79.44
234.647	73.44
234.881	78.44
235.115	73.44
235.349	81.44
235.583	75.44
235.817	79.44
236.051	77.44
236.285	88.44
236.519	77.44
236.753	69.44
236.987	75.44
237.221	83.44
237.455	68.44
237.689	72.44
237.922	70.44
238.156	78.44
238.39	87.44
238.624	75.44
238.858	68.44
239.091	63.44
239.325	73.44
239.559	80.44
239.793	65.44
240.027	71.44
240.26	71.44
240.494	68.44
240.728	70.44
240.961	69.44
241.195	66.44
241.429	77.44
241.662	78.44
241.896	72.44
242.13	75.44
242.363	73.44
242.597	82.44
242.83	74.44
243.064	67.44
243.298	66.44
243.531	64.44
243.765	64.44
243.998	81.44
244.232	71.44
244.465	80.44
244.699	84.44
244.932	87.44
245.166	65.44
245.399	67.44
245.633	77.44
245.866	72.44
246.099	72.44
246.333	86.44
246.566	89.44
246.8	75.44
247.033	70.44
247.266	70.44
247.5	64.44
247.733	75.44
247.966	80.44
248.2	76.44
248.433	72.44
248.666	79.44
248.899	78.44
249.133	76.44
249.366	94.44
249.599	102.44
249.832	86.44
250.066	76.44
250.299	73.44
250.532	68.44
250.765	71.44
250.998	66.44
251.231	80.44
251.465	60.44
251.698	73.44
251.931	76.44
252.164	67.44
252.397	67.44
252.63	72.44
252.863	70.44
253.096	62.44
253.329	78.44
253.562	62.44
253.795	65.44
254.028	67.44
254.261	83.44
254.494	86.44
254.727	68.44
254.96	70.44
255.193	71.44
255.426	70.44
255.659	84.44
255.892	73.44
256.124	82.44
256.357	69.44
256.59	72.44
256.823	77.44
257.056	87.44
257.289	71.44
257.521	83.44
257.754	68.44
257.987	75.44
258.22	71.44
258.452	71.44
258.685	68.44
258.918	76.44
259.151	84.44
259.383	65.44
259.616	57.44
259.849	78.44
260.081	77.44
260.314	79.44
260.547	67.44
260.779	74.44
261.012	89.44
261.244	85.44
261.477	77.44
261.71	99.44
261.942	98.44
262.175	112.44
262.407	85.44
262.64	85.44
262.872	86.44
263.105	76.44
263.337	79.44
263.57	82.44
263.802	85.44
264.035	79.44
264.267	68.44
264.499	74.44
264.732	58.44
264.964	89.44
265.197	72.44
265.429	90.44
265.661	96.44
265.894	73.44
266.126	86.44
266.358	88.44
266.591	78.44
266.823	78.44
267.055	83.44
267.287	79.44
267.52	79.44
267.752	78.44
267.984	91.44
268.216	86.44
268.448	78.44
268.681	68.44
268.913	78.44
269.145	76.44
269.377	85.44
269.609	73.44
269.841	81.44
270.073	74.44
270.306	79.44
270.538	77.44
270.77	92.44
271.002	77.44
271.234	80.44
271.466	77.44
271.698	84.44
271.93	90.44
272.162	79.44
272.394	77.44
272.626	70.44
272.858	78.44
273.09	95.44
273.322	81.44
273.553	71.44
273.785	88.44
274.017	85.44
274.249	91.44
274.481	82.44
274.713	91.44
274.945	78.44
275.176	80.44
275.408	78.44
275.64	80.44
275.872	74.44
276.104	86.44
276.335	89.44
276.567	92.44
276.799	117.44
277.031	104.44
277.262	69.44
277.494	75.44
277.726	90.44
277.957	86.44
278.189	91.44
278.421	83.44
278.652	88.44
278.884	78.44
279.115	86.44
279.347	80.44
279.579	85.44
279.81	86.44
280.042	90.44
280.273	78.44
280.505	76.44
280.736	85.44
280.968	92.44
281.199	87.44
281.431	90.44
281.662	87.44
281.894	87.44
282.125	84.44
282.356	118.44
282.588	150.44
282.819	120.44
283.051	87.44
283.282	75.44
283.513	88.44
283.745	75.44
283.976	88.44
284.207	73.44
284.439	79.44
284.67	80.44
284.901	84.44
285.132	79.44
285.364	75.44
285.595	77.44
285.826	89.44
286.057	93.44
286.288	91.44
286.52	85.44
286.751	87.44
286.982	68.44
287.213	77.44
287.444	67.44
287.675	91.44
287.906	89.44
288.138	85.44
288.369	91.44
288.6	73.44
288.831	84.44
289.062	74.44
289.293	90.44
289.524	87.44
289.755	89.44
289.986	86.44
290.217	78.44
290.448	79.44
290.679	77.44
290.91	81.44
291.141	74.44
291.371	78.44
291.602	68.44
291.833	89.44
292.064	94.44
292.295	80.44
292.526	102.44
292.757	79.44
292.987	79.44
293.218	88.44
293.449	86.44
293.68	81.44
293.91	66.44
294.141	101.44
294.372	86.44
294.603	75.44
294.833	84.44
295.064	94.44
295.295	92.44
295.525	91.44
295.756	86.44
295.987	119.44
296.217	142.44
296.448	125.44
296.679	92.44
296.909	95.44
297.14	75.44
297.37	93.44
297.601	93.44
297.831	99.44
298.062	79.44
298.292	85.44
298.523	91.44
298.753	77.44
298.984	70.44
299.214	99.44
299.445	83.44
299.675	93.44
299.905	92.44
300.136	76.44
300.366	94.44
300.597	92.44
300.827	87.44
301.057	91.44
301.288	92.44
301.518	79.44
301.748	77.44
301.979	95.44
302.209	87.44
302.439	83.44
302.669	93.44
302.9	86.44
303.13	93.44
303.36	93.44
303.59	93.44
303.82	101.44
304.051	93.44
304.281	100.44
304.511	97.44
304.741	79.44
304.971	73.44
305.201	60.44
305.431	84.44
305.661	80.44
305.891	93.44
306.121	98.44
306.352	91.44
306.582	102.44
306.812	99.44
307.042	78.44
307.272	92.44
307.502	96.44
307.731	86.44
307.961	95.44
308.191	94.44
308.421	81.44
308.651	78.44
308.881	78.44
309.111	95.44
309.341	93.44
309.571	95.44
309.8	92.44
310.03	92.44
310.26	92.44
310.49	98.44
310.72	95.44
310.949	101.44
311.179	98.44
311.409	91.44
311.639	77.44
311.868	97.44
312.098	96.44
312.328	102.44
312.557	98.44
312.787	99.44
313.017	98.44
313.246	90.44
313.476	77.44
313.706	99.44
313.935	93.44
314.165	102.44
314.394	89.44
314.624	92.44
314.853	95.44
315.083	88.44
315.312	76.44
315.542	82.44
315.771	102.44
316.001	92.44
316.23	101.44
316.46	81.44
316.689	103.44
316.919	93.44
317.148	83.44
317.377	92.44
317.607	94.44
317.836	101.44
318.065	78.44
318.295	84.44
318.524	88.44
318.753	78.44
318.983	94.44
319.212	97.44
319.441	116.44
319.67	111.44
319.9	83.44
320.129	79.44
320.358	106.44
320.587	95.44
320.816	95.44
321.046	91.44
321.275	96.44
321.504	92.44
321.733	92.44
321.962	88.44
322.191	109.44
322.42	99.44
322.649	109.44
322.878	105.44
323.108	107.44
323.337	100.44
323.566	120.44
323.795	163.44
324.024	196.44
324.253	378.44
324.482	820.44
324.71	1654.44
324.939	2128.44
325.168	766.44
325.397	252.44
325.626	156.44
325.855	122.44
326.084	135.44
326.313	131.44
326.542	161.44
326.77	232.44
326.999	438.44
327.228	872.44
327.457	1602.44
327.686	1253.44
327.914	346.44
328.143	192.44
328.372	165.44
328.6	128.44
328.829	115.44
329.058	133.44
329.287	132.44
329.515	110.44
329.744	100.44
329.972	100.44
330.201	116.44
330.43	107.44
330.658	110.44
330.887	155.44
331.115	125.44
331.344	102.44
331.572	91.44
331.801	108.44
332.03	86.44
332.258	90.44
332.486	92.44
332.715	91.44
332.943	98.44
333.172	77.44
333.4	96.44
333.629	111.44
333.857	104.44
334.085	95.44
334.314	91.44
334.542	100.44
334.771	96.44
334.999	100.44
335.227	96.44
335.455	93.44
335.684	114.44
335.912	98.44
336.14	91.44
336.369	101.44
336.597	101.44
336.825	97.44
337.053	98.44
337.281	84.44
337.51	77.44
337.738	99.44
337.966	92.44
338.194	90.44
338.422	88.44
338.65	95.44
338.878	69.44
339.106	87.44
339.334	91.44
339.562	92.44
339.79	99.44
340.018	91.44
340.246	93.44
340.474	104.44
340.702	77.44
340.93	97.44
341.158	100.44
341.386	89.44
341.614	97.44
341.842	105.44
342.07	85.44
342.298	109.44
342.526	84.44
342.754	86.44
342.981	86.44
343.209	79.44
343.437	91.44
343.665	87.44
343.893	90.44
344.12	91.44
344.348	80.44
344.576	77.44
344.804	92.44
345.031	106.44
345.259	87.44
345.487	94.44
345.714	97.44
345.942	98.44
346.17	93.44
346.397	88.44
346.625	92.44
346.853	84.44
347.08	80.44
347.308	91.44
347.535	97.44
347.763	94.44
347.99	99.44
348.218	89.44
348.445	93.44
348.673	95.44
348.9	80.44
349.128	92.44
349.355	90.44
349.583	95.44
349.81	98.44
350.037	88.44
350.265	77.44
350.492	74.44
350.72	93.44
350.947	96.44
351.174	116.44
351.402	105.44
351.629	106.44
351.856	98.44
352.083	98.44
352.311	101.44
352.538	108.44
352.765	110.44
352.992	110.44
353.22	107.44
353.447	106.44
353.674	88.44
353.901	96.44
354.128	87.44
354.355	99.44
354.583	95.44
354.81	101.44
355.037	99.44
355.264	97.44
355.491	96.44
355.718	94.44
355.945	95.44
356.172	92.44
356.399	91.44
356.626	92.44
356.853	104.44
357.08	79.44
357.307	86.44
357.534	86.44
357.761	97.44
357.988	93.44
358.215	94.44
358.441	99.44
358.668	99.44
358.895	88.44
359.122	92.44
359.349	89.44
359.576	86.44
359.802	103.44
360.029	118.44
360.256	94.44
360.483	92.44
360.709	88.44
360.936	99.44
361.163	98.44
361.39	89.44
361.616	92.44
361.843	78.44
362.07	90.44
362.296	84.44
362.523	100.44
362.749	87.44
362.976	79.44
363.203	80.44
363.429	85.44
363.656	84.44
363.882	96.44
364.109	98.44
364.335	79.44
364.562	102.44
364.788	101.44
365.015	102.44
365.241	99.44
365.468	105.44
365.694	114.44
365.92	88.44
366.147	86.44
366.373	96.44
366.599	89.44
366.826	86.44
367.052	86.44
367.278	92.44
367.505	99.44
367.731	93.44
367.957	82.44
368.184	84.44
368.41	84.44
368.636	94.44
368.862	117.44
369.089	103.44
369.315	77.44
369.541	86.44
369.767	89.44
369.993	84.44
370.219	79.44
370.445	88.44
370.672	99.44
370.898	75.44
371.124	88.44
371.35	84.44
371.576	87.44
371.802	78.44
372.028	86.44
372.254	90.44
372.48	101.44
372.706	84.44
372.932	84.44
373.158	83.44
373.384	85.44
373.61	81.44
373.835	88.44
374.061	85.44
374.287	77.44
374.513	93.44
374.739	93.44
374.965	89.44
375.191	95.44
375.416	84.44
375.642	86.44
375.868	93.44
376.094	109.44
376.319	84.44
376.545	96.44
376.771	93.44
376.997	95.44
377.222	87.44
377.448	80.44
377.674	91.44
377.899	90.44
378.125	94.44
378.35	88.44
378.576	83.44
378.802	74.44
379.027	95.44
379.253	99.44
379.478	92.44
379.704	79.44
379.929	97.44
380.155	91.44
380.38	82.44
380.606	99.44
380.831	94.44
381.057	90.44
381.282	109.44
381.507	103.44
381.733	101.44
381.958	92.44
382.184	86.44
382.409	104.44
382.634	103.44
382.86	102.44
383.085	98.44
383.31	97.44
383.535	105.44
383.761	85.44
383.986	95.44
384.211	89.44
384.436	103.44
384.662	110.44
384.887	109.44
385.112	116.44
385.337	112.44
385.562	118.44
385.787	114.44
386.013	117.44
386.238	114.44
386.463	114.44
386.688	111.44
386.913	108.44
387.138	126.44
387.363	114.44
387.588	102.44
387.813	132.44
388.038	123.44
388.263	127.44
388.488	115.44
388.713	96.44
388.938	88.44
389.163	105.44
389.387	92.44
389.612	89.44
389.837	80.44
390.062	92.44
390.287	102.44
390.512	88.44
390.736	85.44
390.961	94.44
391.186	88.44
391.411	90.44
391.636	100.44
391.86	89.44
392.085	75.44
392.31	81.44
392.534	91.44
392.759	85.44
392.984	87.44
393.208	91.44
393.433	108.44
393.658	106.44
393.882	72.44
394.107	86.44
394.331	92.44
394.556	61.44
394.78	92.44
395.005	89.44
395.229	70.44
395.454	70.44
395.678	90.44
395.903	90.44
396.127	86.44
396.352	84.44
396.576	85.44
396.801	105.44
397.025	103.44
397.249	75.44
397.474	80.44
397.698	79.44
397.922	79.44
398.147	86.44
398.371	78.44
398.595	87.44
398.82	80.44
399.044	79.44
399.268	71.44
399.492	85.44
399.717	87.44
399.941	98.44
400.165	89.44
400.389	83.44
400.613	87.44
400.837	79.44
401.062	84.44
401.286	86.44
401.51	92.44
401.734	98.44
401.958	91.44
402.182	128.44
402.406	163.44
402.63	120.44
402.854	88.44
403.078	74.44
403.302	68.44
403.526	89.44
403.75	80.44
403.974	84.44
404.198	91.44
404.422	74.44
404.645	89.44
404.869	80.44
405.093	81.44
405.317	90.44
405.541	86.44
405.765	110.44
405.988	127.44
406.212	185.44
406.436	254.44
406.66	154.44
406.883	87.44
407.107	84.44
407.331	101.44
407.555	85.44
407.778	103.44
408.002	100.44
408.226	91.44
408.449	90.44
408.673	92.44
408.896	86.44
409.12	83.44
409.344	96.44
409.567	84.44
409.791	69.44
410.014	80.44
410.238	92.44
410.461	76.44
410.685	102.44
410.908	86.44
411.132	94.44
411.355	93.44
411.578	93.44
411.802	88.44
412.025	80.44
412.249	91.44
412.472	75.44
412.695	76.44
412.919	84.44
413.142	80.44
413.365	84.44
413.589	87.44
413.812	85.44
414.035	87.44
414.258	87.44
414.482	84.44
414.705	87.44
414.928	97.44
415.151	96.44
415.374	99.44
415.597	90.44
415.821	84.44
416.044	81.44
416.267	90.44
416.49	80.44
416.713	99.44
416.936	88.44
417.159	87.44
417.382	92.44
417.605	77.44
417.828	95.44
418.051	86.44
418.274	77.44
418.497	79.44
418.72	75.44
418.943	91.44
419.166	78.44
419.389	91.44
419.611	94.44
419.834	89.44
420.057	77.44
420.28	78.44
420.503	78.44
420.726	78.44
420.948	92.44
421.171	84.44
421.394	105.44
421.617	92.44
421.839	85.44
422.062	78.44
422.285	78.44
422.507	103.44
422.73	105.44
422.953	95.44
423.175	88.44
423.398	93.44
423.621	83.44
423.843	86.44
424.066	66.44
424.288	76.44
424.511	98.44
424.733	75.44
424.956	102.44
425.178	93.44
425.401	102.44
425.623	101.44
425.846	79.44
426.068	93.44
426.291	77.44
426.513	90.44
426.735	92.44
426.958	91.44
427.18	102.44
427.402	132.44
427.625	153.44
427.847	124.44
428.069	99.44
428.292	87.44
428.514	74.44
428.736	71.44
428.958	90.44
429.181	76.44
429.403	79.44
429.625	79.44
429.847	79.44
430.069	92.44
430.292	76.44
430.514	85.44
430.736	90.44
430.958	79.44
431.18	87.44
431.402	91.44
431.624	62.44
431.846	61.44
432.068	92.44
432.29	85.44
432.512	85.44
432.734	78.44
432.956	84.44
433.178	101.44
433.4	94.44
433.622	79.44
433.844	81.44
434.066	94.44
434.287	86.44
434.509	87.44
434.731	83.44
434.953	70.44
435.175	87.44
435.397	80.44
435.618	79.44
435.84	97.44
436.062	99.44
436.284	119.44
436.505	103.44
436.727	98.44
436.949	78.44
437.17	74.44
437.392	79.44
437.614	91.44
437.835	107.44
438.057	128.44
438.278	108.44
438.5	96.44
438.721	112.44
438.943	100.44
439.165	75.44
439.386	90.44
439.608	100.44
439.829	97.44
440.05	121.44
440.272	143.44
440.493	101.44
440.715	99.44
440.936	92.44
441.158	88.44
441.379	85.44
441.6	100.44
441.822	76.44
442.043	92.44
442.264	95.44
442.486	114.44
442.707	95.44
442.928	114.44
443.149	126.44
443.371	118.44
443.592	110.44
443.813	107.44
444.034	93.44
444.255	71.44
444.476	73.44
444.698	93.44
444.919	77.44
445.14	120.44
445.361	102.44
445.582	107.44
445.803	143.44
446.024	119.44
446.245	125.44
446.466	119.44
446.687	79.44
446.908	96.44
447.129	80.44
447.35	103.44
447.571	92.44
447.792	95.44
448.013	110.44
448.234	103.44
448.455	99.44
448.675	108.44
448.896	131.44
449.117	113.44
449.338	103.44
449.559	119.44
449.779	119.44
450	89.44
450.221	82.44
450.442	75.44
450.662	84.44
450.883	109.44
451.104	106.44
451.324	98.44
451.545	78.44
451.766	90.44
451.986	81.44
452.207	87.44
452.428	83.44
452.648	97.44
452.869	118.44
453.089	110.44
453.31	121.44
453.53	92.44
453.751	89.44
453.971	97.44
454.192	137.44
454.412	93.44
454.633	86.44
454.853	77.44
455.073	90.44
455.294	77.44
455.514	98.44
455.734	84.44
455.955	95.44
456.175	88.44
456.395	75.44
456.616	73.44
456.836	85.44
457.056	89.44
457.276	80.44
457.497	90.44
457.717	84.44
457.937	91.44
458.157	74.44
458.377	74.44
458.598	92.44
458.818	148.44
459.038	163.44
459.258	118.44
459.478	85.44
459.698	98.44
459.918	73.44
460.138	83.44
460.358	76.44
460.578	82.44
460.798	77.44
461.018	89.44
461.238	92.44
461.458	99.44
461.678	81.44
461.898	91.44
462.118	87.44
462.338	92.44
462.558	86.44
462.777	76.44
462.997	78.44
463.217	77.44
463.437	97.44
463.657	77.44
463.876	74.44
464.096	78.44
464.316	74.44
464.536	87.44
464.755	90.44
464.975	107.44
465.195	175.44
465.414	174.44
465.634	80.44
465.854	82.44
466.073	94.44
466.293	94.44
466.512	89.44
466.732	80.44
466.951	82.44
467.171	93.44
467.391	85.44
467.61	108.44
467.829	99.44
468.049	77.44
468.268	76.44
468.488	87.44
468.707	86.44
468.927	84.44
469.146	95.44
469.365	85.44
469.585	90.44
469.804	80.44
470.023	88.44
470.243	84.44
470.462	101.44
470.681	126.44
470.901	77.44
471.12	80.44
471.339	92.44
471.558	79.44
471.777	92.44
471.997	90.44
472.216	84.44
472.435	98.44
472.654	83.44
472.873	89.44
473.092	84.44
473.311	70.44
473.53	69.44
473.749	70.44
473.968	101.44
474.187	92.44
474.406	88.44
474.625	83.44
474.844	91.44
475.063	80.44
475.282	80.44
475.501	91.44
475.72	90.44
475.939	86.44
476.158	73.44
476.377	97.44
476.596	79.44
476.814	91.44
477.033	93.44
477.252	80.44
477.471	79.44
477.69	94.44
477.908	90.44
478.127	86.44
478.346	95.44
478.564	77.44
478.783	88.44
479.002	76.44
479.22	93.44
479.439	88.44
479.658	86.44
479.876	92.44
480.095	74.44
480.313	79.44
480.532	71.44
480.751	87.44
480.969	87.44
481.188	102.44
481.406	99.44
481.624	91.44
481.843	80.44
482.061	75.44
482.28	83.44
482.498	89.44
482.717	79.44
482.935	99.44
483.153	77.44
483.372	96.44
483.59	104.44
483.808	77.44
484.027	89.44
484.245	82.44
484.463	79.44
484.681	86.44
484.9	97.44
485.118	89.44
485.336	89.44
485.554	97.44
485.772	94.44
485.99	91.44
486.209	104.44
486.427	101.44
486.645	104.44
486.863	119.44
487.081	84.44
487.299	82.44
487.517	85.44
487.735	84.44
487.953	90.44
488.171	89.44
488.389	85.44
488.607	102.44
488.825	89.44
489.043	85.44
489.261	87.44
489.479	85.44
489.696	84.44
489.914	70.44
490.132	77.44
490.35	75.44
490.568	79.44
490.786	91.44
491.003	103.44
491.221	87.44
491.439	95.44
491.657	98.44
491.874	88.44
492.092	95.44
492.31	96.44
492.527	67.44
492.745	78.44
492.963	74.44
493.18	82.44
493.398	94.44
493.615	96.44
493.833	90.44
494.05	89.44
494.268	80.44
494.485	87.44
494.703	78.44
494.92	70.44
495.138	90.44
495.355	90.44
495.573	84.44
495.79	88.44
496.008	88.44
496.225	100.44
496.442	88.44
496.66	89.44
496.877	91.44
497.094	87.44
497.312	87.44
497.529	89.44
497.746	93.44
497.963	77.44
498.181	94.44
498.398	88.44
498.615	106.44
498.832	105.44
499.049	86.44
499.267	83.44
499.484	83.44
499.701	86.44
499.918	85.44
500.135	76.44
500.352	87.44
500.569	75.44
500.786	93.44
501.003	69.44
501.22	78.44
501.437	90.44
501.654	101.44
501.871	98.44
502.088	77.44
502.305	86.44
502.522	82.44
502.739	79.44
502.956	76.44
503.172	84.44
503.389	88.44
503.606	86.44
503.823	93.44
504.04	91.44
504.256	84.44
504.473	79.44
504.69	91.44
504.907	93.44
505.123	85.44
505.34	77.44
505.557	80.44
505.773	91.44
505.99	87.44
506.207	91.44
506.423	84.44
506.64	84.44
506.856	76.44
507.073	71.44
507.289	101.44
507.506	96.44
507.722	116.44
507.939	111.44
508.155	105.44
508.372	99.44
508.588	80.44
508.805	87.44
509.021	103.44
509.238	96.44
509.454	95.44
509.67	111.44
509.887	111.44
510.103	147.44
510.319	246.44
510.536	868.44
510.752	2820.44
510.968	771.44
511.184	173.44
511.401	134.44
511.617	84.44
511.833	90.44
512.049	97.44
512.265	67.44
512.481	84.44
512.698	84.44
512.914	87.44
513.13	89.44
513.346	101.44
513.562	84.44
513.778	100.44
513.994	79.44
514.21	98.44
514.426	122.44
514.642	140.44
514.858	131.44
515.074	156.44
515.29	516.44
515.506	1786.44
515.721	650.44
515.937	157.44
516.153	120.44
516.369	98.44
516.585	90.44
