Data from Circ_2008_H10_HRD10591_00015.txt Node
Date: Wed Jan 03 10:16:59 EST 2024
User: Yrep
Spectrometer: HR+D1059
Trigger mode: 1
Integration Time (sec): 1.000000E-1
Scans to average: 1
Electric dark correction enabled: true
Nonlinearity correction enabled: false
Boxcar width: 0
XAxis mode: Wavelengths
Number of Pixels in Spectrum: 2048
>>>>>Begin Spectral Data<<<<<
223.165	-18.56
223.4	-18.56
223.635	-18.56
223.869	-12.56
224.104	-22.56
224.338	-13.56
224.573	-11.56
224.808	-11.56
225.042	-13.56
225.277	-13.56
225.511	-6.56
225.746	5.44
225.98	-2.56
226.215	17.44
226.449	20.44
226.683	19.44
226.918	29.44
227.152	34.44
227.387	39.44
227.621	44.44
227.856	41.44
228.09	31.44
228.324	54.44
228.559	47.44
228.793	53.44
229.027	78.44
229.262	82.44
229.496	83.44
229.73	86.44
229.964	74.44
230.199	74.44
230.433	62.44
230.667	73.44
230.901	81.44
231.136	74.44
231.37	83.44
231.604	83.44
231.838	70.44
232.072	74.44
232.306	74.44
232.541	75.44
232.775	91.44
233.009	90.44
233.243	74.44
233.477	75.44
233.711	78.44
233.945	89.44
234.179	85.44
234.413	85.44
234.647	81.44
234.881	83.44
235.115	80.44
235.349	82.44
235.583	71.44
235.817	79.44
236.051	81.44
236.285	84.44
236.519	71.44
236.753	75.44
236.987	83.44
237.221	88.44
237.455	90.44
237.689	64.44
237.922	70.44
238.156	80.44
238.39	75.44
238.624	65.44
238.858	78.44
239.091	75.44
239.325	73.44
239.559	71.44
239.793	72.44
240.027	93.44
240.26	80.44
240.494	73.44
240.728	71.44
240.961	73.44
241.195	84.44
241.429	81.44
241.662	83.44
241.896	65.44
242.13	73.44
242.363	69.44
242.597	64.44
242.83	73.44
243.064	81.44
243.298	75.44
243.531	77.44
243.765	65.44
243.998	73.44
244.232	81.44
244.465	74.44
244.699	100.44
244.932	85.44
245.166	71.44
245.399	77.44
245.633	75.44
245.866	87.44
246.099	81.44
246.333	71.44
246.566	70.44
246.8	73.44
247.033	83.44
247.266	74.44
247.5	89.44
247.733	82.44
247.966	64.44
248.2	78.44
248.433	79.44
248.666	71.44
248.899	67.44
249.133	74.44
249.366	98.44
249.599	100.44
249.832	85.44
250.066	90.44
250.299	72.44
250.532	73.44
250.765	79.44
250.998	78.44
251.231	80.44
251.465	74.44
251.698	83.44
251.931	76.44
252.164	71.44
252.397	79.44
252.63	73.44
252.863	83.44
253.096	83.44
253.329	77.44
253.562	73.44
253.795	82.44
254.028	65.44
254.261	68.44
254.494	78.44
254.727	85.44
254.96	88.44
255.193	76.44
255.426	87.44
255.659	78.44
255.892	72.44
256.124	81.44
256.357	83.44
256.59	61.44
256.823	83.44
257.056	80.44
257.289	75.44
257.521	74.44
257.754	77.44
257.987	92.44
258.22	72.44
258.452	73.44
258.685	81.44
258.918	88.44
259.151	87.44
259.383	86.44
259.616	77.44
259.849	87.44
260.081	93.44
260.314	81.44
260.547	83.44
260.779	86.44
261.012	75.44
261.244	81.44
261.477	91.44
261.71	81.44
261.942	115.44
262.175	116.44
262.407	98.44
262.64	97.44
262.872	75.44
263.105	84.44
263.337	83.44
263.57	94.44
263.802	78.44
264.035	79.44
264.267	83.44
264.499	72.44
264.732	74.44
264.964	74.44
265.197	90.44
265.429	91.44
265.661	70.44
265.894	87.44
266.126	97.44
266.358	76.44
266.591	80.44
266.823	89.44
267.055	89.44
267.287	88.44
267.52	94.44
267.752	91.44
267.984	82.44
268.216	67.44
268.448	79.44
268.681	81.44
268.913	85.44
269.145	83.44
269.377	96.44
269.609	74.44
269.841	74.44
270.073	87.44
270.306	74.44
270.538	100.44
270.77	90.44
271.002	76.44
271.234	86.44
271.466	81.44
271.698	82.44
271.93	93.44
272.162	87.44
272.394	77.44
272.626	90.44
272.858	87.44
273.09	92.44
273.322	75.44
273.553	80.44
273.785	93.44
274.017	78.44
274.249	92.44
274.481	88.44
274.713	88.44
274.945	84.44
275.176	74.44
275.408	77.44
275.64	88.44
275.872	82.44
276.104	84.44
276.335	89.44
276.567	99.44
276.799	128.44
277.031	93.44
277.262	87.44
277.494	92.44
277.726	80.44
277.957	83.44
278.189	73.44
278.421	74.44
278.652	91.44
278.884	87.44
279.115	71.44
279.347	81.44
279.579	79.44
279.81	81.44
280.042	81.44
280.273	78.44
280.505	77.44
280.736	85.44
280.968	85.44
281.199	77.44
281.431	91.44
281.662	79.44
281.894	88.44
282.125	102.44
282.356	125.44
282.588	161.44
282.819	118.44
283.051	87.44
283.282	90.44
283.513	80.44
283.745	93.44
283.976	85.44
284.207	86.44
284.439	77.44
284.67	97.44
284.901	95.44
285.132	78.44
285.364	81.44
285.595	103.44
285.826	75.44
286.057	90.44
286.288	86.44
286.52	92.44
286.751	88.44
286.982	90.44
287.213	74.44
287.444	83.44
287.675	82.44
287.906	96.44
288.138	81.44
288.369	89.44
288.6	95.44
288.831	82.44
289.062	96.44
289.293	77.44
289.524	94.44
289.755	90.44
289.986	81.44
290.217	83.44
290.448	82.44
290.679	88.44
290.91	81.44
291.141	83.44
291.371	83.44
291.602	84.44
291.833	77.44
292.064	83.44
292.295	81.44
292.526	103.44
292.757	86.44
292.987	83.44
293.218	91.44
293.449	87.44
293.68	94.44
293.91	90.44
294.141	99.44
294.372	92.44
294.603	80.44
294.833	82.44
295.064	94.44
295.295	91.44
295.525	98.44
295.756	93.44
295.987	131.44
296.217	132.44
296.448	133.44
296.679	106.44
296.909	100.44
297.14	87.44
297.37	86.44
297.601	86.44
297.831	98.44
298.062	94.44
298.292	85.44
298.523	86.44
298.753	87.44
298.984	90.44
299.214	96.44
299.445	78.44
299.675	96.44
299.905	97.44
300.136	94.44
300.366	89.44
300.597	73.44
300.827	96.44
301.057	108.44
301.288	115.44
301.518	103.44
301.748	92.44
301.979	98.44
302.209	89.44
302.439	77.44
302.669	86.44
302.9	89.44
303.13	93.44
303.36	108.44
303.59	91.44
303.82	107.44
304.051	93.44
304.281	77.44
304.511	87.44
304.741	89.44
304.971	92.44
305.201	83.44
305.431	90.44
305.661	94.44
305.891	93.44
306.121	108.44
306.352	111.44
306.582	107.44
306.812	108.44
307.042	81.44
307.272	96.44
307.502	91.44
307.731	87.44
307.961	95.44
308.191	95.44
308.421	80.44
308.651	83.44
308.881	91.44
309.111	87.44
309.341	90.44
309.571	102.44
309.8	104.44
310.03	102.44
310.26	95.44
310.49	103.44
310.72	113.44
310.949	103.44
311.179	104.44
311.409	93.44
311.639	108.44
311.868	95.44
312.098	98.44
312.328	89.44
312.557	106.44
312.787	118.44
313.017	104.44
313.246	97.44
313.476	94.44
313.706	89.44
313.935	80.44
314.165	102.44
314.394	91.44
314.624	99.44
314.853	105.44
315.083	95.44
315.312	96.44
315.542	96.44
315.771	78.44
316.001	75.44
316.23	88.44
316.46	87.44
316.689	93.44
316.919	98.44
317.148	95.44
317.377	92.44
317.607	91.44
317.836	90.44
318.065	92.44
318.295	81.44
318.524	97.44
318.753	87.44
318.983	89.44
319.212	108.44
319.441	113.44
319.67	116.44
319.9	90.44
320.129	101.44
320.358	99.44
320.587	97.44
320.816	112.44
321.046	120.44
321.275	92.44
321.504	97.44
321.733	96.44
321.962	90.44
322.191	112.44
322.42	101.44
322.649	128.44
322.878	103.44
323.108	119.44
323.337	141.44
323.566	135.44
323.795	173.44
324.024	221.44
324.253	454.44
324.482	951.44
324.71	1936.44
324.939	2558.44
325.168	933.44
325.397	279.44
325.626	163.44
325.855	126.44
326.084	121.44
326.313	125.44
326.542	163.44
326.77	242.44
326.999	519.44
327.228	1023.44
327.457	1861.44
327.686	1457.44
327.914	398.44
328.143	208.44
328.372	173.44
328.6	130.44
328.829	112.44
329.058	142.44
329.287	126.44
329.515	112.44
329.744	87.44
329.972	96.44
330.201	107.44
330.43	122.44
330.658	149.44
330.887	168.44
331.115	141.44
331.344	100.44
331.572	111.44
331.801	99.44
332.03	110.44
332.258	112.44
332.486	97.44
332.715	92.44
332.943	90.44
333.172	103.44
333.4	98.44
333.629	97.44
333.857	122.44
334.085	114.44
334.314	101.44
334.542	106.44
334.771	117.44
334.999	99.44
335.227	97.44
335.455	95.44
335.684	101.44
335.912	119.44
336.14	105.44
336.369	102.44
336.597	101.44
336.825	104.44
337.053	94.44
337.281	95.44
337.51	81.44
337.738	91.44
337.966	89.44
338.194	86.44
338.422	91.44
338.65	89.44
338.878	86.44
339.106	103.44
339.334	102.44
339.562	90.44
339.79	92.44
340.018	97.44
340.246	99.44
340.474	104.44
340.702	106.44
340.93	96.44
341.158	91.44
341.386	105.44
341.614	83.44
341.842	88.44
342.07	91.44
342.298	77.44
342.526	103.44
342.754	93.44
342.981	89.44
343.209	74.44
343.437	100.44
343.665	82.44
343.893	86.44
344.12	95.44
344.348	87.44
344.576	92.44
344.804	96.44
345.031	82.44
345.259	107.44
345.487	102.44
345.714	82.44
345.942	92.44
346.17	87.44
346.397	105.44
346.625	93.44
346.853	104.44
347.08	103.44
347.308	94.44
347.535	92.44
347.763	86.44
347.99	106.44
348.218	104.44
348.445	118.44
348.673	83.44
348.9	95.44
349.128	89.44
349.355	90.44
349.583	101.44
349.81	96.44
350.037	90.44
350.265	94.44
350.492	90.44
350.72	101.44
350.947	104.44
351.174	111.44
351.402	117.44
351.629	104.44
351.856	97.44
352.083	112.44
352.311	120.44
352.538	118.44
352.765	104.44
352.992	107.44
353.22	111.44
353.447	98.44
353.674	112.44
353.901	98.44
354.128	84.44
354.355	94.44
354.583	107.44
354.81	105.44
355.037	101.44
355.264	80.44
355.491	105.44
355.718	102.44
355.945	93.44
356.172	103.44
356.399	107.44
356.626	90.44
356.853	85.44
357.08	97.44
357.307	81.44
357.534	85.44
357.761	93.44
357.988	93.44
358.215	105.44
358.441	102.44
358.668	89.44
358.895	95.44
359.122	89.44
359.349	101.44
359.576	97.44
359.802	109.44
360.029	109.44
360.256	122.44
360.483	86.44
360.709	85.44
360.936	91.44
361.163	87.44
361.39	98.44
361.616	114.44
361.843	96.44
362.07	90.44
362.296	98.44
362.523	80.44
362.749	82.44
362.976	86.44
363.203	95.44
363.429	102.44
363.656	89.44
363.882	86.44
364.109	93.44
364.335	94.44
364.562	94.44
364.788	104.44
365.015	91.44
365.241	91.44
365.468	112.44
365.694	105.44
365.92	106.44
366.147	90.44
366.373	97.44
366.599	97.44
366.826	84.44
367.052	87.44
367.278	88.44
367.505	80.44
367.731	88.44
367.957	101.44
368.184	85.44
368.41	102.44
368.636	111.44
368.862	106.44
369.089	106.44
369.315	85.44
369.541	105.44
369.767	84.44
369.993	99.44
370.219	98.44
370.445	81.44
370.672	72.44
370.898	80.44
371.124	90.44
371.35	105.44
371.576	89.44
371.802	73.44
372.028	83.44
372.254	81.44
372.48	98.44
372.706	72.44
372.932	94.44
373.158	89.44
373.384	84.44
373.61	84.44
373.835	89.44
374.061	89.44
374.287	88.44
374.513	87.44
374.739	91.44
374.965	97.44
375.191	100.44
375.416	95.44
375.642	81.44
375.868	100.44
376.094	94.44
376.319	85.44
376.545	91.44
376.771	75.44
376.997	100.44
377.222	94.44
377.448	99.44
377.674	95.44
377.899	88.44
378.125	110.44
378.35	101.44
378.576	87.44
378.802	79.44
379.027	97.44
379.253	90.44
379.478	104.44
379.704	89.44
379.929	97.44
380.155	98.44
380.38	103.44
380.606	105.44
380.831	105.44
381.057	102.44
381.282	75.44
381.507	101.44
381.733	105.44
381.958	99.44
382.184	105.44
382.409	106.44
382.634	117.44
382.86	114.44
383.085	105.44
383.31	110.44
383.535	113.44
383.761	117.44
383.986	114.44
384.211	107.44
384.436	105.44
384.662	94.44
384.887	106.44
385.112	118.44
385.337	109.44
385.562	110.44
385.787	114.44
386.013	117.44
386.238	119.44
386.463	106.44
386.688	121.44
386.913	99.44
387.138	105.44
387.363	104.44
387.588	102.44
387.813	115.44
388.038	110.44
388.263	121.44
388.488	115.44
388.713	101.44
388.938	104.44
389.163	112.44
389.387	90.44
389.612	82.44
389.837	102.44
390.062	79.44
390.287	79.44
390.512	98.44
390.736	85.44
390.961	89.44
391.186	100.44
391.411	97.44
391.636	79.44
391.86	73.44
392.085	77.44
392.31	82.44
392.534	74.44
392.759	99.44
392.984	96.44
393.208	81.44
393.433	110.44
393.658	105.44
393.882	74.44
394.107	80.44
394.331	80.44
394.556	76.44
394.78	80.44
395.005	87.44
395.229	83.44
395.454	94.44
395.678	81.44
395.903	101.44
396.127	89.44
396.352	89.44
396.576	99.44
396.801	96.44
397.025	90.44
397.249	78.44
397.474	98.44
397.698	88.44
397.922	68.44
398.147	80.44
398.371	96.44
398.595	85.44
398.82	75.44
399.044	94.44
399.268	89.44
399.492	92.44
399.717	86.44
399.941	92.44
400.165	91.44
400.389	99.44
400.613	90.44
400.837	87.44
401.062	98.44
401.286	90.44
401.51	96.44
401.734	84.44
401.958	112.44
402.182	138.44
402.406	181.44
402.63	121.44
402.854	101.44
403.078	92.44
403.302	94.44
403.526	84.44
403.75	81.44
403.974	83.44
404.198	89.44
404.422	85.44
404.645	95.44
404.869	109.44
405.093	102.44
405.317	93.44
405.541	110.44
405.765	108.44
405.988	118.44
406.212	203.44
406.436	278.44
406.66	183.44
406.883	100.44
407.107	88.44
407.331	92.44
407.555	108.44
407.778	85.44
408.002	72.44
408.226	88.44
408.449	102.44
408.673	99.44
408.896	89.44
409.12	111.44
409.344	89.44
409.567	82.44
409.791	81.44
410.014	90.44
410.238	97.44
410.461	86.44
410.685	93.44
410.908	101.44
411.132	95.44
411.355	97.44
411.578	87.44
411.802	93.44
412.025	87.44
412.249	97.44
412.472	83.44
412.695	91.44
412.919	85.44
413.142	88.44
413.365	92.44
413.589	94.44
413.812	80.44
414.035	90.44
414.258	109.44
414.482	87.44
414.705	81.44
414.928	91.44
415.151	89.44
415.374	88.44
415.597	81.44
415.821	97.44
416.044	97.44
416.267	96.44
416.49	89.44
416.713	99.44
416.936	91.44
417.159	92.44
417.382	92.44
417.605	89.44
417.828	100.44
418.051	109.44
418.274	96.44
418.497	95.44
418.72	89.44
418.943	91.44
419.166	95.44
419.389	81.44
419.611	87.44
419.834	86.44
420.057	92.44
420.28	84.44
420.503	74.44
420.726	93.44
420.948	91.44
421.171	102.44
421.394	84.44
421.617	91.44
421.839	83.44
422.062	82.44
422.285	90.44
422.507	93.44
422.73	96.44
422.953	101.44
423.175	85.44
423.398	86.44
423.621	86.44
423.843	96.44
424.066	102.44
424.288	97.44
424.511	104.44
424.733	97.44
424.956	112.44
425.178	107.44
425.401	93.44
425.623	87.44
425.846	88.44
426.068	96.44
426.291	96.44
426.513	96.44
426.735	90.44
426.958	87.44
427.18	119.44
427.402	146.44
427.625	197.44
427.847	131.44
428.069	90.44
428.292	87.44
428.514	84.44
428.736	83.44
428.958	86.44
429.181	77.44
429.403	85.44
429.625	91.44
429.847	88.44
430.069	95.44
430.292	84.44
430.514	101.44
430.736	81.44
430.958	89.44
431.18	78.44
431.402	90.44
431.624	97.44
431.846	80.44
432.068	79.44
432.29	101.44
432.512	92.44
432.734	74.44
432.956	85.44
433.178	104.44
433.4	102.44
433.622	87.44
433.844	89.44
434.066	76.44
434.287	89.44
434.509	95.44
434.731	95.44
434.953	97.44
435.175	86.44
435.397	93.44
435.618	92.44
435.84	104.44
436.062	126.44
436.284	112.44
436.505	101.44
436.727	103.44
436.949	71.44
437.17	86.44
437.392	84.44
437.614	106.44
437.835	128.44
438.057	109.44
438.278	104.44
438.5	103.44
438.721	114.44
438.943	105.44
439.165	82.44
439.386	91.44
439.608	80.44
439.829	104.44
440.05	121.44
440.272	150.44
440.493	112.44
440.715	97.44
440.936	88.44
441.158	81.44
441.379	98.44
441.6	93.44
441.822	98.44
442.043	101.44
442.264	97.44
442.486	96.44
442.707	102.44
442.928	125.44
443.149	131.44
443.371	143.44
443.592	101.44
443.813	107.44
444.034	124.44
444.255	88.44
444.476	100.44
444.698	88.44
444.919	92.44
445.14	120.44
445.361	121.44
445.582	126.44
445.803	137.44
446.024	130.44
446.245	121.44
446.466	109.44
446.687	85.44
446.908	85.44
447.129	83.44
447.35	102.44
447.571	90.44
447.792	87.44
448.013	87.44
448.234	98.44
448.455	99.44
448.675	110.44
448.896	121.44
449.117	96.44
449.338	112.44
449.559	120.44
449.779	125.44
450	88.44
450.221	86.44
450.442	87.44
450.662	83.44
450.883	117.44
451.104	135.44
451.324	111.44
451.545	89.44
451.766	93.44
451.986	87.44
452.207	97.44
452.428	91.44
452.648	107.44
452.869	104.44
453.089	137.44
453.31	134.44
453.53	91.44
453.751	94.44
453.971	113.44
454.192	125.44
454.412	99.44
454.633	72.44
454.853	93.44
455.073	90.44
455.294	98.44
455.514	96.44
455.734	89.44
455.955	82.44
456.175	89.44
456.395	89.44
456.616	80.44
456.836	91.44
457.056	81.44
457.276	90.44
457.497	83.44
457.717	84.44
457.937	88.44
458.157	89.44
458.377	95.44
458.598	113.44
458.818	181.44
459.038	171.44
459.258	133.44
459.478	83.44
459.698	77.44
459.918	94.44
460.138	100.44
460.358	76.44
460.578	78.44
460.798	84.44
461.018	90.44
461.238	102.44
461.458	87.44
461.678	78.44
461.898	71.44
462.118	90.44
462.338	94.44
462.558	80.44
462.777	72.44
462.997	93.44
463.217	80.44
463.437	84.44
463.657	92.44
463.876	80.44
464.096	88.44
464.316	92.44
464.536	87.44
464.755	89.44
464.975	117.44
465.195	202.44
465.414	176.44
465.634	101.44
465.854	87.44
466.073	74.44
466.293	91.44
466.512	76.44
466.732	71.44
466.951	81.44
467.171	91.44
467.391	107.44
467.61	115.44
467.829	106.44
468.049	103.44
468.268	101.44
468.488	94.44
468.707	100.44
468.927	85.44
469.146	91.44
469.365	87.44
469.585	87.44
469.804	90.44
470.023	91.44
470.243	102.44
470.462	104.44
470.681	115.44
470.901	83.44
471.12	89.44
471.339	78.44
471.558	79.44
471.777	81.44
471.997	90.44
472.216	109.44
472.435	128.44
472.654	100.44
472.873	95.44
473.092	85.44
473.311	89.44
473.53	92.44
473.749	98.44
473.968	93.44
474.187	90.44
474.406	94.44
474.625	98.44
474.844	75.44
475.063	79.44
475.282	79.44
475.501	85.44
475.72	89.44
475.939	83.44
476.158	79.44
476.377	81.44
476.596	73.44
476.814	81.44
477.033	90.44
477.252	88.44
477.471	88.44
477.69	98.44
477.908	74.44
478.127	91.44
478.346	93.44
478.564	93.44
478.783	102.44
479.002	99.44
479.22	83.44
479.439	107.44
479.658	123.44
479.876	110.44
480.095	82.44
480.313	102.44
480.532	90.44
480.751	92.44
480.969	94.44
481.188	141.44
481.406	124.44
481.624	94.44
481.843	96.44
482.061	92.44
482.28	92.44
482.498	83.44
482.717	93.44
482.935	91.44
483.153	87.44
483.372	90.44
483.59	75.44
483.808	86.44
484.027	85.44
484.245	101.44
484.463	102.44
484.681	91.44
484.9	88.44
485.118	98.44
485.336	90.44
485.554	89.44
485.772	107.44
485.99	126.44
486.209	104.44
486.427	85.44
486.645	107.44
486.863	111.44
487.081	108.44
487.299	109.44
487.517	88.44
487.735	87.44
487.953	82.44
488.171	101.44
488.389	92.44
488.607	114.44
488.825	96.44
489.043	89.44
489.261	81.44
489.479	78.44
489.696	80.44
489.914	82.44
490.132	83.44
490.35	78.44
490.568	95.44
490.786	94.44
491.003	87.44
491.221	85.44
491.439	94.44
491.657	100.44
491.874	102.44
492.092	87.44
492.31	100.44
492.527	87.44
492.745	80.44
492.963	86.44
493.18	80.44
493.398	83.44
493.615	87.44
493.833	90.44
494.05	114.44
494.268	97.44
494.485	77.44
494.703	78.44
494.92	80.44
495.138	93.44
495.355	102.44
495.573	78.44
495.79	86.44
496.008	102.44
496.225	99.44
496.442	87.44
496.66	92.44
496.877	85.44
497.094	98.44
497.312	95.44
497.529	110.44
497.746	84.44
497.963	94.44
498.181	94.44
498.398	92.44
498.615	118.44
498.832	106.44
499.049	98.44
499.267	90.44
499.484	95.44
499.701	92.44
499.918	95.44
500.135	82.44
500.352	89.44
500.569	82.44
500.786	87.44
501.003	98.44
501.22	95.44
501.437	82.44
501.654	104.44
501.871	116.44
502.088	99.44
502.305	82.44
502.522	81.44
502.739	82.44
502.956	85.44
503.172	103.44
503.389	84.44
503.606	113.44
503.823	103.44
504.04	91.44
504.256	87.44
504.473	95.44
504.69	96.44
504.907	97.44
505.123	84.44
505.34	91.44
505.557	75.44
505.773	98.44
505.99	95.44
506.207	90.44
506.423	93.44
506.64	98.44
506.856	92.44
507.073	91.44
507.289	97.44
507.506	107.44
507.722	121.44
507.939	118.44
508.155	82.44
508.372	90.44
508.588	100.44
508.805	102.44
509.021	102.44
509.238	106.44
509.454	104.44
509.67	131.44
509.887	118.44
510.103	133.44
510.319	240.44
510.536	970.44
510.752	3267.44
510.968	908.44
511.184	183.44
511.401	131.44
511.617	107.44
511.833	105.44
512.049	79.44
512.265	94.44
512.481	97.44
512.698	82.44
512.914	71.44
513.13	99.44
513.346	86.44
513.562	91.44
513.778	81.44
513.994	94.44
514.21	105.44
514.426	126.44
514.642	157.44
514.858	140.44
