Data from Circ_2008_H10_HRD10591_00064.txt Node
Date: Wed Jan 03 10:17:09 EST 2024
User: Yrep
Spectrometer: HR+D1059
Trigger mode: 1
Integration Time (sec): 1.000000E-1
Scans to average: 1
Electric dark correction enabled: true
Nonlinearity correction enabled: false
Boxcar width: 0
XAxis mode: Wavelengths
Number of Pixels in Spectrum: 2048
>>>>>Begin Spectral Data<<<<<
223.165	-4.62
223.4	-4.62
223.635	-4.62
223.869	-15.62
224.104	-11.62
224.338	-14.62
224.573	-21.62
224.808	-10.62
225.042	-16.62
225.277	3.38
225.511	-13.62
225.746	13.38
225.98	15.38
226.215	7.38
226.449	4.38
226.683	12.38
226.918	19.38
227.152	33.38
227.387	47.38
227.621	30.38
227.856	45.38
228.09	50.38
228.324	59.38
228.559	57.38
228.793	60.38
229.027	68.38
229.262	71.38
229.496	78.38
229.73	76.38
229.964	91.38
230.199	68.38
230.433	79.38
230.667	89.38
230.901	85.38
231.136	91.38
231.37	81.38
231.604	81.38
231.838	99.38
232.072	74.38
232.306	88.38
232.541	83.38
232.775	87.38
233.009	80.38
233.243	79.38
233.477	97.38
233.711	91.38
233.945	84.38
234.179	92.38
234.413	93.38
234.647	76.38
234.881	80.38
235.115	95.38
235.349	88.38
235.583	75.38
235.817	85.38
236.051	86.38
236.285	75.38
236.519	73.38
236.753	91.38
236.987	86.38
237.221	83.38
237.455	93.38
237.689	80.38
237.922	93.38
238.156	83.38
238.39	73.38
238.624	76.38
238.858	91.38
239.091	81.38
239.325	90.38
239.559	90.38
239.793	76.38
240.027	90.38
240.26	82.38
240.494	81.38
240.728	84.38
240.961	91.38
241.195	91.38
241.429	69.38
241.662	69.38
241.896	75.38
242.13	75.38
242.363	90.38
242.597	91.38
242.83	82.38
243.064	86.38
243.298	84.38
243.531	75.38
243.765	83.38
243.998	87.38
244.232	78.38
244.465	100.38
244.699	90.38
244.932	83.38
245.166	77.38
245.399	74.38
245.633	98.38
245.866	70.38
246.099	84.38
246.333	73.38
246.566	86.38
246.8	88.38
247.033	83.38
247.266	70.38
247.5	89.38
247.733	81.38
247.966	84.38
248.2	86.38
248.433	65.38
248.666	87.38
248.899	90.38
249.133	85.38
249.366	95.38
249.599	102.38
249.832	87.38
250.066	74.38
250.299	100.38
250.532	72.38
250.765	89.38
250.998	75.38
251.231	81.38
251.465	81.38
251.698	86.38
251.931	82.38
252.164	76.38
252.397	88.38
252.63	89.38
252.863	71.38
253.096	75.38
253.329	89.38
253.562	82.38
253.795	87.38
254.028	82.38
254.261	91.38
254.494	87.38
254.727	80.38
254.96	82.38
255.193	80.38
255.426	80.38
255.659	77.38
255.892	75.38
256.124	85.38
256.357	78.38
256.59	79.38
256.823	84.38
257.056	92.38
257.289	101.38
257.521	87.38
257.754	88.38
257.987	75.38
258.22	85.38
258.452	89.38
258.685	87.38
258.918	91.38
259.151	95.38
259.383	92.38
259.616	68.38
259.849	85.38
260.081	78.38
260.314	82.38
260.547	83.38
260.779	83.38
261.012	98.38
261.244	91.38
261.477	97.38
261.71	102.38
261.942	114.38
262.175	114.38
262.407	79.38
262.64	77.38
262.872	80.38
263.105	83.38
263.337	81.38
263.57	99.38
263.802	96.38
264.035	93.38
264.267	85.38
264.499	83.38
264.732	89.38
264.964	91.38
265.197	84.38
265.429	79.38
265.661	78.38
265.894	85.38
266.126	82.38
266.358	74.38
266.591	87.38
266.823	89.38
267.055	87.38
267.287	91.38
267.52	94.38
267.752	83.38
267.984	100.38
268.216	73.38
268.448	81.38
268.681	83.38
268.913	87.38
269.145	82.38
269.377	90.38
269.609	91.38
269.841	85.38
270.073	91.38
270.306	93.38
270.538	91.38
270.77	91.38
271.002	91.38
271.234	83.38
271.466	91.38
271.698	79.38
271.93	82.38
272.162	86.38
272.394	89.38
272.626	87.38
272.858	76.38
273.09	84.38
273.322	65.38
273.553	74.38
273.785	85.38
274.017	94.38
274.249	93.38
274.481	85.38
274.713	94.38
274.945	86.38
275.176	87.38
275.408	102.38
275.64	85.38
275.872	79.38
276.104	95.38
276.335	86.38
276.567	86.38
276.799	123.38
277.031	101.38
277.262	98.38
277.494	95.38
277.726	91.38
277.957	84.38
278.189	97.38
278.421	82.38
278.652	76.38
278.884	93.38
279.115	85.38
279.347	93.38
279.579	80.38
279.81	94.38
280.042	87.38
280.273	97.38
280.505	96.38
280.736	93.38
280.968	94.38
281.199	94.38
281.431	82.38
281.662	98.38
281.894	91.38
282.125	109.38
282.356	115.38
282.588	148.38
282.819	114.38
283.051	93.38
283.282	101.38
283.513	94.38
283.745	98.38
283.976	73.38
284.207	81.38
284.439	86.38
284.67	84.38
284.901	90.38
285.132	97.38
285.364	78.38
285.595	97.38
285.826	81.38
286.057	101.38
286.288	93.38
286.52	93.38
286.751	75.38
286.982	90.38
287.213	97.38
287.444	100.38
287.675	80.38
287.906	95.38
288.138	91.38
288.369	95.38
288.6	91.38
288.831	84.38
289.062	89.38
289.293	85.38
289.524	85.38
289.755	74.38
289.986	69.38
290.217	85.38
290.448	89.38
290.679	87.38
290.91	98.38
291.141	93.38
291.371	82.38
291.602	83.38
291.833	81.38
292.064	83.38
292.295	102.38
292.526	84.38
292.757	104.38
292.987	93.38
293.218	83.38
293.449	87.38
293.68	85.38
293.91	98.38
294.141	103.38
294.372	90.38
294.603	91.38
294.833	94.38
295.064	89.38
295.295	91.38
295.525	87.38
295.756	112.38
295.987	130.38
296.217	147.38
296.448	132.38
296.679	108.38
296.909	90.38
297.14	99.38
297.37	93.38
297.601	86.38
297.831	97.38
298.062	100.38
298.292	92.38
298.523	73.38
298.753	97.38
298.984	99.38
299.214	91.38
299.445	82.38
299.675	88.38
299.905	86.38
300.136	90.38
300.366	99.38
300.597	81.38
300.827	100.38
301.057	101.38
301.288	111.38
301.518	81.38
301.748	85.38
301.979	99.38
302.209	91.38
302.439	91.38
302.669	89.38
302.9	96.38
303.13	106.38
303.36	94.38
303.59	102.38
303.82	98.38
304.051	96.38
304.281	95.38
304.511	98.38
304.741	82.38
304.971	93.38
305.201	81.38
305.431	74.38
305.661	83.38
305.891	85.38
306.121	90.38
306.352	109.38
306.582	99.38
306.812	108.38
307.042	95.38
307.272	107.38
307.502	109.38
307.731	91.38
307.961	83.38
308.191	102.38
308.421	99.38
308.651	94.38
308.881	95.38
309.111	100.38
309.341	99.38
309.571	97.38
309.8	98.38
310.03	94.38
310.26	95.38
310.49	98.38
310.72	99.38
310.949	107.38
311.179	106.38
311.409	84.38
311.639	88.38
311.868	90.38
312.098	105.38
312.328	95.38
312.557	111.38
312.787	108.38
313.017	102.38
313.246	101.38
313.476	105.38
313.706	93.38
313.935	87.38
314.165	98.38
314.394	98.38
314.624	107.38
314.853	94.38
315.083	94.38
315.312	89.38
315.542	106.38
315.771	93.38
316.001	90.38
316.23	82.38
316.46	87.38
316.689	89.38
316.919	95.38
317.148	105.38
317.377	106.38
317.607	100.38
317.836	105.38
318.065	78.38
318.295	90.38
318.524	90.38
318.753	102.38
318.983	105.38
319.212	103.38
319.441	109.38
319.67	113.38
319.9	85.38
320.129	97.38
320.358	96.38
320.587	91.38
320.816	107.38
321.046	114.38
321.275	86.38
321.504	103.38
321.733	92.38
321.962	111.38
322.191	89.38
322.42	106.38
322.649	102.38
322.878	118.38
323.108	113.38
323.337	114.38
323.566	142.38
323.795	169.38
324.024	197.38
324.253	372.38
324.482	754.38
324.71	1579.38
324.939	2145.38
325.168	794.38
325.397	240.38
325.626	147.38
325.855	108.38
326.084	129.38
326.313	149.38
326.542	162.38
326.77	244.38
326.999	426.38
327.228	855.38
327.457	1596.38
327.686	1245.38
327.914	387.38
328.143	204.38
328.372	176.38
328.6	150.38
328.829	118.38
329.058	138.38
329.287	123.38
329.515	116.38
329.744	125.38
329.972	141.38
330.201	169.38
330.43	194.38
330.658	175.38
330.887	148.38
331.115	136.38
331.344	103.38
331.572	105.38
331.801	113.38
332.03	110.38
332.258	95.38
332.486	100.38
332.715	100.38
332.943	109.38
333.172	105.38
333.4	94.38
333.629	124.38
333.857	142.38
334.085	152.38
334.314	177.38
334.542	249.38
334.771	233.38
334.999	124.38
335.227	108.38
335.455	99.38
335.684	118.38
335.912	100.38
336.14	109.38
336.369	103.38
336.597	92.38
336.825	94.38
337.053	92.38
337.281	105.38
337.51	98.38
337.738	86.38
337.966	87.38
338.194	102.38
338.422	98.38
338.65	93.38
338.878	106.38
339.106	90.38
339.334	90.38
339.562	86.38
339.79	112.38
340.018	87.38
340.246	95.38
340.474	93.38
340.702	104.38
340.93	101.38
341.158	104.38
341.386	96.38
341.614	118.38
341.842	104.38
342.07	93.38
342.298	90.38
342.526	96.38
342.754	90.38
342.981	75.38
343.209	100.38
343.437	99.38
343.665	78.38
343.893	100.38
344.12	94.38
344.348	99.38
344.576	92.38
344.804	85.38
345.031	104.38
345.259	101.38
345.487	92.38
345.714	95.38
345.942	99.38
346.17	89.38
346.397	105.38
346.625	87.38
346.853	86.38
347.08	106.38
347.308	94.38
347.535	105.38
347.763	94.38
347.99	121.38
348.218	102.38
348.445	111.38
348.673	97.38
348.9	90.38
349.128	86.38
349.355	86.38
349.583	85.38
349.81	92.38
350.037	93.38
350.265	113.38
350.492	108.38
350.72	116.38
350.947	111.38
351.174	112.38
351.402	113.38
351.629	98.38
351.856	98.38
352.083	114.38
352.311	107.38
352.538	108.38
352.765	111.38
352.992	125.38
353.22	108.38
353.447	94.38
353.674	102.38
353.901	104.38
354.128	98.38
354.355	94.38
354.583	96.38
354.81	99.38
355.037	100.38
355.264	93.38
355.491	108.38
355.718	81.38
355.945	89.38
356.172	88.38
356.399	99.38
356.626	95.38
356.853	105.38
357.08	98.38
357.307	102.38
357.534	112.38
357.761	105.38
357.988	94.38
358.215	100.38
358.441	89.38
358.668	76.38
358.895	101.38
359.122	92.38
359.349	97.38
359.576	87.38
359.802	103.38
360.029	122.38
360.256	111.38
360.483	111.38
360.709	90.38
360.936	101.38
361.163	105.38
361.39	106.38
361.616	95.38
361.843	94.38
362.07	94.38
362.296	97.38
362.523	99.38
362.749	82.38
362.976	81.38
363.203	101.38
363.429	105.38
363.656	91.38
363.882	99.38
364.109	82.38
364.335	104.38
364.562	111.38
364.788	85.38
365.015	93.38
365.241	94.38
365.468	119.38
365.694	116.38
365.92	100.38
366.147	89.38
366.373	98.38
366.599	98.38
366.826	74.38
367.052	86.38
367.278	102.38
367.505	105.38
367.731	87.38
367.957	85.38
368.184	85.38
368.41	78.38
368.636	109.38
368.862	113.38
369.089	103.38
369.315	97.38
369.541	107.38
369.767	96.38
369.993	102.38
370.219	87.38
370.445	94.38
370.672	86.38
370.898	96.38
371.124	95.38
371.35	86.38
371.576	100.38
371.802	87.38
372.028	92.38
372.254	105.38
372.48	95.38
372.706	97.38
372.932	86.38
373.158	93.38
373.384	88.38
373.61	92.38
373.835	90.38
374.061	82.38
374.287	94.38
374.513	87.38
374.739	91.38
374.965	101.38
375.191	83.38
375.416	96.38
375.642	74.38
375.868	74.38
376.094	94.38
376.319	91.38
376.545	85.38
376.771	81.38
376.997	96.38
377.222	85.38
377.448	77.38
377.674	98.38
377.899	96.38
378.125	90.38
378.35	90.38
378.576	85.38
378.802	95.38
379.027	88.38
379.253	103.38
379.478	93.38
379.704	76.38
379.929	96.38
380.155	81.38
380.38	87.38
380.606	90.38
380.831	94.38
381.057	88.38
381.282	95.38
381.507	93.38
381.733	103.38
381.958	102.38
382.184	99.38
382.409	105.38
382.634	107.38
382.86	98.38
383.085	99.38
383.31	97.38
383.535	97.38
383.761	106.38
383.986	108.38
384.211	99.38
384.436	95.38
384.662	93.38
384.887	111.38
385.112	112.38
385.337	99.38
385.562	99.38
385.787	101.38
386.013	114.38
386.238	104.38
386.463	112.38
386.688	120.38
386.913	104.38
387.138	108.38
387.363	97.38
387.588	85.38
387.813	87.38
388.038	116.38
388.263	102.38
388.488	108.38
388.713	102.38
388.938	93.38
389.163	110.38
389.387	113.38
389.612	99.38
389.837	94.38
390.062	99.38
390.287	108.38
390.512	95.38
390.736	96.38
390.961	102.38
391.186	92.38
391.411	101.38
391.636	100.38
391.86	82.38
392.085	86.38
392.31	80.38
392.534	78.38
392.759	85.38
392.984	86.38
393.208	82.38
393.433	94.38
393.658	94.38
393.882	100.38
394.107	106.38
394.331	85.38
394.556	97.38
394.78	99.38
395.005	95.38
395.229	103.38
395.454	92.38
395.678	76.38
395.903	92.38
396.127	79.38
396.352	89.38
396.576	97.38
396.801	77.38
397.025	93.38
397.249	80.38
397.474	94.38
397.698	81.38
397.922	83.38
398.147	91.38
398.371	95.38
398.595	93.38
398.82	90.38
399.044	93.38
399.268	83.38
399.492	81.38
399.717	83.38
399.941	78.38
400.165	101.38
400.389	83.38
400.613	91.38
400.837	91.38
401.062	84.38
401.286	99.38
401.51	84.38
401.734	101.38
401.958	110.38
402.182	141.38
402.406	160.38
402.63	127.38
402.854	90.38
403.078	103.38
403.302	86.38
403.526	97.38
403.75	77.38
403.974	84.38
404.198	97.38
404.422	91.38
404.645	91.38
404.869	97.38
405.093	95.38
405.317	112.38
405.541	94.38
405.765	115.38
405.988	112.38
406.212	192.38
406.436	265.38
406.66	169.38
406.883	102.38
407.107	103.38
407.331	90.38
407.555	100.38
407.778	98.38
408.002	90.38
408.226	93.38
408.449	89.38
408.673	79.38
408.896	103.38
409.12	93.38
409.344	86.38
409.567	89.38
409.791	94.38
410.014	103.38
410.238	105.38
410.461	95.38
410.685	103.38
410.908	108.38
411.132	98.38
411.355	110.38
411.578	95.38
411.802	100.38
412.025	85.38
412.249	105.38
412.472	77.38
412.695	90.38
412.919	90.38
413.142	93.38
413.365	95.38
413.589	74.38
413.812	78.38
414.035	86.38
414.258	91.38
414.482	92.38
414.705	93.38
414.928	85.38
415.151	88.38
415.374	86.38
415.597	95.38
415.821	99.38
416.044	95.38
416.267	86.38
416.49	93.38
416.713	84.38
416.936	94.38
417.159	96.38
417.382	103.38
417.605	104.38
417.828	109.38
418.051	110.38
418.274	85.38
418.497	91.38
418.72	91.38
418.943	96.38
419.166	69.38
419.389	96.38
419.611	100.38
419.834	91.38
420.057	93.38
420.28	89.38
420.503	84.38
420.726	96.38
420.948	86.38
421.171	102.38
421.394	97.38
421.617	93.38
421.839	83.38
422.062	96.38
422.285	95.38
422.507	96.38
422.73	95.38
422.953	85.38
423.175	88.38
423.398	86.38
423.621	90.38
423.843	87.38
424.066	91.38
424.288	94.38
424.511	88.38
424.733	101.38
424.956	110.38
425.178	105.38
425.401	87.38
425.623	105.38
425.846	92.38
426.068	107.38
426.291	87.38
426.513	87.38
426.735	88.38
426.958	97.38
427.18	110.38
427.402	133.38
427.625	162.38
427.847	136.38
428.069	124.38
428.292	91.38
428.514	101.38
428.736	92.38
428.958	95.38
429.181	106.38
429.403	88.38
429.625	92.38
429.847	80.38
430.069	97.38
430.292	78.38
430.514	90.38
430.736	83.38
430.958	102.38
431.18	81.38
431.402	89.38
431.624	101.38
431.846	81.38
432.068	99.38
432.29	80.38
432.512	85.38
432.734	87.38
432.956	86.38
433.178	101.38
433.4	101.38
433.622	97.38
433.844	82.38
434.066	84.38
434.287	88.38
434.509	94.38
434.731	91.38
434.953	91.38
435.175	105.38
435.397	90.38
435.618	89.38
435.84	95.38
436.062	109.38
436.284	124.38
436.505	99.38
436.727	103.38
436.949	90.38
437.17	76.38
437.392	82.38
437.614	99.38
437.835	105.38
438.057	124.38
438.278	105.38
438.5	107.38
438.721	111.38
438.943	107.38
439.165	69.38
439.386	82.38
439.608	98.38
439.829	102.38
440.05	121.38
440.272	137.38
440.493	105.38
440.715	91.38
440.936	95.38
441.158	93.38
441.379	95.38
441.6	97.38
441.822	108.38
442.043	102.38
442.264	111.38
442.486	89.38
442.707	95.38
442.928	107.38
443.149	131.38
443.371	143.38
443.592	103.38
443.813	101.38
444.034	108.38
444.255	91.38
444.476	78.38
444.698	90.38
444.919	105.38
445.14	134.38
445.361	127.38
445.582	129.38
445.803	143.38
446.024	125.38
446.245	138.38
446.466	114.38
446.687	96.38
446.908	102.38
447.129	87.38
447.35	82.38
447.571	95.38
447.792	86.38
448.013	111.38
448.234	123.38
448.455	103.38
448.675	125.38
448.896	105.38
449.117	93.38
449.338	92.38
449.559	111.38
449.779	116.38
450	94.38
450.221	96.38
450.442	93.38
450.662	103.38
450.883	106.38
451.104	125.38
451.324	92.38
451.545	93.38
451.766	89.38
451.986	101.38
452.207	95.38
452.428	106.38
452.648	103.38
452.869	109.38
453.089	127.38
453.31	127.38
453.53	113.38
453.751	92.38
453.971	101.38
454.192	105.38
454.412	96.38
454.633	82.38
454.853	85.38
455.073	79.38
455.294	99.38
455.514	97.38
455.734	96.38
455.955	90.38
456.175	87.38
456.395	102.38
456.616	85.38
456.836	91.38
457.056	90.38
457.276	93.38
457.497	88.38
457.717	90.38
457.937	88.38
458.157	97.38
458.377	105.38
458.598	110.38
458.818	155.38
459.038	166.38
459.258	101.38
459.478	102.38
459.698	91.38
459.918	97.38
460.138	89.38
460.358	90.38
460.578	68.38
460.798	84.38
461.018	84.38
461.238	104.38
461.458	92.38
461.678	95.38
461.898	93.38
462.118	97.38
462.338	70.38
462.558	89.38
462.777	86.38
462.997	86.38
463.217	99.38
463.437	91.38
463.657	102.38
463.876	87.38
464.096	91.38
464.316	110.38
464.536	90.38
464.755	102.38
464.975	106.38
465.195	192.38
465.414	171.38
465.634	98.38
465.854	92.38
466.073	97.38
466.293	90.38
466.512	91.38
466.732	90.38
466.951	89.38
467.171	101.38
467.391	108.38
467.61	120.38
467.829	99.38
468.049	137.38
468.268	144.38
468.488	88.38
468.707	79.38
468.927	79.38
469.146	91.38
469.365	90.38
469.585	97.38
469.804	110.38
470.023	92.38
470.243	91.38
470.462	110.38
470.681	118.38
470.901	102.38
471.12	90.38
471.339	96.38
471.558	103.38
471.777	109.38
471.997	112.38
472.216	178.38
472.435	331.38
472.654	144.38
472.873	97.38
473.092	85.38
473.311	86.38
473.53	102.38
473.749	106.38
473.968	97.38
474.187	101.38
474.406	102.38
474.625	75.38
474.844	103.38
475.063	89.38
475.282	76.38
475.501	90.38
475.72	101.38
475.939	93.38
476.158	96.38
476.377	103.38
476.596	100.38
476.814	105.38
477.033	99.38
477.252	100.38
477.471	88.38
477.69	97.38
477.908	97.38
478.127	96.38
478.346	102.38
478.564	98.38
478.783	98.38
479.002	100.38
479.22	91.38
479.439	100.38
479.658	107.38
479.876	109.38
480.095	105.38
480.313	80.38
480.532	87.38
480.751	111.38
480.969	173.38
481.188	486.38
481.406	320.38
481.624	108.38
481.843	97.38
482.061	90.38
482.28	89.38
482.498	92.38
482.717	89.38
482.935	91.38
483.153	85.38
483.372	93.38
483.59	69.38
483.808	105.38
484.027	86.38
484.245	87.38
484.463	68.38
484.681	90.38
484.9	91.38
485.118	95.38
485.336	91.38
485.554	93.38
485.772	94.38
485.99	85.38
486.209	102.38
486.427	113.38
486.645	118.38
486.863	124.38
487.081	117.38
487.299	99.38
487.517	97.38
487.735	90.38
487.953	100.38
488.171	84.38
488.389	94.38
488.607	103.38
488.825	92.38
489.043	86.38
489.261	106.38
489.479	93.38
489.696	97.38
489.914	95.38
490.132	95.38
490.35	91.38
490.568	85.38
490.786	87.38
491.003	88.38
491.221	95.38
491.439	93.38
491.657	89.38
491.874	82.38
492.092	83.38
492.31	94.38
492.527	104.38
492.745	90.38
492.963	93.38
493.18	101.38
493.398	94.38
493.615	92.38
493.833	102.38
494.05	97.38
494.268	86.38
494.485	103.38
494.703	97.38
494.92	102.38
495.138	81.38
495.355	94.38
495.573	106.38
495.79	88.38
496.008	82.38
496.225	88.38
496.442	76.38
496.66	90.38
496.877	96.38
497.094	98.38
497.312	94.38
497.529	97.38
497.746	87.38
497.963	100.38
498.181	96.38
498.398	93.38
498.615	101.38
498.832	100.38
499.049	90.38
499.267	95.38
499.484	101.38
499.701	93.38
499.918	99.38
500.135	104.38
500.352	112.38
500.569	99.38
500.786	93.38
501.003	104.38
501.22	102.38
501.437	90.38
501.654	97.38
501.871	98.38
502.088	96.38
502.305	94.38
502.522	89.38
502.739	95.38
502.956	88.38
503.172	85.38
503.389	117.38
503.606	101.38
503.823	104.38
504.04	86.38
504.256	85.38
504.473	89.38
504.69	97.38
504.907	99.38
505.123	81.38
505.34	102.38
505.557	89.38
505.773	72.38
505.99	92.38
506.207	80.38
506.423	102.38
506.64	60.38
506.856	97.38
507.073	87.38
507.289	95.38
507.506	80.38
507.722	119.38
507.939	117.38
508.155	96.38
508.372	98.38
508.588	93.38
508.805	90.38
509.021	112.38
509.238	99.38
509.454	107.38
509.67	93.38
509.887	110.38
510.103	129.38
510.319	230.38
510.536	874.38
510.752	2955.38
510.968	812.38
511.184	173.38
511.401	118.38
511.617	115.38
511.833	91.38
512.049	110.38
512.265	103.38
512.481	100.38
512.698	103.38
512.914	110.38
513.13	100.38
513.346	93.38
513.562	84.38
513.778	80.38
513.994	119.38
514.21	98.38
