Data from Circ_2008_H10_HRD10591_00060.txt Node
Date: Wed Jan 03 10:17:08 EST 2024
User: Yrep
Spectrometer: HR+D1059
Trigger mode: 1
Integration Time (sec): 1.000000E-1
Scans to average: 1
Electric dark correction enabled: true
Nonlinearity correction enabled: false
Boxcar width: 0
XAxis mode: Wavelengths
Number of Pixels in Spectrum: 2048
>>>>>Begin Spectral Data<<<<<
223.165	-0.69
223.4	-0.69
223.635	-0.69
223.869	-13.69
224.104	-15.69
224.338	-19.69
224.573	-12.69
224.808	-25.69
225.042	-9.69
225.277	-11.69
225.511	4.31
225.746	7.31
225.98	3.31
226.215	10.31
226.449	8.31
226.683	9.31
226.918	29.31
227.152	37.31
227.387	41.31
227.621	49.31
227.856	53.31
228.09	60.31
228.324	53.31
228.559	62.31
228.793	72.31
229.027	61.31
229.262	52.31
229.496	71.31
229.73	84.31
229.964	79.31
230.199	65.31
230.433	77.31
230.667	88.31
230.901	69.31
231.136	82.31
231.37	76.31
231.604	74.31
231.838	74.31
232.072	72.31
232.306	79.31
232.541	85.31
232.775	79.31
233.009	75.31
233.243	81.31
233.477	76.31
233.711	73.31
233.945	79.31
234.179	98.31
234.413	87.31
234.647	78.31
234.881	79.31
235.115	66.31
235.349	82.31
235.583	79.31
235.817	81.31
236.051	84.31
236.285	79.31
236.519	77.31
236.753	80.31
236.987	79.31
237.221	90.31
237.455	76.31
237.689	82.31
237.922	85.31
238.156	90.31
238.39	74.31
238.624	76.31
238.858	67.31
239.091	81.31
239.325	64.31
239.559	73.31
239.793	82.31
240.027	66.31
240.26	75.31
240.494	74.31
240.728	83.31
240.961	75.31
241.195	76.31
241.429	77.31
241.662	88.31
241.896	65.31
242.13	76.31
242.363	78.31
242.597	76.31
242.83	79.31
243.064	80.31
243.298	66.31
243.531	82.31
243.765	90.31
243.998	77.31
244.232	91.31
244.465	91.31
244.699	76.31
244.932	71.31
245.166	75.31
245.399	63.31
245.633	88.31
245.866	72.31
246.099	82.31
246.333	69.31
246.566	81.31
246.8	79.31
247.033	74.31
247.266	71.31
247.5	73.31
247.733	65.31
247.966	88.31
248.2	89.31
248.433	94.31
248.666	79.31
248.899	82.31
249.133	90.31
249.366	88.31
249.599	94.31
249.832	71.31
250.066	87.31
250.299	81.31
250.532	77.31
250.765	83.31
250.998	77.31
251.231	73.31
251.465	75.31
251.698	82.31
251.931	70.31
252.164	83.31
252.397	81.31
252.63	74.31
252.863	77.31
253.096	76.31
253.329	90.31
253.562	76.31
253.795	89.31
254.028	79.31
254.261	68.31
254.494	89.31
254.727	82.31
254.96	88.31
255.193	79.31
255.426	83.31
255.659	72.31
255.892	87.31
256.124	84.31
256.357	71.31
256.59	82.31
256.823	83.31
257.056	74.31
257.289	74.31
257.521	75.31
257.754	78.31
257.987	76.31
258.22	93.31
258.452	82.31
258.685	97.31
258.918	82.31
259.151	68.31
259.383	84.31
259.616	76.31
259.849	82.31
260.081	80.31
260.314	84.31
260.547	77.31
260.779	66.31
261.012	72.31
261.244	81.31
261.477	91.31
261.71	90.31
261.942	107.31
262.175	119.31
262.407	91.31
262.64	73.31
262.872	79.31
263.105	76.31
263.337	76.31
263.57	88.31
263.802	79.31
264.035	80.31
264.267	80.31
264.499	91.31
264.732	87.31
264.964	77.31
265.197	83.31
265.429	78.31
265.661	96.31
265.894	74.31
266.126	86.31
266.358	87.31
266.591	81.31
266.823	77.31
267.055	84.31
267.287	90.31
267.52	93.31
267.752	78.31
267.984	101.31
268.216	93.31
268.448	73.31
268.681	86.31
268.913	88.31
269.145	59.31
269.377	75.31
269.609	87.31
269.841	87.31
270.073	88.31
270.306	90.31
270.538	85.31
270.77	93.31
271.002	84.31
271.234	93.31
271.466	89.31
271.698	96.31
271.93	93.31
272.162	85.31
272.394	93.31
272.626	80.31
272.858	95.31
273.09	90.31
273.322	75.31
273.553	69.31
273.785	96.31
274.017	83.31
274.249	84.31
274.481	83.31
274.713	90.31
274.945	84.31
275.176	89.31
275.408	88.31
275.64	65.31
275.872	85.31
276.104	82.31
276.335	82.31
276.567	103.31
276.799	108.31
277.031	102.31
277.262	97.31
277.494	81.31
277.726	83.31
277.957	90.31
278.189	82.31
278.421	85.31
278.652	78.31
278.884	85.31
279.115	81.31
279.347	80.31
279.579	84.31
279.81	82.31
280.042	98.31
280.273	94.31
280.505	83.31
280.736	82.31
280.968	90.31
281.199	87.31
281.431	79.31
281.662	83.31
281.894	80.31
282.125	101.31
282.356	122.31
282.588	124.31
282.819	106.31
283.051	96.31
283.282	86.31
283.513	95.31
283.745	89.31
283.976	94.31
284.207	95.31
284.439	84.31
284.67	91.31
284.901	84.31
285.132	81.31
285.364	84.31
285.595	83.31
285.826	83.31
286.057	103.31
286.288	84.31
286.52	89.31
286.751	91.31
286.982	78.31
287.213	84.31
287.444	93.31
287.675	89.31
287.906	77.31
288.138	83.31
288.369	80.31
288.6	93.31
288.831	85.31
289.062	88.31
289.293	87.31
289.524	75.31
289.755	92.31
289.986	93.31
290.217	87.31
290.448	78.31
290.679	88.31
290.91	98.31
291.141	81.31
291.371	87.31
291.602	92.31
291.833	86.31
292.064	81.31
292.295	93.31
292.526	78.31
292.757	84.31
292.987	100.31
293.218	89.31
293.449	99.31
293.68	78.31
293.91	85.31
294.141	73.31
294.372	82.31
294.603	89.31
294.833	75.31
295.064	87.31
295.295	72.31
295.525	87.31
295.756	100.31
295.987	114.31
296.217	138.31
296.448	115.31
296.679	81.31
296.909	95.31
297.14	84.31
297.37	79.31
297.601	100.31
297.831	79.31
298.062	84.31
298.292	80.31
298.523	101.31
298.753	97.31
298.984	86.31
299.214	87.31
299.445	93.31
299.675	93.31
299.905	110.31
300.136	87.31
300.366	79.31
300.597	80.31
300.827	102.31
301.057	82.31
301.288	99.31
301.518	96.31
301.748	93.31
301.979	101.31
302.209	97.31
302.439	82.31
302.669	87.31
302.9	90.31
303.13	105.31
303.36	96.31
303.59	92.31
303.82	108.31
304.051	99.31
304.281	100.31
304.511	80.31
304.741	94.31
304.971	84.31
305.201	83.31
305.431	99.31
305.661	103.31
305.891	94.31
306.121	81.31
306.352	100.31
306.582	98.31
306.812	85.31
307.042	85.31
307.272	99.31
307.502	109.31
307.731	92.31
307.961	97.31
308.191	97.31
308.421	98.31
308.651	87.31
308.881	79.31
309.111	92.31
309.341	100.31
309.571	103.31
309.8	101.31
310.03	93.31
310.26	96.31
310.49	98.31
310.72	109.31
310.949	100.31
311.179	90.31
311.409	106.31
311.639	84.31
311.868	78.31
312.098	96.31
312.328	100.31
312.557	93.31
312.787	101.31
313.017	96.31
313.246	100.31
313.476	100.31
313.706	91.31
313.935	89.31
314.165	103.31
314.394	102.31
314.624	108.31
314.853	96.31
315.083	101.31
315.312	86.31
315.542	77.31
315.771	96.31
316.001	79.31
316.23	98.31
316.46	93.31
316.689	74.31
316.919	94.31
317.148	95.31
317.377	88.31
317.607	104.31
317.836	93.31
318.065	89.31
318.295	95.31
318.524	99.31
318.753	82.31
318.983	93.31
319.212	103.31
319.441	103.31
319.67	120.31
319.9	96.31
320.129	95.31
320.358	87.31
320.587	100.31
320.816	87.31
321.046	95.31
321.275	109.31
321.504	100.31
321.733	88.31
321.962	91.31
322.191	94.31
322.42	97.31
322.649	97.31
322.878	114.31
323.108	99.31
323.337	106.31
323.566	101.31
323.795	142.31
324.024	183.31
324.253	318.31
324.482	673.31
324.71	1288.31
324.939	1730.31
325.168	660.31
325.397	207.31
325.626	133.31
325.855	117.31
326.084	125.31
326.313	119.31
326.542	136.31
326.77	197.31
326.999	375.31
327.228	731.31
327.457	1313.31
327.686	1038.31
327.914	304.31
328.143	185.31
328.372	162.31
328.6	112.31
328.829	116.31
329.058	135.31
329.287	130.31
329.515	100.31
329.744	111.31
329.972	120.31
330.201	139.31
330.43	171.31
330.658	136.31
330.887	128.31
331.115	124.31
331.344	102.31
331.572	98.31
331.801	104.31
332.03	91.31
332.258	100.31
332.486	100.31
332.715	87.31
332.943	95.31
333.172	95.31
333.4	98.31
333.629	102.31
333.857	101.31
334.085	116.31
334.314	133.31
334.542	188.31
334.771	191.31
334.999	113.31
335.227	99.31
335.455	93.31
335.684	99.31
335.912	91.31
336.14	95.31
336.369	111.31
336.597	103.31
336.825	98.31
337.053	83.31
337.281	77.31
337.51	86.31
337.738	98.31
337.966	89.31
338.194	97.31
338.422	89.31
338.65	98.31
338.878	90.31
339.106	98.31
339.334	95.31
339.562	95.31
339.79	83.31
340.018	85.31
340.246	97.31
340.474	92.31
340.702	105.31
340.93	90.31
341.158	93.31
341.386	99.31
341.614	95.31
341.842	115.31
342.07	105.31
342.298	108.31
342.526	74.31
342.754	80.31
342.981	85.31
343.209	91.31
343.437	78.31
343.665	87.31
343.893	89.31
344.12	96.31
344.348	87.31
344.576	76.31
344.804	89.31
345.031	101.31
345.259	96.31
345.487	93.31
345.714	92.31
345.942	92.31
346.17	103.31
346.397	94.31
346.625	83.31
346.853	88.31
347.08	81.31
347.308	93.31
347.535	100.31
347.763	102.31
347.99	85.31
348.218	111.31
348.445	116.31
348.673	89.31
348.9	94.31
349.128	90.31
349.355	92.31
349.583	95.31
349.81	100.31
350.037	90.31
350.265	94.31
350.492	86.31
350.72	104.31
350.947	107.31
351.174	105.31
351.402	99.31
351.629	80.31
351.856	94.31
352.083	94.31
352.311	79.31
352.538	109.31
352.765	104.31
352.992	114.31
353.22	97.31
353.447	83.31
353.674	87.31
353.901	89.31
354.128	90.31
354.355	81.31
354.583	111.31
354.81	104.31
355.037	91.31
355.264	79.31
355.491	87.31
355.718	93.31
355.945	76.31
356.172	92.31
356.399	101.31
356.626	94.31
356.853	87.31
357.08	101.31
357.307	76.31
357.534	83.31
357.761	88.31
357.988	101.31
358.215	79.31
358.441	104.31
358.668	92.31
358.895	90.31
359.122	87.31
359.349	81.31
359.576	82.31
359.802	101.31
360.029	101.31
360.256	107.31
360.483	110.31
360.709	84.31
360.936	82.31
361.163	99.31
361.39	100.31
361.616	100.31
361.843	83.31
362.07	69.31
362.296	100.31
362.523	98.31
362.749	100.31
362.976	103.31
363.203	71.31
363.429	79.31
363.656	94.31
363.882	90.31
364.109	79.31
364.335	95.31
364.562	105.31
364.788	102.31
365.015	100.31
365.241	93.31
365.468	108.31
365.694	106.31
365.92	99.31
366.147	89.31
366.373	86.31
366.599	92.31
366.826	89.31
367.052	96.31
367.278	90.31
367.505	101.31
367.731	89.31
367.957	96.31
368.184	99.31
368.41	115.31
368.636	108.31
368.862	114.31
369.089	90.31
369.315	105.31
369.541	105.31
369.767	90.31
369.993	108.31
370.219	77.31
370.445	89.31
370.672	84.31
370.898	80.31
371.124	96.31
371.35	93.31
371.576	96.31
371.802	75.31
372.028	87.31
372.254	91.31
372.48	88.31
372.706	108.31
372.932	82.31
373.158	102.31
373.384	80.31
373.61	93.31
373.835	93.31
374.061	89.31
374.287	92.31
374.513	88.31
374.739	107.31
374.965	80.31
375.191	92.31
375.416	89.31
375.642	104.31
375.868	97.31
376.094	88.31
376.319	78.31
376.545	88.31
376.771	92.31
376.997	96.31
377.222	87.31
377.448	84.31
377.674	94.31
377.899	96.31
378.125	93.31
378.35	81.31
378.576	92.31
378.802	88.31
379.027	82.31
379.253	95.31
379.478	87.31
379.704	97.31
379.929	81.31
380.155	86.31
380.38	104.31
380.606	95.31
380.831	85.31
381.057	101.31
381.282	102.31
381.507	104.31
381.733	85.31
381.958	99.31
382.184	116.31
382.409	113.31
382.634	84.31
382.86	85.31
383.085	92.31
383.31	100.31
383.535	103.31
383.761	101.31
383.986	88.31
384.211	104.31
384.436	92.31
384.662	98.31
384.887	95.31
385.112	97.31
385.337	98.31
385.562	96.31
385.787	107.31
386.013	97.31
386.238	109.31
386.463	110.31
386.688	108.31
386.913	102.31
387.138	112.31
387.363	104.31
387.588	97.31
387.813	113.31
388.038	105.31
388.263	119.31
388.488	100.31
388.713	97.31
388.938	82.31
389.163	88.31
389.387	99.31
389.612	100.31
389.837	98.31
390.062	94.31
390.287	96.31
390.512	94.31
390.736	79.31
390.961	85.31
391.186	97.31
391.411	98.31
391.636	91.31
391.86	84.31
392.085	79.31
392.31	91.31
392.534	85.31
392.759	83.31
392.984	70.31
393.208	83.31
393.433	92.31
393.658	99.31
393.882	93.31
394.107	88.31
394.331	102.31
394.556	82.31
394.78	89.31
395.005	82.31
395.229	95.31
395.454	83.31
395.678	82.31
395.903	89.31
396.127	86.31
396.352	107.31
396.576	92.31
396.801	88.31
397.025	97.31
397.249	75.31
397.474	73.31
397.698	85.31
397.922	97.31
398.147	85.31
398.371	94.31
398.595	94.31
398.82	81.31
399.044	88.31
399.268	77.31
399.492	80.31
399.717	81.31
399.941	92.31
400.165	79.31
400.389	97.31
400.613	89.31
400.837	77.31
401.062	86.31
401.286	83.31
401.51	99.31
401.734	88.31
401.958	103.31
402.182	121.31
402.406	148.31
402.63	125.31
402.854	93.31
403.078	94.31
403.302	86.31
403.526	85.31
403.75	83.31
403.974	83.31
404.198	84.31
404.422	76.31
404.645	77.31
404.869	87.31
405.093	101.31
405.317	90.31
405.541	102.31
405.765	106.31
405.988	119.31
406.212	151.31
406.436	205.31
406.66	157.31
406.883	99.31
407.107	96.31
407.331	93.31
407.555	102.31
407.778	88.31
408.002	102.31
408.226	79.31
408.449	93.31
408.673	89.31
408.896	92.31
409.12	97.31
409.344	87.31
409.567	88.31
409.791	94.31
410.014	99.31
410.238	95.31
410.461	97.31
410.685	92.31
410.908	94.31
411.132	95.31
411.355	105.31
411.578	90.31
411.802	86.31
412.025	75.31
412.249	96.31
412.472	84.31
412.695	93.31
412.919	98.31
413.142	98.31
413.365	94.31
413.589	100.31
413.812	99.31
414.035	102.31
414.258	90.31
414.482	79.31
414.705	73.31
414.928	87.31
415.151	100.31
415.374	98.31
415.597	89.31
415.821	96.31
416.044	94.31
416.267	92.31
416.49	87.31
416.713	101.31
416.936	91.31
417.159	97.31
417.382	76.31
417.605	92.31
417.828	85.31
418.051	103.31
418.274	84.31
418.497	92.31
418.72	72.31
418.943	100.31
419.166	99.31
419.389	81.31
419.611	81.31
419.834	76.31
420.057	86.31
420.28	74.31
420.503	99.31
420.726	108.31
420.948	77.31
421.171	69.31
421.394	83.31
421.617	84.31
421.839	88.31
422.062	108.31
422.285	72.31
422.507	80.31
422.73	85.31
422.953	89.31
423.175	98.31
423.398	98.31
423.621	97.31
423.843	96.31
424.066	73.31
424.288	84.31
424.511	76.31
424.733	99.31
424.956	94.31
425.178	92.31
425.401	88.31
425.623	96.31
425.846	94.31
426.068	105.31
426.291	83.31
426.513	81.31
426.735	90.31
426.958	78.31
427.18	111.31
427.402	112.31
427.625	138.31
427.847	124.31
428.069	112.31
428.292	87.31
428.514	92.31
428.736	85.31
428.958	69.31
429.181	85.31
429.403	86.31
429.625	78.31
429.847	76.31
430.069	99.31
430.292	92.31
430.514	90.31
430.736	91.31
430.958	90.31
431.18	80.31
431.402	94.31
431.624	80.31
431.846	85.31
432.068	84.31
432.29	89.31
432.512	85.31
432.734	88.31
432.956	86.31
433.178	107.31
433.4	98.31
433.622	87.31
433.844	88.31
434.066	96.31
434.287	101.31
434.509	80.31
434.731	80.31
434.953	91.31
435.175	90.31
435.397	102.31
435.618	91.31
435.84	103.31
436.062	112.31
436.284	110.31
436.505	96.31
436.727	100.31
436.949	88.31
437.17	79.31
437.392	70.31
437.614	96.31
437.835	97.31
438.057	96.31
438.278	89.31
438.5	93.31
438.721	116.31
438.943	98.31
439.165	89.31
439.386	78.31
439.608	95.31
439.829	90.31
440.05	109.31
440.272	122.31
440.493	88.31
440.715	96.31
440.936	85.31
441.158	94.31
441.379	80.31
441.6	100.31
441.822	97.31
442.043	91.31
442.264	105.31
442.486	108.31
442.707	95.31
442.928	93.31
443.149	120.31
443.371	127.31
443.592	95.31
443.813	100.31
444.034	102.31
444.255	79.31
444.476	91.31
444.698	89.31
444.919	91.31
445.14	105.31
445.361	123.31
445.582	103.31
445.803	122.31
446.024	114.31
446.245	115.31
446.466	108.31
446.687	86.31
446.908	97.31
447.129	97.31
447.35	105.31
447.571	88.31
447.792	95.31
448.013	84.31
448.234	104.31
448.455	88.31
448.675	107.31
448.896	108.31
449.117	119.31
449.338	108.31
449.559	125.31
449.779	126.31
450	99.31
450.221	95.31
450.442	79.31
450.662	84.31
450.883	94.31
451.104	113.31
451.324	110.31
451.545	92.31
451.766	93.31
451.986	76.31
452.207	75.31
452.428	92.31
452.648	90.31
452.869	97.31
453.089	110.31
453.31	123.31
453.53	81.31
453.751	101.31
453.971	93.31
454.192	93.31
454.412	83.31
454.633	82.31
454.853	95.31
455.073	92.31
455.294	95.31
455.514	83.31
455.734	84.31
455.955	88.31
456.175	85.31
456.395	93.31
456.616	82.31
456.836	86.31
457.056	91.31
457.276	85.31
457.497	98.31
457.717	84.31
457.937	89.31
458.157	84.31
458.377	83.31
458.598	98.31
458.818	140.31
459.038	156.31
459.258	107.31
459.478	91.31
459.698	73.31
459.918	80.31
460.138	81.31
460.358	96.31
460.578	95.31
460.798	81.31
461.018	98.31
461.238	91.31
461.458	82.31
461.678	91.31
461.898	84.31
462.118	73.31
462.338	94.31
462.558	95.31
462.777	94.31
462.997	87.31
463.217	96.31
463.437	104.31
463.657	96.31
463.876	85.31
464.096	100.31
464.316	88.31
464.536	86.31
464.755	95.31
464.975	99.31
465.195	171.31
465.414	155.31
465.634	90.31
465.854	102.31
466.073	81.31
466.293	86.31
466.512	91.31
466.732	100.31
466.951	90.31
467.171	103.31
467.391	96.31
467.61	102.31
467.829	104.31
468.049	123.31
468.268	119.31
468.488	80.31
468.707	98.31
468.927	96.31
469.146	88.31
469.365	87.31
469.585	98.31
469.804	98.31
470.023	110.31
470.243	89.31
470.462	103.31
470.681	87.31
470.901	91.31
471.12	89.31
471.339	91.31
471.558	78.31
471.777	91.31
471.997	92.31
472.216	149.31
472.435	241.31
472.654	106.31
472.873	88.31
473.092	88.31
473.311	93.31
473.53	77.31
473.749	100.31
473.968	96.31
474.187	103.31
474.406	93.31
474.625	94.31
474.844	84.31
475.063	92.31
475.282	85.31
475.501	75.31
475.72	85.31
475.939	83.31
476.158	94.31
476.377	77.31
476.596	82.31
476.814	99.31
477.033	81.31
477.252	74.31
477.471	84.31
477.69	86.31
477.908	79.31
478.127	96.31
478.346	70.31
478.564	89.31
478.783	99.31
479.002	94.31
479.22	92.31
479.439	96.31
479.658	96.31
479.876	81.31
480.095	89.31
480.313	93.31
480.532	89.31
480.751	103.31
480.969	151.31
481.188	338.31
481.406	239.31
481.624	107.31
481.843	90.31
482.061	95.31
482.28	101.31
482.498	85.31
482.717	79.31
482.935	85.31
483.153	89.31
483.372	95.31
483.59	75.31
483.808	81.31
484.027	88.31
484.245	90.31
484.463	91.31
484.681	80.31
484.9	85.31
485.118	86.31
485.336	80.31
485.554	103.31
485.772	98.31
485.99	109.31
486.209	101.31
486.427	97.31
486.645	105.31
486.863	98.31
487.081	102.31
487.299	91.31
487.517	96.31
487.735	84.31
487.953	94.31
488.171	89.31
488.389	85.31
488.607	98.31
488.825	95.31
489.043	79.31
489.261	83.31
489.479	82.31
489.696	88.31
489.914	90.31
490.132	96.31
490.35	88.31
490.568	84.31
490.786	82.31
491.003	80.31
491.221	96.31
491.439	91.31
491.657	98.31
491.874	85.31
492.092	82.31
492.31	86.31
492.527	85.31
492.745	85.31
492.963	93.31
493.18	88.31
493.398	96.31
493.615	82.31
493.833	95.31
494.05	92.31
494.268	67.31
494.485	85.31
494.703	95.31
494.92	94.31
495.138	87.31
495.355	93.31
495.573	83.31
495.79	77.31
496.008	83.31
496.225	84.31
496.442	89.31
496.66	94.31
496.877	85.31
497.094	88.31
497.312	85.31
497.529	87.31
497.746	90.31
497.963	85.31
498.181	89.31
498.398	94.31
498.615	100.31
498.832	86.31
499.049	90.31
499.267	92.31
499.484	85.31
499.701	97.31
499.918	97.31
500.135	85.31
500.352	93.31
500.569	91.31
500.786	80.31
501.003	93.31
501.22	78.31
501.437	99.31
501.654	100.31
501.871	104.31
502.088	101.31
502.305	81.31
502.522	81.31
502.739	93.31
502.956	92.31
503.172	87.31
503.389	93.31
503.606	97.31
503.823	95.31
504.04	92.31
504.256	84.31
504.473	97.31
504.69	92.31
504.907	88.31
505.123	79.31
505.34	84.31
505.557	91.31
505.773	90.31
505.99	91.31
506.207	91.31
506.423	99.31
506.64	82.31
506.856	76.31
507.073	86.31
507.289	86.31
507.506	91.31
507.722	111.31
507.939	105.31
508.155	101.31
508.372	93.31
508.588	91.31
508.805	93.31
509.021	81.31
509.238	101.31
509.454	93.31
509.67	104.31
509.887	104.31
510.103	131.31
510.319	188.31
510.536	725.31
510.752	2335.31
510.968	674.31
511.184	151.31
511.401	100.31
511.617	85.31
511.833	87.31
512.049	97.31
512.265	89.31
512.481	93.31
512.698	102.31
512.914	69.31
513.13	95.31
513.346	90.31
513.562	80.31
513.778	93.31
513.994	96.31
514.21	93.31
514.426	111.31
514.642	122.31
514.858	120.31
515.074	170.31
515.29	439.31
515.506	1388.31
515.721	503.31
515.937	133.31
