Data from Circ_2008_H10_HRD10591_00083.txt Node
Date: Wed Jan 03 10:17:12 EST 2024
User: Yrep
Spectrometer: HR+D1059
Trigger mode: 1
Integration Time (sec): 1.000000E-1
Scans to average: 1
Electric dark correction enabled: true
Nonlinearity correction enabled: false
Boxcar width: 0
XAxis mode: Wavelengths
Number of Pixels in Spectrum: 2048
>>>>>Begin Spectral Data<<<<<
223.165	-19.19
223.4	-19.19
223.635	-19.19
223.869	-33.19
224.104	-21.19
224.338	-20.19
224.573	1.81
224.808	-8.19
225.042	5.81
225.277	-12.19
225.511	1.81
225.746	2.81
225.98	7.81
226.215	15.81
226.449	20.81
226.683	20.81
226.918	15.81
227.152	20.81
227.387	22.81
227.621	40.81
227.856	64.81
228.09	44.81
228.324	48.81
228.559	56.81
228.793	58.81
229.027	79.81
229.262	71.81
229.496	77.81
229.73	72.81
229.964	79.81
230.199	81.81
230.433	67.81
230.667	68.81
230.901	69.81
231.136	76.81
231.37	80.81
231.604	78.81
231.838	82.81
232.072	83.81
232.306	80.81
232.541	85.81
232.775	67.81
233.009	85.81
233.243	78.81
233.477	76.81
233.711	86.81
233.945	81.81
234.179	88.81
234.413	89.81
234.647	83.81
234.881	73.81
235.115	83.81
235.349	80.81
235.583	84.81
235.817	79.81
236.051	75.81
236.285	79.81
236.519	75.81
236.753	67.81
236.987	70.81
237.221	90.81
237.455	76.81
237.689	95.81
237.922	71.81
238.156	82.81
238.39	77.81
238.624	73.81
238.858	71.81
239.091	88.81
239.325	89.81
239.559	78.81
239.793	81.81
240.027	85.81
240.26	72.81
240.494	84.81
240.728	82.81
240.961	77.81
241.195	66.81
241.429	84.81
241.662	73.81
241.896	72.81
242.13	64.81
242.363	74.81
242.597	64.81
242.83	66.81
243.064	68.81
243.298	88.81
243.531	85.81
243.765	83.81
243.998	64.81
244.232	87.81
244.465	97.81
244.699	89.81
244.932	94.81
245.166	81.81
245.399	74.81
245.633	91.81
245.866	82.81
246.099	77.81
246.333	71.81
246.566	81.81
246.8	77.81
247.033	84.81
247.266	68.81
247.5	75.81
247.733	81.81
247.966	84.81
248.2	91.81
248.433	94.81
248.666	73.81
248.899	80.81
249.133	75.81
249.366	98.81
249.599	94.81
249.832	92.81
250.066	87.81
250.299	74.81
250.532	73.81
250.765	77.81
250.998	75.81
251.231	83.81
251.465	97.81
251.698	67.81
251.931	85.81
252.164	79.81
252.397	83.81
252.63	73.81
252.863	77.81
253.096	73.81
253.329	73.81
253.562	89.81
253.795	89.81
254.028	80.81
254.261	86.81
254.494	85.81
254.727	89.81
254.96	98.81
255.193	83.81
255.426	85.81
255.659	87.81
255.892	97.81
256.124	71.81
256.357	72.81
256.59	77.81
256.823	76.81
257.056	100.81
257.289	84.81
257.521	84.81
257.754	89.81
257.987	59.81
258.22	91.81
258.452	87.81
258.685	84.81
258.918	79.81
259.151	82.81
259.383	92.81
259.616	72.81
259.849	72.81
260.081	89.81
260.314	95.81
260.547	75.81
260.779	61.81
261.012	88.81
261.244	87.81
261.477	85.81
261.71	95.81
261.942	122.81
262.175	124.81
262.407	104.81
262.64	94.81
262.872	80.81
263.105	77.81
263.337	94.81
263.57	98.81
263.802	71.81
264.035	75.81
264.267	74.81
264.499	78.81
264.732	91.81
264.964	81.81
265.197	87.81
265.429	90.81
265.661	72.81
265.894	86.81
266.126	87.81
266.358	78.81
266.591	82.81
266.823	75.81
267.055	96.81
267.287	93.81
267.52	75.81
267.752	85.81
267.984	104.81
268.216	82.81
268.448	82.81
268.681	75.81
268.913	85.81
269.145	92.81
269.377	95.81
269.609	85.81
269.841	88.81
270.073	88.81
270.306	78.81
270.538	80.81
270.77	81.81
271.002	78.81
271.234	73.81
271.466	91.81
271.698	71.81
271.93	90.81
272.162	90.81
272.394	87.81
272.626	89.81
272.858	94.81
273.09	85.81
273.322	91.81
273.553	108.81
273.785	80.81
274.017	79.81
274.249	88.81
274.481	79.81
274.713	89.81
274.945	90.81
275.176	66.81
275.408	88.81
275.64	74.81
275.872	79.81
276.104	85.81
276.335	99.81
276.567	98.81
276.799	114.81
277.031	100.81
277.262	107.81
277.494	87.81
277.726	88.81
277.957	87.81
278.189	86.81
278.421	86.81
278.652	84.81
278.884	76.81
279.115	98.81
279.347	104.81
279.579	87.81
279.81	93.81
280.042	90.81
280.273	104.81
280.505	97.81
280.736	86.81
280.968	75.81
281.199	82.81
281.431	75.81
281.662	72.81
281.894	79.81
282.125	105.81
282.356	129.81
282.588	133.81
282.819	119.81
283.051	69.81
283.282	86.81
283.513	95.81
283.745	80.81
283.976	87.81
284.207	79.81
284.439	91.81
284.67	94.81
284.901	92.81
285.132	93.81
285.364	81.81
285.595	101.81
285.826	97.81
286.057	87.81
286.288	77.81
286.52	77.81
286.751	78.81
286.982	91.81
287.213	75.81
287.444	101.81
287.675	87.81
287.906	94.81
288.138	103.81
288.369	96.81
288.6	86.81
288.831	85.81
289.062	94.81
289.293	91.81
289.524	73.81
289.755	83.81
289.986	82.81
290.217	94.81
290.448	92.81
290.679	93.81
290.91	99.81
291.141	85.81
291.371	87.81
291.602	85.81
291.833	92.81
292.064	101.81
292.295	82.81
292.526	99.81
292.757	95.81
292.987	93.81
293.218	102.81
293.449	81.81
293.68	87.81
293.91	89.81
294.141	94.81
294.372	87.81
294.603	90.81
294.833	89.81
295.064	87.81
295.295	95.81
295.525	86.81
295.756	100.81
295.987	120.81
296.217	144.81
296.448	135.81
296.679	92.81
296.909	99.81
297.14	97.81
297.37	84.81
297.601	90.81
297.831	101.81
298.062	93.81
298.292	97.81
298.523	99.81
298.753	85.81
298.984	75.81
299.214	78.81
299.445	93.81
299.675	95.81
299.905	95.81
300.136	101.81
300.366	83.81
300.597	101.81
300.827	96.81
301.057	94.81
301.288	103.81
301.518	93.81
301.748	92.81
301.979	115.81
302.209	88.81
302.439	95.81
302.669	97.81
302.9	89.81
303.13	100.81
303.36	109.81
303.59	101.81
303.82	95.81
304.051	93.81
304.281	91.81
304.511	88.81
304.741	87.81
304.971	81.81
305.201	99.81
305.431	84.81
305.661	109.81
305.891	102.81
306.121	98.81
306.352	103.81
306.582	94.81
306.812	109.81
307.042	99.81
307.272	104.81
307.502	99.81
307.731	94.81
307.961	91.81
308.191	85.81
308.421	96.81
308.651	107.81
308.881	92.81
309.111	97.81
309.341	103.81
309.571	107.81
309.8	103.81
310.03	108.81
310.26	89.81
310.49	97.81
310.72	84.81
310.949	99.81
311.179	98.81
311.409	92.81
311.639	79.81
311.868	93.81
312.098	85.81
312.328	103.81
312.557	110.81
312.787	110.81
313.017	103.81
313.246	110.81
313.476	82.81
313.706	90.81
313.935	91.81
314.165	95.81
314.394	96.81
314.624	89.81
314.853	85.81
315.083	105.81
315.312	81.81
315.542	96.81
315.771	96.81
316.001	112.81
316.23	104.81
316.46	89.81
316.689	93.81
316.919	92.81
317.148	102.81
317.377	95.81
317.607	92.81
317.836	81.81
318.065	86.81
318.295	98.81
318.524	83.81
318.753	81.81
318.983	98.81
319.212	106.81
319.441	109.81
319.67	112.81
319.9	104.81
320.129	105.81
320.358	83.81
320.587	88.81
320.816	90.81
321.046	106.81
321.275	104.81
321.504	95.81
321.733	80.81
321.962	91.81
322.191	86.81
322.42	106.81
322.649	116.81
322.878	113.81
323.108	120.81
323.337	120.81
323.566	135.81
323.795	155.81
324.024	199.81
324.253	367.81
324.482	770.81
324.71	1553.81
324.939	2036.81
325.168	772.81
325.397	235.81
325.626	148.81
325.855	117.81
326.084	135.81
326.313	141.81
326.542	156.81
326.77	235.81
326.999	459.81
327.228	873.81
327.457	1531.81
327.686	1228.81
327.914	363.81
328.143	217.81
328.372	173.81
328.6	143.81
328.829	139.81
329.058	121.81
329.287	136.81
329.515	103.81
329.744	123.81
329.972	125.81
330.201	179.81
330.43	213.81
330.658	177.81
330.887	146.81
331.115	116.81
331.344	103.81
331.572	98.81
331.801	104.81
332.03	101.81
332.258	104.81
332.486	91.81
332.715	103.81
332.943	109.81
333.172	98.81
333.4	99.81
333.629	107.81
333.857	130.81
334.085	139.81
334.314	197.81
334.542	259.81
334.771	260.81
334.999	114.81
335.227	106.81
335.455	108.81
335.684	96.81
335.912	93.81
336.14	88.81
336.369	100.81
336.597	98.81
336.825	110.81
337.053	98.81
337.281	85.81
337.51	89.81
337.738	102.81
337.966	87.81
338.194	113.81
338.422	104.81
338.65	112.81
338.878	112.81
339.106	90.81
339.334	93.81
339.562	105.81
339.79	99.81
340.018	80.81
340.246	84.81
340.474	81.81
340.702	97.81
340.93	84.81
341.158	96.81
341.386	96.81
341.614	100.81
341.842	93.81
342.07	90.81
342.298	99.81
342.526	95.81
342.754	85.81
342.981	94.81
343.209	72.81
343.437	98.81
343.665	84.81
343.893	87.81
344.12	93.81
344.348	80.81
344.576	98.81
344.804	105.81
345.031	90.81
345.259	102.81
345.487	98.81
345.714	84.81
345.942	86.81
346.17	95.81
346.397	94.81
346.625	91.81
346.853	89.81
347.08	93.81
347.308	103.81
347.535	96.81
347.763	93.81
347.99	91.81
348.218	95.81
348.445	104.81
348.673	97.81
348.9	96.81
349.128	89.81
349.355	82.81
349.583	98.81
349.81	94.81
350.037	92.81
350.265	95.81
350.492	105.81
350.72	94.81
350.947	102.81
351.174	114.81
351.402	115.81
351.629	98.81
351.856	111.81
352.083	99.81
352.311	100.81
352.538	111.81
352.765	112.81
352.992	103.81
353.22	121.81
353.447	108.81
353.674	100.81
353.901	83.81
354.128	85.81
354.355	103.81
354.583	93.81
354.81	98.81
355.037	102.81
355.264	84.81
355.491	99.81
355.718	84.81
355.945	84.81
356.172	92.81
356.399	97.81
356.626	100.81
356.853	96.81
357.08	91.81
357.307	100.81
357.534	93.81
357.761	83.81
357.988	93.81
358.215	98.81
358.441	83.81
358.668	89.81
358.895	89.81
359.122	94.81
359.349	93.81
359.576	81.81
359.802	102.81
360.029	107.81
360.256	112.81
360.483	106.81
360.709	91.81
360.936	88.81
361.163	96.81
361.39	101.81
361.616	103.81
361.843	98.81
362.07	100.81
362.296	97.81
362.523	114.81
362.749	101.81
362.976	86.81
363.203	97.81
363.429	97.81
363.656	99.81
363.882	89.81
364.109	90.81
364.335	94.81
364.562	103.81
364.788	107.81
365.015	103.81
365.241	98.81
365.468	109.81
365.694	115.81
365.92	96.81
366.147	93.81
366.373	92.81
366.599	83.81
366.826	91.81
367.052	85.81
367.278	93.81
367.505	89.81
367.731	95.81
367.957	91.81
368.184	66.81
368.41	95.81
368.636	92.81
368.862	124.81
369.089	108.81
369.315	85.81
369.541	89.81
369.767	94.81
369.993	93.81
370.219	79.81
370.445	88.81
370.672	105.81
370.898	87.81
371.124	90.81
371.35	85.81
371.576	89.81
371.802	82.81
372.028	85.81
372.254	102.81
372.48	90.81
372.706	101.81
372.932	87.81
373.158	93.81
373.384	97.81
373.61	79.81
373.835	88.81
374.061	85.81
374.287	82.81
374.513	95.81
374.739	95.81
374.965	106.81
375.191	95.81
375.416	81.81
375.642	107.81
375.868	91.81
376.094	88.81
376.319	81.81
376.545	84.81
376.771	84.81
376.997	96.81
377.222	95.81
377.448	96.81
377.674	99.81
377.899	95.81
378.125	87.81
378.35	85.81
378.576	82.81
378.802	91.81
379.027	86.81
379.253	85.81
379.478	91.81
379.704	105.81
379.929	94.81
380.155	99.81
380.38	101.81
380.606	91.81
380.831	102.81
381.057	91.81
381.282	83.81
381.507	104.81
381.733	113.81
381.958	93.81
382.184	97.81
382.409	89.81
382.634	103.81
382.86	95.81
383.085	97.81
383.31	79.81
383.535	94.81
383.761	88.81
383.986	96.81
384.211	92.81
384.436	99.81
384.662	92.81
384.887	119.81
385.112	96.81
385.337	100.81
385.562	100.81
385.787	123.81
386.013	107.81
386.238	121.81
386.463	98.81
386.688	110.81
386.913	100.81
387.138	104.81
387.363	89.81
387.588	104.81
387.813	85.81
388.038	116.81
388.263	104.81
388.488	101.81
388.713	93.81
388.938	95.81
389.163	92.81
389.387	90.81
389.612	88.81
389.837	91.81
390.062	89.81
390.287	75.81
390.512	93.81
390.736	77.81
390.961	89.81
391.186	99.81
391.411	102.81
391.636	93.81
391.86	85.81
392.085	95.81
392.31	81.81
392.534	92.81
392.759	91.81
392.984	96.81
393.208	87.81
393.433	89.81
393.658	89.81
393.882	67.81
394.107	84.81
394.331	91.81
394.556	87.81
394.78	93.81
395.005	85.81
395.229	92.81
395.454	94.81
395.678	84.81
395.903	94.81
396.127	95.81
396.352	92.81
396.576	95.81
396.801	87.81
397.025	90.81
397.249	92.81
397.474	90.81
397.698	81.81
397.922	85.81
398.147	88.81
398.371	95.81
398.595	89.81
398.82	95.81
399.044	97.81
399.268	85.81
399.492	84.81
399.717	85.81
399.941	88.81
400.165	87.81
400.389	94.81
400.613	91.81
400.837	92.81
401.062	88.81
401.286	85.81
401.51	94.81
401.734	101.81
401.958	92.81
402.182	119.81
402.406	163.81
402.63	119.81
402.854	92.81
403.078	81.81
403.302	100.81
403.526	93.81
403.75	89.81
403.974	92.81
404.198	91.81
404.422	81.81
404.645	91.81
404.869	90.81
405.093	103.81
405.317	109.81
405.541	91.81
405.765	96.81
405.988	111.81
406.212	169.81
406.436	240.81
406.66	138.81
406.883	112.81
407.107	102.81
407.331	91.81
407.555	92.81
407.778	100.81
408.002	76.81
408.226	97.81
408.449	81.81
408.673	83.81
408.896	95.81
409.12	105.81
409.344	85.81
409.567	94.81
409.791	92.81
410.014	79.81
410.238	91.81
410.461	83.81
410.685	88.81
410.908	92.81
411.132	97.81
411.355	104.81
411.578	97.81
411.802	90.81
412.025	80.81
412.249	72.81
412.472	89.81
412.695	99.81
412.919	101.81
413.142	92.81
413.365	88.81
413.589	98.81
413.812	71.81
414.035	75.81
414.258	81.81
414.482	89.81
414.705	96.81
414.928	88.81
415.151	93.81
415.374	84.81
415.597	97.81
415.821	90.81
416.044	91.81
416.267	88.81
416.49	96.81
416.713	82.81
416.936	87.81
417.159	87.81
417.382	76.81
417.605	82.81
417.828	94.81
418.051	93.81
418.274	79.81
418.497	79.81
418.72	81.81
418.943	98.81
419.166	98.81
419.389	99.81
419.611	80.81
419.834	83.81
420.057	98.81
420.28	86.81
420.503	90.81
420.726	99.81
420.948	89.81
421.171	92.81
421.394	95.81
421.617	94.81
421.839	98.81
422.062	98.81
422.285	103.81
422.507	112.81
422.73	99.81
422.953	88.81
423.175	96.81
423.398	95.81
423.621	87.81
423.843	80.81
424.066	97.81
424.288	94.81
424.511	102.81
424.733	93.81
424.956	100.81
425.178	97.81
425.401	81.81
425.623	101.81
425.846	88.81
426.068	92.81
426.291	100.81
426.513	100.81
426.735	96.81
426.958	96.81
427.18	90.81
427.402	128.81
427.625	164.81
427.847	135.81
428.069	111.81
428.292	117.81
428.514	94.81
428.736	84.81
428.958	91.81
429.181	89.81
429.403	83.81
429.625	80.81
429.847	82.81
430.069	98.81
430.292	89.81
430.514	89.81
430.736	85.81
430.958	78.81
431.18	77.81
431.402	78.81
431.624	86.81
431.846	77.81
432.068	86.81
432.29	82.81
432.512	92.81
432.734	87.81
432.956	104.81
433.178	111.81
433.4	92.81
433.622	87.81
433.844	86.81
434.066	78.81
434.287	88.81
434.509	91.81
434.731	89.81
434.953	91.81
435.175	89.81
435.397	96.81
435.618	100.81
435.84	82.81
436.062	109.81
436.284	118.81
436.505	114.81
436.727	99.81
436.949	101.81
437.17	83.81
437.392	89.81
437.614	104.81
437.835	111.81
438.057	104.81
438.278	98.81
438.5	103.81
438.721	124.81
438.943	116.81
439.165	85.81
439.386	95.81
439.608	84.81
439.829	115.81
440.05	117.81
440.272	142.81
440.493	108.81
440.715	105.81
440.936	76.81
441.158	91.81
441.379	80.81
441.6	101.81
441.822	91.81
442.043	87.81
442.264	97.81
442.486	87.81
442.707	99.81
442.928	103.81
443.149	129.81
443.371	122.81
443.592	103.81
443.813	102.81
444.034	114.81
444.255	99.81
444.476	97.81
444.698	75.81
444.919	89.81
445.14	141.81
445.361	105.81
445.582	122.81
445.803	126.81
446.024	135.81
446.245	133.81
446.466	109.81
446.687	91.81
446.908	96.81
447.129	87.81
447.35	81.81
447.571	94.81
447.792	99.81
448.013	107.81
448.234	104.81
448.455	100.81
448.675	105.81
448.896	101.81
449.117	77.81
449.338	102.81
449.559	124.81
449.779	114.81
450	98.81
450.221	87.81
450.442	79.81
450.662	100.81
450.883	96.81
451.104	115.81
451.324	96.81
451.545	75.81
451.766	85.81
451.986	97.81
452.207	90.81
452.428	96.81
452.648	108.81
452.869	106.81
453.089	108.81
453.31	110.81
453.53	82.81
453.751	73.81
453.971	99.81
454.192	119.81
454.412	91.81
454.633	90.81
454.853	88.81
455.073	76.81
455.294	77.81
455.514	93.81
455.734	83.81
455.955	79.81
456.175	78.81
456.395	86.81
456.616	86.81
456.836	90.81
457.056	80.81
457.276	79.81
457.497	92.81
457.717	84.81
457.937	96.81
458.157	89.81
458.377	80.81
458.598	103.81
458.818	149.81
459.038	147.81
459.258	115.81
459.478	101.81
459.698	89.81
459.918	92.81
460.138	88.81
460.358	80.81
460.578	78.81
460.798	80.81
461.018	105.81
461.238	94.81
461.458	79.81
461.678	75.81
461.898	96.81
462.118	97.81
462.338	93.81
462.558	89.81
462.777	90.81
462.997	75.81
463.217	92.81
463.437	82.81
463.657	89.81
463.876	81.81
464.096	87.81
464.316	84.81
464.536	103.81
464.755	86.81
464.975	130.81
465.195	175.81
465.414	154.81
465.634	95.81
465.854	88.81
466.073	84.81
466.293	82.81
466.512	88.81
466.732	84.81
466.951	93.81
467.171	105.81
467.391	82.81
467.61	100.81
467.829	102.81
468.049	132.81
468.268	147.81
468.488	87.81
468.707	83.81
468.927	81.81
469.146	84.81
469.365	75.81
469.585	83.81
469.804	81.81
470.023	88.81
470.243	100.81
470.462	99.81
470.681	114.81
470.901	89.81
471.12	95.81
471.339	96.81
471.558	91.81
471.777	83.81
471.997	97.81
472.216	192.81
472.435	347.81
472.654	154.81
472.873	101.81
473.092	92.81
473.311	81.81
473.53	92.81
473.749	91.81
473.968	103.81
474.187	116.81
474.406	99.81
474.625	88.81
474.844	77.81
475.063	92.81
475.282	79.81
475.501	89.81
475.72	89.81
475.939	91.81
476.158	73.81
476.377	88.81
476.596	89.81
476.814	81.81
477.033	93.81
477.252	82.81
477.471	94.81
477.69	83.81
477.908	89.81
478.127	103.81
478.346	107.81
478.564	85.81
478.783	87.81
479.002	96.81
479.22	81.81
479.439	101.81
479.658	119.81
479.876	91.81
480.095	94.81
480.313	89.81
480.532	114.81
480.751	102.81
480.969	221.81
481.188	571.81
481.406	363.81
481.624	101.81
481.843	100.81
482.061	99.81
482.28	91.81
482.498	90.81
482.717	89.81
482.935	86.81
483.153	90.81
483.372	81.81
483.59	84.81
483.808	87.81
484.027	84.81
484.245	90.81
484.463	96.81
484.681	88.81
484.9	91.81
485.118	83.81
485.336	87.81
485.554	95.81
485.772	98.81
485.99	103.81
486.209	99.81
486.427	100.81
486.645	99.81
486.863	108.81
487.081	98.81
487.299	102.81
487.517	107.81
487.735	92.81
487.953	74.81
488.171	75.81
488.389	96.81
488.607	110.81
488.825	97.81
489.043	88.81
489.261	81.81
489.479	97.81
489.696	90.81
489.914	93.81
490.132	98.81
490.35	97.81
490.568	96.81
490.786	82.81
491.003	84.81
491.221	87.81
491.439	83.81
491.657	87.81
491.874	77.81
492.092	91.81
492.31	85.81
492.527	83.81
492.745	98.81
492.963	107.81
493.18	105.81
493.398	98.81
493.615	92.81
493.833	94.81
494.05	93.81
494.268	91.81
494.485	94.81
494.703	77.81
494.92	92.81
495.138	96.81
495.355	102.81
495.573	93.81
495.79	87.81
496.008	91.81
496.225	99.81
496.442	84.81
496.66	83.81
496.877	79.81
497.094	95.81
497.312	82.81
497.529	74.81
497.746	85.81
497.963	96.81
498.181	89.81
498.398	92.81
498.615	114.81
498.832	95.81
499.049	83.81
499.267	98.81
499.484	101.81
499.701	90.81
499.918	84.81
500.135	84.81
500.352	103.81
500.569	87.81
500.786	88.81
501.003	90.81
501.22	100.81
501.437	75.81
501.654	92.81
501.871	105.81
502.088	92.81
502.305	111.81
502.522	91.81
502.739	82.81
502.956	92.81
503.172	88.81
503.389	97.81
503.606	108.81
503.823	111.81
504.04	87.81
504.256	77.81
504.473	102.81
504.69	89.81
504.907	79.81
505.123	98.81
505.34	87.81
505.557	82.81
505.773	88.81
505.99	100.81
506.207	100.81
506.423	98.81
506.64	83.81
506.856	98.81
507.073	103.81
507.289	105.81
507.506	100.81
507.722	100.81
507.939	112.81
508.155	101.81
508.372	82.81
508.588	78.81
508.805	106.81
509.021	84.81
509.238	84.81
509.454	102.81
509.67	103.81
509.887	104.81
510.103	138.81
510.319	235.81
510.536	823.81
510.752	2699.81
510.968	729.81
511.184	167.81
511.401	108.81
511.617	108.81
511.833	92.81
512.049	93.81
512.265	91.81
512.481	88.81
512.698	88.81
512.914	100.81
513.13	97.81
513.346	85.81
513.562	91.81
513.778	96.81
513.994	91.81
514.21	113.81
514.426	129.81
514.642	123.81
514.858	123.81
515.074	170.81
515.29	477.81
