Data from Circ_2008_H10_HRD10591_00025.txt Node
Date: Wed Jan 03 10:17:01 EST 2024
User: Yrep
Spectrometer: HR+D1059
Trigger mode: 1
Integration Time (sec): 1.000000E-1
Scans to average: 1
Electric dark correction enabled: true
Nonlinearity correction enabled: false
Boxcar width: 0
XAxis mode: Wavelengths
Number of Pixels in Spectrum: 2048
>>>>>Begin Spectral Data<<<<<
223.165	-8.06
223.4	-8.06
223.635	-8.06
223.869	-11.06
224.104	-29.06
224.338	-4.06
224.573	-13.06
224.808	-9.06
225.042	1.94
225.277	-17.06
225.511	-18.06
225.746	-3.06
225.98	-9.06
226.215	23.94
226.449	14.94
226.683	22.94
226.918	28.94
227.152	28.94
227.387	34.94
227.621	50.94
227.856	39.94
228.09	50.94
228.324	44.94
228.559	45.94
228.793	48.94
229.027	66.94
229.262	82.94
229.496	59.94
229.73	86.94
229.964	79.94
230.199	78.94
230.433	73.94
230.667	83.94
230.901	93.94
231.136	74.94
231.37	83.94
231.604	95.94
231.838	72.94
232.072	89.94
232.306	87.94
232.541	87.94
232.775	81.94
233.009	74.94
233.243	80.94
233.477	75.94
233.711	86.94
233.945	92.94
234.179	77.94
234.413	83.94
234.647	80.94
234.881	86.94
235.115	84.94
235.349	80.94
235.583	79.94
235.817	73.94
236.051	77.94
236.285	66.94
236.519	84.94
236.753	86.94
236.987	66.94
237.221	86.94
237.455	83.94
237.689	83.94
237.922	88.94
238.156	82.94
238.39	79.94
238.624	69.94
238.858	77.94
239.091	85.94
239.325	74.94
239.559	77.94
239.793	82.94
240.027	70.94
240.26	83.94
240.494	76.94
240.728	93.94
240.961	88.94
241.195	74.94
241.429	79.94
241.662	74.94
241.896	78.94
242.13	82.94
242.363	71.94
242.597	73.94
242.83	75.94
243.064	91.94
243.298	75.94
243.531	81.94
243.765	92.94
243.998	78.94
244.232	81.94
244.465	89.94
244.699	74.94
244.932	80.94
245.166	82.94
245.399	83.94
245.633	79.94
245.866	103.94
246.099	74.94
246.333	77.94
246.566	91.94
246.8	80.94
247.033	76.94
247.266	77.94
247.5	71.94
247.733	81.94
247.966	81.94
248.2	72.94
248.433	84.94
248.666	75.94
248.899	83.94
249.133	81.94
249.366	80.94
249.599	86.94
249.832	80.94
250.066	84.94
250.299	81.94
250.532	77.94
250.765	85.94
250.998	76.94
251.231	89.94
251.465	62.94
251.698	76.94
251.931	78.94
252.164	83.94
252.397	72.94
252.63	83.94
252.863	86.94
253.096	74.94
253.329	81.94
253.562	89.94
253.795	81.94
254.028	80.94
254.261	89.94
254.494	88.94
254.727	91.94
254.96	77.94
255.193	89.94
255.426	82.94
255.659	68.94
255.892	93.94
256.124	96.94
256.357	68.94
256.59	86.94
256.823	89.94
257.056	78.94
257.289	82.94
257.521	88.94
257.754	101.94
257.987	81.94
258.22	85.94
258.452	103.94
258.685	91.94
258.918	88.94
259.151	80.94
259.383	80.94
259.616	74.94
259.849	74.94
260.081	75.94
260.314	90.94
260.547	83.94
260.779	84.94
261.012	87.94
261.244	99.94
261.477	92.94
261.71	82.94
261.942	92.94
262.175	120.94
262.407	102.94
262.64	85.94
262.872	87.94
263.105	93.94
263.337	97.94
263.57	76.94
263.802	79.94
264.035	76.94
264.267	80.94
264.499	91.94
264.732	86.94
264.964	81.94
265.197	87.94
265.429	80.94
265.661	63.94
265.894	86.94
266.126	81.94
266.358	83.94
266.591	78.94
266.823	87.94
267.055	90.94
267.287	88.94
267.52	76.94
267.752	83.94
267.984	80.94
268.216	89.94
268.448	80.94
268.681	78.94
268.913	93.94
269.145	91.94
269.377	74.94
269.609	86.94
269.841	71.94
270.073	75.94
270.306	74.94
270.538	85.94
270.77	76.94
271.002	87.94
271.234	94.94
271.466	86.94
271.698	94.94
271.93	87.94
272.162	73.94
272.394	85.94
272.626	91.94
272.858	72.94
273.09	91.94
273.322	83.94
273.553	73.94
273.785	93.94
274.017	84.94
274.249	94.94
274.481	92.94
274.713	83.94
274.945	92.94
275.176	81.94
275.408	89.94
275.64	78.94
275.872	88.94
276.104	86.94
276.335	82.94
276.567	88.94
276.799	91.94
277.031	107.94
277.262	88.94
277.494	86.94
277.726	89.94
277.957	83.94
278.189	93.94
278.421	79.94
278.652	75.94
278.884	78.94
279.115	104.94
279.347	78.94
279.579	82.94
279.81	73.94
280.042	88.94
280.273	84.94
280.505	96.94
280.736	95.94
280.968	91.94
281.199	92.94
281.431	88.94
281.662	91.94
281.894	95.94
282.125	94.94
282.356	132.94
282.588	133.94
282.819	103.94
283.051	83.94
283.282	88.94
283.513	88.94
283.745	91.94
283.976	89.94
284.207	87.94
284.439	88.94
284.67	90.94
284.901	89.94
285.132	87.94
285.364	83.94
285.595	83.94
285.826	91.94
286.057	86.94
286.288	87.94
286.52	101.94
286.751	96.94
286.982	94.94
287.213	83.94
287.444	87.94
287.675	94.94
287.906	92.94
288.138	87.94
288.369	85.94
288.6	92.94
288.831	92.94
289.062	98.94
289.293	94.94
289.524	73.94
289.755	78.94
289.986	81.94
290.217	90.94
290.448	83.94
290.679	97.94
290.91	82.94
291.141	77.94
291.371	88.94
291.602	84.94
291.833	83.94
292.064	92.94
292.295	83.94
292.526	75.94
292.757	93.94
292.987	104.94
293.218	92.94
293.449	80.94
293.68	82.94
293.91	82.94
294.141	91.94
294.372	85.94
294.603	75.94
294.833	90.94
295.064	97.94
295.295	76.94
295.525	110.94
295.756	89.94
295.987	105.94
296.217	146.94
296.448	136.94
296.679	98.94
296.909	78.94
297.14	83.94
297.37	91.94
297.601	81.94
297.831	94.94
298.062	91.94
298.292	103.94
298.523	83.94
298.753	80.94
298.984	84.94
299.214	93.94
299.445	85.94
299.675	91.94
299.905	83.94
300.136	89.94
300.366	92.94
300.597	97.94
300.827	94.94
301.057	91.94
301.288	102.94
301.518	92.94
301.748	92.94
301.979	98.94
302.209	95.94
302.439	92.94
302.669	89.94
302.9	90.94
303.13	89.94
303.36	82.94
303.59	89.94
303.82	82.94
304.051	95.94
304.281	93.94
304.511	95.94
304.741	72.94
304.971	82.94
305.201	91.94
305.431	94.94
305.661	96.94
305.891	94.94
306.121	86.94
306.352	107.94
306.582	99.94
306.812	108.94
307.042	82.94
307.272	92.94
307.502	88.94
307.731	95.94
307.961	98.94
308.191	82.94
308.421	90.94
308.651	90.94
308.881	97.94
309.111	75.94
309.341	104.94
309.571	95.94
309.8	106.94
310.03	94.94
310.26	101.94
310.49	100.94
310.72	88.94
310.949	100.94
311.179	93.94
311.409	91.94
311.639	90.94
311.868	97.94
312.098	109.94
312.328	97.94
312.557	103.94
312.787	115.94
313.017	96.94
313.246	79.94
313.476	101.94
313.706	105.94
313.935	115.94
314.165	92.94
314.394	108.94
314.624	93.94
314.853	95.94
315.083	89.94
315.312	105.94
315.542	94.94
315.771	91.94
316.001	80.94
316.23	101.94
316.46	83.94
316.689	85.94
316.919	90.94
317.148	95.94
317.377	114.94
317.607	93.94
317.836	82.94
318.065	75.94
318.295	89.94
318.524	90.94
318.753	110.94
318.983	115.94
319.212	97.94
319.441	98.94
319.67	116.94
319.9	88.94
320.129	99.94
320.358	97.94
320.587	90.94
320.816	80.94
321.046	93.94
321.275	102.94
321.504	90.94
321.733	97.94
321.962	85.94
322.191	101.94
322.42	95.94
322.649	120.94
322.878	114.94
323.108	114.94
323.337	128.94
323.566	105.94
323.795	137.94
324.024	177.94
324.253	341.94
324.482	670.94
324.71	1369.94
324.939	1797.94
325.168	674.94
325.397	211.94
325.626	138.94
325.855	111.94
326.084	127.94
326.313	142.94
326.542	143.94
326.77	206.94
326.999	380.94
327.228	787.94
327.457	1350.94
327.686	1097.94
327.914	310.94
328.143	172.94
328.372	160.94
328.6	121.94
328.829	118.94
329.058	115.94
329.287	113.94
329.515	94.94
329.744	92.94
329.972	99.94
330.201	127.94
330.43	118.94
330.658	121.94
330.887	144.94
331.115	103.94
331.344	96.94
331.572	98.94
331.801	87.94
332.03	74.94
332.258	94.94
332.486	103.94
332.715	80.94
332.943	97.94
333.172	94.94
333.4	77.94
333.629	103.94
333.857	122.94
334.085	103.94
334.314	109.94
334.542	142.94
334.771	134.94
334.999	104.94
335.227	81.94
335.455	70.94
335.684	88.94
335.912	102.94
336.14	113.94
336.369	92.94
336.597	109.94
336.825	93.94
337.053	98.94
337.281	92.94
337.51	106.94
337.738	95.94
337.966	87.94
338.194	92.94
338.422	95.94
338.65	94.94
338.878	86.94
339.106	86.94
339.334	90.94
339.562	82.94
339.79	96.94
340.018	78.94
340.246	89.94
340.474	83.94
340.702	102.94
340.93	87.94
341.158	82.94
341.386	101.94
341.614	89.94
341.842	93.94
342.07	82.94
342.298	88.94
342.526	93.94
342.754	88.94
342.981	98.94
343.209	84.94
343.437	97.94
343.665	70.94
343.893	93.94
344.12	94.94
344.348	79.94
344.576	89.94
344.804	89.94
345.031	83.94
345.259	100.94
345.487	97.94
345.714	87.94
345.942	104.94
346.17	92.94
346.397	98.94
346.625	90.94
346.853	88.94
347.08	78.94
347.308	91.94
347.535	96.94
347.763	84.94
347.99	96.94
348.218	108.94
348.445	103.94
348.673	86.94
348.9	78.94
349.128	97.94
349.355	93.94
349.583	89.94
349.81	84.94
350.037	98.94
350.265	105.94
350.492	100.94
350.72	102.94
350.947	93.94
351.174	110.94
351.402	92.94
351.629	104.94
351.856	90.94
352.083	103.94
352.311	105.94
352.538	110.94
352.765	102.94
352.992	98.94
353.22	110.94
353.447	99.94
353.674	88.94
353.901	95.94
354.128	90.94
354.355	83.94
354.583	104.94
354.81	96.94
355.037	90.94
355.264	110.94
355.491	97.94
355.718	97.94
355.945	96.94
356.172	86.94
356.399	103.94
356.626	85.94
356.853	86.94
357.08	99.94
357.307	92.94
357.534	99.94
357.761	88.94
357.988	91.94
358.215	96.94
358.441	93.94
358.668	96.94
358.895	93.94
359.122	87.94
359.349	84.94
359.576	79.94
359.802	93.94
360.029	107.94
360.256	98.94
360.483	106.94
360.709	95.94
360.936	92.94
361.163	104.94
361.39	88.94
361.616	90.94
361.843	91.94
362.07	87.94
362.296	94.94
362.523	96.94
362.749	97.94
362.976	84.94
363.203	96.94
363.429	97.94
363.656	78.94
363.882	82.94
364.109	88.94
364.335	96.94
364.562	83.94
364.788	88.94
365.015	104.94
365.241	90.94
365.468	92.94
365.694	85.94
365.92	103.94
366.147	94.94
366.373	74.94
366.599	92.94
366.826	88.94
367.052	80.94
367.278	95.94
367.505	93.94
367.731	91.94
367.957	99.94
368.184	84.94
368.41	105.94
368.636	114.94
368.862	113.94
369.089	102.94
369.315	91.94
369.541	87.94
369.767	79.94
369.993	78.94
370.219	83.94
370.445	75.94
370.672	89.94
370.898	77.94
371.124	104.94
371.35	89.94
371.576	82.94
371.802	83.94
372.028	88.94
372.254	83.94
372.48	92.94
372.706	77.94
372.932	99.94
373.158	99.94
373.384	91.94
373.61	103.94
373.835	88.94
374.061	82.94
374.287	80.94
374.513	88.94
374.739	88.94
374.965	103.94
375.191	84.94
375.416	98.94
375.642	86.94
375.868	92.94
376.094	82.94
376.319	84.94
376.545	87.94
376.771	92.94
376.997	74.94
377.222	87.94
377.448	93.94
377.674	77.94
377.899	72.94
378.125	95.94
378.35	90.94
378.576	91.94
378.802	97.94
379.027	97.94
379.253	95.94
379.478	96.94
379.704	95.94
379.929	102.94
380.155	102.94
380.38	99.94
380.606	94.94
380.831	104.94
381.057	83.94
381.282	84.94
381.507	94.94
381.733	105.94
381.958	92.94
382.184	78.94
382.409	111.94
382.634	93.94
382.86	90.94
383.085	104.94
383.31	110.94
383.535	101.94
383.761	93.94
383.986	106.94
384.211	100.94
384.436	96.94
384.662	100.94
384.887	112.94
385.112	108.94
385.337	123.94
385.562	107.94
385.787	100.94
386.013	118.94
386.238	121.94
386.463	105.94
386.688	107.94
386.913	120.94
387.138	104.94
387.363	110.94
387.588	107.94
387.813	102.94
388.038	116.94
388.263	124.94
388.488	114.94
388.713	102.94
388.938	89.94
389.163	97.94
389.387	98.94
389.612	96.94
389.837	86.94
390.062	102.94
390.287	88.94
390.512	90.94
390.736	97.94
390.961	92.94
391.186	93.94
391.411	102.94
391.636	84.94
391.86	75.94
392.085	81.94
392.31	88.94
392.534	100.94
392.759	92.94
392.984	101.94
393.208	104.94
393.433	105.94
393.658	87.94
393.882	85.94
394.107	88.94
394.331	84.94
394.556	97.94
394.78	88.94
395.005	96.94
395.229	78.94
395.454	94.94
395.678	107.94
395.903	82.94
396.127	80.94
396.352	78.94
396.576	81.94
396.801	79.94
397.025	91.94
397.249	90.94
397.474	87.94
397.698	94.94
397.922	88.94
398.147	86.94
398.371	82.94
398.595	91.94
398.82	78.94
399.044	69.94
399.268	80.94
399.492	79.94
399.717	71.94
399.941	90.94
400.165	76.94
400.389	92.94
400.613	89.94
400.837	103.94
401.062	86.94
401.286	83.94
401.51	81.94
401.734	75.94
401.958	114.94
402.182	113.94
402.406	154.94
402.63	106.94
402.854	87.94
403.078	93.94
403.302	83.94
403.526	88.94
403.75	81.94
403.974	98.94
404.198	77.94
404.422	96.94
404.645	82.94
404.869	90.94
405.093	100.94
405.317	103.94
405.541	95.94
405.765	90.94
405.988	108.94
406.212	177.94
406.436	227.94
406.66	148.94
406.883	111.94
407.107	93.94
407.331	96.94
407.555	91.94
407.778	99.94
408.002	79.94
408.226	93.94
408.449	94.94
408.673	95.94
408.896	105.94
409.12	90.94
409.344	82.94
409.567	93.94
409.791	94.94
410.014	94.94
410.238	80.94
410.461	100.94
410.685	90.94
410.908	89.94
411.132	101.94
411.355	93.94
411.578	83.94
411.802	88.94
412.025	84.94
412.249	85.94
412.472	89.94
412.695	94.94
412.919	80.94
413.142	78.94
413.365	86.94
413.589	78.94
413.812	79.94
414.035	95.94
414.258	95.94
414.482	90.94
414.705	93.94
414.928	93.94
415.151	84.94
415.374	84.94
415.597	90.94
415.821	87.94
416.044	89.94
416.267	93.94
416.49	93.94
416.713	84.94
416.936	82.94
417.159	98.94
417.382	107.94
417.605	84.94
417.828	89.94
418.051	96.94
418.274	103.94
418.497	79.94
418.72	87.94
418.943	102.94
419.166	91.94
419.389	84.94
419.611	84.94
419.834	91.94
420.057	81.94
420.28	85.94
420.503	86.94
420.726	93.94
420.948	98.94
421.171	94.94
421.394	100.94
421.617	91.94
421.839	81.94
422.062	67.94
422.285	98.94
422.507	99.94
422.73	108.94
422.953	95.94
423.175	99.94
423.398	85.94
423.621	99.94
423.843	94.94
424.066	91.94
424.288	83.94
424.511	86.94
424.733	92.94
424.956	108.94
425.178	96.94
425.401	109.94
425.623	94.94
425.846	88.94
426.068	95.94
426.291	92.94
426.513	95.94
426.735	85.94
426.958	95.94
427.18	110.94
427.402	125.94
427.625	176.94
427.847	123.94
428.069	107.94
428.292	78.94
428.514	72.94
428.736	81.94
428.958	86.94
429.181	81.94
429.403	88.94
429.625	90.94
429.847	99.94
430.069	104.94
430.292	77.94
430.514	88.94
430.736	99.94
430.958	92.94
431.18	75.94
431.402	77.94
431.624	90.94
431.846	91.94
432.068	87.94
432.29	87.94
432.512	80.94
432.734	96.94
432.956	84.94
433.178	99.94
433.4	91.94
433.622	96.94
433.844	85.94
434.066	92.94
434.287	90.94
434.509	95.94
434.731	88.94
434.953	80.94
435.175	77.94
435.397	111.94
435.618	84.94
435.84	101.94
436.062	113.94
436.284	121.94
436.505	99.94
436.727	84.94
436.949	70.94
437.17	88.94
437.392	84.94
437.614	104.94
437.835	108.94
438.057	112.94
438.278	97.94
438.5	94.94
438.721	118.94
438.943	92.94
439.165	85.94
439.386	86.94
439.608	92.94
439.829	97.94
440.05	123.94
440.272	134.94
440.493	101.94
440.715	92.94
440.936	77.94
441.158	94.94
441.379	97.94
441.6	84.94
441.822	92.94
442.043	88.94
442.264	110.94
442.486	92.94
442.707	99.94
442.928	108.94
443.149	109.94
443.371	107.94
443.592	94.94
443.813	90.94
444.034	106.94
444.255	94.94
444.476	92.94
444.698	95.94
444.919	92.94
445.14	124.94
445.361	115.94
445.582	96.94
445.803	133.94
446.024	120.94
446.245	117.94
446.466	98.94
446.687	80.94
446.908	86.94
447.129	96.94
447.35	86.94
447.571	107.94
447.792	100.94
448.013	103.94
448.234	102.94
448.455	95.94
448.675	107.94
448.896	109.94
449.117	98.94
449.338	83.94
449.559	114.94
449.779	115.94
450	100.94
450.221	86.94
450.442	98.94
450.662	95.94
450.883	97.94
451.104	115.94
451.324	96.94
451.545	90.94
451.766	90.94
451.986	82.94
452.207	107.94
452.428	93.94
452.648	83.94
452.869	107.94
453.089	123.94
453.31	131.94
453.53	91.94
453.751	88.94
453.971	91.94
454.192	98.94
454.412	93.94
454.633	87.94
454.853	83.94
455.073	74.94
455.294	78.94
455.514	93.94
455.734	80.94
455.955	76.94
456.175	108.94
456.395	74.94
456.616	83.94
456.836	88.94
457.056	98.94
457.276	80.94
457.497	91.94
457.717	83.94
457.937	84.94
458.157	102.94
458.377	92.94
458.598	105.94
458.818	135.94
459.038	156.94
459.258	119.94
459.478	101.94
459.698	86.94
459.918	82.94
460.138	89.94
460.358	76.94
460.578	84.94
460.798	75.94
461.018	90.94
461.238	92.94
461.458	90.94
461.678	106.94
461.898	84.94
462.118	86.94
462.338	84.94
462.558	87.94
462.777	93.94
462.997	78.94
463.217	82.94
463.437	84.94
463.657	93.94
463.876	88.94
464.096	73.94
464.316	89.94
464.536	97.94
464.755	98.94
464.975	101.94
465.195	166.94
465.414	154.94
465.634	92.94
465.854	91.94
466.073	93.94
466.293	89.94
466.512	88.94
466.732	84.94
466.951	86.94
467.171	98.94
467.391	91.94
467.61	108.94
467.829	107.94
468.049	107.94
468.268	96.94
468.488	86.94
468.707	76.94
468.927	78.94
469.146	89.94
469.365	97.94
469.585	100.94
469.804	113.94
470.023	93.94
470.243	86.94
470.462	86.94
470.681	97.94
470.901	88.94
471.12	91.94
471.339	66.94
471.558	80.94
471.777	99.94
471.997	95.94
472.216	99.94
472.435	145.94
472.654	104.94
472.873	99.94
473.092	80.94
473.311	94.94
473.53	73.94
473.749	90.94
473.968	81.94
474.187	92.94
474.406	97.94
474.625	77.94
474.844	88.94
475.063	87.94
475.282	81.94
475.501	101.94
475.72	83.94
475.939	78.94
476.158	78.94
476.377	79.94
476.596	107.94
476.814	88.94
477.033	100.94
477.252	89.94
477.471	90.94
477.69	92.94
477.908	82.94
478.127	90.94
478.346	85.94
478.564	93.94
478.783	91.94
479.002	83.94
479.22	80.94
479.439	102.94
479.658	111.94
479.876	104.94
480.095	104.94
480.313	92.94
480.532	106.94
480.751	103.94
480.969	118.94
481.188	192.94
481.406	154.94
481.624	101.94
481.843	80.94
482.061	81.94
482.28	84.94
482.498	88.94
482.717	76.94
482.935	79.94
483.153	87.94
483.372	93.94
483.59	78.94
483.808	89.94
484.027	86.94
484.245	89.94
484.463	86.94
484.681	96.94
484.9	89.94
485.118	98.94
485.336	82.94
485.554	91.94
485.772	91.94
485.99	105.94
486.209	99.94
486.427	99.94
486.645	106.94
486.863	99.94
487.081	93.94
487.299	102.94
487.517	74.94
487.735	87.94
487.953	99.94
488.171	96.94
488.389	84.94
488.607	105.94
488.825	101.94
489.043	80.94
489.261	97.94
489.479	90.94
489.696	98.94
489.914	88.94
490.132	87.94
490.35	91.94
490.568	89.94
490.786	91.94
491.003	89.94
491.221	80.94
491.439	90.94
491.657	73.94
491.874	94.94
492.092	99.94
492.31	87.94
492.527	91.94
492.745	101.94
492.963	81.94
493.18	88.94
493.398	86.94
493.615	85.94
493.833	96.94
494.05	106.94
494.268	87.94
494.485	80.94
494.703	82.94
494.92	83.94
495.138	95.94
495.355	94.94
495.573	80.94
495.79	96.94
496.008	96.94
496.225	92.94
496.442	84.94
496.66	92.94
496.877	88.94
497.094	79.94
497.312	94.94
497.529	101.94
497.746	80.94
497.963	99.94
498.181	107.94
498.398	89.94
498.615	113.94
498.832	99.94
499.049	89.94
499.267	100.94
499.484	96.94
499.701	98.94
499.918	90.94
500.135	88.94
500.352	89.94
500.569	81.94
500.786	95.94
501.003	83.94
501.22	93.94
501.437	106.94
501.654	90.94
501.871	104.94
502.088	99.94
502.305	90.94
502.522	89.94
502.739	89.94
502.956	84.94
503.172	92.94
503.389	106.94
503.606	106.94
503.823	97.94
504.04	81.94
504.256	78.94
504.473	94.94
504.69	81.94
504.907	73.94
505.123	81.94
505.34	101.94
505.557	80.94
505.773	99.94
505.99	86.94
506.207	92.94
506.423	82.94
506.64	97.94
506.856	87.94
507.073	88.94
507.289	94.94
507.506	111.94
507.722	115.94
507.939	109.94
508.155	99.94
508.372	95.94
508.588	84.94
508.805	88.94
509.021	83.94
509.238	105.94
509.454	89.94
509.67	89.94
509.887	109.94
510.103	132.94
510.319	216.94
510.536	771.94
510.752	2524.94
510.968	704.94
511.184	150.94
511.401	114.94
511.617	101.94
511.833	84.94
512.049	86.94
512.265	91.94
512.481	85.94
512.698	90.94
512.914	91.94
513.13	96.94
513.346	93.94
513.562	84.94
513.778	91.94
513.994	95.94
514.21	104.94
514.426	99.94
514.642	134.94
514.858	129.94
515.074	168.94
515.29	462.94
515.506	1507.94
515.721	557.94
515.937	146.94
