Data from Circ_2008_H10_HRD10591_00037.txt Node
Date: Wed Jan 03 10:17:03 EST 2024
User: Yrep
Spectrometer: HR+D1059
Trigger mode: 1
Integration Time (sec): 1.000000E-1
Scans to average: 1
Electric dark correction enabled: true
Nonlinearity correction enabled: false
Boxcar width: 0
XAxis mode: Wavelengths
Number of Pixels in Spectrum: 2048
>>>>>Begin Spectral Data<<<<<
223.165	-19.38
223.4	-19.38
223.635	-19.38
223.869	-21.38
224.104	-11.38
224.338	-7.38
224.573	-16.38
224.808	-15.38
225.042	-9.38
225.277	-8.38
225.511	-17.38
225.746	7.62
225.98	9.62
226.215	13.62
226.449	25.62
226.683	16.62
226.918	24.62
227.152	28.62
227.387	22.62
227.621	47.62
227.856	53.62
228.09	47.62
228.324	44.62
228.559	53.62
228.793	58.62
229.027	61.62
229.262	60.62
229.496	69.62
229.73	76.62
229.964	79.62
230.199	69.62
230.433	77.62
230.667	77.62
230.901	66.62
231.136	70.62
231.37	90.62
231.604	78.62
231.838	79.62
232.072	94.62
232.306	76.62
232.541	87.62
232.775	79.62
233.009	86.62
233.243	84.62
233.477	81.62
233.711	89.62
233.945	80.62
234.179	65.62
234.413	94.62
234.647	73.62
234.881	67.62
235.115	73.62
235.349	73.62
235.583	76.62
235.817	86.62
236.051	66.62
236.285	78.62
236.519	91.62
236.753	81.62
236.987	76.62
237.221	77.62
237.455	88.62
237.689	82.62
237.922	89.62
238.156	66.62
238.39	73.62
238.624	89.62
238.858	78.62
239.091	76.62
239.325	65.62
239.559	80.62
239.793	69.62
240.027	85.62
240.26	75.62
240.494	81.62
240.728	72.62
240.961	70.62
241.195	69.62
241.429	74.62
241.662	71.62
241.896	73.62
242.13	86.62
242.363	75.62
242.597	70.62
242.83	65.62
243.064	71.62
243.298	70.62
243.531	60.62
243.765	75.62
243.998	80.62
244.232	79.62
244.465	88.62
244.699	83.62
244.932	76.62
245.166	68.62
245.399	63.62
245.633	68.62
245.866	88.62
246.099	80.62
246.333	74.62
246.566	78.62
246.8	60.62
247.033	76.62
247.266	70.62
247.5	57.62
247.733	87.62
247.966	78.62
248.2	73.62
248.433	72.62
248.666	71.62
248.899	92.62
249.133	95.62
249.366	82.62
249.599	93.62
249.832	83.62
250.066	88.62
250.299	85.62
250.532	90.62
250.765	74.62
250.998	67.62
251.231	80.62
251.465	82.62
251.698	75.62
251.931	85.62
252.164	64.62
252.397	64.62
252.63	74.62
252.863	84.62
253.096	68.62
253.329	83.62
253.562	78.62
253.795	86.62
254.028	78.62
254.261	70.62
254.494	85.62
254.727	77.62
254.96	88.62
255.193	79.62
255.426	56.62
255.659	73.62
255.892	69.62
256.124	79.62
256.357	93.62
256.59	80.62
256.823	79.62
257.056	83.62
257.289	74.62
257.521	78.62
257.754	81.62
257.987	94.62
258.22	88.62
258.452	76.62
258.685	82.62
258.918	70.62
259.151	72.62
259.383	80.62
259.616	79.62
259.849	71.62
260.081	80.62
260.314	88.62
260.547	92.62
260.779	83.62
261.012	76.62
261.244	90.62
261.477	85.62
261.71	96.62
261.942	104.62
262.175	101.62
262.407	96.62
262.64	72.62
262.872	87.62
263.105	90.62
263.337	73.62
263.57	88.62
263.802	78.62
264.035	86.62
264.267	85.62
264.499	80.62
264.732	87.62
264.964	80.62
265.197	74.62
265.429	61.62
265.661	77.62
265.894	81.62
266.126	86.62
266.358	72.62
266.591	86.62
266.823	86.62
267.055	96.62
267.287	84.62
267.52	79.62
267.752	74.62
267.984	92.62
268.216	89.62
268.448	76.62
268.681	93.62
268.913	80.62
269.145	75.62
269.377	75.62
269.609	74.62
269.841	72.62
270.073	80.62
270.306	93.62
270.538	96.62
270.77	86.62
271.002	64.62
271.234	86.62
271.466	92.62
271.698	94.62
271.93	88.62
272.162	80.62
272.394	81.62
272.626	67.62
272.858	88.62
273.09	97.62
273.322	69.62
273.553	73.62
273.785	81.62
274.017	84.62
274.249	83.62
274.481	92.62
274.713	93.62
274.945	76.62
275.176	78.62
275.408	98.62
275.64	70.62
275.872	83.62
276.104	71.62
276.335	96.62
276.567	86.62
276.799	105.62
277.031	88.62
277.262	99.62
277.494	86.62
277.726	84.62
277.957	88.62
278.189	81.62
278.421	93.62
278.652	92.62
278.884	85.62
279.115	84.62
279.347	92.62
279.579	80.62
279.81	86.62
280.042	86.62
280.273	92.62
280.505	93.62
280.736	88.62
280.968	86.62
281.199	81.62
281.431	79.62
281.662	92.62
281.894	93.62
282.125	89.62
282.356	98.62
282.588	122.62
282.819	106.62
283.051	82.62
283.282	77.62
283.513	79.62
283.745	84.62
283.976	81.62
284.207	84.62
284.439	79.62
284.67	87.62
284.901	89.62
285.132	80.62
285.364	84.62
285.595	81.62
285.826	68.62
286.057	88.62
286.288	79.62
286.52	94.62
286.751	73.62
286.982	85.62
287.213	83.62
287.444	88.62
287.675	89.62
287.906	88.62
288.138	84.62
288.369	88.62
288.6	91.62
288.831	85.62
289.062	93.62
289.293	101.62
289.524	88.62
289.755	78.62
289.986	85.62
290.217	83.62
290.448	81.62
290.679	103.62
290.91	87.62
291.141	81.62
291.371	87.62
291.602	91.62
291.833	77.62
292.064	84.62
292.295	80.62
292.526	97.62
292.757	76.62
292.987	95.62
293.218	98.62
293.449	83.62
293.68	77.62
293.91	85.62
294.141	92.62
294.372	94.62
294.603	87.62
294.833	98.62
295.064	83.62
295.295	93.62
295.525	97.62
295.756	90.62
295.987	91.62
296.217	126.62
296.448	119.62
296.679	65.62
296.909	88.62
297.14	94.62
297.37	82.62
297.601	80.62
297.831	84.62
298.062	87.62
298.292	99.62
298.523	82.62
298.753	78.62
298.984	93.62
299.214	78.62
299.445	80.62
299.675	82.62
299.905	103.62
300.136	90.62
300.366	84.62
300.597	90.62
300.827	99.62
301.057	101.62
301.288	96.62
301.518	90.62
301.748	98.62
301.979	105.62
302.209	79.62
302.439	88.62
302.669	96.62
302.9	100.62
303.13	99.62
303.36	94.62
303.59	100.62
303.82	96.62
304.051	92.62
304.281	79.62
304.511	87.62
304.741	93.62
304.971	77.62
305.201	76.62
305.431	95.62
305.661	107.62
305.891	85.62
306.121	82.62
306.352	98.62
306.582	91.62
306.812	77.62
307.042	83.62
307.272	80.62
307.502	89.62
307.731	89.62
307.961	97.62
308.191	99.62
308.421	98.62
308.651	93.62
308.881	99.62
309.111	81.62
309.341	80.62
309.571	89.62
309.8	85.62
310.03	100.62
310.26	83.62
310.49	87.62
310.72	90.62
310.949	104.62
311.179	88.62
311.409	93.62
311.639	87.62
311.868	97.62
312.098	104.62
312.328	94.62
312.557	104.62
312.787	100.62
313.017	98.62
313.246	90.62
313.476	87.62
313.706	93.62
313.935	91.62
314.165	103.62
314.394	95.62
314.624	105.62
314.853	93.62
315.083	69.62
315.312	77.62
315.542	71.62
315.771	85.62
316.001	90.62
316.23	89.62
316.46	80.62
316.689	92.62
316.919	104.62
317.148	88.62
317.377	93.62
317.607	88.62
317.836	81.62
318.065	91.62
318.295	89.62
318.524	101.62
318.753	87.62
318.983	76.62
319.212	87.62
319.441	90.62
319.67	108.62
319.9	91.62
320.129	97.62
320.358	96.62
320.587	89.62
320.816	88.62
321.046	101.62
321.275	95.62
321.504	100.62
321.733	92.62
321.962	85.62
322.191	98.62
322.42	96.62
322.649	96.62
322.878	93.62
323.108	121.62
323.337	120.62
323.566	108.62
323.795	132.62
324.024	193.62
324.253	332.62
324.482	654.62
324.71	1242.62
324.939	1692.62
325.168	648.62
325.397	212.62
325.626	136.62
325.855	124.62
326.084	123.62
326.313	115.62
326.542	134.62
326.77	194.62
326.999	355.62
327.228	717.62
327.457	1255.62
327.686	996.62
327.914	301.62
328.143	170.62
328.372	142.62
328.6	123.62
328.829	123.62
329.058	106.62
329.287	104.62
329.515	93.62
329.744	96.62
329.972	99.62
330.201	130.62
330.43	140.62
330.658	123.62
330.887	129.62
331.115	119.62
331.344	83.62
331.572	100.62
331.801	106.62
332.03	90.62
332.258	86.62
332.486	86.62
332.715	85.62
332.943	101.62
333.172	88.62
333.4	109.62
333.629	90.62
333.857	111.62
334.085	111.62
334.314	118.62
334.542	126.62
334.771	143.62
334.999	94.62
335.227	85.62
335.455	82.62
335.684	88.62
335.912	98.62
336.14	92.62
336.369	88.62
336.597	101.62
336.825	94.62
337.053	85.62
337.281	98.62
337.51	76.62
337.738	101.62
337.966	86.62
338.194	79.62
338.422	82.62
338.65	89.62
338.878	92.62
339.106	80.62
339.334	85.62
339.562	93.62
339.79	92.62
340.018	92.62
340.246	90.62
340.474	75.62
340.702	86.62
340.93	92.62
341.158	99.62
341.386	80.62
341.614	101.62
341.842	85.62
342.07	77.62
342.298	108.62
342.526	90.62
342.754	79.62
342.981	85.62
343.209	93.62
343.437	103.62
343.665	92.62
343.893	90.62
344.12	86.62
344.348	88.62
344.576	89.62
344.804	94.62
345.031	79.62
345.259	87.62
345.487	88.62
345.714	82.62
345.942	98.62
346.17	90.62
346.397	87.62
346.625	87.62
346.853	80.62
347.08	95.62
347.308	108.62
347.535	91.62
347.763	85.62
347.99	91.62
348.218	99.62
348.445	106.62
348.673	80.62
348.9	95.62
349.128	100.62
349.355	92.62
349.583	79.62
349.81	89.62
350.037	90.62
350.265	94.62
350.492	103.62
350.72	95.62
350.947	99.62
351.174	96.62
351.402	104.62
351.629	92.62
351.856	96.62
352.083	88.62
352.311	92.62
352.538	104.62
352.765	105.62
352.992	104.62
353.22	107.62
353.447	104.62
353.674	107.62
353.901	106.62
354.128	96.62
354.355	108.62
354.583	90.62
354.81	85.62
355.037	100.62
355.264	92.62
355.491	85.62
355.718	91.62
355.945	90.62
356.172	88.62
356.399	93.62
356.626	92.62
356.853	94.62
357.08	90.62
357.307	94.62
357.534	85.62
357.761	97.62
357.988	84.62
358.215	94.62
358.441	89.62
358.668	98.62
358.895	76.62
359.122	80.62
359.349	89.62
359.576	91.62
359.802	86.62
360.029	98.62
360.256	103.62
360.483	89.62
360.709	80.62
360.936	83.62
361.163	76.62
361.39	85.62
361.616	93.62
361.843	69.62
362.07	105.62
362.296	88.62
362.523	72.62
362.749	88.62
362.976	96.62
363.203	95.62
363.429	85.62
363.656	102.62
363.882	89.62
364.109	85.62
364.335	80.62
364.562	82.62
364.788	97.62
365.015	80.62
365.241	83.62
365.468	105.62
365.694	93.62
365.92	92.62
366.147	82.62
366.373	80.62
366.599	98.62
366.826	82.62
367.052	101.62
367.278	104.62
367.505	89.62
367.731	92.62
367.957	81.62
368.184	88.62
368.41	94.62
368.636	103.62
368.862	109.62
369.089	115.62
369.315	97.62
369.541	104.62
369.767	82.62
369.993	85.62
370.219	83.62
370.445	69.62
370.672	79.62
370.898	74.62
371.124	97.62
371.35	83.62
371.576	88.62
371.802	95.62
372.028	78.62
372.254	93.62
372.48	80.62
372.706	86.62
372.932	101.62
373.158	84.62
373.384	91.62
373.61	91.62
373.835	88.62
374.061	93.62
374.287	81.62
374.513	93.62
374.739	94.62
374.965	85.62
375.191	89.62
375.416	74.62
375.642	97.62
375.868	81.62
376.094	82.62
376.319	85.62
376.545	88.62
376.771	82.62
376.997	97.62
377.222	82.62
377.448	101.62
377.674	101.62
377.899	94.62
378.125	83.62
378.35	102.62
378.576	91.62
378.802	93.62
379.027	87.62
379.253	84.62
379.478	82.62
379.704	77.62
379.929	83.62
380.155	83.62
380.38	88.62
380.606	88.62
380.831	103.62
381.057	109.62
381.282	95.62
381.507	98.62
381.733	79.62
381.958	101.62
382.184	91.62
382.409	91.62
382.634	108.62
382.86	92.62
383.085	101.62
383.31	101.62
383.535	106.62
383.761	110.62
383.986	100.62
384.211	104.62
384.436	108.62
384.662	93.62
384.887	106.62
385.112	102.62
385.337	119.62
385.562	107.62
385.787	94.62
386.013	106.62
386.238	122.62
386.463	102.62
386.688	111.62
386.913	110.62
387.138	102.62
387.363	101.62
387.588	95.62
387.813	104.62
388.038	114.62
388.263	95.62
388.488	105.62
388.713	106.62
388.938	87.62
389.163	96.62
389.387	103.62
389.612	95.62
389.837	103.62
390.062	96.62
390.287	90.62
390.512	80.62
390.736	79.62
390.961	83.62
391.186	100.62
391.411	97.62
391.636	82.62
391.86	84.62
392.085	88.62
392.31	86.62
392.534	103.62
392.759	82.62
392.984	92.62
393.208	93.62
393.433	102.62
393.658	100.62
393.882	84.62
394.107	80.62
394.331	89.62
394.556	82.62
394.78	79.62
395.005	88.62
395.229	74.62
395.454	87.62
395.678	81.62
395.903	76.62
396.127	91.62
396.352	71.62
396.576	80.62
396.801	94.62
397.025	88.62
397.249	92.62
397.474	93.62
397.698	88.62
397.922	85.62
398.147	79.62
398.371	85.62
398.595	89.62
398.82	81.62
399.044	94.62
399.268	81.62
399.492	68.62
399.717	84.62
399.941	92.62
400.165	107.62
400.389	92.62
400.613	89.62
400.837	82.62
401.062	77.62
401.286	86.62
401.51	81.62
401.734	95.62
401.958	104.62
402.182	124.62
402.406	149.62
402.63	91.62
402.854	94.62
403.078	97.62
403.302	104.62
403.526	90.62
403.75	84.62
403.974	80.62
404.198	72.62
404.422	84.62
404.645	81.62
404.869	86.62
405.093	79.62
405.317	83.62
405.541	91.62
405.765	92.62
405.988	124.62
406.212	154.62
406.436	214.62
406.66	141.62
406.883	88.62
407.107	91.62
407.331	90.62
407.555	99.62
407.778	95.62
408.002	89.62
408.226	92.62
408.449	99.62
408.673	97.62
408.896	96.62
409.12	103.62
409.344	79.62
409.567	76.62
409.791	90.62
410.014	94.62
410.238	105.62
410.461	99.62
410.685	99.62
410.908	96.62
411.132	103.62
411.355	91.62
411.578	74.62
411.802	97.62
412.025	96.62
412.249	86.62
412.472	88.62
412.695	85.62
412.919	84.62
413.142	78.62
413.365	80.62
413.589	68.62
413.812	89.62
414.035	97.62
414.258	95.62
414.482	75.62
414.705	87.62
414.928	69.62
415.151	95.62
415.374	96.62
415.597	79.62
415.821	94.62
416.044	100.62
416.267	86.62
416.49	85.62
416.713	90.62
416.936	83.62
417.159	81.62
417.382	94.62
417.605	89.62
417.828	65.62
418.051	96.62
418.274	78.62
418.497	89.62
418.72	77.62
418.943	80.62
419.166	91.62
419.389	85.62
419.611	100.62
419.834	87.62
420.057	82.62
420.28	84.62
420.503	73.62
420.726	90.62
420.948	86.62
421.171	89.62
421.394	100.62
421.617	98.62
421.839	91.62
422.062	97.62
422.285	95.62
422.507	101.62
422.73	93.62
422.953	85.62
423.175	89.62
423.398	86.62
423.621	81.62
423.843	86.62
424.066	83.62
424.288	97.62
424.511	77.62
424.733	95.62
424.956	97.62
425.178	86.62
425.401	95.62
425.623	109.62
425.846	88.62
426.068	95.62
426.291	89.62
426.513	85.62
426.735	89.62
426.958	82.62
427.18	87.62
427.402	130.62
427.625	144.62
427.847	114.62
428.069	95.62
428.292	91.62
428.514	89.62
428.736	86.62
428.958	80.62
429.181	87.62
429.403	92.62
429.625	91.62
429.847	91.62
430.069	80.62
430.292	94.62
430.514	78.62
430.736	71.62
430.958	82.62
431.18	84.62
431.402	82.62
431.624	79.62
431.846	86.62
432.068	73.62
432.29	76.62
432.512	81.62
432.734	81.62
432.956	89.62
433.178	94.62
433.4	86.62
433.622	90.62
433.844	89.62
434.066	82.62
434.287	75.62
434.509	79.62
434.731	77.62
434.953	85.62
435.175	93.62
435.397	79.62
435.618	81.62
435.84	92.62
436.062	108.62
436.284	109.62
436.505	105.62
436.727	96.62
436.949	97.62
437.17	93.62
437.392	80.62
437.614	90.62
437.835	113.62
438.057	98.62
438.278	93.62
438.5	93.62
438.721	94.62
438.943	101.62
439.165	89.62
439.386	91.62
439.608	86.62
439.829	96.62
440.05	103.62
440.272	126.62
440.493	78.62
440.715	68.62
440.936	80.62
441.158	81.62
441.379	102.62
441.6	75.62
441.822	81.62
442.043	82.62
442.264	96.62
442.486	93.62
442.707	93.62
442.928	93.62
443.149	117.62
443.371	121.62
443.592	95.62
443.813	111.62
444.034	94.62
444.255	87.62
444.476	84.62
444.698	86.62
444.919	86.62
445.14	111.62
445.361	110.62
445.582	90.62
445.803	128.62
446.024	109.62
446.245	116.62
446.466	103.62
446.687	82.62
446.908	79.62
447.129	84.62
447.35	79.62
447.571	82.62
447.792	75.62
448.013	91.62
448.234	105.62
448.455	94.62
448.675	93.62
448.896	111.62
449.117	101.62
449.338	107.62
449.559	116.62
449.779	124.62
450	91.62
450.221	97.62
450.442	83.62
450.662	84.62
450.883	107.62
451.104	123.62
451.324	96.62
451.545	88.62
451.766	80.62
451.986	89.62
452.207	72.62
452.428	88.62
452.648	93.62
452.869	95.62
453.089	121.62
453.31	116.62
453.53	89.62
453.751	79.62
453.971	107.62
454.192	101.62
454.412	91.62
454.633	97.62
454.853	89.62
455.073	77.62
455.294	87.62
455.514	93.62
455.734	86.62
455.955	83.62
456.175	91.62
456.395	73.62
456.616	74.62
456.836	89.62
457.056	88.62
457.276	62.62
457.497	76.62
457.717	77.62
457.937	88.62
458.157	95.62
458.377	93.62
458.598	97.62
458.818	127.62
459.038	144.62
459.258	99.62
459.478	82.62
459.698	89.62
459.918	74.62
460.138	95.62
460.358	98.62
460.578	83.62
460.798	97.62
461.018	81.62
461.238	81.62
461.458	84.62
461.678	79.62
461.898	87.62
462.118	89.62
462.338	83.62
462.558	84.62
462.777	72.62
462.997	88.62
463.217	82.62
463.437	86.62
463.657	80.62
463.876	68.62
464.096	86.62
464.316	87.62
464.536	78.62
464.755	80.62
464.975	103.62
465.195	159.62
465.414	136.62
465.634	97.62
465.854	104.62
466.073	73.62
466.293	86.62
466.512	81.62
466.732	87.62
466.951	90.62
467.171	87.62
467.391	89.62
467.61	97.62
467.829	114.62
468.049	91.62
468.268	104.62
468.488	96.62
468.707	79.62
468.927	87.62
469.146	88.62
469.365	82.62
469.585	82.62
469.804	84.62
470.023	94.62
470.243	90.62
470.462	99.62
470.681	98.62
470.901	81.62
471.12	78.62
471.339	92.62
471.558	71.62
471.777	79.62
471.997	92.62
472.216	119.62
472.435	156.62
472.654	106.62
472.873	84.62
473.092	91.62
473.311	94.62
473.53	90.62
473.749	81.62
473.968	79.62
474.187	93.62
474.406	99.62
474.625	83.62
474.844	97.62
475.063	85.62
475.282	91.62
475.501	81.62
475.72	83.62
475.939	88.62
476.158	71.62
476.377	84.62
476.596	80.62
476.814	92.62
477.033	81.62
477.252	70.62
477.471	74.62
477.69	92.62
477.908	81.62
478.127	80.62
478.346	90.62
478.564	66.62
478.783	84.62
479.002	95.62
479.22	88.62
479.439	95.62
479.658	111.62
479.876	91.62
480.095	90.62
480.313	84.62
480.532	82.62
480.751	100.62
480.969	101.62
481.188	249.62
481.406	182.62
481.624	104.62
481.843	66.62
482.061	75.62
482.28	88.62
482.498	90.62
482.717	78.62
482.935	84.62
483.153	88.62
483.372	87.62
483.59	100.62
483.808	84.62
484.027	89.62
484.245	89.62
484.463	86.62
484.681	98.62
484.9	75.62
485.118	99.62
485.336	77.62
485.554	102.62
485.772	102.62
485.99	101.62
486.209	92.62
486.427	90.62
486.645	95.62
486.863	109.62
487.081	85.62
487.299	82.62
487.517	90.62
487.735	107.62
487.953	74.62
488.171	80.62
488.389	85.62
488.607	99.62
488.825	91.62
489.043	90.62
489.261	80.62
489.479	88.62
489.696	76.62
489.914	86.62
490.132	92.62
490.35	86.62
490.568	86.62
490.786	80.62
491.003	88.62
491.221	98.62
491.439	87.62
491.657	88.62
491.874	100.62
492.092	86.62
492.31	85.62
492.527	96.62
492.745	98.62
492.963	88.62
493.18	89.62
493.398	93.62
493.615	97.62
493.833	89.62
494.05	93.62
494.268	82.62
494.485	76.62
494.703	84.62
494.92	80.62
495.138	86.62
495.355	90.62
495.573	94.62
495.79	96.62
496.008	87.62
496.225	74.62
496.442	82.62
496.66	90.62
496.877	93.62
497.094	100.62
497.312	94.62
497.529	87.62
497.746	89.62
497.963	102.62
498.181	88.62
498.398	93.62
498.615	112.62
498.832	94.62
499.049	85.62
499.267	102.62
499.484	75.62
499.701	67.62
499.918	72.62
500.135	90.62
500.352	86.62
500.569	84.62
500.786	100.62
501.003	88.62
501.22	90.62
501.437	76.62
501.654	97.62
501.871	107.62
502.088	95.62
502.305	104.62
502.522	87.62
502.739	88.62
502.956	93.62
503.172	79.62
503.389	88.62
503.606	107.62
503.823	73.62
504.04	81.62
504.256	92.62
504.473	93.62
504.69	82.62
504.907	91.62
505.123	81.62
505.34	94.62
505.557	84.62
505.773	89.62
505.99	90.62
506.207	89.62
506.423	85.62
506.64	106.62
506.856	87.62
507.073	91.62
507.289	84.62
507.506	72.62
507.722	112.62
507.939	108.62
508.155	94.62
508.372	86.62
508.588	88.62
508.805	92.62
509.021	94.62
509.238	76.62
509.454	102.62
509.67	107.62
509.887	103.62
510.103	129.62
510.319	207.62
510.536	723.62
510.752	2351.62
510.968	668.62
511.184	144.62
511.401	110.62
511.617	91.62
511.833	88.62
512.049	73.62
512.265	102.62
512.481	91.62
512.698	97.62
512.914	104.62
513.13	101.62
513.346	92.62
513.562	95.62
513.778	84.62
513.994	94.62
514.21	92.62
514.426	108.62
514.642	118.62
514.858	116.62
515.074	152.62
515.29	432.62
515.506	1372.62
515.721	518.62
515.937	140.62
516.153	98.62
516.369	113.62
516.585	99.62
