Data from Circ_2008_H10_HRD10591_00031.txt Node
Date: Wed Jan 03 10:17:02 EST 2024
User: Yrep
Spectrometer: HR+D1059
Trigger mode: 1
Integration Time (sec): 1.000000E-1
Scans to average: 1
Electric dark correction enabled: true
Nonlinearity correction enabled: false
Boxcar width: 0
XAxis mode: Wavelengths
Number of Pixels in Spectrum: 2048
>>>>>Begin Spectral Data<<<<<
223.165	-22.12
223.4	-22.12
223.635	-22.12
223.869	-32.12
224.104	-19.12
224.338	-8.12
224.573	-19.12
224.808	-7.12
225.042	-10.12
225.277	-6.12
225.511	-7.12
225.746	-2.12
225.98	15.88
226.215	16.88
226.449	6.88
226.683	18.88
226.918	33.88
227.152	40.88
227.387	38.88
227.621	42.88
227.856	37.88
228.09	49.88
228.324	52.88
228.559	62.88
228.793	62.88
229.027	53.88
229.262	54.88
229.496	67.88
229.73	64.88
229.964	86.88
230.199	71.88
230.433	71.88
230.667	70.88
230.901	69.88
231.136	64.88
231.37	65.88
231.604	77.88
231.838	88.88
232.072	75.88
232.306	81.88
232.541	83.88
232.775	87.88
233.009	72.88
233.243	79.88
233.477	78.88
233.711	76.88
233.945	85.88
234.179	67.88
234.413	78.88
234.647	58.88
234.881	71.88
235.115	67.88
235.349	77.88
235.583	75.88
235.817	76.88
236.051	73.88
236.285	81.88
236.519	65.88
236.753	96.88
236.987	75.88
237.221	86.88
237.455	87.88
237.689	70.88
237.922	68.88
238.156	69.88
238.39	78.88
238.624	70.88
238.858	62.88
239.091	87.88
239.325	74.88
239.559	77.88
239.793	71.88
240.027	80.88
240.26	69.88
240.494	72.88
240.728	82.88
240.961	60.88
241.195	75.88
241.429	70.88
241.662	70.88
241.896	79.88
242.13	61.88
242.363	66.88
242.597	70.88
242.83	83.88
243.064	71.88
243.298	84.88
243.531	73.88
243.765	83.88
243.998	67.88
244.232	80.88
244.465	84.88
244.699	80.88
244.932	71.88
245.166	79.88
245.399	77.88
245.633	75.88
245.866	79.88
246.099	82.88
246.333	77.88
246.566	82.88
246.8	65.88
247.033	84.88
247.266	82.88
247.5	67.88
247.733	66.88
247.966	74.88
248.2	77.88
248.433	81.88
248.666	80.88
248.899	79.88
249.133	81.88
249.366	84.88
249.599	83.88
249.832	74.88
250.066	77.88
250.299	78.88
250.532	78.88
250.765	83.88
250.998	71.88
251.231	74.88
251.465	84.88
251.698	73.88
251.931	63.88
252.164	81.88
252.397	70.88
252.63	73.88
252.863	81.88
253.096	74.88
253.329	67.88
253.562	72.88
253.795	69.88
254.028	65.88
254.261	86.88
254.494	74.88
254.727	82.88
254.96	65.88
255.193	73.88
255.426	67.88
255.659	74.88
255.892	75.88
256.124	80.88
256.357	84.88
256.59	69.88
256.823	78.88
257.056	70.88
257.289	83.88
257.521	76.88
257.754	71.88
257.987	83.88
258.22	75.88
258.452	75.88
258.685	65.88
258.918	80.88
259.151	80.88
259.383	75.88
259.616	88.88
259.849	87.88
260.081	72.88
260.314	74.88
260.547	78.88
260.779	91.88
261.012	72.88
261.244	85.88
261.477	95.88
261.71	85.88
261.942	97.88
262.175	113.88
262.407	79.88
262.64	78.88
262.872	77.88
263.105	83.88
263.337	84.88
263.57	78.88
263.802	87.88
264.035	85.88
264.267	90.88
264.499	79.88
264.732	81.88
264.964	86.88
265.197	69.88
265.429	91.88
265.661	76.88
265.894	75.88
266.126	81.88
266.358	77.88
266.591	78.88
266.823	86.88
267.055	76.88
267.287	79.88
267.52	77.88
267.752	85.88
267.984	84.88
268.216	85.88
268.448	99.88
268.681	84.88
268.913	64.88
269.145	83.88
269.377	79.88
269.609	84.88
269.841	89.88
270.073	77.88
270.306	84.88
270.538	99.88
270.77	99.88
271.002	76.88
271.234	74.88
271.466	76.88
271.698	75.88
271.93	73.88
272.162	90.88
272.394	69.88
272.626	92.88
272.858	95.88
273.09	71.88
273.322	76.88
273.553	83.88
273.785	81.88
274.017	77.88
274.249	87.88
274.481	78.88
274.713	74.88
274.945	77.88
275.176	84.88
275.408	78.88
275.64	80.88
275.872	80.88
276.104	82.88
276.335	71.88
276.567	96.88
276.799	107.88
277.031	84.88
277.262	93.88
277.494	77.88
277.726	87.88
277.957	85.88
278.189	75.88
278.421	80.88
278.652	92.88
278.884	75.88
279.115	91.88
279.347	83.88
279.579	90.88
279.81	95.88
280.042	78.88
280.273	89.88
280.505	89.88
280.736	92.88
280.968	83.88
281.199	81.88
281.431	85.88
281.662	91.88
281.894	80.88
282.125	98.88
282.356	116.88
282.588	141.88
282.819	108.88
283.051	76.88
283.282	75.88
283.513	87.88
283.745	93.88
283.976	90.88
284.207	89.88
284.439	79.88
284.67	81.88
284.901	88.88
285.132	76.88
285.364	83.88
285.595	83.88
285.826	81.88
286.057	67.88
286.288	79.88
286.52	85.88
286.751	70.88
286.982	80.88
287.213	79.88
287.444	88.88
287.675	75.88
287.906	96.88
288.138	90.88
288.369	88.88
288.6	98.88
288.831	73.88
289.062	87.88
289.293	60.88
289.524	77.88
289.755	72.88
289.986	78.88
290.217	77.88
290.448	69.88
290.679	82.88
290.91	78.88
291.141	87.88
291.371	96.88
291.602	73.88
291.833	88.88
292.064	91.88
292.295	84.88
292.526	97.88
292.757	93.88
292.987	85.88
293.218	78.88
293.449	91.88
293.68	93.88
293.91	85.88
294.141	91.88
294.372	93.88
294.603	84.88
294.833	80.88
295.064	90.88
295.295	69.88
295.525	88.88
295.756	85.88
295.987	99.88
296.217	133.88
296.448	128.88
296.679	81.88
296.909	72.88
297.14	99.88
297.37	85.88
297.601	94.88
297.831	83.88
298.062	89.88
298.292	92.88
298.523	92.88
298.753	75.88
298.984	81.88
299.214	87.88
299.445	88.88
299.675	99.88
299.905	83.88
300.136	77.88
300.366	88.88
300.597	81.88
300.827	99.88
301.057	100.88
301.288	110.88
301.518	79.88
301.748	90.88
301.979	100.88
302.209	91.88
302.439	86.88
302.669	78.88
302.9	81.88
303.13	95.88
303.36	84.88
303.59	79.88
303.82	83.88
304.051	84.88
304.281	75.88
304.511	71.88
304.741	74.88
304.971	85.88
305.201	94.88
305.431	87.88
305.661	74.88
305.891	86.88
306.121	92.88
306.352	96.88
306.582	107.88
306.812	97.88
307.042	87.88
307.272	76.88
307.502	99.88
307.731	81.88
307.961	91.88
308.191	86.88
308.421	84.88
308.651	71.88
308.881	89.88
309.111	89.88
309.341	104.88
309.571	91.88
309.8	87.88
310.03	89.88
310.26	94.88
310.49	103.88
310.72	98.88
310.949	97.88
311.179	96.88
311.409	92.88
311.639	95.88
311.868	93.88
312.098	90.88
312.328	86.88
312.557	103.88
312.787	103.88
313.017	102.88
313.246	87.88
313.476	95.88
313.706	92.88
313.935	86.88
314.165	95.88
314.394	90.88
314.624	84.88
314.853	74.88
315.083	94.88
315.312	87.88
315.542	88.88
315.771	93.88
316.001	96.88
316.23	87.88
316.46	97.88
316.689	87.88
316.919	75.88
317.148	93.88
317.377	93.88
317.607	92.88
317.836	89.88
318.065	96.88
318.295	80.88
318.524	96.88
318.753	85.88
318.983	90.88
319.212	88.88
319.441	94.88
319.67	101.88
319.9	96.88
320.129	92.88
320.358	96.88
320.587	79.88
320.816	93.88
321.046	103.88
321.275	100.88
321.504	90.88
321.733	92.88
321.962	81.88
322.191	92.88
322.42	110.88
322.649	106.88
322.878	101.88
323.108	109.88
323.337	108.88
323.566	137.88
323.795	151.88
324.024	197.88
324.253	336.88
324.482	735.88
324.71	1448.88
324.939	1889.88
325.168	722.88
325.397	217.88
325.626	139.88
325.855	120.88
326.084	96.88
326.313	122.88
326.542	144.88
326.77	197.88
326.999	395.88
327.228	802.88
327.457	1429.88
327.686	1115.88
327.914	333.88
328.143	184.88
328.372	133.88
328.6	119.88
328.829	113.88
329.058	115.88
329.287	130.88
329.515	101.88
329.744	98.88
329.972	103.88
330.201	121.88
330.43	143.88
330.658	115.88
330.887	140.88
331.115	122.88
331.344	92.88
331.572	102.88
331.801	108.88
332.03	105.88
332.258	90.88
332.486	78.88
332.715	96.88
332.943	80.88
333.172	91.88
333.4	94.88
333.629	110.88
333.857	108.88
334.085	102.88
334.314	106.88
334.542	132.88
334.771	130.88
334.999	87.88
335.227	87.88
335.455	96.88
335.684	89.88
335.912	107.88
336.14	87.88
336.369	77.88
336.597	93.88
336.825	92.88
337.053	89.88
337.281	80.88
337.51	82.88
337.738	79.88
337.966	75.88
338.194	91.88
338.422	83.88
338.65	85.88
338.878	93.88
339.106	93.88
339.334	86.88
339.562	78.88
339.79	93.88
340.018	87.88
340.246	94.88
340.474	91.88
340.702	84.88
340.93	80.88
341.158	85.88
341.386	88.88
341.614	93.88
341.842	76.88
342.07	88.88
342.298	79.88
342.526	84.88
342.754	78.88
342.981	79.88
343.209	85.88
343.437	92.88
343.665	70.88
343.893	77.88
344.12	79.88
344.348	79.88
344.576	84.88
344.804	92.88
345.031	95.88
345.259	88.88
345.487	90.88
345.714	96.88
345.942	95.88
346.17	99.88
346.397	89.88
346.625	89.88
346.853	90.88
347.08	92.88
347.308	88.88
347.535	102.88
347.763	83.88
347.99	81.88
348.218	91.88
348.445	103.88
348.673	80.88
348.9	82.88
349.128	87.88
349.355	81.88
349.583	87.88
349.81	78.88
350.037	97.88
350.265	89.88
350.492	94.88
350.72	81.88
350.947	111.88
351.174	96.88
351.402	105.88
351.629	104.88
351.856	94.88
352.083	78.88
352.311	89.88
352.538	98.88
352.765	95.88
352.992	119.88
353.22	93.88
353.447	99.88
353.674	89.88
353.901	85.88
354.128	93.88
354.355	98.88
354.583	103.88
354.81	89.88
355.037	85.88
355.264	83.88
355.491	93.88
355.718	102.88
355.945	85.88
356.172	93.88
356.399	79.88
356.626	94.88
356.853	96.88
357.08	80.88
357.307	81.88
357.534	78.88
357.761	83.88
357.988	84.88
358.215	100.88
358.441	93.88
358.668	85.88
358.895	94.88
359.122	87.88
359.349	86.88
359.576	100.88
359.802	103.88
360.029	124.88
360.256	105.88
360.483	82.88
360.709	93.88
360.936	100.88
361.163	106.88
361.39	85.88
361.616	96.88
361.843	78.88
362.07	83.88
362.296	87.88
362.523	89.88
362.749	86.88
362.976	84.88
363.203	99.88
363.429	85.88
363.656	88.88
363.882	81.88
364.109	68.88
364.335	80.88
364.562	72.88
364.788	71.88
365.015	91.88
365.241	84.88
365.468	104.88
365.694	116.88
365.92	97.88
366.147	87.88
366.373	95.88
366.599	76.88
366.826	77.88
367.052	75.88
367.278	78.88
367.505	89.88
367.731	98.88
367.957	104.88
368.184	80.88
368.41	100.88
368.636	111.88
368.862	106.88
369.089	108.88
369.315	95.88
369.541	92.88
369.767	74.88
369.993	89.88
370.219	81.88
370.445	86.88
370.672	81.88
370.898	90.88
371.124	72.88
371.35	78.88
371.576	81.88
371.802	71.88
372.028	87.88
372.254	91.88
372.48	86.88
372.706	85.88
372.932	88.88
373.158	75.88
373.384	91.88
373.61	79.88
373.835	94.88
374.061	99.88
374.287	92.88
374.513	65.88
374.739	93.88
374.965	81.88
375.191	95.88
375.416	85.88
375.642	91.88
375.868	81.88
376.094	79.88
376.319	93.88
376.545	83.88
376.771	85.88
376.997	70.88
377.222	84.88
377.448	74.88
377.674	75.88
377.899	96.88
378.125	94.88
378.35	92.88
378.576	93.88
378.802	94.88
379.027	96.88
379.253	89.88
379.478	69.88
379.704	84.88
379.929	97.88
380.155	95.88
380.38	95.88
380.606	91.88
380.831	88.88
381.057	86.88
381.282	81.88
381.507	92.88
381.733	76.88
381.958	90.88
382.184	102.88
382.409	84.88
382.634	95.88
382.86	78.88
383.085	105.88
383.31	93.88
383.535	95.88
383.761	109.88
383.986	104.88
384.211	84.88
384.436	97.88
384.662	84.88
384.887	102.88
385.112	93.88
385.337	107.88
385.562	124.88
385.787	132.88
386.013	107.88
386.238	109.88
386.463	99.88
386.688	112.88
386.913	95.88
387.138	89.88
387.363	83.88
387.588	100.88
387.813	106.88
388.038	103.88
388.263	117.88
388.488	98.88
388.713	97.88
388.938	87.88
389.163	87.88
389.387	86.88
389.612	84.88
389.837	94.88
390.062	84.88
390.287	86.88
390.512	93.88
390.736	99.88
390.961	95.88
391.186	74.88
391.411	79.88
391.636	84.88
391.86	91.88
392.085	90.88
392.31	85.88
392.534	72.88
392.759	71.88
392.984	86.88
393.208	96.88
393.433	101.88
393.658	81.88
393.882	86.88
394.107	92.88
394.331	83.88
394.556	83.88
394.78	77.88
395.005	78.88
395.229	72.88
395.454	86.88
395.678	78.88
395.903	81.88
396.127	92.88
396.352	95.88
396.576	73.88
396.801	83.88
397.025	88.88
397.249	91.88
397.474	85.88
397.698	87.88
397.922	80.88
398.147	87.88
398.371	81.88
398.595	83.88
398.82	75.88
399.044	84.88
399.268	87.88
399.492	71.88
399.717	92.88
399.941	88.88
400.165	94.88
400.389	94.88
400.613	71.88
400.837	83.88
401.062	83.88
401.286	91.88
401.51	78.88
401.734	86.88
401.958	109.88
402.182	127.88
402.406	167.88
402.63	121.88
402.854	74.88
403.078	81.88
403.302	79.88
403.526	82.88
403.75	99.88
403.974	87.88
404.198	75.88
404.422	77.88
404.645	83.88
404.869	89.88
405.093	85.88
405.317	87.88
405.541	107.88
405.765	93.88
405.988	108.88
406.212	178.88
406.436	228.88
406.66	134.88
406.883	102.88
407.107	111.88
407.331	93.88
407.555	89.88
407.778	92.88
408.002	78.88
408.226	78.88
408.449	91.88
408.673	82.88
408.896	93.88
409.12	97.88
409.344	87.88
409.567	79.88
409.791	89.88
410.014	77.88
410.238	84.88
410.461	78.88
410.685	92.88
410.908	94.88
411.132	94.88
411.355	94.88
411.578	88.88
411.802	79.88
412.025	80.88
412.249	87.88
412.472	84.88
412.695	85.88
412.919	80.88
413.142	88.88
413.365	77.88
413.589	79.88
413.812	82.88
414.035	77.88
414.258	76.88
414.482	84.88
414.705	85.88
414.928	88.88
415.151	89.88
415.374	92.88
415.597	81.88
415.821	89.88
416.044	71.88
416.267	73.88
416.49	92.88
416.713	84.88
416.936	78.88
417.159	92.88
417.382	89.88
417.605	75.88
417.828	83.88
418.051	87.88
418.274	81.88
418.497	88.88
418.72	83.88
418.943	81.88
419.166	69.88
419.389	92.88
419.611	92.88
419.834	95.88
420.057	83.88
420.28	83.88
420.503	94.88
420.726	72.88
420.948	83.88
421.171	88.88
421.394	86.88
421.617	71.88
421.839	81.88
422.062	94.88
422.285	87.88
422.507	94.88
422.73	106.88
422.953	94.88
423.175	95.88
423.398	84.88
423.621	89.88
423.843	68.88
424.066	79.88
424.288	85.88
424.511	74.88
424.733	69.88
424.956	92.88
425.178	91.88
425.401	99.88
425.623	84.88
425.846	82.88
426.068	79.88
426.291	87.88
426.513	93.88
426.735	77.88
426.958	86.88
427.18	97.88
427.402	127.88
427.625	154.88
427.847	125.88
428.069	100.88
428.292	91.88
428.514	80.88
428.736	75.88
428.958	77.88
429.181	76.88
429.403	77.88
429.625	74.88
429.847	75.88
430.069	87.88
430.292	79.88
430.514	80.88
430.736	77.88
430.958	88.88
431.18	93.88
431.402	93.88
431.624	84.88
431.846	84.88
432.068	99.88
432.29	81.88
432.512	74.88
432.734	83.88
432.956	80.88
433.178	75.88
433.4	77.88
433.622	85.88
433.844	71.88
434.066	90.88
434.287	93.88
434.509	97.88
434.731	85.88
434.953	79.88
435.175	81.88
435.397	81.88
435.618	92.88
435.84	94.88
436.062	108.88
436.284	85.88
436.505	85.88
436.727	92.88
436.949	84.88
437.17	65.88
437.392	78.88
437.614	89.88
437.835	100.88
438.057	116.88
438.278	92.88
438.5	94.88
438.721	109.88
438.943	86.88
439.165	85.88
439.386	81.88
439.608	84.88
439.829	105.88
440.05	101.88
440.272	127.88
440.493	80.88
440.715	76.88
440.936	78.88
441.158	94.88
441.379	64.88
441.6	88.88
441.822	82.88
442.043	93.88
442.264	89.88
442.486	96.88
442.707	102.88
442.928	94.88
443.149	116.88
443.371	115.88
443.592	111.88
443.813	100.88
444.034	92.88
444.255	79.88
444.476	88.88
444.698	82.88
444.919	81.88
445.14	125.88
445.361	96.88
445.582	107.88
445.803	130.88
446.024	116.88
446.245	100.88
446.466	96.88
446.687	76.88
446.908	86.88
447.129	80.88
447.35	88.88
447.571	80.88
447.792	88.88
448.013	94.88
448.234	95.88
448.455	90.88
448.675	104.88
448.896	110.88
449.117	89.88
449.338	98.88
449.559	115.88
449.779	109.88
450	95.88
450.221	83.88
450.442	85.88
450.662	96.88
450.883	97.88
451.104	94.88
451.324	83.88
451.545	90.88
451.766	88.88
451.986	75.88
452.207	96.88
452.428	83.88
452.648	85.88
452.869	99.88
453.089	113.88
453.31	117.88
453.53	77.88
453.751	85.88
453.971	86.88
454.192	95.88
454.412	90.88
454.633	90.88
454.853	83.88
455.073	80.88
455.294	88.88
455.514	88.88
455.734	80.88
455.955	95.88
456.175	79.88
456.395	76.88
456.616	85.88
456.836	83.88
457.056	88.88
457.276	89.88
457.497	86.88
457.717	71.88
457.937	85.88
458.157	92.88
458.377	75.88
458.598	108.88
458.818	148.88
459.038	143.88
459.258	103.88
459.478	97.88
459.698	83.88
459.918	89.88
460.138	94.88
460.358	81.88
460.578	93.88
460.798	77.88
461.018	80.88
461.238	85.88
461.458	88.88
461.678	75.88
461.898	72.88
462.118	99.88
462.338	82.88
462.558	83.88
462.777	96.88
462.997	85.88
463.217	74.88
463.437	102.88
463.657	98.88
463.876	77.88
464.096	86.88
464.316	95.88
464.536	103.88
464.755	90.88
464.975	113.88
465.195	163.88
465.414	139.88
465.634	107.88
465.854	91.88
466.073	87.88
466.293	91.88
466.512	93.88
466.732	80.88
466.951	75.88
467.171	99.88
467.391	92.88
467.61	103.88
467.829	85.88
468.049	102.88
468.268	101.88
468.488	111.88
468.707	78.88
468.927	78.88
469.146	87.88
469.365	86.88
469.585	87.88
469.804	85.88
470.023	70.88
470.243	95.88
470.462	91.88
470.681	103.88
470.901	87.88
471.12	81.88
471.339	92.88
471.558	82.88
471.777	77.88
471.997	93.88
472.216	114.88
472.435	139.88
472.654	97.88
472.873	63.88
473.092	84.88
473.311	81.88
473.53	71.88
473.749	78.88
473.968	94.88
474.187	91.88
474.406	107.88
474.625	83.88
474.844	88.88
475.063	80.88
475.282	76.88
475.501	84.88
475.72	82.88
475.939	76.88
476.158	87.88
476.377	100.88
476.596	80.88
476.814	83.88
477.033	85.88
477.252	87.88
477.471	90.88
477.69	92.88
477.908	72.88
478.127	68.88
478.346	78.88
478.564	76.88
478.783	89.88
479.002	73.88
479.22	97.88
479.439	108.88
479.658	106.88
479.876	97.88
480.095	85.88
480.313	80.88
480.532	72.88
480.751	89.88
480.969	107.88
481.188	224.88
481.406	160.88
481.624	91.88
481.843	99.88
482.061	72.88
482.28	91.88
482.498	93.88
482.717	85.88
482.935	94.88
483.153	87.88
483.372	96.88
483.59	70.88
483.808	97.88
484.027	93.88
484.245	89.88
484.463	81.88
484.681	87.88
484.9	88.88
485.118	95.88
485.336	97.88
485.554	91.88
485.772	93.88
485.99	99.88
486.209	93.88
486.427	96.88
486.645	102.88
486.863	96.88
487.081	101.88
487.299	97.88
487.517	85.88
487.735	101.88
487.953	81.88
488.171	86.88
488.389	95.88
488.607	88.88
488.825	88.88
489.043	89.88
489.261	90.88
489.479	82.88
489.696	83.88
489.914	78.88
490.132	79.88
490.35	84.88
490.568	81.88
490.786	88.88
491.003	92.88
491.221	92.88
491.439	94.88
491.657	93.88
491.874	78.88
492.092	77.88
492.31	92.88
492.527	89.88
492.745	87.88
492.963	91.88
493.18	92.88
493.398	72.88
493.615	87.88
493.833	92.88
494.05	83.88
494.268	92.88
494.485	87.88
494.703	79.88
494.92	100.88
495.138	96.88
495.355	92.88
495.573	95.88
495.79	85.88
496.008	75.88
496.225	84.88
496.442	75.88
496.66	89.88
496.877	72.88
497.094	94.88
497.312	87.88
497.529	89.88
497.746	90.88
497.963	82.88
498.181	98.88
498.398	90.88
498.615	95.88
498.832	96.88
499.049	90.88
499.267	89.88
499.484	78.88
499.701	103.88
499.918	85.88
500.135	84.88
500.352	94.88
500.569	85.88
500.786	81.88
501.003	92.88
501.22	82.88
501.437	90.88
501.654	112.88
501.871	103.88
502.088	88.88
502.305	80.88
502.522	81.88
502.739	101.88
502.956	81.88
503.172	88.88
503.389	88.88
503.606	104.88
503.823	90.88
504.04	87.88
504.256	103.88
504.473	78.88
504.69	89.88
504.907	86.88
505.123	69.88
505.34	78.88
505.557	89.88
505.773	91.88
505.99	92.88
506.207	90.88
506.423	87.88
506.64	88.88
506.856	96.88
507.073	84.88
507.289	88.88
507.506	94.88
507.722	120.88
507.939	104.88
508.155	92.88
508.372	88.88
508.588	80.88
508.805	85.88
509.021	88.88
509.238	79.88
509.454	90.88
509.67	99.88
509.887	98.88
510.103	135.88
510.319	230.88
510.536	799.88
510.752	2695.88
510.968	730.88
511.184	172.88
511.401	109.88
511.617	103.88
511.833	96.88
512.049	81.88
512.265	94.88
512.481	91.88
512.698	72.88
512.914	96.88
513.13	92.88
513.346	92.88
513.562	87.88
513.778	96.88
513.994	97.88
514.21	105.88
514.426	101.88
514.642	135.88
514.858	125.88
515.074	157.88
515.29	469.88
515.506	1606.88
515.721	585.88
515.937	152.88
516.153	104.88
516.369	89.88
516.585	90.88
516.801	81.88
517.016	94.88
517.232	93.88
