Data from Circ_2008_H10_HRD10591_00038.txt Node
Date: Wed Jan 03 10:17:03 EST 2024
User: Yrep
Spectrometer: HR+D1059
Trigger mode: 1
Integration Time (sec): 1.000000E-1
Scans to average: 1
Electric dark correction enabled: true
Nonlinearity correction enabled: false
Boxcar width: 0
XAxis mode: Wavelengths
Number of Pixels in Spectrum: 2048
>>>>>Begin Spectral Data<<<<<
223.165	-24.25
223.4	-24.25
223.635	-24.25
223.869	-18.25
224.104	-20.25
224.338	-16.25
224.573	-10.25
224.808	-7.25
225.042	-7.25
225.277	-5.25
225.511	-3.25
225.746	7.75
225.98	22.75
226.215	8.75
226.449	10.75
226.683	21.75
226.918	13.75
227.152	26.75
227.387	21.75
227.621	48.75
227.856	44.75
228.09	46.75
228.324	44.75
228.559	69.75
228.793	64.75
229.027	45.75
229.262	53.75
229.496	68.75
229.73	81.75
229.964	69.75
230.199	76.75
230.433	77.75
230.667	65.75
230.901	73.75
231.136	81.75
231.37	79.75
231.604	75.75
231.838	70.75
232.072	86.75
232.306	76.75
232.541	72.75
232.775	71.75
233.009	84.75
233.243	71.75
233.477	69.75
233.711	68.75
233.945	79.75
234.179	74.75
234.413	77.75
234.647	82.75
234.881	74.75
235.115	77.75
235.349	80.75
235.583	76.75
235.817	70.75
236.051	59.75
236.285	84.75
236.519	86.75
236.753	77.75
236.987	84.75
237.221	70.75
237.455	77.75
237.689	76.75
237.922	69.75
238.156	72.75
238.39	86.75
238.624	79.75
238.858	74.75
239.091	75.75
239.325	77.75
239.559	70.75
239.793	79.75
240.027	76.75
240.26	73.75
240.494	70.75
240.728	83.75
240.961	80.75
241.195	81.75
241.429	68.75
241.662	67.75
241.896	67.75
242.13	60.75
242.363	85.75
242.597	91.75
242.83	78.75
243.064	78.75
243.298	90.75
243.531	80.75
243.765	72.75
243.998	94.75
244.232	60.75
244.465	62.75
244.699	78.75
244.932	72.75
245.166	73.75
245.399	71.75
245.633	76.75
245.866	73.75
246.099	75.75
246.333	68.75
246.566	74.75
246.8	93.75
247.033	81.75
247.266	76.75
247.5	72.75
247.733	68.75
247.966	77.75
248.2	88.75
248.433	85.75
248.666	76.75
248.899	73.75
249.133	81.75
249.366	93.75
249.599	93.75
249.832	72.75
250.066	76.75
250.299	87.75
250.532	76.75
250.765	80.75
250.998	79.75
251.231	52.75
251.465	84.75
251.698	80.75
251.931	82.75
252.164	75.75
252.397	62.75
252.63	78.75
252.863	79.75
253.096	78.75
253.329	81.75
253.562	90.75
253.795	84.75
254.028	68.75
254.261	88.75
254.494	79.75
254.727	76.75
254.96	64.75
255.193	69.75
255.426	86.75
255.659	67.75
255.892	86.75
256.124	83.75
256.357	75.75
256.59	77.75
256.823	74.75
257.056	87.75
257.289	85.75
257.521	83.75
257.754	75.75
257.987	61.75
258.22	81.75
258.452	90.75
258.685	72.75
258.918	84.75
259.151	88.75
259.383	66.75
259.616	79.75
259.849	77.75
260.081	93.75
260.314	85.75
260.547	76.75
260.779	71.75
261.012	81.75
261.244	87.75
261.477	76.75
261.71	92.75
261.942	105.75
262.175	109.75
262.407	95.75
262.64	71.75
262.872	91.75
263.105	77.75
263.337	81.75
263.57	71.75
263.802	86.75
264.035	88.75
264.267	79.75
264.499	83.75
264.732	84.75
264.964	72.75
265.197	84.75
265.429	88.75
265.661	80.75
265.894	84.75
266.126	83.75
266.358	77.75
266.591	90.75
266.823	86.75
267.055	80.75
267.287	75.75
267.52	90.75
267.752	87.75
267.984	80.75
268.216	78.75
268.448	88.75
268.681	75.75
268.913	85.75
269.145	76.75
269.377	91.75
269.609	79.75
269.841	83.75
270.073	75.75
270.306	77.75
270.538	92.75
270.77	88.75
271.002	96.75
271.234	72.75
271.466	87.75
271.698	95.75
271.93	81.75
272.162	98.75
272.394	80.75
272.626	86.75
272.858	87.75
273.09	94.75
273.322	83.75
273.553	67.75
273.785	77.75
274.017	78.75
274.249	86.75
274.481	84.75
274.713	89.75
274.945	88.75
275.176	79.75
275.408	80.75
275.64	87.75
275.872	71.75
276.104	86.75
276.335	83.75
276.567	88.75
276.799	102.75
277.031	93.75
277.262	78.75
277.494	83.75
277.726	81.75
277.957	88.75
278.189	92.75
278.421	95.75
278.652	84.75
278.884	88.75
279.115	76.75
279.347	81.75
279.579	69.75
279.81	84.75
280.042	88.75
280.273	84.75
280.505	79.75
280.736	82.75
280.968	88.75
281.199	73.75
281.431	80.75
281.662	85.75
281.894	89.75
282.125	87.75
282.356	128.75
282.588	128.75
282.819	105.75
283.051	74.75
283.282	95.75
283.513	77.75
283.745	85.75
283.976	74.75
284.207	78.75
284.439	76.75
284.67	88.75
284.901	87.75
285.132	86.75
285.364	85.75
285.595	79.75
285.826	92.75
286.057	81.75
286.288	68.75
286.52	85.75
286.751	73.75
286.982	79.75
287.213	96.75
287.444	88.75
287.675	90.75
287.906	92.75
288.138	77.75
288.369	76.75
288.6	97.75
288.831	78.75
289.062	79.75
289.293	74.75
289.524	90.75
289.755	88.75
289.986	72.75
290.217	88.75
290.448	81.75
290.679	97.75
290.91	84.75
291.141	86.75
291.371	95.75
291.602	82.75
291.833	78.75
292.064	89.75
292.295	79.75
292.526	85.75
292.757	84.75
292.987	84.75
293.218	83.75
293.449	69.75
293.68	81.75
293.91	86.75
294.141	83.75
294.372	88.75
294.603	84.75
294.833	88.75
295.064	93.75
295.295	94.75
295.525	75.75
295.756	97.75
295.987	112.75
296.217	116.75
296.448	114.75
296.679	94.75
296.909	89.75
297.14	103.75
297.37	86.75
297.601	77.75
297.831	81.75
298.062	81.75
298.292	74.75
298.523	83.75
298.753	77.75
298.984	70.75
299.214	68.75
299.445	86.75
299.675	79.75
299.905	99.75
300.136	107.75
300.366	87.75
300.597	76.75
300.827	102.75
301.057	81.75
301.288	99.75
301.518	99.75
301.748	86.75
301.979	97.75
302.209	93.75
302.439	92.75
302.669	85.75
302.9	89.75
303.13	79.75
303.36	95.75
303.59	97.75
303.82	111.75
304.051	100.75
304.281	90.75
304.511	89.75
304.741	85.75
304.971	104.75
305.201	83.75
305.431	90.75
305.661	75.75
305.891	99.75
306.121	90.75
306.352	99.75
306.582	112.75
306.812	95.75
307.042	91.75
307.272	84.75
307.502	92.75
307.731	87.75
307.961	83.75
308.191	82.75
308.421	96.75
308.651	101.75
308.881	82.75
309.111	76.75
309.341	97.75
309.571	94.75
309.8	100.75
310.03	90.75
310.26	94.75
310.49	90.75
310.72	93.75
310.949	99.75
311.179	100.75
311.409	92.75
311.639	79.75
311.868	117.75
312.098	82.75
312.328	91.75
312.557	93.75
312.787	93.75
313.017	104.75
313.246	89.75
313.476	90.75
313.706	99.75
313.935	99.75
314.165	86.75
314.394	98.75
314.624	97.75
314.853	97.75
315.083	79.75
315.312	89.75
315.542	93.75
315.771	92.75
316.001	85.75
316.23	93.75
316.46	99.75
316.689	93.75
316.919	75.75
317.148	102.75
317.377	96.75
317.607	92.75
317.836	86.75
318.065	76.75
318.295	83.75
318.524	84.75
318.753	78.75
318.983	97.75
319.212	92.75
319.441	109.75
319.67	101.75
319.9	74.75
320.129	80.75
320.358	73.75
320.587	98.75
320.816	98.75
321.046	110.75
321.275	97.75
321.504	85.75
321.733	96.75
321.962	82.75
322.191	90.75
322.42	101.75
322.649	101.75
322.878	106.75
323.108	118.75
323.337	95.75
323.566	112.75
323.795	142.75
324.024	174.75
324.253	350.75
324.482	678.75
324.71	1322.75
324.939	1725.75
325.168	655.75
325.397	211.75
325.626	123.75
325.855	125.75
326.084	110.75
326.313	120.75
326.542	135.75
326.77	204.75
326.999	365.75
327.228	731.75
327.457	1283.75
327.686	1045.75
327.914	320.75
328.143	173.75
328.372	150.75
328.6	118.75
328.829	111.75
329.058	112.75
329.287	119.75
329.515	92.75
329.744	99.75
329.972	112.75
330.201	110.75
330.43	132.75
330.658	125.75
330.887	134.75
331.115	119.75
331.344	84.75
331.572	102.75
331.801	117.75
332.03	98.75
332.258	86.75
332.486	96.75
332.715	88.75
332.943	97.75
333.172	91.75
333.4	96.75
333.629	97.75
333.857	109.75
334.085	112.75
334.314	108.75
334.542	126.75
334.771	140.75
334.999	96.75
335.227	105.75
335.455	93.75
335.684	99.75
335.912	95.75
336.14	104.75
336.369	88.75
336.597	95.75
336.825	83.75
337.053	90.75
337.281	89.75
337.51	82.75
337.738	71.75
337.966	89.75
338.194	86.75
338.422	93.75
338.65	80.75
338.878	76.75
339.106	87.75
339.334	99.75
339.562	92.75
339.79	92.75
340.018	92.75
340.246	87.75
340.474	96.75
340.702	95.75
340.93	83.75
341.158	90.75
341.386	95.75
341.614	100.75
341.842	109.75
342.07	89.75
342.298	85.75
342.526	82.75
342.754	77.75
342.981	84.75
343.209	73.75
343.437	81.75
343.665	86.75
343.893	87.75
344.12	78.75
344.348	89.75
344.576	71.75
344.804	90.75
345.031	87.75
345.259	94.75
345.487	88.75
345.714	87.75
345.942	95.75
346.17	86.75
346.397	81.75
346.625	88.75
346.853	81.75
347.08	79.75
347.308	88.75
347.535	85.75
347.763	93.75
347.99	93.75
348.218	98.75
348.445	105.75
348.673	109.75
348.9	99.75
349.128	97.75
349.355	87.75
349.583	85.75
349.81	87.75
350.037	106.75
350.265	85.75
350.492	98.75
350.72	93.75
350.947	106.75
351.174	112.75
351.402	102.75
351.629	89.75
351.856	91.75
352.083	110.75
352.311	108.75
352.538	78.75
352.765	97.75
352.992	97.75
353.22	115.75
353.447	86.75
353.674	96.75
353.901	95.75
354.128	102.75
354.355	77.75
354.583	94.75
354.81	89.75
355.037	95.75
355.264	87.75
355.491	93.75
355.718	101.75
355.945	98.75
356.172	83.75
356.399	95.75
356.626	91.75
356.853	87.75
357.08	103.75
357.307	99.75
357.534	85.75
357.761	99.75
357.988	93.75
358.215	86.75
358.441	96.75
358.668	93.75
358.895	95.75
359.122	87.75
359.349	91.75
359.576	83.75
359.802	91.75
360.029	102.75
360.256	117.75
360.483	105.75
360.709	83.75
360.936	93.75
361.163	97.75
361.39	101.75
361.616	100.75
361.843	89.75
362.07	89.75
362.296	93.75
362.523	86.75
362.749	92.75
362.976	76.75
363.203	94.75
363.429	79.75
363.656	74.75
363.882	85.75
364.109	85.75
364.335	95.75
364.562	85.75
364.788	75.75
365.015	93.75
365.241	109.75
365.468	115.75
365.694	113.75
365.92	99.75
366.147	103.75
366.373	71.75
366.599	85.75
366.826	93.75
367.052	97.75
367.278	96.75
367.505	78.75
367.731	87.75
367.957	68.75
368.184	99.75
368.41	90.75
368.636	101.75
368.862	102.75
369.089	89.75
369.315	85.75
369.541	101.75
369.767	88.75
369.993	96.75
370.219	88.75
370.445	91.75
370.672	79.75
370.898	90.75
371.124	80.75
371.35	88.75
371.576	81.75
371.802	79.75
372.028	95.75
372.254	69.75
372.48	78.75
372.706	80.75
372.932	88.75
373.158	87.75
373.384	80.75
373.61	92.75
373.835	74.75
374.061	86.75
374.287	90.75
374.513	88.75
374.739	95.75
374.965	88.75
375.191	81.75
375.416	95.75
375.642	83.75
375.868	91.75
376.094	76.75
376.319	97.75
376.545	99.75
376.771	103.75
376.997	90.75
377.222	95.75
377.448	85.75
377.674	92.75
377.899	92.75
378.125	91.75
378.35	86.75
378.576	78.75
378.802	82.75
379.027	95.75
379.253	84.75
379.478	98.75
379.704	79.75
379.929	75.75
380.155	93.75
380.38	77.75
380.606	99.75
380.831	108.75
381.057	93.75
381.282	95.75
381.507	85.75
381.733	102.75
381.958	104.75
382.184	91.75
382.409	96.75
382.634	109.75
382.86	101.75
383.085	101.75
383.31	93.75
383.535	101.75
383.761	94.75
383.986	83.75
384.211	97.75
384.436	104.75
384.662	112.75
384.887	103.75
385.112	101.75
385.337	95.75
385.562	103.75
385.787	87.75
386.013	103.75
386.238	103.75
386.463	97.75
386.688	112.75
386.913	106.75
387.138	106.75
387.363	97.75
387.588	95.75
387.813	92.75
388.038	102.75
388.263	105.75
388.488	119.75
388.713	84.75
388.938	85.75
389.163	94.75
389.387	89.75
389.612	76.75
389.837	92.75
390.062	89.75
390.287	87.75
390.512	103.75
390.736	93.75
390.961	77.75
391.186	82.75
391.411	86.75
391.636	96.75
391.86	81.75
392.085	82.75
392.31	78.75
392.534	75.75
392.759	71.75
392.984	65.75
393.208	79.75
393.433	86.75
393.658	78.75
393.882	81.75
394.107	85.75
394.331	92.75
394.556	75.75
394.78	96.75
395.005	83.75
395.229	80.75
395.454	80.75
395.678	96.75
395.903	93.75
396.127	87.75
396.352	89.75
396.576	84.75
396.801	80.75
397.025	84.75
397.249	97.75
397.474	92.75
397.698	89.75
397.922	95.75
398.147	64.75
398.371	95.75
398.595	69.75
398.82	71.75
399.044	78.75
399.268	89.75
399.492	83.75
399.717	93.75
399.941	85.75
400.165	78.75
400.389	85.75
400.613	82.75
400.837	88.75
401.062	81.75
401.286	77.75
401.51	91.75
401.734	83.75
401.958	108.75
402.182	122.75
402.406	168.75
402.63	109.75
402.854	99.75
403.078	81.75
403.302	85.75
403.526	98.75
403.75	87.75
403.974	80.75
404.198	90.75
404.422	85.75
404.645	86.75
404.869	72.75
405.093	88.75
405.317	97.75
405.541	91.75
405.765	92.75
405.988	118.75
406.212	160.75
406.436	212.75
406.66	133.75
406.883	104.75
407.107	102.75
407.331	99.75
407.555	103.75
407.778	101.75
408.002	79.75
408.226	83.75
408.449	89.75
408.673	87.75
408.896	83.75
409.12	84.75
409.344	95.75
409.567	71.75
409.791	77.75
410.014	84.75
410.238	95.75
410.461	75.75
410.685	100.75
410.908	101.75
411.132	93.75
411.355	96.75
411.578	93.75
411.802	97.75
412.025	79.75
412.249	100.75
412.472	89.75
412.695	94.75
412.919	89.75
413.142	80.75
413.365	88.75
413.589	88.75
413.812	80.75
414.035	81.75
414.258	87.75
414.482	76.75
414.705	95.75
414.928	92.75
415.151	88.75
415.374	86.75
415.597	86.75
415.821	95.75
416.044	90.75
416.267	89.75
416.49	93.75
416.713	77.75
416.936	81.75
417.159	82.75
417.382	87.75
417.605	92.75
417.828	108.75
418.051	102.75
418.274	87.75
418.497	86.75
418.72	84.75
418.943	76.75
419.166	86.75
419.389	99.75
419.611	82.75
419.834	87.75
420.057	83.75
420.28	87.75
420.503	80.75
420.726	85.75
420.948	98.75
421.171	90.75
421.394	81.75
421.617	87.75
421.839	101.75
422.062	74.75
422.285	99.75
422.507	73.75
422.73	100.75
422.953	80.75
423.175	84.75
423.398	82.75
423.621	68.75
423.843	95.75
424.066	87.75
424.288	79.75
424.511	85.75
424.733	85.75
424.956	116.75
425.178	101.75
425.401	87.75
425.623	85.75
425.846	90.75
426.068	85.75
426.291	84.75
426.513	86.75
426.735	76.75
426.958	83.75
427.18	97.75
427.402	125.75
427.625	153.75
427.847	111.75
428.069	106.75
428.292	93.75
428.514	79.75
428.736	76.75
428.958	75.75
429.181	84.75
429.403	71.75
429.625	86.75
429.847	97.75
430.069	96.75
430.292	84.75
430.514	71.75
430.736	100.75
430.958	88.75
431.18	95.75
431.402	87.75
431.624	90.75
431.846	90.75
432.068	79.75
432.29	85.75
432.512	78.75
432.734	93.75
432.956	87.75
433.178	102.75
433.4	88.75
433.622	85.75
433.844	93.75
434.066	80.75
434.287	73.75
434.509	91.75
434.731	94.75
434.953	87.75
435.175	86.75
435.397	93.75
435.618	89.75
435.84	98.75
436.062	117.75
436.284	104.75
436.505	89.75
436.727	81.75
436.949	92.75
437.17	90.75
437.392	93.75
437.614	101.75
437.835	89.75
438.057	103.75
438.278	106.75
438.5	96.75
438.721	86.75
438.943	92.75
439.165	79.75
439.386	72.75
439.608	74.75
439.829	102.75
440.05	112.75
440.272	123.75
440.493	98.75
440.715	86.75
440.936	89.75
441.158	89.75
441.379	95.75
441.6	95.75
441.822	74.75
442.043	82.75
442.264	101.75
442.486	87.75
442.707	94.75
442.928	108.75
443.149	123.75
443.371	130.75
443.592	89.75
443.813	107.75
444.034	99.75
444.255	89.75
444.476	69.75
444.698	79.75
444.919	87.75
445.14	120.75
445.361	110.75
445.582	105.75
445.803	120.75
446.024	118.75
446.245	117.75
446.466	110.75
446.687	84.75
446.908	81.75
447.129	88.75
447.35	70.75
447.571	79.75
447.792	88.75
448.013	99.75
448.234	112.75
448.455	94.75
448.675	96.75
448.896	111.75
449.117	106.75
449.338	76.75
449.559	90.75
449.779	124.75
450	91.75
450.221	75.75
450.442	93.75
450.662	81.75
450.883	103.75
451.104	122.75
451.324	92.75
451.545	81.75
451.766	84.75
451.986	87.75
452.207	78.75
452.428	99.75
452.648	91.75
452.869	117.75
453.089	94.75
453.31	106.75
453.53	80.75
453.751	83.75
453.971	87.75
454.192	102.75
454.412	94.75
454.633	84.75
454.853	91.75
455.073	85.75
455.294	97.75
455.514	98.75
455.734	89.75
455.955	89.75
456.175	82.75
456.395	84.75
456.616	84.75
456.836	76.75
457.056	80.75
457.276	76.75
457.497	75.75
457.717	68.75
457.937	83.75
458.157	83.75
458.377	78.75
458.598	100.75
458.818	131.75
459.038	139.75
459.258	103.75
459.478	84.75
459.698	79.75
459.918	93.75
460.138	77.75
460.358	92.75
460.578	100.75
460.798	74.75
461.018	85.75
461.238	93.75
461.458	78.75
461.678	83.75
461.898	88.75
462.118	77.75
462.338	92.75
462.558	84.75
462.777	76.75
462.997	79.75
463.217	88.75
463.437	82.75
463.657	79.75
463.876	79.75
464.096	84.75
464.316	77.75
464.536	91.75
464.755	80.75
464.975	99.75
465.195	154.75
465.414	153.75
465.634	96.75
465.854	83.75
466.073	80.75
466.293	91.75
466.512	80.75
466.732	96.75
466.951	84.75
467.171	89.75
467.391	102.75
467.61	99.75
467.829	109.75
468.049	102.75
468.268	101.75
468.488	87.75
468.707	101.75
468.927	84.75
469.146	84.75
469.365	83.75
469.585	75.75
469.804	92.75
470.023	102.75
470.243	91.75
470.462	99.75
470.681	116.75
470.901	91.75
471.12	83.75
471.339	101.75
471.558	92.75
471.777	100.75
471.997	99.75
472.216	126.75
472.435	181.75
472.654	104.75
472.873	90.75
473.092	76.75
473.311	73.75
473.53	82.75
473.749	71.75
473.968	89.75
474.187	92.75
474.406	76.75
474.625	84.75
474.844	77.75
475.063	85.75
475.282	80.75
475.501	75.75
475.72	87.75
475.939	81.75
476.158	86.75
476.377	89.75
476.596	84.75
476.814	92.75
477.033	94.75
477.252	80.75
477.471	94.75
477.69	103.75
477.908	89.75
478.127	88.75
478.346	82.75
478.564	88.75
478.783	93.75
479.002	85.75
479.22	96.75
479.439	103.75
479.658	101.75
479.876	85.75
480.095	70.75
480.313	99.75
480.532	101.75
480.751	97.75
480.969	113.75
481.188	234.75
481.406	178.75
481.624	90.75
481.843	87.75
482.061	97.75
482.28	74.75
482.498	88.75
482.717	84.75
482.935	75.75
483.153	73.75
483.372	82.75
483.59	83.75
483.808	87.75
484.027	101.75
484.245	92.75
484.463	95.75
484.681	103.75
484.9	74.75
485.118	81.75
485.336	99.75
485.554	84.75
485.772	92.75
485.99	95.75
486.209	100.75
486.427	96.75
486.645	95.75
486.863	103.75
487.081	77.75
487.299	97.75
487.517	93.75
487.735	96.75
487.953	87.75
488.171	88.75
488.389	80.75
488.607	85.75
488.825	99.75
489.043	77.75
489.261	85.75
489.479	94.75
489.696	81.75
489.914	87.75
490.132	87.75
490.35	81.75
490.568	75.75
490.786	76.75
491.003	88.75
491.221	88.75
491.439	86.75
491.657	95.75
491.874	92.75
492.092	95.75
492.31	92.75
492.527	96.75
492.745	89.75
492.963	92.75
493.18	87.75
493.398	83.75
493.615	86.75
493.833	95.75
494.05	89.75
494.268	85.75
494.485	70.75
494.703	95.75
494.92	78.75
495.138	87.75
495.355	87.75
495.573	107.75
495.79	77.75
496.008	110.75
496.225	78.75
496.442	80.75
496.66	85.75
496.877	85.75
497.094	89.75
497.312	80.75
497.529	78.75
497.746	97.75
497.963	88.75
498.181	97.75
498.398	80.75
498.615	99.75
498.832	91.75
499.049	94.75
499.267	89.75
499.484	82.75
499.701	81.75
499.918	92.75
500.135	87.75
500.352	91.75
500.569	78.75
500.786	76.75
501.003	99.75
501.22	88.75
501.437	82.75
501.654	84.75
501.871	103.75
502.088	89.75
502.305	89.75
502.522	87.75
502.739	90.75
502.956	97.75
503.172	88.75
503.389	86.75
503.606	91.75
503.823	75.75
504.04	96.75
504.256	86.75
504.473	74.75
504.69	92.75
504.907	86.75
505.123	86.75
505.34	80.75
505.557	80.75
505.773	91.75
505.99	78.75
506.207	92.75
506.423	95.75
506.64	86.75
506.856	90.75
507.073	85.75
507.289	92.75
507.506	103.75
507.722	92.75
507.939	106.75
508.155	102.75
508.372	91.75
508.588	86.75
508.805	88.75
509.021	95.75
509.238	95.75
509.454	93.75
509.67	95.75
509.887	105.75
510.103	137.75
510.319	198.75
510.536	764.75
510.752	2494.75
510.968	704.75
511.184	151.75
511.401	118.75
511.617	89.75
511.833	93.75
512.049	91.75
512.265	87.75
512.481	80.75
512.698	93.75
512.914	83.75
513.13	91.75
513.346	76.75
513.562	91.75
513.778	92.75
513.994	101.75
514.21	100.75
514.426	97.75
514.642	124.75
514.858	104.75
515.074	157.75
515.29	441.75
515.506	1478.75
515.721	553.75
515.937	155.75
516.153	117.75
516.369	97.75
516.585	77.75
516.801	90.75
