Data from Circ_2008_H10_HRD10591_00087.txt Node
Date: Wed Jan 03 10:17:13 EST 2024
User: Yrep
Spectrometer: HR+D1059
Trigger mode: 1
Integration Time (sec): 1.000000E-1
Scans to average: 1
Electric dark correction enabled: true
Nonlinearity correction enabled: false
Boxcar width: 0
XAxis mode: Wavelengths
Number of Pixels in Spectrum: 2048
>>>>>Begin Spectral Data<<<<<
223.165	-27.44
223.4	-27.44
223.635	-27.44
223.869	-6.44
224.104	-7.44
224.338	-12.44
224.573	-19.44
224.808	-5.44
225.042	-17.44
225.277	-3.44
225.511	-4.44
225.746	1.56
225.98	-5.44
226.215	5.56
226.449	28.56
226.683	15.56
226.918	18.56
227.152	39.56
227.387	31.56
227.621	45.56
227.856	55.56
228.09	39.56
228.324	37.56
228.559	58.56
228.793	73.56
229.027	86.56
229.262	87.56
229.496	73.56
229.73	88.56
229.964	97.56
230.199	81.56
230.433	66.56
230.667	76.56
230.901	74.56
231.136	70.56
231.37	76.56
231.604	90.56
231.838	77.56
232.072	84.56
232.306	86.56
232.541	89.56
232.775	97.56
233.009	81.56
233.243	84.56
233.477	80.56
233.711	71.56
233.945	83.56
234.179	81.56
234.413	85.56
234.647	61.56
234.881	96.56
235.115	79.56
235.349	68.56
235.583	86.56
235.817	80.56
236.051	90.56
236.285	69.56
236.519	78.56
236.753	87.56
236.987	95.56
237.221	88.56
237.455	111.56
237.689	100.56
237.922	77.56
238.156	85.56
238.39	73.56
238.624	71.56
238.858	72.56
239.091	70.56
239.325	82.56
239.559	88.56
239.793	76.56
240.027	75.56
240.26	83.56
240.494	84.56
240.728	72.56
240.961	79.56
241.195	78.56
241.429	83.56
241.662	77.56
241.896	88.56
242.13	79.56
242.363	77.56
242.597	73.56
242.83	86.56
243.064	77.56
243.298	83.56
243.531	91.56
243.765	88.56
243.998	75.56
244.232	78.56
244.465	78.56
244.699	79.56
244.932	72.56
245.166	90.56
245.399	84.56
245.633	81.56
245.866	86.56
246.099	75.56
246.333	73.56
246.566	72.56
246.8	78.56
247.033	74.56
247.266	69.56
247.5	76.56
247.733	74.56
247.966	78.56
248.2	76.56
248.433	99.56
248.666	86.56
248.899	69.56
249.133	89.56
249.366	99.56
249.599	92.56
249.832	95.56
250.066	90.56
250.299	80.56
250.532	78.56
250.765	73.56
250.998	86.56
251.231	77.56
251.465	73.56
251.698	80.56
251.931	73.56
252.164	67.56
252.397	65.56
252.63	65.56
252.863	58.56
253.096	84.56
253.329	80.56
253.562	74.56
253.795	93.56
254.028	103.56
254.261	91.56
254.494	90.56
254.727	80.56
254.96	89.56
255.193	82.56
255.426	89.56
255.659	96.56
255.892	108.56
256.124	81.56
256.357	74.56
256.59	80.56
256.823	79.56
257.056	74.56
257.289	92.56
257.521	91.56
257.754	79.56
257.987	76.56
258.22	99.56
258.452	83.56
258.685	99.56
258.918	79.56
259.151	89.56
259.383	80.56
259.616	73.56
259.849	75.56
260.081	81.56
260.314	95.56
260.547	91.56
260.779	102.56
261.012	80.56
261.244	96.56
261.477	94.56
261.71	96.56
261.942	118.56
262.175	133.56
262.407	102.56
262.64	75.56
262.872	75.56
263.105	86.56
263.337	93.56
263.57	84.56
263.802	85.56
264.035	70.56
264.267	75.56
264.499	90.56
264.732	74.56
264.964	86.56
265.197	88.56
265.429	88.56
265.661	76.56
265.894	79.56
266.126	87.56
266.358	96.56
266.591	86.56
266.823	68.56
267.055	79.56
267.287	88.56
267.52	81.56
267.752	89.56
267.984	88.56
268.216	88.56
268.448	82.56
268.681	74.56
268.913	68.56
269.145	83.56
269.377	82.56
269.609	75.56
269.841	84.56
270.073	81.56
270.306	87.56
270.538	79.56
270.77	93.56
271.002	88.56
271.234	90.56
271.466	91.56
271.698	71.56
271.93	87.56
272.162	92.56
272.394	98.56
272.626	87.56
272.858	91.56
273.09	83.56
273.322	95.56
273.553	81.56
273.785	114.56
274.017	84.56
274.249	96.56
274.481	100.56
274.713	79.56
274.945	94.56
275.176	87.56
275.408	96.56
275.64	86.56
275.872	93.56
276.104	103.56
276.335	106.56
276.567	107.56
276.799	111.56
277.031	117.56
277.262	116.56
277.494	93.56
277.726	81.56
277.957	88.56
278.189	80.56
278.421	79.56
278.652	84.56
278.884	88.56
279.115	105.56
279.347	78.56
279.579	80.56
279.81	95.56
280.042	111.56
280.273	113.56
280.505	94.56
280.736	89.56
280.968	91.56
281.199	88.56
281.431	96.56
281.662	79.56
281.894	85.56
282.125	101.56
282.356	116.56
282.588	147.56
282.819	124.56
283.051	94.56
283.282	91.56
283.513	90.56
283.745	91.56
283.976	98.56
284.207	98.56
284.439	99.56
284.67	85.56
284.901	98.56
285.132	81.56
285.364	90.56
285.595	95.56
285.826	88.56
286.057	81.56
286.288	81.56
286.52	82.56
286.751	74.56
286.982	96.56
287.213	93.56
287.444	88.56
287.675	79.56
287.906	66.56
288.138	98.56
288.369	91.56
288.6	92.56
288.831	80.56
289.062	90.56
289.293	82.56
289.524	79.56
289.755	90.56
289.986	81.56
290.217	102.56
290.448	81.56
290.679	88.56
290.91	82.56
291.141	94.56
291.371	84.56
291.602	100.56
291.833	89.56
292.064	98.56
292.295	89.56
292.526	91.56
292.757	90.56
292.987	101.56
293.218	100.56
293.449	96.56
293.68	85.56
293.91	78.56
294.141	77.56
294.372	81.56
294.603	87.56
294.833	90.56
295.064	88.56
295.295	87.56
295.525	91.56
295.756	98.56
295.987	112.56
296.217	160.56
296.448	136.56
296.679	96.56
296.909	77.56
297.14	91.56
297.37	106.56
297.601	84.56
297.831	85.56
298.062	85.56
298.292	82.56
298.523	88.56
298.753	86.56
298.984	84.56
299.214	88.56
299.445	85.56
299.675	84.56
299.905	88.56
300.136	92.56
300.366	88.56
300.597	81.56
300.827	106.56
301.057	102.56
301.288	95.56
301.518	105.56
301.748	98.56
301.979	94.56
302.209	94.56
302.439	109.56
302.669	92.56
302.9	85.56
303.13	97.56
303.36	94.56
303.59	123.56
303.82	114.56
304.051	96.56
304.281	98.56
304.511	97.56
304.741	81.56
304.971	87.56
305.201	81.56
305.431	75.56
305.661	102.56
305.891	89.56
306.121	95.56
306.352	92.56
306.582	103.56
306.812	87.56
307.042	91.56
307.272	106.56
307.502	112.56
307.731	105.56
307.961	99.56
308.191	83.56
308.421	94.56
308.651	90.56
308.881	89.56
309.111	100.56
309.341	89.56
309.571	90.56
309.8	102.56
310.03	98.56
310.26	101.56
310.49	104.56
310.72	117.56
310.949	109.56
311.179	105.56
311.409	105.56
311.639	108.56
311.868	99.56
312.098	107.56
312.328	100.56
312.557	98.56
312.787	104.56
313.017	97.56
313.246	96.56
313.476	101.56
313.706	104.56
313.935	100.56
314.165	95.56
314.394	99.56
314.624	116.56
314.853	112.56
315.083	102.56
315.312	81.56
315.542	106.56
315.771	95.56
316.001	97.56
316.23	76.56
316.46	95.56
316.689	96.56
316.919	94.56
317.148	92.56
317.377	93.56
317.607	96.56
317.836	88.56
318.065	76.56
318.295	87.56
318.524	84.56
318.753	88.56
318.983	97.56
319.212	89.56
319.441	117.56
319.67	110.56
319.9	81.56
320.129	89.56
320.358	98.56
320.587	81.56
320.816	96.56
321.046	104.56
321.275	107.56
321.504	95.56
321.733	99.56
321.962	102.56
322.191	112.56
322.42	108.56
322.649	115.56
322.878	109.56
323.108	135.56
323.337	128.56
323.566	136.56
323.795	144.56
324.024	236.56
324.253	441.56
324.482	893.56
324.71	1824.56
324.939	2441.56
325.168	887.56
325.397	264.56
325.626	162.56
325.855	143.56
326.084	114.56
326.313	147.56
326.542	165.56
326.77	261.56
326.999	468.56
327.228	985.56
327.457	1807.56
327.686	1438.56
327.914	400.56
328.143	261.56
328.372	228.56
328.6	172.56
328.829	117.56
329.058	153.56
329.287	157.56
329.515	134.56
329.744	137.56
329.972	172.56
330.201	255.56
330.43	351.56
330.658	231.56
330.887	179.56
331.115	149.56
331.344	103.56
331.572	110.56
331.801	121.56
332.03	108.56
332.258	91.56
332.486	87.56
332.715	101.56
332.943	115.56
333.172	112.56
333.4	99.56
333.629	111.56
333.857	133.56
334.085	173.56
334.314	257.56
334.542	423.56
334.771	396.56
334.999	169.56
335.227	108.56
335.455	101.56
335.684	93.56
335.912	100.56
336.14	107.56
336.369	101.56
336.597	107.56
336.825	113.56
337.053	91.56
337.281	93.56
337.51	89.56
337.738	76.56
337.966	90.56
338.194	105.56
338.422	104.56
338.65	88.56
338.878	96.56
339.106	92.56
339.334	98.56
339.562	96.56
339.79	81.56
340.018	74.56
340.246	97.56
340.474	88.56
340.702	96.56
340.93	84.56
341.158	79.56
341.386	95.56
341.614	102.56
341.842	104.56
342.07	106.56
342.298	98.56
342.526	85.56
342.754	84.56
342.981	88.56
343.209	92.56
343.437	94.56
343.665	93.56
343.893	87.56
344.12	102.56
344.348	93.56
344.576	85.56
344.804	87.56
345.031	105.56
345.259	111.56
345.487	101.56
345.714	101.56
345.942	99.56
346.17	90.56
346.397	95.56
346.625	90.56
346.853	97.56
347.08	113.56
347.308	89.56
347.535	100.56
347.763	104.56
347.99	85.56
348.218	110.56
348.445	108.56
348.673	94.56
348.9	99.56
349.128	96.56
349.355	91.56
349.583	90.56
349.81	93.56
350.037	87.56
350.265	104.56
350.492	103.56
350.72	105.56
350.947	116.56
351.174	114.56
351.402	112.56
351.629	93.56
351.856	114.56
352.083	112.56
352.311	109.56
352.538	107.56
352.765	114.56
352.992	121.56
353.22	113.56
353.447	106.56
353.674	112.56
353.901	90.56
354.128	92.56
354.355	93.56
354.583	112.56
354.81	102.56
355.037	104.56
355.264	97.56
355.491	100.56
355.718	80.56
355.945	100.56
356.172	89.56
356.399	101.56
356.626	95.56
356.853	84.56
357.08	89.56
357.307	79.56
357.534	96.56
357.761	88.56
357.988	104.56
358.215	100.56
358.441	98.56
358.668	101.56
358.895	86.56
359.122	94.56
359.349	93.56
359.576	90.56
359.802	110.56
360.029	117.56
360.256	123.56
360.483	114.56
360.709	101.56
360.936	93.56
361.163	106.56
361.39	100.56
361.616	85.56
361.843	91.56
362.07	112.56
362.296	98.56
362.523	99.56
362.749	84.56
362.976	105.56
363.203	87.56
363.429	83.56
363.656	90.56
363.882	87.56
364.109	93.56
364.335	96.56
364.562	107.56
364.788	87.56
365.015	99.56
365.241	108.56
365.468	120.56
365.694	113.56
365.92	109.56
366.147	84.56
366.373	93.56
366.599	82.56
366.826	89.56
367.052	93.56
367.278	93.56
367.505	88.56
367.731	83.56
367.957	91.56
368.184	97.56
368.41	107.56
368.636	108.56
368.862	121.56
369.089	113.56
369.315	94.56
369.541	94.56
369.767	83.56
369.993	99.56
370.219	99.56
370.445	84.56
370.672	87.56
370.898	106.56
371.124	76.56
371.35	90.56
371.576	101.56
371.802	83.56
372.028	88.56
372.254	90.56
372.48	88.56
372.706	79.56
372.932	92.56
373.158	84.56
373.384	97.56
373.61	99.56
373.835	90.56
374.061	100.56
374.287	95.56
374.513	95.56
374.739	90.56
374.965	93.56
375.191	94.56
375.416	82.56
375.642	98.56
375.868	102.56
376.094	76.56
376.319	81.56
376.545	81.56
376.771	80.56
376.997	81.56
377.222	93.56
377.448	87.56
377.674	97.56
377.899	98.56
378.125	92.56
378.35	87.56
378.576	92.56
378.802	98.56
379.027	95.56
379.253	103.56
379.478	81.56
379.704	94.56
379.929	88.56
380.155	85.56
380.38	94.56
380.606	96.56
380.831	84.56
381.057	90.56
381.282	96.56
381.507	106.56
381.733	98.56
381.958	74.56
382.184	99.56
382.409	92.56
382.634	83.56
382.86	88.56
383.085	101.56
383.31	91.56
383.535	97.56
383.761	110.56
383.986	98.56
384.211	98.56
384.436	99.56
384.662	91.56
384.887	100.56
385.112	112.56
385.337	93.56
385.562	123.56
385.787	115.56
386.013	117.56
386.238	109.56
386.463	97.56
386.688	112.56
386.913	104.56
387.138	104.56
387.363	108.56
387.588	86.56
387.813	94.56
388.038	107.56
388.263	115.56
388.488	106.56
388.713	122.56
388.938	95.56
389.163	88.56
389.387	91.56
389.612	89.56
389.837	106.56
390.062	104.56
390.287	72.56
390.512	92.56
390.736	79.56
390.961	78.56
391.186	91.56
391.411	80.56
391.636	82.56
391.86	85.56
392.085	82.56
392.31	91.56
392.534	74.56
392.759	87.56
392.984	95.56
393.208	98.56
393.433	95.56
393.658	87.56
393.882	76.56
394.107	79.56
394.331	85.56
394.556	78.56
394.78	84.56
395.005	84.56
395.229	100.56
395.454	79.56
395.678	89.56
395.903	94.56
396.127	84.56
396.352	97.56
396.576	97.56
396.801	85.56
397.025	96.56
397.249	83.56
397.474	88.56
397.698	80.56
397.922	84.56
398.147	91.56
398.371	79.56
398.595	100.56
398.82	82.56
399.044	95.56
399.268	84.56
399.492	85.56
399.717	87.56
399.941	89.56
400.165	77.56
400.389	95.56
400.613	97.56
400.837	95.56
401.062	96.56
401.286	96.56
401.51	76.56
401.734	113.56
401.958	113.56
402.182	140.56
402.406	181.56
402.63	133.56
402.854	104.56
403.078	81.56
403.302	89.56
403.526	91.56
403.75	79.56
403.974	104.56
404.198	83.56
404.422	81.56
404.645	82.56
404.869	91.56
405.093	106.56
405.317	123.56
405.541	119.56
405.765	96.56
405.988	115.56
406.212	192.56
406.436	249.56
406.66	171.56
406.883	108.56
407.107	91.56
407.331	104.56
407.555	102.56
407.778	88.56
408.002	99.56
408.226	91.56
408.449	84.56
408.673	83.56
408.896	95.56
409.12	88.56
409.344	97.56
409.567	111.56
409.791	91.56
410.014	98.56
410.238	99.56
410.461	90.56
410.685	86.56
410.908	89.56
411.132	87.56
411.355	100.56
411.578	90.56
411.802	88.56
412.025	83.56
412.249	99.56
412.472	123.56
412.695	112.56
412.919	99.56
413.142	96.56
413.365	89.56
413.589	85.56
413.812	89.56
414.035	74.56
414.258	89.56
414.482	101.56
414.705	97.56
414.928	93.56
415.151	86.56
415.374	81.56
415.597	87.56
415.821	85.56
416.044	92.56
416.267	84.56
416.49	86.56
416.713	91.56
416.936	84.56
417.159	107.56
417.382	87.56
417.605	97.56
417.828	99.56
418.051	94.56
418.274	83.56
418.497	85.56
418.72	92.56
418.943	96.56
419.166	83.56
419.389	75.56
419.611	93.56
419.834	94.56
420.057	94.56
420.28	77.56
420.503	85.56
420.726	92.56
420.948	95.56
421.171	99.56
421.394	94.56
421.617	97.56
421.839	96.56
422.062	101.56
422.285	90.56
422.507	112.56
422.73	129.56
422.953	107.56
423.175	91.56
423.398	81.56
423.621	84.56
423.843	99.56
424.066	85.56
424.288	88.56
424.511	90.56
424.733	81.56
424.956	99.56
425.178	96.56
425.401	102.56
425.623	105.56
425.846	99.56
426.068	96.56
426.291	94.56
426.513	89.56
426.735	94.56
426.958	97.56
427.18	124.56
427.402	153.56
427.625	196.56
427.847	163.56
428.069	148.56
428.292	110.56
428.514	108.56
428.736	88.56
428.958	75.56
429.181	87.56
429.403	95.56
429.625	83.56
429.847	89.56
430.069	103.56
430.292	90.56
430.514	82.56
430.736	88.56
430.958	91.56
431.18	75.56
431.402	84.56
431.624	89.56
431.846	97.56
432.068	80.56
432.29	95.56
432.512	96.56
432.734	101.56
432.956	84.56
433.178	101.56
433.4	107.56
433.622	89.56
433.844	93.56
434.066	88.56
434.287	84.56
434.509	94.56
434.731	72.56
434.953	89.56
435.175	102.56
435.397	97.56
435.618	79.56
435.84	102.56
436.062	126.56
436.284	119.56
436.505	93.56
436.727	109.56
436.949	76.56
437.17	102.56
437.392	80.56
437.614	87.56
437.835	119.56
438.057	143.56
438.278	116.56
438.5	110.56
438.721	128.56
438.943	108.56
439.165	87.56
439.386	85.56
439.608	95.56
439.829	106.56
440.05	119.56
440.272	176.56
440.493	110.56
440.715	82.56
440.936	91.56
441.158	90.56
441.379	101.56
441.6	100.56
441.822	107.56
442.043	109.56
442.264	115.56
442.486	119.56
442.707	102.56
442.928	113.56
443.149	141.56
443.371	157.56
443.592	112.56
443.813	120.56
444.034	112.56
444.255	91.56
444.476	81.56
444.698	97.56
444.919	98.56
445.14	128.56
445.361	136.56
445.582	146.56
445.803	160.56
446.024	159.56
446.245	156.56
446.466	119.56
446.687	85.56
446.908	103.56
447.129	91.56
447.35	84.56
447.571	89.56
447.792	103.56
448.013	103.56
448.234	103.56
448.455	110.56
448.675	127.56
448.896	120.56
449.117	96.56
449.338	97.56
449.559	144.56
449.779	155.56
450	98.56
450.221	92.56
450.442	100.56
450.662	99.56
450.883	115.56
451.104	121.56
451.324	93.56
451.545	89.56
451.766	102.56
451.986	78.56
452.207	77.56
452.428	89.56
452.648	103.56
452.869	135.56
453.089	122.56
453.31	127.56
453.53	104.56
453.751	92.56
453.971	111.56
454.192	124.56
454.412	105.56
454.633	89.56
454.853	80.56
455.073	95.56
455.294	90.56
455.514	91.56
455.734	82.56
455.955	80.56
456.175	83.56
456.395	84.56
456.616	86.56
456.836	98.56
457.056	97.56
457.276	82.56
457.497	85.56
457.717	69.56
457.937	98.56
458.157	82.56
458.377	92.56
458.598	125.56
458.818	183.56
459.038	183.56
459.258	126.56
459.478	81.56
459.698	96.56
459.918	90.56
460.138	93.56
460.358	88.56
460.578	80.56
460.798	97.56
461.018	93.56
461.238	84.56
461.458	79.56
461.678	80.56
461.898	88.56
462.118	86.56
462.338	91.56
462.558	101.56
462.777	96.56
462.997	84.56
463.217	91.56
463.437	93.56
463.657	99.56
463.876	90.56
464.096	100.56
464.316	84.56
464.536	96.56
464.755	88.56
464.975	124.56
465.195	193.56
465.414	190.56
465.634	99.56
465.854	103.56
466.073	105.56
466.293	88.56
466.512	96.56
466.732	87.56
466.951	83.56
467.171	90.56
467.391	78.56
467.61	114.56
467.829	123.56
468.049	157.56
468.268	216.56
468.488	109.56
468.707	86.56
468.927	89.56
469.146	92.56
469.365	90.56
469.585	90.56
469.804	110.56
470.023	103.56
470.243	97.56
470.462	90.56
470.681	117.56
470.901	96.56
471.12	94.56
471.339	96.56
471.558	103.56
471.777	96.56
471.997	119.56
472.216	269.56
472.435	498.56
472.654	181.56
472.873	100.56
473.092	105.56
473.311	83.56
473.53	99.56
473.749	80.56
473.968	98.56
474.187	125.56
474.406	104.56
474.625	104.56
474.844	92.56
475.063	75.56
475.282	81.56
475.501	87.56
475.72	87.56
475.939	89.56
476.158	91.56
476.377	88.56
476.596	92.56
476.814	106.56
477.033	94.56
477.252	96.56
477.471	100.56
477.69	91.56
477.908	91.56
478.127	99.56
478.346	90.56
478.564	101.56
478.783	94.56
479.002	102.56
479.22	96.56
479.439	117.56
479.658	117.56
479.876	97.56
480.095	106.56
480.313	105.56
480.532	114.56
480.751	131.56
480.969	261.56
481.188	914.56
481.406	573.56
481.624	154.56
481.843	99.56
482.061	92.56
482.28	69.56
482.498	97.56
482.717	89.56
482.935	107.56
483.153	106.56
483.372	79.56
483.59	83.56
483.808	95.56
484.027	95.56
484.245	88.56
484.463	96.56
484.681	97.56
484.9	89.56
485.118	97.56
485.336	102.56
485.554	89.56
485.772	102.56
485.99	95.56
486.209	107.56
486.427	103.56
486.645	105.56
486.863	124.56
487.081	105.56
487.299	105.56
487.517	112.56
487.735	101.56
487.953	104.56
488.171	96.56
488.389	113.56
488.607	112.56
488.825	92.56
489.043	93.56
489.261	102.56
489.479	91.56
489.696	83.56
489.914	93.56
490.132	84.56
490.35	75.56
490.568	86.56
490.786	104.56
491.003	89.56
491.221	90.56
491.439	87.56
491.657	96.56
491.874	94.56
492.092	106.56
492.31	85.56
492.527	87.56
492.745	96.56
492.963	97.56
493.18	90.56
493.398	93.56
493.615	97.56
493.833	86.56
494.05	92.56
494.268	89.56
494.485	90.56
494.703	83.56
494.92	82.56
495.138	101.56
495.355	97.56
495.573	77.56
495.79	93.56
496.008	85.56
496.225	94.56
496.442	82.56
496.66	99.56
496.877	75.56
497.094	104.56
497.312	87.56
497.529	85.56
497.746	83.56
497.963	91.56
498.181	103.56
498.398	94.56
498.615	105.56
498.832	99.56
499.049	99.56
499.267	93.56
499.484	86.56
499.701	85.56
499.918	98.56
500.135	100.56
500.352	94.56
500.569	91.56
500.786	89.56
501.003	85.56
501.22	97.56
501.437	95.56
501.654	99.56
501.871	111.56
502.088	91.56
502.305	98.56
502.522	83.56
502.739	98.56
502.956	75.56
503.172	84.56
503.389	104.56
503.606	104.56
503.823	89.56
504.04	82.56
504.256	92.56
504.473	95.56
504.69	89.56
504.907	97.56
505.123	87.56
505.34	103.56
505.557	99.56
505.773	91.56
505.99	105.56
506.207	85.56
506.423	78.56
506.64	97.56
506.856	92.56
507.073	92.56
507.289	85.56
507.506	105.56
507.722	115.56
507.939	108.56
508.155	101.56
508.372	103.56
508.588	90.56
508.805	88.56
509.021	99.56
509.238	96.56
509.454	103.56
509.67	92.56
509.887	111.56
510.103	156.56
510.319	230.56
510.536	843.56
510.752	2777.56
510.968	780.56
511.184	157.56
511.401	114.56
511.617	105.56
511.833	109.56
512.049	93.56
512.265	92.56
512.481	87.56
512.698	96.56
512.914	87.56
513.13	95.56
513.346	92.56
513.562	93.56
513.778	92.56
513.994	100.56
514.21	106.56
514.426	134.56
