Data from Circ_2008_H10_HRD10591_00004.txt Node
Date: Wed Jan 03 10:16:57 EST 2024
User: Yrep
Spectrometer: HR+D1059
Trigger mode: 1
Integration Time (sec): 1.000000E-1
Scans to average: 1
Electric dark correction enabled: true
Nonlinearity correction enabled: false
Boxcar width: 0
XAxis mode: Wavelengths
Number of Pixels in Spectrum: 2048
>>>>>Begin Spectral Data<<<<<
223.165	-21.75
223.4	-21.75
223.635	-21.75
223.869	-24.75
224.104	-17.75
224.338	-13.75
224.573	-19.75
224.808	-20.75
225.042	-2.75
225.277	-1.75
225.511	6.25
225.746	-2.75
225.98	6.25
226.215	5.25
226.449	18.25
226.683	16.25
226.918	41.25
227.152	32.25
227.387	50.25
227.621	43.25
227.856	50.25
228.09	54.25
228.324	50.25
228.559	67.25
228.793	49.25
229.027	74.25
229.262	69.25
229.496	75.25
229.73	83.25
229.964	93.25
230.199	69.25
230.433	83.25
230.667	84.25
230.901	82.25
231.136	76.25
231.37	81.25
231.604	84.25
231.838	90.25
232.072	75.25
232.306	95.25
232.541	83.25
232.775	83.25
233.009	84.25
233.243	80.25
233.477	82.25
233.711	68.25
233.945	71.25
234.179	93.25
234.413	84.25
234.647	75.25
234.881	77.25
235.115	81.25
235.349	90.25
235.583	75.25
235.817	78.25
236.051	87.25
236.285	74.25
236.519	77.25
236.753	74.25
236.987	81.25
237.221	90.25
237.455	72.25
237.689	89.25
237.922	73.25
238.156	77.25
238.39	77.25
238.624	101.25
238.858	71.25
239.091	82.25
239.325	91.25
239.559	88.25
239.793	73.25
240.027	84.25
240.26	88.25
240.494	80.25
240.728	78.25
240.961	84.25
241.195	84.25
241.429	80.25
241.662	70.25
241.896	77.25
242.13	87.25
242.363	90.25
242.597	84.25
242.83	87.25
243.064	82.25
243.298	80.25
243.531	87.25
243.765	79.25
243.998	88.25
244.232	81.25
244.465	80.25
244.699	103.25
244.932	91.25
245.166	82.25
245.399	87.25
245.633	80.25
245.866	83.25
246.099	85.25
246.333	84.25
246.566	84.25
246.8	86.25
247.033	92.25
247.266	85.25
247.5	80.25
247.733	94.25
247.966	98.25
248.2	93.25
248.433	81.25
248.666	97.25
248.899	86.25
249.133	89.25
249.366	110.25
249.599	91.25
249.832	79.25
250.066	74.25
250.299	87.25
250.532	85.25
250.765	92.25
250.998	81.25
251.231	79.25
251.465	78.25
251.698	79.25
251.931	85.25
252.164	92.25
252.397	80.25
252.63	89.25
252.863	86.25
253.096	66.25
253.329	88.25
253.562	93.25
253.795	76.25
254.028	90.25
254.261	72.25
254.494	77.25
254.727	87.25
254.96	83.25
255.193	80.25
255.426	91.25
255.659	91.25
255.892	83.25
256.124	85.25
256.357	87.25
256.59	89.25
256.823	86.25
257.056	78.25
257.289	70.25
257.521	84.25
257.754	92.25
257.987	94.25
258.22	89.25
258.452	93.25
258.685	91.25
258.918	80.25
259.151	73.25
259.383	87.25
259.616	83.25
259.849	76.25
260.081	93.25
260.314	83.25
260.547	86.25
260.779	81.25
261.012	87.25
261.244	74.25
261.477	96.25
261.71	87.25
261.942	89.25
262.175	130.25
262.407	89.25
262.64	81.25
262.872	107.25
263.105	96.25
263.337	88.25
263.57	96.25
263.802	87.25
264.035	90.25
264.267	84.25
264.499	90.25
264.732	95.25
264.964	91.25
265.197	73.25
265.429	81.25
265.661	91.25
265.894	86.25
266.126	77.25
266.358	100.25
266.591	95.25
266.823	73.25
267.055	86.25
267.287	88.25
267.52	95.25
267.752	91.25
267.984	86.25
268.216	89.25
268.448	99.25
268.681	90.25
268.913	78.25
269.145	97.25
269.377	81.25
269.609	78.25
269.841	98.25
270.073	98.25
270.306	85.25
270.538	70.25
270.77	77.25
271.002	97.25
271.234	76.25
271.466	87.25
271.698	91.25
271.93	80.25
272.162	91.25
272.394	78.25
272.626	89.25
272.858	99.25
273.09	74.25
273.322	83.25
273.553	76.25
273.785	81.25
274.017	76.25
274.249	92.25
274.481	92.25
274.713	81.25
274.945	82.25
275.176	95.25
275.408	87.25
275.64	79.25
275.872	90.25
276.104	99.25
276.335	97.25
276.567	89.25
276.799	90.25
277.031	99.25
277.262	97.25
277.494	88.25
277.726	99.25
277.957	82.25
278.189	85.25
278.421	97.25
278.652	89.25
278.884	90.25
279.115	94.25
279.347	83.25
279.579	84.25
279.81	87.25
280.042	94.25
280.273	87.25
280.505	97.25
280.736	88.25
280.968	97.25
281.199	94.25
281.431	91.25
281.662	71.25
281.894	86.25
282.125	89.25
282.356	111.25
282.588	135.25
282.819	102.25
283.051	107.25
283.282	85.25
283.513	88.25
283.745	86.25
283.976	86.25
284.207	73.25
284.439	78.25
284.67	95.25
284.901	95.25
285.132	90.25
285.364	94.25
285.595	92.25
285.826	88.25
286.057	93.25
286.288	91.25
286.52	90.25
286.751	90.25
286.982	102.25
287.213	83.25
287.444	98.25
287.675	72.25
287.906	82.25
288.138	88.25
288.369	89.25
288.6	84.25
288.831	103.25
289.062	83.25
289.293	75.25
289.524	91.25
289.755	88.25
289.986	99.25
290.217	79.25
290.448	81.25
290.679	78.25
290.91	92.25
291.141	93.25
291.371	94.25
291.602	89.25
291.833	80.25
292.064	90.25
292.295	87.25
292.526	82.25
292.757	94.25
292.987	108.25
293.218	83.25
293.449	98.25
293.68	82.25
293.91	81.25
294.141	87.25
294.372	81.25
294.603	97.25
294.833	98.25
295.064	90.25
295.295	92.25
295.525	99.25
295.756	100.25
295.987	99.25
296.217	137.25
296.448	118.25
296.679	98.25
296.909	97.25
297.14	92.25
297.37	83.25
297.601	94.25
297.831	82.25
298.062	85.25
298.292	106.25
298.523	100.25
298.753	83.25
298.984	85.25
299.214	91.25
299.445	87.25
299.675	100.25
299.905	87.25
300.136	101.25
300.366	90.25
300.597	91.25
300.827	88.25
301.057	92.25
301.288	103.25
301.518	101.25
301.748	84.25
301.979	92.25
302.209	95.25
302.439	95.25
302.669	86.25
302.9	93.25
303.13	84.25
303.36	90.25
303.59	99.25
303.82	105.25
304.051	82.25
304.281	98.25
304.511	92.25
304.741	93.25
304.971	85.25
305.201	103.25
305.431	92.25
305.661	93.25
305.891	97.25
306.121	103.25
306.352	111.25
306.582	105.25
306.812	98.25
307.042	91.25
307.272	95.25
307.502	97.25
307.731	87.25
307.961	82.25
308.191	101.25
308.421	96.25
308.651	102.25
308.881	97.25
309.111	101.25
309.341	97.25
309.571	101.25
309.8	90.25
310.03	93.25
310.26	94.25
310.49	94.25
310.72	92.25
310.949	97.25
311.179	118.25
311.409	92.25
311.639	93.25
311.868	86.25
312.098	95.25
312.328	109.25
312.557	103.25
312.787	125.25
313.017	94.25
313.246	90.25
313.476	79.25
313.706	72.25
313.935	98.25
314.165	87.25
314.394	100.25
314.624	101.25
314.853	109.25
315.083	102.25
315.312	93.25
315.542	85.25
315.771	94.25
316.001	94.25
316.23	96.25
316.46	82.25
316.689	95.25
316.919	96.25
317.148	90.25
317.377	94.25
317.607	89.25
317.836	101.25
318.065	81.25
318.295	93.25
318.524	88.25
318.753	105.25
318.983	103.25
319.212	82.25
319.441	115.25
319.67	113.25
319.9	91.25
320.129	97.25
320.358	102.25
320.587	89.25
320.816	108.25
321.046	101.25
321.275	108.25
321.504	98.25
321.733	100.25
321.962	78.25
322.191	107.25
322.42	109.25
322.649	109.25
322.878	134.25
323.108	122.25
323.337	111.25
323.566	141.25
323.795	141.25
324.024	190.25
324.253	354.25
324.482	726.25
324.71	1507.25
324.939	1961.25
325.168	761.25
325.397	232.25
325.626	140.25
325.855	112.25
326.084	115.25
326.313	137.25
326.542	150.25
326.77	217.25
326.999	416.25
327.228	861.25
327.457	1532.25
327.686	1209.25
327.914	360.25
328.143	192.25
328.372	149.25
328.6	121.25
328.829	111.25
329.058	115.25
329.287	137.25
329.515	100.25
329.744	116.25
329.972	110.25
330.201	106.25
330.43	108.25
330.658	117.25
330.887	125.25
331.115	121.25
331.344	106.25
331.572	126.25
331.801	104.25
332.03	103.25
332.258	106.25
332.486	94.25
332.715	82.25
332.943	95.25
333.172	101.25
333.4	102.25
333.629	114.25
333.857	107.25
334.085	101.25
334.314	95.25
334.542	110.25
334.771	98.25
334.999	107.25
335.227	93.25
335.455	104.25
335.684	90.25
335.912	88.25
336.14	100.25
336.369	102.25
336.597	110.25
336.825	100.25
337.053	92.25
337.281	86.25
337.51	84.25
337.738	101.25
337.966	79.25
338.194	102.25
338.422	103.25
338.65	85.25
338.878	84.25
339.106	86.25
339.334	113.25
339.562	104.25
339.79	85.25
340.018	96.25
340.246	97.25
340.474	86.25
340.702	102.25
340.93	97.25
341.158	93.25
341.386	94.25
341.614	96.25
341.842	109.25
342.07	80.25
342.298	87.25
342.526	97.25
342.754	94.25
342.981	107.25
343.209	98.25
343.437	83.25
343.665	93.25
343.893	80.25
344.12	89.25
344.348	90.25
344.576	96.25
344.804	90.25
345.031	86.25
345.259	101.25
345.487	99.25
345.714	95.25
345.942	93.25
346.17	94.25
346.397	91.25
346.625	86.25
346.853	93.25
347.08	96.25
347.308	96.25
347.535	87.25
347.763	93.25
347.99	99.25
348.218	100.25
348.445	97.25
348.673	109.25
348.9	97.25
349.128	81.25
349.355	87.25
349.583	94.25
349.81	99.25
350.037	102.25
350.265	95.25
350.492	91.25
350.72	97.25
350.947	94.25
351.174	91.25
351.402	117.25
351.629	100.25
351.856	105.25
352.083	101.25
352.311	109.25
352.538	102.25
352.765	106.25
352.992	121.25
353.22	104.25
353.447	101.25
353.674	109.25
353.901	102.25
354.128	102.25
354.355	106.25
354.583	109.25
354.81	94.25
355.037	97.25
355.264	96.25
355.491	93.25
355.718	98.25
355.945	102.25
356.172	106.25
356.399	100.25
356.626	115.25
356.853	91.25
357.08	85.25
357.307	100.25
357.534	100.25
357.761	91.25
357.988	109.25
358.215	99.25
358.441	91.25
358.668	108.25
358.895	111.25
359.122	95.25
359.349	91.25
359.576	85.25
359.802	102.25
360.029	117.25
360.256	117.25
360.483	91.25
360.709	94.25
360.936	114.25
361.163	92.25
361.39	95.25
361.616	96.25
361.843	107.25
362.07	111.25
362.296	86.25
362.523	85.25
362.749	89.25
362.976	86.25
363.203	94.25
363.429	91.25
363.656	95.25
363.882	75.25
364.109	100.25
364.335	99.25
364.562	102.25
364.788	109.25
365.015	106.25
365.241	97.25
365.468	106.25
365.694	108.25
365.92	98.25
366.147	90.25
366.373	99.25
366.599	81.25
366.826	97.25
367.052	105.25
367.278	85.25
367.505	97.25
367.731	92.25
367.957	85.25
368.184	103.25
368.41	95.25
368.636	108.25
368.862	122.25
369.089	98.25
369.315	85.25
369.541	86.25
369.767	89.25
369.993	91.25
370.219	98.25
370.445	97.25
370.672	99.25
370.898	84.25
371.124	97.25
371.35	92.25
371.576	100.25
371.802	95.25
372.028	92.25
372.254	81.25
372.48	92.25
372.706	103.25
372.932	97.25
373.158	90.25
373.384	100.25
373.61	85.25
373.835	87.25
374.061	108.25
374.287	95.25
374.513	100.25
374.739	87.25
374.965	99.25
375.191	95.25
375.416	98.25
375.642	112.25
375.868	102.25
376.094	90.25
376.319	97.25
376.545	91.25
376.771	93.25
376.997	87.25
377.222	99.25
377.448	102.25
377.674	92.25
377.899	91.25
378.125	89.25
378.35	105.25
378.576	98.25
378.802	110.25
379.027	105.25
379.253	103.25
379.478	103.25
379.704	110.25
379.929	110.25
380.155	95.25
380.38	87.25
380.606	98.25
380.831	93.25
381.057	95.25
381.282	90.25
381.507	94.25
381.733	96.25
381.958	93.25
382.184	113.25
382.409	123.25
382.634	111.25
382.86	121.25
383.085	116.25
383.31	117.25
383.535	91.25
383.761	121.25
383.986	110.25
384.211	113.25
384.436	114.25
384.662	114.25
384.887	115.25
385.112	117.25
385.337	119.25
385.562	154.25
385.787	129.25
386.013	127.25
386.238	125.25
386.463	118.25
386.688	120.25
386.913	124.25
387.138	122.25
387.363	115.25
387.588	119.25
387.813	130.25
388.038	120.25
388.263	142.25
388.488	141.25
388.713	94.25
388.938	99.25
389.163	98.25
389.387	100.25
389.612	98.25
389.837	98.25
390.062	96.25
390.287	96.25
390.512	94.25
390.736	102.25
390.961	91.25
391.186	102.25
391.411	105.25
391.636	93.25
391.86	98.25
392.085	90.25
392.31	89.25
392.534	100.25
392.759	91.25
392.984	101.25
393.208	105.25
393.433	125.25
393.658	95.25
393.882	92.25
394.107	93.25
394.331	92.25
394.556	96.25
394.78	93.25
395.005	91.25
395.229	81.25
395.454	89.25
395.678	86.25
395.903	96.25
396.127	87.25
396.352	79.25
396.576	89.25
396.801	96.25
397.025	102.25
397.249	85.25
397.474	105.25
397.698	92.25
397.922	76.25
398.147	78.25
398.371	76.25
398.595	97.25
398.82	87.25
399.044	94.25
399.268	92.25
399.492	85.25
399.717	82.25
399.941	107.25
400.165	101.25
400.389	83.25
400.613	99.25
400.837	94.25
401.062	85.25
401.286	81.25
401.51	89.25
401.734	94.25
401.958	98.25
402.182	121.25
402.406	144.25
402.63	105.25
402.854	87.25
403.078	93.25
403.302	80.25
403.526	96.25
403.75	93.25
403.974	85.25
404.198	88.25
404.422	89.25
404.645	94.25
404.869	88.25
405.093	106.25
405.317	82.25
405.541	98.25
405.765	101.25
405.988	111.25
406.212	166.25
406.436	220.25
406.66	140.25
406.883	97.25
407.107	90.25
407.331	95.25
407.555	97.25
407.778	97.25
408.002	99.25
408.226	86.25
408.449	86.25
408.673	92.25
408.896	95.25
409.12	89.25
409.344	87.25
409.567	87.25
409.791	112.25
410.014	98.25
410.238	98.25
410.461	102.25
410.685	99.25
410.908	105.25
411.132	103.25
411.355	92.25
411.578	91.25
411.802	93.25
412.025	98.25
412.249	86.25
412.472	91.25
412.695	98.25
412.919	76.25
413.142	88.25
413.365	108.25
413.589	82.25
413.812	112.25
414.035	93.25
414.258	98.25
414.482	100.25
414.705	85.25
414.928	84.25
415.151	96.25
415.374	83.25
415.597	100.25
415.821	87.25
416.044	80.25
416.267	84.25
416.49	101.25
416.713	98.25
416.936	93.25
417.159	77.25
417.382	80.25
417.605	86.25
417.828	77.25
418.051	110.25
418.274	86.25
418.497	80.25
418.72	84.25
418.943	93.25
419.166	102.25
419.389	92.25
419.611	87.25
419.834	109.25
420.057	106.25
420.28	87.25
420.503	85.25
420.726	104.25
420.948	88.25
421.171	78.25
421.394	93.25
421.617	95.25
421.839	98.25
422.062	96.25
422.285	99.25
422.507	116.25
422.73	132.25
422.953	110.25
423.175	81.25
423.398	96.25
423.621	115.25
423.843	93.25
424.066	78.25
424.288	87.25
424.511	77.25
424.733	98.25
424.956	114.25
425.178	99.25
425.401	111.25
425.623	97.25
425.846	89.25
426.068	90.25
426.291	96.25
426.513	91.25
426.735	95.25
426.958	100.25
427.18	97.25
427.402	113.25
427.625	160.25
427.847	121.25
428.069	109.25
428.292	96.25
428.514	81.25
428.736	83.25
428.958	85.25
429.181	82.25
429.403	87.25
429.625	113.25
429.847	66.25
430.069	95.25
430.292	83.25
430.514	79.25
430.736	80.25
430.958	89.25
431.18	79.25
431.402	91.25
431.624	85.25
431.846	84.25
432.068	83.25
432.29	105.25
432.512	88.25
432.734	88.25
432.956	90.25
433.178	98.25
433.4	96.25
433.622	89.25
433.844	89.25
434.066	80.25
434.287	98.25
434.509	77.25
434.731	102.25
434.953	96.25
435.175	92.25
435.397	90.25
435.618	95.25
435.84	105.25
436.062	137.25
436.284	112.25
436.505	109.25
436.727	88.25
436.949	98.25
437.17	86.25
437.392	86.25
437.614	92.25
437.835	109.25
438.057	104.25
438.278	109.25
438.5	104.25
438.721	98.25
438.943	114.25
439.165	92.25
439.386	68.25
439.608	91.25
439.829	108.25
440.05	100.25
440.272	122.25
440.493	99.25
440.715	99.25
440.936	83.25
441.158	78.25
441.379	74.25
441.6	87.25
441.822	91.25
442.043	74.25
442.264	105.25
442.486	103.25
442.707	97.25
442.928	104.25
443.149	130.25
443.371	141.25
443.592	103.25
443.813	113.25
444.034	117.25
444.255	94.25
444.476	95.25
444.698	86.25
444.919	82.25
445.14	140.25
445.361	116.25
445.582	113.25
445.803	129.25
446.024	146.25
446.245	131.25
446.466	107.25
446.687	86.25
446.908	99.25
447.129	98.25
447.35	97.25
447.571	93.25
447.792	102.25
448.013	85.25
448.234	115.25
448.455	109.25
448.675	103.25
448.896	112.25
449.117	97.25
449.338	94.25
449.559	116.25
449.779	115.25
450	92.25
450.221	91.25
450.442	94.25
450.662	102.25
450.883	109.25
451.104	112.25
451.324	105.25
451.545	93.25
451.766	83.25
451.986	86.25
452.207	94.25
452.428	97.25
452.648	101.25
452.869	126.25
453.089	102.25
453.31	110.25
453.53	102.25
453.751	99.25
453.971	102.25
454.192	117.25
454.412	101.25
454.633	94.25
454.853	89.25
455.073	94.25
455.294	99.25
455.514	94.25
455.734	85.25
455.955	82.25
456.175	82.25
456.395	98.25
456.616	93.25
456.836	99.25
457.056	77.25
457.276	84.25
457.497	101.25
457.717	99.25
457.937	97.25
458.157	77.25
458.377	89.25
458.598	109.25
458.818	134.25
459.038	156.25
459.258	110.25
459.478	94.25
459.698	97.25
459.918	78.25
460.138	81.25
460.358	84.25
460.578	94.25
460.798	85.25
461.018	85.25
461.238	93.25
461.458	82.25
461.678	86.25
461.898	96.25
462.118	89.25
462.338	90.25
462.558	85.25
462.777	90.25
462.997	68.25
463.217	94.25
463.437	98.25
463.657	86.25
463.876	85.25
464.096	81.25
464.316	107.25
464.536	94.25
464.755	94.25
464.975	113.25
465.195	157.25
465.414	131.25
465.634	92.25
465.854	90.25
466.073	87.25
466.293	103.25
466.512	86.25
466.732	85.25
466.951	85.25
467.171	95.25
467.391	101.25
467.61	97.25
467.829	85.25
468.049	100.25
468.268	97.25
468.488	100.25
468.707	79.25
468.927	99.25
469.146	113.25
469.365	89.25
469.585	106.25
469.804	98.25
470.023	86.25
470.243	89.25
470.462	95.25
470.681	111.25
470.901	74.25
471.12	87.25
471.339	92.25
471.558	96.25
471.777	99.25
471.997	87.25
472.216	93.25
472.435	102.25
472.654	87.25
472.873	96.25
473.092	94.25
473.311	85.25
473.53	76.25
473.749	93.25
473.968	87.25
474.187	93.25
474.406	92.25
474.625	77.25
474.844	86.25
475.063	77.25
475.282	98.25
475.501	109.25
475.72	101.25
475.939	79.25
476.158	83.25
476.377	95.25
476.596	85.25
476.814	94.25
477.033	76.25
477.252	97.25
477.471	98.25
477.69	90.25
477.908	83.25
478.127	92.25
478.346	86.25
478.564	97.25
478.783	92.25
479.002	94.25
479.22	109.25
479.439	111.25
479.658	109.25
479.876	100.25
480.095	77.25
480.313	96.25
480.532	102.25
480.751	91.25
480.969	106.25
481.188	106.25
481.406	99.25
481.624	98.25
481.843	85.25
482.061	86.25
482.28	97.25
482.498	93.25
482.717	92.25
482.935	95.25
483.153	87.25
483.372	94.25
483.59	85.25
483.808	98.25
484.027	86.25
484.245	91.25
484.463	104.25
484.681	93.25
484.9	94.25
485.118	96.25
485.336	82.25
485.554	91.25
485.772	105.25
485.99	82.25
486.209	115.25
486.427	108.25
486.645	103.25
486.863	94.25
487.081	111.25
487.299	92.25
487.517	95.25
487.735	95.25
487.953	99.25
488.171	105.25
488.389	107.25
488.607	101.25
488.825	96.25
489.043	101.25
489.261	79.25
489.479	85.25
489.696	93.25
489.914	103.25
490.132	94.25
490.35	87.25
490.568	93.25
490.786	85.25
491.003	87.25
491.221	92.25
491.439	91.25
491.657	82.25
491.874	91.25
492.092	93.25
492.31	91.25
492.527	105.25
492.745	84.25
492.963	102.25
493.18	101.25
493.398	90.25
493.615	94.25
493.833	100.25
494.05	86.25
494.268	109.25
494.485	109.25
494.703	94.25
494.92	97.25
495.138	89.25
495.355	95.25
495.573	108.25
495.79	99.25
496.008	97.25
496.225	101.25
496.442	86.25
496.66	87.25
496.877	99.25
497.094	66.25
497.312	85.25
497.529	87.25
497.746	98.25
497.963	87.25
498.181	95.25
498.398	94.25
498.615	108.25
498.832	109.25
499.049	101.25
499.267	90.25
499.484	89.25
499.701	102.25
499.918	96.25
500.135	90.25
500.352	87.25
500.569	85.25
500.786	86.25
501.003	93.25
501.22	93.25
501.437	108.25
501.654	100.25
501.871	110.25
502.088	89.25
502.305	100.25
502.522	97.25
502.739	93.25
502.956	101.25
503.172	77.25
503.389	94.25
503.606	94.25
503.823	99.25
504.04	91.25
504.256	97.25
504.473	86.25
504.69	86.25
504.907	102.25
505.123	98.25
505.34	97.25
505.557	101.25
505.773	108.25
505.99	101.25
506.207	92.25
506.423	96.25
506.64	86.25
506.856	97.25
507.073	90.25
507.289	90.25
507.506	97.25
507.722	100.25
507.939	116.25
508.155	95.25
508.372	82.25
508.588	96.25
508.805	90.25
509.021	107.25
509.238	103.25
509.454	93.25
509.67	106.25
509.887	111.25
510.103	141.25
510.319	213.25
510.536	743.25
510.752	2476.25
510.968	689.25
511.184	165.25
511.401	111.25
511.617	96.25
511.833	108.25
512.049	91.25
512.265	93.25
512.481	89.25
512.698	98.25
512.914	102.25
513.13	97.25
513.346	83.25
513.562	95.25
513.778	105.25
513.994	85.25
514.21	106.25
514.426	137.25
514.642	142.25
514.858	132.25
