Data from Circ_2008_H10_HRD10591_00070.txt Node
Date: Wed Jan 03 10:17:10 EST 2024
User: Yrep
Spectrometer: HR+D1059
Trigger mode: 1
Integration Time (sec): 1.000000E-1
Scans to average: 1
Electric dark correction enabled: true
Nonlinearity correction enabled: false
Boxcar width: 0
XAxis mode: Wavelengths
Number of Pixels in Spectrum: 2048
>>>>>Begin Spectral Data<<<<<
223.165	-27
223.4	-27
223.635	-27
223.869	-6
224.104	-6
224.338	-8
224.573	-13
224.808	-10
225.042	-6
225.277	-5
225.511	-18
225.746	4
225.98	-1
226.215	13
226.449	15
226.683	20
226.918	14
227.152	34
227.387	42
227.621	35
227.856	39
228.09	42
228.324	55
228.559	54
228.793	56
229.027	55
229.262	65
229.496	72
229.73	88
229.964	76
230.199	73
230.433	63
230.667	70
230.901	83
231.136	87
231.37	89
231.604	83
231.838	78
232.072	74
232.306	61
232.541	85
232.775	74
233.009	98
233.243	73
233.477	72
233.711	80
233.945	95
234.179	79
234.413	86
234.647	82
234.881	68
235.115	85
235.349	70
235.583	72
235.817	72
236.051	76
236.285	64
236.519	62
236.753	80
236.987	76
237.221	83
237.455	79
237.689	70
237.922	75
238.156	76
238.39	76
238.624	78
238.858	81
239.091	88
239.325	76
239.559	87
239.793	72
240.027	84
240.26	76
240.494	70
240.728	94
240.961	84
241.195	81
241.429	74
241.662	86
241.896	78
242.13	84
242.363	75
242.597	65
242.83	81
243.064	79
243.298	92
243.531	90
243.765	81
243.998	93
244.232	84
244.465	82
244.699	83
244.932	81
245.166	61
245.399	84
245.633	81
245.866	80
246.099	81
246.333	78
246.566	79
246.8	73
247.033	83
247.266	83
247.5	79
247.733	83
247.966	81
248.2	78
248.433	78
248.666	81
248.899	77
249.133	80
249.366	100
249.599	91
249.832	92
250.066	82
250.299	85
250.532	83
250.765	90
250.998	84
251.231	79
251.465	76
251.698	93
251.931	70
252.164	75
252.397	68
252.63	76
252.863	73
253.096	77
253.329	71
253.562	95
253.795	91
254.028	84
254.261	76
254.494	70
254.727	84
254.96	75
255.193	79
255.426	84
255.659	80
255.892	81
256.124	79
256.357	74
256.59	72
256.823	72
257.056	92
257.289	82
257.521	88
257.754	96
257.987	79
258.22	89
258.452	74
258.685	80
258.918	79
259.151	64
259.383	79
259.616	95
259.849	71
260.081	87
260.314	86
260.547	74
260.779	78
261.012	76
261.244	93
261.477	92
261.71	90
261.942	103
262.175	108
262.407	111
262.64	90
262.872	90
263.105	89
263.337	90
263.57	71
263.802	87
264.035	85
264.267	90
264.499	81
264.732	88
264.964	82
265.197	81
265.429	82
265.661	80
265.894	94
266.126	77
266.358	65
266.591	83
266.823	76
267.055	75
267.287	88
267.52	94
267.752	80
267.984	80
268.216	84
268.448	83
268.681	87
268.913	84
269.145	88
269.377	82
269.609	97
269.841	88
270.073	85
270.306	86
270.538	85
270.77	71
271.002	72
271.234	94
271.466	73
271.698	85
271.93	91
272.162	81
272.394	95
272.626	86
272.858	72
273.09	80
273.322	79
273.553	92
273.785	86
274.017	87
274.249	85
274.481	86
274.713	91
274.945	73
275.176	91
275.408	75
275.64	84
275.872	87
276.104	104
276.335	78
276.567	96
276.799	112
277.031	98
277.262	103
277.494	83
277.726	78
277.957	84
278.189	87
278.421	88
278.652	81
278.884	76
279.115	91
279.347	81
279.579	90
279.81	81
280.042	92
280.273	90
280.505	88
280.736	82
280.968	88
281.199	78
281.431	80
281.662	103
281.894	94
282.125	103
282.356	122
282.588	154
282.819	115
283.051	96
283.282	80
283.513	82
283.745	98
283.976	100
284.207	80
284.439	91
284.67	96
284.901	91
285.132	86
285.364	73
285.595	94
285.826	82
286.057	105
286.288	104
286.52	77
286.751	86
286.982	83
287.213	86
287.444	97
287.675	84
287.906	80
288.138	97
288.369	90
288.6	94
288.831	88
289.062	85
289.293	94
289.524	95
289.755	94
289.986	82
290.217	88
290.448	80
290.679	81
290.91	86
291.141	83
291.371	79
291.602	95
291.833	82
292.064	97
292.295	83
292.526	92
292.757	89
292.987	79
293.218	92
293.449	76
293.68	93
293.91	73
294.141	87
294.372	92
294.603	85
294.833	78
295.064	79
295.295	90
295.525	99
295.756	100
295.987	127
296.217	145
296.448	139
296.679	96
296.909	92
297.14	86
297.37	98
297.601	89
297.831	85
298.062	97
298.292	92
298.523	86
298.753	91
298.984	102
299.214	88
299.445	95
299.675	79
299.905	104
300.136	101
300.366	77
300.597	83
300.827	100
301.057	107
301.288	116
301.518	97
301.748	82
301.979	101
302.209	100
302.439	82
302.669	88
302.9	86
303.13	90
303.36	103
303.59	104
303.82	114
304.051	102
304.281	98
304.511	86
304.741	89
304.971	79
305.201	78
305.431	89
305.661	79
305.891	105
306.121	96
306.352	112
306.582	114
306.812	93
307.042	80
307.272	87
307.502	86
307.731	90
307.961	99
308.191	95
308.421	89
308.651	81
308.881	92
309.111	90
309.341	92
309.571	89
309.8	89
310.03	92
310.26	100
310.49	94
310.72	95
310.949	103
311.179	92
311.409	77
311.639	88
311.868	96
312.098	94
312.328	96
312.557	98
312.787	112
313.017	94
313.246	87
313.476	91
313.706	103
313.935	95
314.165	102
314.394	98
314.624	88
314.853	103
315.083	88
315.312	87
315.542	104
315.771	97
316.001	90
316.23	100
316.46	77
316.689	87
316.919	83
317.148	90
317.377	98
317.607	103
317.836	79
318.065	91
318.295	89
318.524	82
318.753	79
318.983	89
319.212	100
319.441	108
319.67	112
319.9	88
320.129	91
320.358	83
320.587	96
320.816	106
321.046	107
321.275	98
321.504	101
321.733	88
321.962	96
322.191	89
322.42	124
322.649	114
322.878	120
323.108	114
323.337	139
323.566	139
323.795	139
324.024	197
324.253	377
324.482	824
324.71	1678
324.939	2194
325.168	810
325.397	227
325.626	156
325.855	136
326.084	115
326.313	119
326.542	156
326.77	228
326.999	438
327.228	907
327.457	1623
327.686	1298
327.914	371
328.143	224
328.372	197
328.6	144
328.829	118
329.058	132
329.287	139
329.515	112
329.744	109
329.972	148
330.201	198
330.43	234
330.658	160
330.887	147
331.115	120
331.344	95
331.572	103
331.801	119
332.03	116
332.258	100
332.486	110
332.715	86
332.943	94
333.172	104
333.4	86
333.629	109
333.857	121
334.085	144
334.314	160
334.542	268
334.771	249
334.999	127
335.227	102
335.455	98
335.684	90
335.912	105
336.14	84
336.369	92
336.597	107
336.825	102
337.053	99
337.281	91
337.51	82
337.738	94
337.966	89
338.194	88
338.422	91
338.65	94
338.878	83
339.106	87
339.334	96
339.562	92
339.79	77
340.018	99
340.246	78
340.474	113
340.702	85
340.93	79
341.158	99
341.386	102
341.614	95
341.842	91
342.07	86
342.298	77
342.526	87
342.754	82
342.981	87
343.209	87
343.437	100
343.665	90
343.893	80
344.12	83
344.348	89
344.576	81
344.804	89
345.031	94
345.259	118
345.487	97
345.714	92
345.942	89
346.17	94
346.397	90
346.625	89
346.853	98
347.08	87
347.308	103
347.535	98
347.763	92
347.99	98
348.218	109
348.445	91
348.673	97
348.9	95
349.128	91
349.355	88
349.583	84
349.81	89
350.037	97
350.265	91
350.492	88
350.72	106
350.947	89
351.174	100
351.402	115
351.629	103
351.856	105
352.083	105
352.311	107
352.538	99
352.765	112
352.992	104
353.22	126
353.447	111
353.674	90
353.901	74
354.128	100
354.355	88
354.583	97
354.81	102
355.037	100
355.264	89
355.491	91
355.718	83
355.945	92
356.172	86
356.399	92
356.626	92
356.853	87
357.08	85
357.307	80
357.534	70
357.761	83
357.988	77
358.215	91
358.441	97
358.668	112
358.895	90
359.122	91
359.349	84
359.576	105
359.802	103
360.029	115
360.256	118
360.483	86
360.709	98
360.936	109
361.163	97
361.39	91
361.616	91
361.843	75
362.07	103
362.296	91
362.523	89
362.749	86
362.976	76
363.203	94
363.429	93
363.656	76
363.882	95
364.109	93
364.335	85
364.562	89
364.788	86
365.015	92
365.241	99
365.468	114
365.694	115
365.92	96
366.147	91
366.373	96
366.599	92
366.826	95
367.052	77
367.278	88
367.505	92
367.731	75
367.957	94
368.184	103
368.41	90
368.636	107
368.862	115
369.089	103
369.315	96
369.541	87
369.767	97
369.993	81
370.219	82
370.445	101
370.672	90
370.898	87
371.124	83
371.35	73
371.576	82
371.802	79
372.028	88
372.254	97
372.48	100
372.706	88
372.932	89
373.158	85
373.384	90
373.61	92
373.835	99
374.061	83
374.287	82
374.513	95
374.739	84
374.965	91
375.191	90
375.416	91
375.642	90
375.868	79
376.094	92
376.319	94
376.545	90
376.771	89
376.997	86
377.222	98
377.448	81
377.674	88
377.899	91
378.125	84
378.35	87
378.576	87
378.802	84
379.027	89
379.253	72
379.478	79
379.704	87
379.929	90
380.155	94
380.38	89
380.606	77
380.831	79
381.057	92
381.282	106
381.507	99
381.733	89
381.958	95
382.184	95
382.409	85
382.634	105
382.86	91
383.085	100
383.31	106
383.535	103
383.761	98
383.986	103
384.211	89
384.436	96
384.662	106
384.887	89
385.112	103
385.337	102
385.562	97
385.787	95
386.013	111
386.238	113
386.463	111
386.688	119
386.913	108
387.138	101
387.363	102
387.588	101
387.813	88
388.038	100
388.263	100
388.488	104
388.713	99
388.938	89
389.163	94
389.387	82
389.612	97
389.837	90
390.062	78
390.287	101
390.512	90
390.736	84
390.961	76
391.186	67
391.411	87
391.636	96
391.86	86
392.085	74
392.31	81
392.534	86
392.759	80
392.984	97
393.208	93
393.433	94
393.658	100
393.882	83
394.107	82
394.331	89
394.556	78
394.78	82
395.005	96
395.229	80
395.454	83
395.678	83
395.903	81
396.127	83
396.352	78
396.576	80
396.801	92
397.025	101
397.249	74
397.474	98
397.698	82
397.922	90
398.147	92
398.371	84
398.595	82
398.82	81
399.044	89
399.268	77
399.492	90
399.717	85
399.941	90
400.165	97
400.389	87
400.613	79
400.837	92
401.062	80
401.286	84
401.51	81
401.734	95
401.958	90
402.182	129
402.406	157
402.63	111
402.854	68
403.078	66
403.302	75
403.526	93
403.75	88
403.974	88
404.198	91
404.422	84
404.645	91
404.869	96
405.093	99
405.317	111
405.541	90
405.765	95
405.988	126
406.212	145
406.436	254
406.66	152
406.883	118
407.107	102
407.331	107
407.555	105
407.778	98
408.002	88
408.226	105
408.449	82
408.673	97
408.896	97
409.12	94
409.344	93
409.567	84
409.791	84
410.014	87
410.238	90
410.461	77
410.685	82
410.908	91
411.132	106
411.355	102
411.578	88
411.802	88
412.025	73
412.249	84
412.472	85
412.695	80
412.919	87
413.142	92
413.365	87
413.589	87
413.812	67
414.035	100
414.258	90
414.482	87
414.705	81
414.928	80
415.151	79
415.374	91
415.597	86
415.821	78
416.044	98
416.267	74
416.49	82
416.713	80
416.936	87
417.159	88
417.382	77
417.605	93
417.828	90
418.051	78
418.274	77
418.497	79
418.72	97
418.943	92
419.166	88
419.389	85
419.611	80
419.834	75
420.057	90
420.28	83
420.503	100
420.726	98
420.948	89
421.171	100
421.394	88
421.617	103
421.839	87
422.062	94
422.285	83
422.507	98
422.73	106
422.953	82
423.175	91
423.398	83
423.621	95
423.843	86
424.066	95
424.288	73
424.511	108
424.733	94
424.956	106
425.178	100
425.401	102
425.623	81
425.846	98
426.068	85
426.291	94
426.513	93
426.735	80
426.958	96
427.18	112
427.402	115
427.625	188
427.847	140
428.069	111
428.292	90
428.514	76
428.736	94
428.958	77
429.181	97
429.403	98
429.625	74
429.847	99
430.069	104
430.292	95
430.514	95
430.736	93
430.958	83
431.18	80
431.402	86
431.624	78
431.846	85
432.068	83
432.29	76
432.512	88
432.734	95
432.956	90
433.178	92
433.4	105
433.622	103
433.844	102
434.066	88
434.287	83
434.509	95
434.731	81
434.953	83
435.175	83
435.397	78
435.618	100
435.84	99
436.062	113
436.284	107
436.505	100
436.727	94
436.949	86
437.17	92
437.392	72
437.614	90
437.835	106
438.057	127
438.278	105
438.5	92
438.721	112
438.943	96
439.165	86
439.386	91
439.608	91
439.829	90
440.05	112
440.272	125
440.493	86
440.715	95
440.936	82
441.158	82
441.379	95
441.6	89
441.822	96
442.043	108
442.264	111
442.486	114
442.707	89
442.928	102
443.149	133
443.371	134
443.592	108
443.813	101
444.034	104
444.255	95
444.476	81
444.698	85
444.919	86
445.14	130
445.361	120
445.582	106
445.803	128
446.024	128
446.245	139
446.466	101
446.687	73
446.908	96
447.129	92
447.35	91
447.571	95
447.792	81
448.013	95
448.234	121
448.455	86
448.675	93
448.896	108
449.117	98
449.338	110
449.559	120
449.779	132
450	93
450.221	88
450.442	81
450.662	96
450.883	108
451.104	124
451.324	95
451.545	85
451.766	92
451.986	86
452.207	80
452.428	90
452.648	96
452.869	124
453.089	107
453.31	120
453.53	99
453.751	97
453.971	102
454.192	120
454.412	84
454.633	101
454.853	91
455.073	78
455.294	88
455.514	97
455.734	92
455.955	87
456.175	78
456.395	84
456.616	83
456.836	86
457.056	81
457.276	79
457.497	91
457.717	92
457.937	87
458.157	80
458.377	79
458.598	107
458.818	169
459.038	151
459.258	111
459.478	80
459.698	96
459.918	95
460.138	88
460.358	80
460.578	92
460.798	84
461.018	92
461.238	86
461.458	86
461.678	82
461.898	81
462.118	84
462.338	94
462.558	91
462.777	81
462.997	97
463.217	94
463.437	80
463.657	74
463.876	88
464.096	85
464.316	88
464.536	78
464.755	87
464.975	103
465.195	176
465.414	168
465.634	96
465.854	80
466.073	82
466.293	102
466.512	97
466.732	75
466.951	77
467.171	90
467.391	99
467.61	119
467.829	104
468.049	126
468.268	161
468.488	99
468.707	87
468.927	83
469.146	81
469.365	81
469.585	83
469.804	109
470.023	96
470.243	101
470.462	102
470.681	105
470.901	94
471.12	80
471.339	91
471.558	95
471.777	91
471.997	118
472.216	198
472.435	335
472.654	134
472.873	83
473.092	84
473.311	89
473.53	78
473.749	84
473.968	96
474.187	108
474.406	101
474.625	99
474.844	86
475.063	81
475.282	93
475.501	95
475.72	91
475.939	103
476.158	92
476.377	97
476.596	85
476.814	106
477.033	86
477.252	83
477.471	65
477.69	90
477.908	99
478.127	99
478.346	76
478.564	90
478.783	97
479.002	96
479.22	98
479.439	101
479.658	111
479.876	97
480.095	92
480.313	97
480.532	95
480.751	114
480.969	200
481.188	566
481.406	342
481.624	114
481.843	105
482.061	83
482.28	67
482.498	85
482.717	80
482.935	85
483.153	93
483.372	84
483.59	81
483.808	108
484.027	87
484.245	101
484.463	93
484.681	101
484.9	88
485.118	90
485.336	98
485.554	95
485.772	100
485.99	109
486.209	87
486.427	91
486.645	93
486.863	103
487.081	94
487.299	94
487.517	95
487.735	93
487.953	103
488.171	91
488.389	86
488.607	99
488.825	92
489.043	78
489.261	83
489.479	89
489.696	103
489.914	91
490.132	83
490.35	84
490.568	78
490.786	96
491.003	72
491.221	81
491.439	94
491.657	85
491.874	76
492.092	113
492.31	103
492.527	81
492.745	92
492.963	102
493.18	95
493.398	90
493.615	108
493.833	87
494.05	95
494.268	94
494.485	79
494.703	105
494.92	102
495.138	85
495.355	91
495.573	82
495.79	89
496.008	94
496.225	88
496.442	84
496.66	88
496.877	94
497.094	92
497.312	80
497.529	87
497.746	82
497.963	86
498.181	77
498.398	94
498.615	112
498.832	109
499.049	107
499.267	84
499.484	97
499.701	72
499.918	93
500.135	104
500.352	113
500.569	92
500.786	90
501.003	94
501.22	88
501.437	83
501.654	110
501.871	120
502.088	110
502.305	76
502.522	78
502.739	86
502.956	87
503.172	83
503.389	112
503.606	102
503.823	94
504.04	102
504.256	80
504.473	97
504.69	93
504.907	98
505.123	95
505.34	90
505.557	92
505.773	87
505.99	95
506.207	91
506.423	87
506.64	97
506.856	89
507.073	94
507.289	88
507.506	104
507.722	101
507.939	120
508.155	80
508.372	91
508.588	96
508.805	90
509.021	88
509.238	93
509.454	99
509.67	104
509.887	107
510.103	133
510.319	228
510.536	892
510.752	3002
510.968	823
511.184	179
511.401	110
511.617	115
511.833	92
512.049	98
512.265	92
512.481	103
512.698	87
512.914	87
513.13	87
513.346	98
513.562	86
513.778	100
513.994	106
514.21	100
514.426	121
514.642	136
514.858	126
515.074	175
515.29	524
515.506	1868
515.721	662
515.937	164
516.153	123
516.369	98
516.585	86
516.801	96
517.016	95
517.232	110
517.448	89
517.664	91
517.879	92
518.095	84
518.311	76
518.527	90
518.742	105
518.958	101
519.173	84
519.389	94
519.605	97
519.82	98
520.036	113
520.251	121
520.467	117
520.682	106
520.898	100
521.113	131
521.329	147
521.544	228
521.76	677
521.975	3059
522.19	1861
522.406	381
522.621	131
522.836	84
523.052	96
523.267	102
523.482	86
523.698	105
523.913	127
524.128	100
524.343	79
524.559	95
524.774	84
524.989	83
525.204	120
525.419	99
525.634	99
525.849	82
526.064	95
526.28	94
526.495	91
526.71	86
526.925	84
527.14	88
527.355	91
527.57	86
527.785	93
527.999	88
528.214	96
528.429	100
528.644	88
528.859	85
529.074	103
529.289	130
529.503	200
529.718	128
529.933	89
530.148	81
530.363	85
530.577	97
530.792	99
531.007	77
531.221	92
531.436	88
531.651	115
531.865	100
532.08	95
532.295	92
532.509	96
532.724	89
532.938	96
533.153	89
533.367	92
533.582	94
533.796	91
534.011	103
534.225	90
534.44	93
534.654	92
534.868	84
535.083	90
535.297	92
535.511	100
535.726	110
535.94	102
536.154	104
536.369	85
536.583	89
536.797	82
537.011	76
537.225	90
537.44	94
537.654	91
537.868	83
538.082	97
538.296	79
538.51	78
538.724	92
538.938	103
539.153	96
539.367	99
539.581	93
539.795	80
540.009	74
540.222	83
540.436	90
540.65	84
540.864	104
541.078	98
541.292	86
541.506	90
541.72	82
541.934	83
542.147	99
542.361	84
542.575	89
542.789	75
543.002	102
543.216	83
543.43	100
543.644	80
543.857	82
544.071	85
544.285	88
544.498	91
544.712	84
544.925	98
545.139	73
545.352	78
545.566	87
545.779	82
545.993	89
546.206	96
546.42	95
546.633	74
546.847	98
547.06	91
547.274	77
547.487	80
547.7	85
547.914	85
548.127	76
548.34	78
548.554	95
548.767	84
548.98	95
549.193	87
549.407	96
549.62	100
549.833	86
550.046	81
550.259	73
550.473	80
550.686	88
550.899	101
551.112	96
551.325	81
551.538	93
551.751	78
551.964	91
552.177	100
552.39	84
552.603	94
552.816	103
553.029	101
553.242	90
553.455	104
553.667	123
553.88	96
554.093	89
554.306	80
554.519	90
554.732	86
554.944	107
555.157	88
555.37	96
555.583	100
555.795	106
556.008	99
556.221	84
556.433	94
556.646	91
556.859	90
557.071	82
557.284	84
557.496	100
557.709	100
557.921	86
558.134	82
558.346	99
558.559	89
558.771	94
558.984	82
559.196	76
559.409	85
559.621	80
559.833	90
560.046	77
560.258	79
560.47	89
560.683	86
560.895	94
561.107	79
561.32	99
561.532	90
561.744	104
561.956	94
562.168	91
562.381	70
562.593	84
562.805	96
563.017	83
563.229	91
563.441	80
563.653	97
563.865	90
564.077	81
564.289	88
564.501	102
564.713	89
564.925	82
565.137	97
565.349	91
565.561	78
565.773	90
565.985	73
566.197	97
566.408	87
566.62	80
566.832	90
567.044	80
567.255	74
567.467	88
567.679	74
567.891	93
568.102	78
568.314	82
568.526	108
568.737	101
568.949	72
569.161	91
569.372	91
569.584	89
569.795	90
570.007	112
570.218	286
570.43	144
570.641	97
570.853	90
571.064	84
571.276	74
571.487	91
571.698	83
571.91	94
572.121	72
572.333	84
572.544	74
572.755	90
572.966	91
573.178	84
573.389	80
573.6	87
573.811	77
574.023	94
574.234	88
574.445	77
574.656	91
574.867	94
575.078	76
575.289	80
575.501	94
575.712	82
575.923	82
576.134	89
576.345	87
576.556	92
576.767	91
576.978	90
577.188	77
577.399	93
577.61	109
577.821	104
578.032	129
578.243	306
578.454	940
578.665	253
578.875	120
579.086	94
579.297	104
579.508	95
579.718	96
579.929	82
580.14	82
580.35	82
580.561	90
580.772	91
580.982	80
581.193	69
581.403	79
581.614	67
581.825	88
582.035	84
582.246	88
582.456	78
582.667	87
582.877	86
583.087	105
583.298	84
583.508	86
583.719	87
583.929	84
584.139	84
