Data from Circ_2008_H10_HRD10591_00097.txt Node
Date: Wed Jan 03 10:17:15 EST 2024
User: Yrep
Spectrometer: HR+D1059
Trigger mode: 1
Integration Time (sec): 1.000000E-1
Scans to average: 1
Electric dark correction enabled: true
Nonlinearity correction enabled: false
Boxcar width: 0
XAxis mode: Wavelengths
Number of Pixels in Spectrum: 2048
>>>>>Begin Spectral Data<<<<<
223.165	-28.69
223.4	-28.69
223.635	-28.69
223.869	-9.69
224.104	-16.69
224.338	-23.69
224.573	-21.69
224.808	-8.69
225.042	-9.69
225.277	-3.69
225.511	3.31
225.746	7.31
225.98	-1.69
226.215	14.31
226.449	10.31
226.683	30.31
226.918	28.31
227.152	30.31
227.387	37.31
227.621	34.31
227.856	39.31
228.09	57.31
228.324	57.31
228.559	71.31
228.793	64.31
229.027	70.31
229.262	59.31
229.496	76.31
229.73	97.31
229.964	72.31
230.199	80.31
230.433	80.31
230.667	73.31
230.901	80.31
231.136	78.31
231.37	82.31
231.604	71.31
231.838	92.31
232.072	82.31
232.306	84.31
232.541	89.31
232.775	72.31
233.009	82.31
233.243	82.31
233.477	81.31
233.711	62.31
233.945	92.31
234.179	82.31
234.413	82.31
234.647	85.31
234.881	75.31
235.115	72.31
235.349	74.31
235.583	91.31
235.817	76.31
236.051	82.31
236.285	74.31
236.519	81.31
236.753	81.31
236.987	89.31
237.221	100.31
237.455	85.31
237.689	81.31
237.922	76.31
238.156	78.31
238.39	75.31
238.624	72.31
238.858	76.31
239.091	76.31
239.325	83.31
239.559	107.31
239.793	92.31
240.027	82.31
240.26	87.31
240.494	84.31
240.728	77.31
240.961	67.31
241.195	79.31
241.429	85.31
241.662	89.31
241.896	87.31
242.13	69.31
242.363	79.31
242.597	72.31
242.83	79.31
243.064	77.31
243.298	82.31
243.531	72.31
243.765	64.31
243.998	76.31
244.232	72.31
244.465	89.31
244.699	82.31
244.932	102.31
245.166	67.31
245.399	87.31
245.633	78.31
245.866	65.31
246.099	64.31
246.333	71.31
246.566	78.31
246.8	84.31
247.033	78.31
247.266	79.31
247.5	67.31
247.733	71.31
247.966	76.31
248.2	71.31
248.433	70.31
248.666	74.31
248.899	89.31
249.133	85.31
249.366	97.31
249.599	109.31
249.832	72.31
250.066	84.31
250.299	88.31
250.532	86.31
250.765	80.31
250.998	80.31
251.231	86.31
251.465	85.31
251.698	78.31
251.931	79.31
252.164	72.31
252.397	74.31
252.63	90.31
252.863	80.31
253.096	104.31
253.329	80.31
253.562	76.31
253.795	75.31
254.028	83.31
254.261	90.31
254.494	92.31
254.727	77.31
254.96	87.31
255.193	86.31
255.426	82.31
255.659	92.31
255.892	81.31
256.124	97.31
256.357	82.31
256.59	82.31
256.823	87.31
257.056	76.31
257.289	77.31
257.521	81.31
257.754	81.31
257.987	93.31
258.22	81.31
258.452	81.31
258.685	95.31
258.918	86.31
259.151	90.31
259.383	91.31
259.616	77.31
259.849	91.31
260.081	80.31
260.314	83.31
260.547	79.31
260.779	91.31
261.012	90.31
261.244	96.31
261.477	84.31
261.71	107.31
261.942	121.31
262.175	141.31
262.407	85.31
262.64	102.31
262.872	88.31
263.105	87.31
263.337	86.31
263.57	75.31
263.802	85.31
264.035	83.31
264.267	84.31
264.499	88.31
264.732	85.31
264.964	78.31
265.197	85.31
265.429	82.31
265.661	85.31
265.894	84.31
266.126	97.31
266.358	76.31
266.591	89.31
266.823	90.31
267.055	88.31
267.287	89.31
267.52	80.31
267.752	78.31
267.984	74.31
268.216	75.31
268.448	88.31
268.681	84.31
268.913	88.31
269.145	89.31
269.377	80.31
269.609	89.31
269.841	76.31
270.073	85.31
270.306	79.31
270.538	83.31
270.77	83.31
271.002	82.31
271.234	85.31
271.466	87.31
271.698	94.31
271.93	91.31
272.162	99.31
272.394	84.31
272.626	98.31
272.858	79.31
273.09	71.31
273.322	78.31
273.553	84.31
273.785	79.31
274.017	82.31
274.249	93.31
274.481	74.31
274.713	95.31
274.945	85.31
275.176	76.31
275.408	94.31
275.64	106.31
275.872	95.31
276.104	82.31
276.335	78.31
276.567	110.31
276.799	115.31
277.031	118.31
277.262	104.31
277.494	110.31
277.726	86.31
277.957	79.31
278.189	90.31
278.421	81.31
278.652	90.31
278.884	102.31
279.115	85.31
279.347	88.31
279.579	81.31
279.81	92.31
280.042	93.31
280.273	119.31
280.505	101.31
280.736	84.31
280.968	88.31
281.199	93.31
281.431	86.31
281.662	92.31
281.894	102.31
282.125	99.31
282.356	131.31
282.588	174.31
282.819	122.31
283.051	93.31
283.282	88.31
283.513	91.31
283.745	85.31
283.976	82.31
284.207	78.31
284.439	96.31
284.67	92.31
284.901	99.31
285.132	82.31
285.364	88.31
285.595	88.31
285.826	83.31
286.057	91.31
286.288	80.31
286.52	85.31
286.751	101.31
286.982	86.31
287.213	82.31
287.444	96.31
287.675	86.31
287.906	70.31
288.138	83.31
288.369	100.31
288.6	88.31
288.831	86.31
289.062	93.31
289.293	88.31
289.524	81.31
289.755	98.31
289.986	65.31
290.217	99.31
290.448	83.31
290.679	97.31
290.91	79.31
291.141	90.31
291.371	94.31
291.602	80.31
291.833	87.31
292.064	84.31
292.295	90.31
292.526	91.31
292.757	89.31
292.987	85.31
293.218	78.31
293.449	85.31
293.68	91.31
293.91	74.31
294.141	90.31
294.372	88.31
294.603	90.31
294.833	99.31
295.064	83.31
295.295	97.31
295.525	91.31
295.756	98.31
295.987	130.31
296.217	160.31
296.448	159.31
296.679	106.31
296.909	91.31
297.14	78.31
297.37	81.31
297.601	97.31
297.831	87.31
298.062	90.31
298.292	94.31
298.523	88.31
298.753	93.31
298.984	92.31
299.214	84.31
299.445	93.31
299.675	96.31
299.905	92.31
300.136	78.31
300.366	80.31
300.597	84.31
300.827	95.31
301.057	100.31
301.288	110.31
301.518	106.31
301.748	92.31
301.979	98.31
302.209	94.31
302.439	87.31
302.669	88.31
302.9	88.31
303.13	93.31
303.36	97.31
303.59	100.31
303.82	122.31
304.051	84.31
304.281	100.31
304.511	81.31
304.741	83.31
304.971	80.31
305.201	88.31
305.431	89.31
305.661	90.31
305.891	85.31
306.121	96.31
306.352	107.31
306.582	87.31
306.812	100.31
307.042	112.31
307.272	112.31
307.502	98.31
307.731	99.31
307.961	110.31
308.191	78.31
308.421	91.31
308.651	94.31
308.881	103.31
309.111	82.31
309.341	90.31
309.571	91.31
309.8	91.31
310.03	98.31
310.26	105.31
310.49	97.31
310.72	100.31
310.949	119.31
311.179	109.31
311.409	83.31
311.639	92.31
311.868	92.31
312.098	97.31
312.328	99.31
312.557	97.31
312.787	114.31
313.017	125.31
313.246	96.31
313.476	93.31
313.706	100.31
313.935	85.31
314.165	106.31
314.394	104.31
314.624	104.31
314.853	103.31
315.083	97.31
315.312	81.31
315.542	80.31
315.771	88.31
316.001	87.31
316.23	95.31
316.46	93.31
316.689	100.31
316.919	95.31
317.148	97.31
317.377	89.31
317.607	94.31
317.836	92.31
318.065	77.31
318.295	91.31
318.524	93.31
318.753	104.31
318.983	111.31
319.212	110.31
319.441	121.31
319.67	124.31
319.9	100.31
320.129	91.31
320.358	106.31
320.587	86.31
320.816	110.31
321.046	109.31
321.275	107.31
321.504	83.31
321.733	98.31
321.962	83.31
322.191	114.31
322.42	114.31
322.649	108.31
322.878	118.31
323.108	128.31
323.337	144.31
323.566	146.31
323.795	169.31
324.024	208.31
324.253	436.31
324.482	874.31
324.71	1865.31
324.939	2478.31
325.168	914.31
325.397	279.31
325.626	175.31
325.855	132.31
326.084	126.31
326.313	135.31
326.542	168.31
326.77	235.31
326.999	455.31
327.228	990.31
327.457	1777.31
327.686	1472.31
327.914	439.31
328.143	276.31
328.372	287.31
328.6	210.31
328.829	136.31
329.058	148.31
329.287	167.31
329.515	134.31
329.744	134.31
329.972	186.31
330.201	305.31
330.43	405.31
330.658	258.31
330.887	209.31
331.115	172.31
331.344	105.31
331.572	100.31
331.801	119.31
332.03	112.31
332.258	93.31
332.486	92.31
332.715	105.31
332.943	100.31
333.172	111.31
333.4	119.31
333.629	112.31
333.857	144.31
334.085	183.31
334.314	271.31
334.542	485.31
334.771	500.31
334.999	197.31
335.227	115.31
335.455	113.31
335.684	108.31
335.912	99.31
336.14	91.31
336.369	111.31
336.597	127.31
336.825	113.31
337.053	109.31
337.281	87.31
337.51	89.31
337.738	95.31
337.966	99.31
338.194	104.31
338.422	93.31
338.65	100.31
338.878	90.31
339.106	97.31
339.334	86.31
339.562	101.31
339.79	85.31
340.018	88.31
340.246	88.31
340.474	92.31
340.702	106.31
340.93	93.31
341.158	98.31
341.386	98.31
341.614	108.31
341.842	106.31
342.07	92.31
342.298	101.31
342.526	106.31
342.754	89.31
342.981	91.31
343.209	97.31
343.437	97.31
343.665	80.31
343.893	114.31
344.12	91.31
344.348	86.31
344.576	89.31
344.804	94.31
345.031	103.31
345.259	114.31
345.487	94.31
345.714	89.31
345.942	97.31
346.17	94.31
346.397	81.31
346.625	97.31
346.853	102.31
347.08	97.31
347.308	116.31
347.535	111.31
347.763	109.31
347.99	96.31
348.218	98.31
348.445	116.31
348.673	105.31
348.9	87.31
349.128	98.31
349.355	102.31
349.583	104.31
349.81	84.31
350.037	97.31
350.265	100.31
350.492	107.31
350.72	97.31
350.947	102.31
351.174	113.31
351.402	120.31
351.629	111.31
351.856	94.31
352.083	121.31
352.311	109.31
352.538	109.31
352.765	113.31
352.992	127.31
353.22	111.31
353.447	111.31
353.674	106.31
353.901	90.31
354.128	98.31
354.355	103.31
354.583	102.31
354.81	94.31
355.037	89.31
355.264	100.31
355.491	97.31
355.718	77.31
355.945	89.31
356.172	96.31
356.399	93.31
356.626	83.31
356.853	87.31
357.08	88.31
357.307	89.31
357.534	96.31
357.761	97.31
357.988	105.31
358.215	93.31
358.441	89.31
358.668	91.31
358.895	82.31
359.122	89.31
359.349	93.31
359.576	102.31
359.802	111.31
360.029	125.31
360.256	126.31
360.483	117.31
360.709	91.31
360.936	89.31
361.163	88.31
361.39	95.31
361.616	98.31
361.843	89.31
362.07	100.31
362.296	92.31
362.523	100.31
362.749	97.31
362.976	91.31
363.203	83.31
363.429	83.31
363.656	93.31
363.882	89.31
364.109	101.31
364.335	107.31
364.562	79.31
364.788	86.31
365.015	98.31
365.241	94.31
365.468	117.31
365.694	102.31
365.92	113.31
366.147	93.31
366.373	80.31
366.599	80.31
366.826	99.31
367.052	78.31
367.278	99.31
367.505	76.31
367.731	91.31
367.957	84.31
368.184	99.31
368.41	105.31
368.636	106.31
368.862	135.31
369.089	98.31
369.315	98.31
369.541	105.31
369.767	102.31
369.993	102.31
370.219	93.31
370.445	92.31
370.672	74.31
370.898	94.31
371.124	86.31
371.35	82.31
371.576	84.31
371.802	107.31
372.028	83.31
372.254	92.31
372.48	91.31
372.706	91.31
372.932	67.31
373.158	88.31
373.384	82.31
373.61	96.31
373.835	89.31
374.061	84.31
374.287	102.31
374.513	104.31
374.739	85.31
374.965	103.31
375.191	83.31
375.416	88.31
375.642	90.31
375.868	87.31
376.094	84.31
376.319	77.31
376.545	104.31
376.771	95.31
376.997	94.31
377.222	94.31
377.448	99.31
377.674	78.31
377.899	90.31
378.125	92.31
378.35	75.31
378.576	94.31
378.802	91.31
379.027	97.31
379.253	89.31
379.478	90.31
379.704	91.31
379.929	90.31
380.155	80.31
380.38	96.31
380.606	91.31
380.831	88.31
381.057	84.31
381.282	89.31
381.507	90.31
381.733	106.31
381.958	99.31
382.184	97.31
382.409	88.31
382.634	110.31
382.86	97.31
383.085	113.31
383.31	90.31
383.535	101.31
383.761	95.31
383.986	87.31
384.211	94.31
384.436	88.31
384.662	82.31
384.887	97.31
385.112	104.31
385.337	107.31
385.562	97.31
385.787	101.31
386.013	97.31
386.238	106.31
386.463	108.31
386.688	106.31
386.913	100.31
387.138	104.31
387.363	95.31
387.588	102.31
387.813	91.31
388.038	95.31
388.263	100.31
388.488	97.31
388.713	91.31
388.938	102.31
389.163	102.31
389.387	98.31
389.612	87.31
389.837	79.31
390.062	69.31
390.287	96.31
390.512	89.31
390.736	86.31
390.961	94.31
391.186	82.31
391.411	94.31
391.636	88.31
391.86	84.31
392.085	89.31
392.31	87.31
392.534	91.31
392.759	89.31
392.984	92.31
393.208	96.31
393.433	94.31
393.658	80.31
393.882	88.31
394.107	80.31
394.331	82.31
394.556	85.31
394.78	97.31
395.005	82.31
395.229	86.31
395.454	78.31
395.678	79.31
395.903	72.31
396.127	82.31
396.352	80.31
396.576	103.31
396.801	98.31
397.025	80.31
397.249	107.31
397.474	93.31
397.698	91.31
397.922	108.31
398.147	85.31
398.371	103.31
398.595	95.31
398.82	90.31
399.044	86.31
399.268	84.31
399.492	96.31
399.717	97.31
399.941	99.31
400.165	87.31
400.389	86.31
400.613	102.31
400.837	93.31
401.062	83.31
401.286	71.31
401.51	77.31
401.734	102.31
401.958	115.31
402.182	133.31
402.406	201.31
402.63	150.31
402.854	107.31
403.078	98.31
403.302	97.31
403.526	81.31
403.75	95.31
403.974	95.31
404.198	78.31
404.422	90.31
404.645	99.31
404.869	103.31
405.093	108.31
405.317	103.31
405.541	115.31
405.765	114.31
405.988	126.31
406.212	209.31
406.436	296.31
406.66	190.31
406.883	113.31
407.107	110.31
407.331	107.31
407.555	104.31
407.778	95.31
408.002	77.31
408.226	94.31
408.449	90.31
408.673	96.31
408.896	101.31
409.12	89.31
409.344	72.31
409.567	84.31
409.791	88.31
410.014	90.31
410.238	85.31
410.461	99.31
410.685	82.31
410.908	84.31
411.132	95.31
411.355	100.31
411.578	88.31
411.802	66.31
412.025	89.31
412.249	104.31
412.472	107.31
412.695	105.31
412.919	87.31
413.142	95.31
413.365	89.31
413.589	83.31
413.812	85.31
414.035	98.31
414.258	100.31
414.482	94.31
414.705	94.31
414.928	86.31
415.151	70.31
415.374	91.31
415.597	101.31
415.821	90.31
416.044	90.31
416.267	96.31
416.49	98.31
416.713	87.31
416.936	84.31
417.159	97.31
417.382	89.31
417.605	79.31
417.828	122.31
418.051	104.31
418.274	89.31
418.497	93.31
418.72	84.31
418.943	79.31
419.166	88.31
419.389	92.31
419.611	83.31
419.834	88.31
420.057	82.31
420.28	88.31
420.503	89.31
420.726	84.31
420.948	79.31
421.171	94.31
421.394	97.31
421.617	84.31
421.839	86.31
422.062	89.31
422.285	91.31
422.507	104.31
422.73	110.31
422.953	91.31
423.175	91.31
423.398	76.31
423.621	91.31
423.843	94.31
424.066	93.31
424.288	88.31
424.511	91.31
424.733	98.31
424.956	113.31
425.178	116.31
425.401	84.31
425.623	98.31
425.846	107.31
426.068	98.31
426.291	100.31
426.513	81.31
426.735	74.31
426.958	100.31
427.18	107.31
427.402	152.31
427.625	200.31
427.847	186.31
428.069	153.31
428.292	100.31
428.514	92.31
428.736	90.31
428.958	78.31
429.181	77.31
429.403	89.31
429.625	84.31
429.847	89.31
430.069	100.31
430.292	96.31
430.514	106.31
430.736	89.31
430.958	94.31
431.18	84.31
431.402	70.31
431.624	85.31
431.846	84.31
432.068	88.31
432.29	85.31
432.512	75.31
432.734	87.31
432.956	100.31
433.178	94.31
433.4	104.31
433.622	78.31
433.844	85.31
434.066	107.31
434.287	89.31
434.509	90.31
434.731	74.31
434.953	84.31
435.175	84.31
435.397	106.31
435.618	85.31
435.84	102.31
436.062	134.31
436.284	103.31
436.505	92.31
436.727	97.31
436.949	72.31
437.17	98.31
437.392	88.31
437.614	92.31
437.835	118.31
438.057	138.31
438.278	106.31
438.5	107.31
438.721	127.31
438.943	94.31
439.165	80.31
439.386	94.31
439.608	89.31
439.829	101.31
440.05	128.31
440.272	174.31
440.493	100.31
440.715	81.31
440.936	93.31
441.158	82.31
441.379	87.31
441.6	105.31
441.822	93.31
442.043	85.31
442.264	106.31
442.486	109.31
442.707	93.31
442.928	110.31
443.149	159.31
443.371	172.31
443.592	134.31
443.813	116.31
444.034	99.31
444.255	100.31
444.476	90.31
444.698	90.31
444.919	89.31
445.14	120.31
445.361	134.31
445.582	122.31
445.803	166.31
446.024	145.31
446.245	154.31
446.466	112.31
446.687	81.31
446.908	96.31
447.129	85.31
447.35	82.31
447.571	99.31
447.792	108.31
448.013	110.31
448.234	114.31
448.455	92.31
448.675	115.31
448.896	126.31
449.117	105.31
449.338	104.31
449.559	124.31
449.779	146.31
450	99.31
450.221	89.31
450.442	92.31
450.662	106.31
450.883	127.31
451.104	123.31
451.324	112.31
451.545	95.31
451.766	96.31
451.986	88.31
452.207	87.31
452.428	94.31
452.648	103.31
452.869	119.31
453.089	124.31
453.31	133.31
453.53	94.31
453.751	85.31
453.971	120.31
454.192	114.31
454.412	98.31
454.633	99.31
454.853	103.31
455.073	77.31
455.294	89.31
455.514	86.31
455.734	83.31
455.955	79.31
456.175	85.31
456.395	76.31
456.616	93.31
456.836	84.31
457.056	78.31
457.276	87.31
457.497	87.31
457.717	88.31
457.937	92.31
458.157	90.31
458.377	78.31
458.598	125.31
458.818	200.31
459.038	219.31
459.258	130.31
459.478	93.31
459.698	88.31
459.918	90.31
460.138	97.31
460.358	92.31
460.578	87.31
460.798	89.31
461.018	80.31
461.238	97.31
461.458	87.31
461.678	75.31
461.898	83.31
462.118	93.31
462.338	70.31
462.558	90.31
462.777	94.31
462.997	83.31
463.217	84.31
463.437	111.31
463.657	87.31
463.876	94.31
464.096	113.31
464.316	104.31
464.536	98.31
464.755	92.31
464.975	121.31
465.195	199.31
465.414	208.31
465.634	99.31
465.854	92.31
466.073	88.31
466.293	88.31
466.512	75.31
466.732	90.31
466.951	101.31
467.171	84.31
467.391	105.31
467.61	131.31
467.829	118.31
468.049	183.31
468.268	258.31
468.488	120.31
468.707	92.31
468.927	87.31
469.146	81.31
469.365	91.31
469.585	90.31
469.804	103.31
470.023	121.31
470.243	106.31
470.462	114.31
470.681	134.31
470.901	112.31
471.12	90.31
471.339	87.31
471.558	89.31
471.777	88.31
471.997	137.31
472.216	310.31
472.435	658.31
472.654	211.31
472.873	105.31
473.092	90.31
473.311	101.31
473.53	87.31
473.749	95.31
473.968	104.31
474.187	105.31
474.406	107.31
474.625	84.31
474.844	92.31
475.063	87.31
475.282	99.31
475.501	86.31
475.72	91.31
475.939	78.31
476.158	92.31
476.377	90.31
476.596	84.31
476.814	96.31
477.033	96.31
477.252	99.31
477.471	88.31
477.69	81.31
477.908	84.31
478.127	94.31
478.346	86.31
478.564	100.31
478.783	104.31
479.002	99.31
479.22	92.31
479.439	101.31
479.658	125.31
479.876	94.31
480.095	98.31
480.313	93.31
480.532	104.31
480.751	140.31
480.969	316.31
481.188	1067.31
481.406	715.31
481.624	146.31
481.843	93.31
482.061	92.31
482.28	99.31
482.498	94.31
482.717	82.31
482.935	86.31
483.153	84.31
483.372	82.31
483.59	84.31
483.808	92.31
484.027	78.31
484.245	81.31
484.463	98.31
484.681	103.31
484.9	82.31
485.118	104.31
485.336	89.31
485.554	96.31
485.772	90.31
485.99	95.31
486.209	96.31
486.427	113.31
486.645	106.31
486.863	115.31
487.081	111.31
487.299	92.31
487.517	84.31
487.735	72.31
487.953	103.31
488.171	86.31
488.389	92.31
488.607	115.31
488.825	88.31
489.043	78.31
489.261	85.31
489.479	90.31
489.696	78.31
489.914	81.31
490.132	90.31
490.35	86.31
490.568	91.31
490.786	83.31
491.003	95.31
491.221	86.31
491.439	97.31
491.657	100.31
491.874	89.31
492.092	82.31
492.31	101.31
492.527	76.31
492.745	91.31
492.963	90.31
493.18	89.31
493.398	79.31
493.615	104.31
493.833	103.31
494.05	90.31
494.268	95.31
494.485	80.31
494.703	88.31
494.92	84.31
495.138	84.31
495.355	95.31
495.573	76.31
495.79	79.31
496.008	84.31
496.225	86.31
496.442	80.31
496.66	95.31
496.877	93.31
497.094	82.31
497.312	87.31
497.529	115.31
497.746	84.31
497.963	91.31
498.181	83.31
498.398	78.31
498.615	120.31
498.832	116.31
499.049	88.31
499.267	97.31
499.484	94.31
499.701	100.31
499.918	84.31
500.135	90.31
500.352	97.31
500.569	94.31
500.786	108.31
501.003	87.31
501.22	90.31
501.437	81.31
501.654	90.31
501.871	109.31
502.088	80.31
502.305	84.31
502.522	102.31
502.739	93.31
502.956	98.31
503.172	90.31
503.389	101.31
503.606	110.31
503.823	98.31
504.04	93.31
504.256	90.31
504.473	90.31
504.69	76.31
504.907	107.31
505.123	87.31
505.34	90.31
505.557	98.31
505.773	94.31
505.99	84.31
506.207	89.31
506.423	86.31
506.64	93.31
506.856	79.31
507.073	96.31
507.289	93.31
507.506	85.31
507.722	117.31
507.939	125.31
508.155	105.31
508.372	102.31
508.588	87.31
508.805	102.31
509.021	96.31
509.238	109.31
509.454	98.31
509.67	105.31
509.887	113.31
510.103	156.31
510.319	240.31
510.536	963.31
510.752	3302.31
510.968	960.31
511.184	184.31
511.401	108.31
511.617	112.31
511.833	94.31
512.049	97.31
512.265	95.31
512.481	91.31
512.698	101.31
512.914	93.31
513.13	89.31
513.346	91.31
513.562	91.31
513.778	110.31
513.994	97.31
514.21	112.31
514.426	138.31
514.642	159.31
