Data from Circ_2008_H10_HRD10591_00006.txt Node
Date: Wed Jan 03 10:16:57 EST 2024
User: Yrep
Spectrometer: HR+D1059
Trigger mode: 1
Integration Time (sec): 1.000000E-1
Scans to average: 1
Electric dark correction enabled: true
Nonlinearity correction enabled: false
Boxcar width: 0
XAxis mode: Wavelengths
Number of Pixels in Spectrum: 2048
>>>>>Begin Spectral Data<<<<<
223.165	-16.69
223.4	-16.69
223.635	-16.69
223.869	-24.69
224.104	-28.69
224.338	-20.69
224.573	4.31
224.808	-14.69
225.042	0.31
225.277	11.31
225.511	-11.69
225.746	0.31
225.98	7.31
226.215	27.31
226.449	1.31
226.683	24.31
226.918	11.31
227.152	29.31
227.387	34.31
227.621	19.31
227.856	47.31
228.09	56.31
228.324	55.31
228.559	61.31
228.793	72.31
229.027	63.31
229.262	71.31
229.496	77.31
229.73	96.31
229.964	74.31
230.199	72.31
230.433	79.31
230.667	82.31
230.901	74.31
231.136	85.31
231.37	88.31
231.604	70.31
231.838	84.31
232.072	77.31
232.306	89.31
232.541	100.31
232.775	72.31
233.009	73.31
233.243	89.31
233.477	78.31
233.711	90.31
233.945	71.31
234.179	79.31
234.413	79.31
234.647	91.31
234.881	85.31
235.115	70.31
235.349	80.31
235.583	67.31
235.817	88.31
236.051	75.31
236.285	85.31
236.519	76.31
236.753	92.31
236.987	79.31
237.221	87.31
237.455	79.31
237.689	64.31
237.922	79.31
238.156	68.31
238.39	78.31
238.624	67.31
238.858	64.31
239.091	84.31
239.325	80.31
239.559	86.31
239.793	79.31
240.027	71.31
240.26	71.31
240.494	84.31
240.728	75.31
240.961	78.31
241.195	66.31
241.429	79.31
241.662	81.31
241.896	78.31
242.13	83.31
242.363	78.31
242.597	87.31
242.83	80.31
243.064	84.31
243.298	83.31
243.531	82.31
243.765	77.31
243.998	74.31
244.232	77.31
244.465	81.31
244.699	89.31
244.932	83.31
245.166	83.31
245.399	90.31
245.633	84.31
245.866	80.31
246.099	70.31
246.333	83.31
246.566	79.31
246.8	84.31
247.033	73.31
247.266	74.31
247.5	74.31
247.733	81.31
247.966	83.31
248.2	80.31
248.433	97.31
248.666	72.31
248.899	75.31
249.133	83.31
249.366	98.31
249.599	97.31
249.832	91.31
250.066	75.31
250.299	85.31
250.532	87.31
250.765	66.31
250.998	71.31
251.231	83.31
251.465	81.31
251.698	80.31
251.931	85.31
252.164	65.31
252.397	74.31
252.63	83.31
252.863	80.31
253.096	83.31
253.329	93.31
253.562	100.31
253.795	80.31
254.028	90.31
254.261	92.31
254.494	86.31
254.727	82.31
254.96	84.31
255.193	79.31
255.426	82.31
255.659	81.31
255.892	88.31
256.124	79.31
256.357	86.31
256.59	96.31
256.823	74.31
257.056	71.31
257.289	91.31
257.521	71.31
257.754	78.31
257.987	73.31
258.22	83.31
258.452	82.31
258.685	74.31
258.918	88.31
259.151	92.31
259.383	88.31
259.616	91.31
259.849	81.31
260.081	82.31
260.314	84.31
260.547	79.31
260.779	96.31
261.012	70.31
261.244	85.31
261.477	96.31
261.71	74.31
261.942	112.31
262.175	108.31
262.407	98.31
262.64	83.31
262.872	80.31
263.105	95.31
263.337	94.31
263.57	57.31
263.802	89.31
264.035	97.31
264.267	96.31
264.499	101.31
264.732	83.31
264.964	89.31
265.197	68.31
265.429	70.31
265.661	63.31
265.894	103.31
266.126	96.31
266.358	80.31
266.591	73.31
266.823	89.31
267.055	86.31
267.287	73.31
267.52	77.31
267.752	73.31
267.984	82.31
268.216	99.31
268.448	74.31
268.681	79.31
268.913	92.31
269.145	67.31
269.377	83.31
269.609	81.31
269.841	81.31
270.073	97.31
270.306	76.31
270.538	89.31
270.77	93.31
271.002	95.31
271.234	78.31
271.466	79.31
271.698	83.31
271.93	98.31
272.162	84.31
272.394	85.31
272.626	104.31
272.858	77.31
273.09	88.31
273.322	84.31
273.553	76.31
273.785	75.31
274.017	83.31
274.249	81.31
274.481	83.31
274.713	91.31
274.945	85.31
275.176	89.31
275.408	83.31
275.64	75.31
275.872	90.31
276.104	83.31
276.335	89.31
276.567	100.31
276.799	118.31
277.031	92.31
277.262	93.31
277.494	79.31
277.726	91.31
277.957	97.31
278.189	90.31
278.421	99.31
278.652	73.31
278.884	81.31
279.115	83.31
279.347	74.31
279.579	96.31
279.81	89.31
280.042	95.31
280.273	90.31
280.505	73.31
280.736	97.31
280.968	85.31
281.199	83.31
281.431	86.31
281.662	82.31
281.894	84.31
282.125	95.31
282.356	116.31
282.588	152.31
282.819	122.31
283.051	99.31
283.282	97.31
283.513	106.31
283.745	92.31
283.976	81.31
284.207	74.31
284.439	87.31
284.67	92.31
284.901	87.31
285.132	102.31
285.364	87.31
285.595	86.31
285.826	83.31
286.057	98.31
286.288	91.31
286.52	88.31
286.751	76.31
286.982	90.31
287.213	75.31
287.444	97.31
287.675	77.31
287.906	93.31
288.138	90.31
288.369	99.31
288.6	90.31
288.831	95.31
289.062	92.31
289.293	89.31
289.524	80.31
289.755	81.31
289.986	79.31
290.217	96.31
290.448	90.31
290.679	82.31
290.91	89.31
291.141	84.31
291.371	95.31
291.602	82.31
291.833	82.31
292.064	80.31
292.295	91.31
292.526	86.31
292.757	87.31
292.987	83.31
293.218	91.31
293.449	87.31
293.68	101.31
293.91	91.31
294.141	88.31
294.372	92.31
294.603	95.31
294.833	88.31
295.064	91.31
295.295	91.31
295.525	103.31
295.756	95.31
295.987	135.31
296.217	144.31
296.448	133.31
296.679	107.31
296.909	100.31
297.14	93.31
297.37	95.31
297.601	89.31
297.831	90.31
298.062	103.31
298.292	93.31
298.523	91.31
298.753	88.31
298.984	88.31
299.214	93.31
299.445	85.31
299.675	84.31
299.905	81.31
300.136	84.31
300.366	81.31
300.597	82.31
300.827	94.31
301.057	108.31
301.288	97.31
301.518	94.31
301.748	96.31
301.979	110.31
302.209	88.31
302.439	100.31
302.669	94.31
302.9	100.31
303.13	100.31
303.36	110.31
303.59	116.31
303.82	107.31
304.051	98.31
304.281	104.31
304.511	96.31
304.741	106.31
304.971	82.31
305.201	81.31
305.431	95.31
305.661	86.31
305.891	77.31
306.121	99.31
306.352	91.31
306.582	103.31
306.812	92.31
307.042	100.31
307.272	101.31
307.502	96.31
307.731	79.31
307.961	86.31
308.191	92.31
308.421	87.31
308.651	97.31
308.881	88.31
309.111	97.31
309.341	98.31
309.571	88.31
309.8	104.31
310.03	96.31
310.26	94.31
310.49	108.31
310.72	110.31
310.949	105.31
311.179	106.31
311.409	89.31
311.639	91.31
311.868	105.31
312.098	99.31
312.328	105.31
312.557	94.31
312.787	113.31
313.017	95.31
313.246	103.31
313.476	89.31
313.706	93.31
313.935	87.31
314.165	104.31
314.394	105.31
314.624	94.31
314.853	105.31
315.083	118.31
315.312	97.31
315.542	87.31
315.771	98.31
316.001	88.31
316.23	86.31
316.46	92.31
316.689	93.31
316.919	89.31
317.148	87.31
317.377	88.31
317.607	109.31
317.836	93.31
318.065	94.31
318.295	99.31
318.524	90.31
318.753	90.31
318.983	92.31
319.212	96.31
319.441	103.31
319.67	120.31
319.9	101.31
320.129	92.31
320.358	100.31
320.587	85.31
320.816	95.31
321.046	89.31
321.275	102.31
321.504	85.31
321.733	103.31
321.962	106.31
322.191	92.31
322.42	98.31
322.649	100.31
322.878	117.31
323.108	115.31
323.337	115.31
323.566	142.31
323.795	147.31
324.024	207.31
324.253	439.31
324.482	905.31
324.71	1826.31
324.939	2418.31
325.168	900.31
325.397	259.31
325.626	157.31
325.855	121.31
326.084	111.31
326.313	124.31
326.542	153.31
326.77	234.31
326.999	476.31
327.228	991.31
327.457	1833.31
327.686	1470.31
327.914	401.31
328.143	192.31
328.372	149.31
328.6	129.31
328.829	114.31
329.058	137.31
329.287	141.31
329.515	108.31
329.744	120.31
329.972	105.31
330.201	116.31
330.43	103.31
330.658	120.31
330.887	159.31
331.115	137.31
331.344	102.31
331.572	111.31
331.801	95.31
332.03	100.31
332.258	101.31
332.486	88.31
332.715	98.31
332.943	107.31
333.172	88.31
333.4	92.31
333.629	114.31
333.857	110.31
334.085	103.31
334.314	110.31
334.542	108.31
334.771	105.31
334.999	103.31
335.227	100.31
335.455	83.31
335.684	104.31
335.912	103.31
336.14	98.31
336.369	98.31
336.597	95.31
336.825	107.31
337.053	89.31
337.281	92.31
337.51	87.31
337.738	99.31
337.966	82.31
338.194	94.31
338.422	101.31
338.65	99.31
338.878	92.31
339.106	89.31
339.334	97.31
339.562	93.31
339.79	102.31
340.018	94.31
340.246	93.31
340.474	73.31
340.702	97.31
340.93	89.31
341.158	100.31
341.386	95.31
341.614	89.31
341.842	92.31
342.07	88.31
342.298	93.31
342.526	101.31
342.754	107.31
342.981	99.31
343.209	92.31
343.437	98.31
343.665	97.31
343.893	97.31
344.12	93.31
344.348	83.31
344.576	100.31
344.804	75.31
345.031	88.31
345.259	97.31
345.487	110.31
345.714	101.31
345.942	99.31
346.17	93.31
346.397	96.31
346.625	100.31
346.853	95.31
347.08	92.31
347.308	91.31
347.535	112.31
347.763	101.31
347.99	104.31
348.218	106.31
348.445	93.31
348.673	103.31
348.9	69.31
349.128	91.31
349.355	83.31
349.583	87.31
349.81	114.31
350.037	85.31
350.265	84.31
350.492	93.31
350.72	109.31
350.947	107.31
351.174	108.31
351.402	127.31
351.629	100.31
351.856	101.31
352.083	110.31
352.311	114.31
352.538	101.31
352.765	116.31
352.992	111.31
353.22	124.31
353.447	101.31
353.674	98.31
353.901	91.31
354.128	102.31
354.355	99.31
354.583	83.31
354.81	104.31
355.037	99.31
355.264	94.31
355.491	92.31
355.718	98.31
355.945	95.31
356.172	111.31
356.399	107.31
356.626	85.31
356.853	96.31
357.08	96.31
357.307	107.31
357.534	105.31
357.761	98.31
357.988	85.31
358.215	100.31
358.441	89.31
358.668	95.31
358.895	96.31
359.122	87.31
359.349	90.31
359.576	103.31
359.802	105.31
360.029	104.31
360.256	106.31
360.483	101.31
360.709	91.31
360.936	92.31
361.163	101.31
361.39	94.31
361.616	109.31
361.843	90.31
362.07	101.31
362.296	93.31
362.523	93.31
362.749	90.31
362.976	85.31
363.203	97.31
363.429	94.31
363.656	92.31
363.882	89.31
364.109	96.31
364.335	89.31
364.562	100.31
364.788	109.31
365.015	101.31
365.241	97.31
365.468	115.31
365.694	101.31
365.92	109.31
366.147	85.31
366.373	105.31
366.599	89.31
366.826	84.31
367.052	89.31
367.278	89.31
367.505	85.31
367.731	109.31
367.957	97.31
368.184	96.31
368.41	94.31
368.636	114.31
368.862	106.31
369.089	115.31
369.315	91.31
369.541	100.31
369.767	99.31
369.993	93.31
370.219	93.31
370.445	89.31
370.672	81.31
370.898	84.31
371.124	91.31
371.35	97.31
371.576	99.31
371.802	99.31
372.028	98.31
372.254	92.31
372.48	78.31
372.706	91.31
372.932	90.31
373.158	102.31
373.384	90.31
373.61	93.31
373.835	92.31
374.061	79.31
374.287	92.31
374.513	88.31
374.739	84.31
374.965	79.31
375.191	108.31
375.416	96.31
375.642	82.31
375.868	91.31
376.094	85.31
376.319	99.31
376.545	88.31
376.771	96.31
376.997	108.31
377.222	87.31
377.448	103.31
377.674	100.31
377.899	96.31
378.125	89.31
378.35	96.31
378.576	97.31
378.802	94.31
379.027	74.31
379.253	101.31
379.478	107.31
379.704	99.31
379.929	93.31
380.155	112.31
380.38	97.31
380.606	110.31
380.831	104.31
381.057	93.31
381.282	106.31
381.507	99.31
381.733	100.31
381.958	103.31
382.184	93.31
382.409	109.31
382.634	116.31
382.86	102.31
383.085	106.31
383.31	96.31
383.535	119.31
383.761	98.31
383.986	110.31
384.211	109.31
384.436	98.31
384.662	138.31
384.887	121.31
385.112	116.31
385.337	119.31
385.562	118.31
385.787	116.31
386.013	109.31
386.238	135.31
386.463	113.31
386.688	128.31
386.913	106.31
387.138	126.31
387.363	111.31
387.588	107.31
387.813	120.31
388.038	115.31
388.263	135.31
388.488	127.31
388.713	105.31
388.938	113.31
389.163	92.31
389.387	96.31
389.612	84.31
389.837	95.31
390.062	103.31
390.287	99.31
390.512	94.31
390.736	100.31
390.961	81.31
391.186	90.31
391.411	107.31
391.636	81.31
391.86	76.31
392.085	85.31
392.31	94.31
392.534	103.31
392.759	84.31
392.984	90.31
393.208	105.31
393.433	117.31
393.658	116.31
393.882	92.31
394.107	86.31
394.331	90.31
394.556	97.31
394.78	89.31
395.005	86.31
395.229	86.31
395.454	91.31
395.678	85.31
395.903	92.31
396.127	93.31
396.352	89.31
396.576	93.31
396.801	101.31
397.025	104.31
397.249	97.31
397.474	78.31
397.698	90.31
397.922	102.31
398.147	94.31
398.371	85.31
398.595	87.31
398.82	91.31
399.044	90.31
399.268	84.31
399.492	79.31
399.717	84.31
399.941	88.31
400.165	83.31
400.389	87.31
400.613	89.31
400.837	91.31
401.062	80.31
401.286	95.31
401.51	81.31
401.734	96.31
401.958	90.31
402.182	143.31
402.406	172.31
402.63	135.31
402.854	85.31
403.078	88.31
403.302	81.31
403.526	90.31
403.75	95.31
403.974	85.31
404.198	84.31
404.422	79.31
404.645	81.31
404.869	100.31
405.093	96.31
405.317	92.31
405.541	92.31
405.765	97.31
405.988	114.31
406.212	185.31
406.436	252.31
406.66	162.31
406.883	112.31
407.107	79.31
407.331	100.31
407.555	98.31
407.778	96.31
408.002	84.31
408.226	83.31
408.449	101.31
408.673	114.31
408.896	93.31
409.12	92.31
409.344	106.31
409.567	92.31
409.791	98.31
410.014	99.31
410.238	98.31
410.461	104.31
410.685	103.31
410.908	94.31
411.132	95.31
411.355	99.31
411.578	82.31
411.802	97.31
412.025	87.31
412.249	85.31
412.472	102.31
412.695	91.31
412.919	76.31
413.142	96.31
413.365	97.31
413.589	97.31
413.812	101.31
414.035	90.31
414.258	92.31
414.482	106.31
414.705	98.31
414.928	96.31
415.151	88.31
415.374	97.31
415.597	96.31
415.821	101.31
416.044	94.31
416.267	93.31
416.49	90.31
416.713	89.31
416.936	87.31
417.159	84.31
417.382	98.31
417.605	93.31
417.828	112.31
418.051	97.31
418.274	101.31
418.497	84.31
418.72	80.31
418.943	87.31
419.166	83.31
419.389	87.31
419.611	100.31
419.834	96.31
420.057	88.31
420.28	113.31
420.503	80.31
420.726	77.31
420.948	92.31
421.171	96.31
421.394	96.31
421.617	77.31
421.839	103.31
422.062	76.31
422.285	91.31
422.507	98.31
422.73	101.31
422.953	105.31
423.175	78.31
423.398	89.31
423.621	100.31
423.843	85.31
424.066	89.31
424.288	83.31
424.511	86.31
424.733	95.31
424.956	112.31
425.178	113.31
425.401	106.31
425.623	106.31
425.846	87.31
426.068	89.31
426.291	97.31
426.513	95.31
426.735	81.31
426.958	106.31
427.18	104.31
427.402	143.31
427.625	175.31
427.847	133.31
428.069	106.31
428.292	93.31
428.514	98.31
428.736	90.31
428.958	79.31
429.181	97.31
429.403	92.31
429.625	89.31
429.847	86.31
430.069	113.31
430.292	79.31
430.514	86.31
430.736	82.31
430.958	82.31
431.18	94.31
431.402	78.31
431.624	78.31
431.846	100.31
432.068	83.31
432.29	92.31
432.512	97.31
432.734	99.31
432.956	81.31
433.178	106.31
433.4	106.31
433.622	83.31
433.844	100.31
434.066	97.31
434.287	83.31
434.509	94.31
434.731	83.31
434.953	89.31
435.175	92.31
435.397	97.31
435.618	98.31
435.84	93.31
436.062	115.31
436.284	99.31
436.505	98.31
436.727	108.31
436.949	80.31
437.17	92.31
437.392	87.31
437.614	84.31
437.835	106.31
438.057	86.31
438.278	119.31
438.5	107.31
438.721	127.31
438.943	98.31
439.165	91.31
439.386	78.31
439.608	83.31
439.829	91.31
440.05	124.31
440.272	133.31
440.493	108.31
440.715	89.31
440.936	89.31
441.158	85.31
441.379	100.31
441.6	89.31
441.822	92.31
442.043	99.31
442.264	107.31
442.486	109.31
442.707	92.31
442.928	107.31
443.149	128.31
443.371	122.31
443.592	121.31
443.813	117.31
444.034	101.31
444.255	91.31
444.476	85.31
444.698	91.31
444.919	81.31
445.14	131.31
445.361	115.31
445.582	107.31
445.803	138.31
446.024	136.31
446.245	139.31
446.466	104.31
446.687	95.31
446.908	114.31
447.129	83.31
447.35	93.31
447.571	96.31
447.792	94.31
448.013	93.31
448.234	112.31
448.455	107.31
448.675	105.31
448.896	112.31
449.117	83.31
449.338	103.31
449.559	139.31
449.779	132.31
450	103.31
450.221	73.31
450.442	85.31
450.662	99.31
450.883	109.31
451.104	111.31
451.324	100.31
451.545	79.31
451.766	84.31
451.986	78.31
452.207	98.31
452.428	87.31
452.648	108.31
452.869	116.31
453.089	125.31
453.31	119.31
453.53	97.31
453.751	91.31
453.971	112.31
454.192	101.31
454.412	92.31
454.633	84.31
454.853	84.31
455.073	105.31
455.294	93.31
455.514	92.31
455.734	97.31
455.955	71.31
456.175	85.31
456.395	86.31
456.616	91.31
456.836	90.31
457.056	96.31
457.276	80.31
457.497	85.31
457.717	78.31
457.937	96.31
458.157	97.31
458.377	96.31
458.598	104.31
458.818	140.31
459.038	169.31
459.258	123.31
459.478	84.31
459.698	89.31
459.918	79.31
460.138	73.31
460.358	83.31
460.578	95.31
460.798	84.31
461.018	98.31
461.238	86.31
461.458	76.31
461.678	83.31
461.898	98.31
462.118	86.31
462.338	77.31
462.558	90.31
462.777	81.31
462.997	95.31
463.217	95.31
463.437	84.31
463.657	77.31
463.876	90.31
464.096	75.31
464.316	91.31
464.536	100.31
464.755	88.31
464.975	94.31
465.195	181.31
465.414	172.31
465.634	81.31
465.854	84.31
466.073	101.31
466.293	78.31
466.512	89.31
466.732	86.31
466.951	83.31
467.171	85.31
467.391	93.31
467.61	116.31
467.829	100.31
468.049	101.31
468.268	82.31
468.488	81.31
468.707	80.31
468.927	90.31
469.146	93.31
469.365	92.31
469.585	82.31
469.804	89.31
470.023	93.31
470.243	90.31
470.462	104.31
470.681	114.31
470.901	93.31
471.12	92.31
471.339	91.31
471.558	85.31
471.777	94.31
471.997	78.31
472.216	108.31
472.435	102.31
472.654	104.31
472.873	108.31
473.092	90.31
473.311	79.31
473.53	77.31
473.749	93.31
473.968	98.31
474.187	100.31
474.406	94.31
474.625	89.31
474.844	92.31
475.063	74.31
475.282	88.31
475.501	82.31
475.72	82.31
475.939	78.31
476.158	86.31
476.377	90.31
476.596	87.31
476.814	96.31
477.033	89.31
477.252	82.31
477.471	73.31
477.69	71.31
477.908	81.31
478.127	94.31
478.346	84.31
478.564	93.31
478.783	88.31
479.002	89.31
479.22	86.31
479.439	101.31
479.658	111.31
479.876	107.31
480.095	74.31
480.313	93.31
480.532	85.31
480.751	98.31
480.969	100.31
481.188	121.31
481.406	121.31
481.624	99.31
481.843	84.31
482.061	88.31
482.28	92.31
482.498	95.31
482.717	101.31
482.935	100.31
483.153	89.31
483.372	90.31
483.59	92.31
483.808	86.31
484.027	88.31
484.245	90.31
484.463	81.31
484.681	107.31
484.9	78.31
485.118	91.31
485.336	92.31
485.554	96.31
485.772	90.31
485.99	105.31
486.209	93.31
486.427	105.31
486.645	94.31
486.863	111.31
487.081	89.31
487.299	90.31
487.517	90.31
487.735	105.31
487.953	96.31
488.171	97.31
488.389	96.31
488.607	86.31
488.825	89.31
489.043	78.31
489.261	97.31
489.479	96.31
489.696	79.31
489.914	83.31
490.132	84.31
490.35	87.31
490.568	95.31
490.786	81.31
491.003	92.31
491.221	78.31
491.439	84.31
491.657	92.31
491.874	91.31
492.092	103.31
492.31	78.31
492.527	80.31
492.745	80.31
492.963	85.31
493.18	95.31
493.398	94.31
493.615	103.31
493.833	96.31
494.05	90.31
494.268	92.31
494.485	74.31
494.703	94.31
494.92	82.31
495.138	83.31
495.355	102.31
495.573	88.31
495.79	91.31
496.008	93.31
496.225	93.31
496.442	94.31
496.66	92.31
496.877	86.31
497.094	84.31
497.312	101.31
497.529	96.31
497.746	85.31
497.963	87.31
498.181	92.31
498.398	95.31
498.615	101.31
498.832	104.31
499.049	88.31
499.267	93.31
499.484	89.31
499.701	96.31
499.918	88.31
500.135	95.31
500.352	95.31
500.569	83.31
500.786	85.31
501.003	100.31
501.22	82.31
501.437	106.31
501.654	82.31
501.871	114.31
502.088	97.31
502.305	79.31
502.522	98.31
502.739	98.31
502.956	81.31
503.172	89.31
503.389	100.31
503.606	109.31
503.823	90.31
504.04	100.31
504.256	90.31
504.473	95.31
504.69	97.31
504.907	91.31
505.123	85.31
505.34	91.31
505.557	96.31
505.773	92.31
505.99	80.31
506.207	91.31
506.423	84.31
506.64	99.31
506.856	96.31
507.073	98.31
507.289	96.31
507.506	99.31
507.722	109.31
507.939	113.31
508.155	93.31
508.372	98.31
508.588	93.31
508.805	98.31
509.021	96.31
509.238	95.31
509.454	96.31
509.67	100.31
509.887	103.31
510.103	140.31
510.319	228.31
510.536	820.31
510.752	2827.31
510.968	775.31
511.184	163.31
511.401	112.31
511.617	96.31
511.833	94.31
512.049	96.31
512.265	92.31
512.481	81.31
512.698	95.31
512.914	91.31
513.13	92.31
513.346	95.31
513.562	84.31
513.778	101.31
513.994	103.31
514.21	103.31
514.426	110.31
514.642	154.31
514.858	127.31
