Data from Circ_2008_H10_HRD10591_00013.txt Node
Date: Wed Jan 03 10:16:58 EST 2024
User: Yrep
Spectrometer: HR+D1059
Trigger mode: 1
Integration Time (sec): 1.000000E-1
Scans to average: 1
Electric dark correction enabled: true
Nonlinearity correction enabled: false
Boxcar width: 0
XAxis mode: Wavelengths
Number of Pixels in Spectrum: 2048
>>>>>Begin Spectral Data<<<<<
223.165	-13.62
223.4	-13.62
223.635	-13.62
223.869	-31.62
224.104	-16.62
224.338	-26.62
224.573	-3.62
224.808	-4.62
225.042	-13.62
225.277	-17.62
225.511	0.38
225.746	-3.62
225.98	4.38
226.215	20.38
226.449	20.38
226.683	14.38
226.918	36.38
227.152	35.38
227.387	31.38
227.621	31.38
227.856	36.38
228.09	50.38
228.324	50.38
228.559	66.38
228.793	62.38
229.027	83.38
229.262	90.38
229.496	77.38
229.73	97.38
229.964	91.38
230.199	59.38
230.433	70.38
230.667	92.38
230.901	84.38
231.136	76.38
231.37	76.38
231.604	79.38
231.838	73.38
232.072	77.38
232.306	81.38
232.541	68.38
232.775	82.38
233.009	86.38
233.243	91.38
233.477	79.38
233.711	81.38
233.945	62.38
234.179	71.38
234.413	78.38
234.647	80.38
234.881	87.38
235.115	88.38
235.349	74.38
235.583	78.38
235.817	86.38
236.051	71.38
236.285	82.38
236.519	74.38
236.753	66.38
236.987	73.38
237.221	87.38
237.455	83.38
237.689	72.38
237.922	67.38
238.156	70.38
238.39	83.38
238.624	67.38
238.858	69.38
239.091	73.38
239.325	79.38
239.559	83.38
239.793	78.38
240.027	70.38
240.26	82.38
240.494	59.38
240.728	83.38
240.961	87.38
241.195	81.38
241.429	91.38
241.662	71.38
241.896	82.38
242.13	70.38
242.363	69.38
242.597	74.38
242.83	66.38
243.064	84.38
243.298	82.38
243.531	71.38
243.765	76.38
243.998	61.38
244.232	71.38
244.465	81.38
244.699	83.38
244.932	96.38
245.166	86.38
245.399	83.38
245.633	81.38
245.866	81.38
246.099	70.38
246.333	79.38
246.566	80.38
246.8	81.38
247.033	82.38
247.266	73.38
247.5	67.38
247.733	95.38
247.966	85.38
248.2	63.38
248.433	81.38
248.666	86.38
248.899	105.38
249.133	76.38
249.366	100.38
249.599	91.38
249.832	75.38
250.066	83.38
250.299	85.38
250.532	89.38
250.765	78.38
250.998	64.38
251.231	74.38
251.465	79.38
251.698	79.38
251.931	76.38
252.164	85.38
252.397	80.38
252.63	83.38
252.863	73.38
253.096	76.38
253.329	94.38
253.562	76.38
253.795	83.38
254.028	83.38
254.261	78.38
254.494	85.38
254.727	79.38
254.96	69.38
255.193	89.38
255.426	83.38
255.659	80.38
255.892	75.38
256.124	77.38
256.357	85.38
256.59	84.38
256.823	89.38
257.056	81.38
257.289	80.38
257.521	64.38
257.754	66.38
257.987	77.38
258.22	77.38
258.452	88.38
258.685	83.38
258.918	74.38
259.151	82.38
259.383	82.38
259.616	88.38
259.849	83.38
260.081	85.38
260.314	89.38
260.547	89.38
260.779	100.38
261.012	80.38
261.244	75.38
261.477	108.38
261.71	102.38
261.942	133.38
262.175	117.38
262.407	97.38
262.64	92.38
262.872	84.38
263.105	84.38
263.337	93.38
263.57	90.38
263.802	88.38
264.035	82.38
264.267	70.38
264.499	104.38
264.732	94.38
264.964	77.38
265.197	87.38
265.429	70.38
265.661	78.38
265.894	90.38
266.126	72.38
266.358	91.38
266.591	84.38
266.823	77.38
267.055	84.38
267.287	75.38
267.52	70.38
267.752	87.38
267.984	81.38
268.216	74.38
268.448	77.38
268.681	80.38
268.913	88.38
269.145	102.38
269.377	98.38
269.609	86.38
269.841	83.38
270.073	70.38
270.306	80.38
270.538	83.38
270.77	86.38
271.002	84.38
271.234	71.38
271.466	87.38
271.698	80.38
271.93	97.38
272.162	77.38
272.394	92.38
272.626	82.38
272.858	87.38
273.09	97.38
273.322	98.38
273.553	92.38
273.785	93.38
274.017	77.38
274.249	86.38
274.481	83.38
274.713	86.38
274.945	105.38
275.176	81.38
275.408	83.38
275.64	91.38
275.872	80.38
276.104	88.38
276.335	99.38
276.567	111.38
276.799	124.38
277.031	101.38
277.262	84.38
277.494	83.38
277.726	107.38
277.957	74.38
278.189	70.38
278.421	83.38
278.652	69.38
278.884	88.38
279.115	96.38
279.347	102.38
279.579	79.38
279.81	82.38
280.042	87.38
280.273	94.38
280.505	88.38
280.736	87.38
280.968	93.38
281.199	95.38
281.431	91.38
281.662	77.38
281.894	80.38
282.125	110.38
282.356	127.38
282.588	153.38
282.819	112.38
283.051	86.38
283.282	93.38
283.513	98.38
283.745	88.38
283.976	103.38
284.207	83.38
284.439	75.38
284.67	83.38
284.901	89.38
285.132	93.38
285.364	72.38
285.595	96.38
285.826	87.38
286.057	95.38
286.288	92.38
286.52	83.38
286.751	87.38
286.982	82.38
287.213	90.38
287.444	98.38
287.675	91.38
287.906	93.38
288.138	91.38
288.369	104.38
288.6	95.38
288.831	91.38
289.062	104.38
289.293	84.38
289.524	88.38
289.755	83.38
289.986	80.38
290.217	96.38
290.448	89.38
290.679	70.38
290.91	103.38
291.141	88.38
291.371	78.38
291.602	87.38
291.833	94.38
292.064	96.38
292.295	81.38
292.526	79.38
292.757	83.38
292.987	98.38
293.218	84.38
293.449	76.38
293.68	71.38
293.91	86.38
294.141	98.38
294.372	84.38
294.603	94.38
294.833	90.38
295.064	90.38
295.295	81.38
295.525	94.38
295.756	117.38
295.987	117.38
296.217	153.38
296.448	141.38
296.679	102.38
296.909	103.38
297.14	90.38
297.37	87.38
297.601	83.38
297.831	91.38
298.062	80.38
298.292	98.38
298.523	105.38
298.753	94.38
298.984	92.38
299.214	98.38
299.445	97.38
299.675	103.38
299.905	108.38
300.136	104.38
300.366	98.38
300.597	104.38
300.827	106.38
301.057	106.38
301.288	119.38
301.518	98.38
301.748	84.38
301.979	90.38
302.209	83.38
302.439	81.38
302.669	88.38
302.9	98.38
303.13	77.38
303.36	96.38
303.59	86.38
303.82	121.38
304.051	103.38
304.281	86.38
304.511	96.38
304.741	90.38
304.971	91.38
305.201	90.38
305.431	97.38
305.661	97.38
305.891	88.38
306.121	100.38
306.352	113.38
306.582	113.38
306.812	99.38
307.042	87.38
307.272	98.38
307.502	94.38
307.731	91.38
307.961	80.38
308.191	76.38
308.421	89.38
308.651	93.38
308.881	97.38
309.111	91.38
309.341	96.38
309.571	102.38
309.8	91.38
310.03	107.38
310.26	102.38
310.49	89.38
310.72	102.38
310.949	104.38
311.179	115.38
311.409	93.38
311.639	96.38
311.868	97.38
312.098	115.38
312.328	105.38
312.557	109.38
312.787	108.38
313.017	94.38
313.246	93.38
313.476	104.38
313.706	95.38
313.935	90.38
314.165	109.38
314.394	104.38
314.624	91.38
314.853	101.38
315.083	91.38
315.312	84.38
315.542	90.38
315.771	73.38
316.001	89.38
316.23	97.38
316.46	81.38
316.689	93.38
316.919	75.38
317.148	102.38
317.377	85.38
317.607	83.38
317.836	97.38
318.065	105.38
318.295	89.38
318.524	105.38
318.753	78.38
318.983	89.38
319.212	106.38
319.441	115.38
319.67	107.38
319.9	106.38
320.129	88.38
320.358	90.38
320.587	104.38
320.816	97.38
321.046	103.38
321.275	111.38
321.504	99.38
321.733	102.38
321.962	90.38
322.191	98.38
322.42	105.38
322.649	113.38
322.878	114.38
323.108	115.38
323.337	123.38
323.566	147.38
323.795	166.38
324.024	230.38
324.253	451.38
324.482	934.38
324.71	1966.38
324.939	2531.38
325.168	934.38
325.397	279.38
325.626	161.38
325.855	150.38
326.084	124.38
326.313	145.38
326.542	153.38
326.77	256.38
326.999	482.38
327.228	1019.38
327.457	1924.38
327.686	1517.38
327.914	422.38
328.143	217.38
328.372	154.38
328.6	128.38
328.829	136.38
329.058	146.38
329.287	146.38
329.515	103.38
329.744	107.38
329.972	104.38
330.201	118.38
330.43	127.38
330.658	144.38
330.887	179.38
331.115	144.38
331.344	101.38
331.572	104.38
331.801	111.38
332.03	103.38
332.258	108.38
332.486	95.38
332.715	97.38
332.943	91.38
333.172	83.38
333.4	102.38
333.629	107.38
333.857	114.38
334.085	113.38
334.314	99.38
334.542	114.38
334.771	120.38
334.999	103.38
335.227	101.38
335.455	93.38
335.684	100.38
335.912	102.38
336.14	90.38
336.369	104.38
336.597	97.38
336.825	91.38
337.053	93.38
337.281	96.38
337.51	84.38
337.738	103.38
337.966	93.38
338.194	107.38
338.422	93.38
338.65	101.38
338.878	91.38
339.106	96.38
339.334	96.38
339.562	104.38
339.79	103.38
340.018	96.38
340.246	88.38
340.474	87.38
340.702	88.38
340.93	90.38
341.158	89.38
341.386	94.38
341.614	94.38
341.842	96.38
342.07	82.38
342.298	93.38
342.526	77.38
342.754	100.38
342.981	82.38
343.209	97.38
343.437	99.38
343.665	106.38
343.893	105.38
344.12	88.38
344.348	89.38
344.576	84.38
344.804	103.38
345.031	105.38
345.259	99.38
345.487	96.38
345.714	96.38
345.942	92.38
346.17	89.38
346.397	103.38
346.625	94.38
346.853	91.38
347.08	91.38
347.308	82.38
347.535	98.38
347.763	101.38
347.99	115.38
348.218	108.38
348.445	111.38
348.673	107.38
348.9	94.38
349.128	100.38
349.355	90.38
349.583	91.38
349.81	95.38
350.037	96.38
350.265	106.38
350.492	101.38
350.72	91.38
350.947	97.38
351.174	104.38
351.402	101.38
351.629	113.38
351.856	99.38
352.083	107.38
352.311	101.38
352.538	118.38
352.765	111.38
352.992	105.38
353.22	119.38
353.447	109.38
353.674	106.38
353.901	106.38
354.128	107.38
354.355	98.38
354.583	88.38
354.81	99.38
355.037	95.38
355.264	88.38
355.491	93.38
355.718	82.38
355.945	112.38
356.172	89.38
356.399	90.38
356.626	94.38
356.853	110.38
357.08	92.38
357.307	96.38
357.534	89.38
357.761	104.38
357.988	105.38
358.215	97.38
358.441	90.38
358.668	97.38
358.895	82.38
359.122	104.38
359.349	87.38
359.576	91.38
359.802	115.38
360.029	137.38
360.256	112.38
360.483	114.38
360.709	83.38
360.936	101.38
361.163	92.38
361.39	97.38
361.616	95.38
361.843	112.38
362.07	98.38
362.296	98.38
362.523	90.38
362.749	92.38
362.976	105.38
363.203	91.38
363.429	91.38
363.656	88.38
363.882	86.38
364.109	97.38
364.335	97.38
364.562	102.38
364.788	102.38
365.015	100.38
365.241	96.38
365.468	101.38
365.694	111.38
365.92	94.38
366.147	94.38
366.373	103.38
366.599	75.38
366.826	89.38
367.052	89.38
367.278	87.38
367.505	83.38
367.731	93.38
367.957	82.38
368.184	105.38
368.41	108.38
368.636	117.38
368.862	134.38
369.089	116.38
369.315	87.38
369.541	82.38
369.767	89.38
369.993	92.38
370.219	101.38
370.445	82.38
370.672	90.38
370.898	85.38
371.124	94.38
371.35	87.38
371.576	83.38
371.802	81.38
372.028	77.38
372.254	73.38
372.48	78.38
372.706	78.38
372.932	86.38
373.158	94.38
373.384	99.38
373.61	110.38
373.835	93.38
374.061	94.38
374.287	94.38
374.513	87.38
374.739	107.38
374.965	97.38
375.191	90.38
375.416	80.38
375.642	89.38
375.868	86.38
376.094	105.38
376.319	91.38
376.545	83.38
376.771	84.38
376.997	100.38
377.222	96.38
377.448	98.38
377.674	89.38
377.899	87.38
378.125	89.38
378.35	96.38
378.576	96.38
378.802	94.38
379.027	79.38
379.253	93.38
379.478	103.38
379.704	93.38
379.929	92.38
380.155	83.38
380.38	94.38
380.606	88.38
380.831	98.38
381.057	102.38
381.282	107.38
381.507	105.38
381.733	81.38
381.958	88.38
382.184	99.38
382.409	98.38
382.634	104.38
382.86	90.38
383.085	97.38
383.31	105.38
383.535	103.38
383.761	97.38
383.986	111.38
384.211	104.38
384.436	105.38
384.662	103.38
384.887	96.38
385.112	126.38
385.337	106.38
385.562	111.38
385.787	124.38
386.013	136.38
386.238	126.38
386.463	108.38
386.688	123.38
386.913	111.38
387.138	97.38
387.363	109.38
387.588	92.38
387.813	99.38
388.038	120.38
388.263	137.38
388.488	131.38
388.713	113.38
388.938	95.38
389.163	110.38
389.387	87.38
389.612	71.38
389.837	91.38
390.062	81.38
390.287	86.38
390.512	92.38
390.736	86.38
390.961	83.38
391.186	98.38
391.411	96.38
391.636	89.38
391.86	82.38
392.085	69.38
392.31	79.38
392.534	90.38
392.759	84.38
392.984	96.38
393.208	98.38
393.433	118.38
393.658	105.38
393.882	84.38
394.107	90.38
394.331	54.38
394.556	84.38
394.78	95.38
395.005	83.38
395.229	85.38
395.454	87.38
395.678	71.38
395.903	83.38
396.127	93.38
396.352	83.38
396.576	78.38
396.801	87.38
397.025	94.38
397.249	85.38
397.474	91.38
397.698	91.38
397.922	79.38
398.147	93.38
398.371	87.38
398.595	84.38
398.82	98.38
399.044	87.38
399.268	85.38
399.492	101.38
399.717	82.38
399.941	93.38
400.165	104.38
400.389	84.38
400.613	74.38
400.837	91.38
401.062	84.38
401.286	94.38
401.51	97.38
401.734	70.38
401.958	105.38
402.182	124.38
402.406	177.38
402.63	126.38
402.854	94.38
403.078	89.38
403.302	87.38
403.526	83.38
403.75	88.38
403.974	90.38
404.198	88.38
404.422	108.38
404.645	91.38
404.869	83.38
405.093	83.38
405.317	103.38
405.541	98.38
405.765	110.38
405.988	130.38
406.212	190.38
406.436	261.38
406.66	166.38
406.883	116.38
407.107	86.38
407.331	84.38
407.555	86.38
407.778	97.38
408.002	95.38
408.226	93.38
408.449	101.38
408.673	98.38
408.896	93.38
409.12	86.38
409.344	76.38
409.567	88.38
409.791	82.38
410.014	82.38
410.238	92.38
410.461	78.38
410.685	102.38
410.908	99.38
411.132	103.38
411.355	99.38
411.578	90.38
411.802	92.38
412.025	96.38
412.249	76.38
412.472	90.38
412.695	90.38
412.919	91.38
413.142	99.38
413.365	79.38
413.589	80.38
413.812	79.38
414.035	104.38
414.258	84.38
414.482	90.38
414.705	102.38
414.928	89.38
415.151	80.38
415.374	92.38
415.597	87.38
415.821	87.38
416.044	105.38
416.267	82.38
416.49	106.38
416.713	86.38
416.936	97.38
417.159	82.38
417.382	89.38
417.605	90.38
417.828	95.38
418.051	91.38
418.274	89.38
418.497	84.38
418.72	82.38
418.943	73.38
419.166	79.38
419.389	85.38
419.611	84.38
419.834	84.38
420.057	87.38
420.28	81.38
420.503	83.38
420.726	101.38
420.948	86.38
421.171	95.38
421.394	93.38
421.617	90.38
421.839	86.38
422.062	88.38
422.285	87.38
422.507	98.38
422.73	99.38
422.953	85.38
423.175	76.38
423.398	67.38
423.621	81.38
423.843	84.38
424.066	88.38
424.288	82.38
424.511	85.38
424.733	88.38
424.956	113.38
425.178	95.38
425.401	90.38
425.623	103.38
425.846	91.38
426.068	90.38
426.291	101.38
426.513	87.38
426.735	77.38
426.958	81.38
427.18	103.38
427.402	128.38
427.625	190.38
427.847	150.38
428.069	114.38
428.292	86.38
428.514	85.38
428.736	95.38
428.958	73.38
429.181	79.38
429.403	76.38
429.625	99.38
429.847	102.38
430.069	102.38
430.292	83.38
430.514	88.38
430.736	77.38
430.958	84.38
431.18	68.38
431.402	89.38
431.624	82.38
431.846	81.38
432.068	98.38
432.29	73.38
432.512	80.38
432.734	75.38
432.956	98.38
433.178	93.38
433.4	101.38
433.622	99.38
433.844	96.38
434.066	77.38
434.287	83.38
434.509	90.38
434.731	90.38
434.953	81.38
435.175	64.38
435.397	87.38
435.618	86.38
435.84	103.38
436.062	130.38
436.284	117.38
436.505	99.38
436.727	97.38
436.949	84.38
437.17	88.38
437.392	86.38
437.614	99.38
437.835	95.38
438.057	120.38
438.278	121.38
438.5	106.38
438.721	118.38
438.943	114.38
439.165	84.38
439.386	102.38
439.608	90.38
439.829	98.38
440.05	122.38
440.272	158.38
440.493	105.38
440.715	90.38
440.936	89.38
441.158	78.38
441.379	89.38
441.6	99.38
441.822	98.38
442.043	86.38
442.264	95.38
442.486	102.38
442.707	97.38
442.928	112.38
443.149	127.38
443.371	147.38
443.592	112.38
443.813	114.38
444.034	91.38
444.255	77.38
444.476	94.38
444.698	98.38
444.919	86.38
445.14	114.38
445.361	107.38
445.582	107.38
445.803	139.38
446.024	146.38
446.245	124.38
446.466	112.38
446.687	90.38
446.908	87.38
447.129	92.38
447.35	93.38
447.571	86.38
447.792	99.38
448.013	112.38
448.234	102.38
448.455	96.38
448.675	109.38
448.896	118.38
449.117	105.38
449.338	110.38
449.559	135.38
449.779	129.38
450	104.38
450.221	90.38
450.442	92.38
450.662	91.38
450.883	112.38
451.104	129.38
451.324	107.38
451.545	95.38
451.766	73.38
451.986	95.38
452.207	92.38
452.428	90.38
452.648	98.38
452.869	116.38
453.089	119.38
453.31	134.38
453.53	89.38
453.751	81.38
453.971	122.38
454.192	125.38
454.412	95.38
454.633	93.38
454.853	81.38
455.073	88.38
455.294	92.38
455.514	96.38
455.734	77.38
455.955	86.38
456.175	79.38
456.395	87.38
456.616	88.38
456.836	102.38
457.056	86.38
457.276	81.38
457.497	88.38
457.717	75.38
457.937	74.38
458.157	88.38
458.377	98.38
458.598	110.38
458.818	164.38
459.038	172.38
459.258	134.38
459.478	103.38
459.698	88.38
459.918	79.38
460.138	80.38
460.358	88.38
460.578	73.38
460.798	89.38
461.018	95.38
461.238	87.38
461.458	79.38
461.678	75.38
461.898	99.38
462.118	91.38
462.338	97.38
462.558	71.38
462.777	74.38
462.997	76.38
463.217	67.38
463.437	87.38
463.657	95.38
463.876	80.38
464.096	85.38
464.316	88.38
464.536	90.38
464.755	89.38
464.975	112.38
465.195	191.38
465.414	190.38
465.634	86.38
465.854	74.38
466.073	90.38
466.293	100.38
466.512	87.38
466.732	80.38
466.951	88.38
467.171	91.38
467.391	97.38
467.61	107.38
467.829	93.38
468.049	83.38
468.268	90.38
468.488	89.38
468.707	89.38
468.927	91.38
469.146	78.38
469.365	86.38
469.585	105.38
469.804	82.38
470.023	88.38
470.243	85.38
470.462	104.38
470.681	105.38
470.901	84.38
471.12	85.38
471.339	94.38
471.558	80.38
471.777	104.38
471.997	80.38
472.216	87.38
472.435	121.38
472.654	88.38
472.873	68.38
473.092	85.38
473.311	77.38
473.53	92.38
473.749	88.38
473.968	94.38
474.187	103.38
474.406	89.38
474.625	79.38
474.844	87.38
475.063	81.38
475.282	80.38
475.501	80.38
475.72	99.38
475.939	93.38
476.158	94.38
476.377	91.38
476.596	80.38
476.814	83.38
477.033	97.38
477.252	84.38
477.471	85.38
477.69	94.38
477.908	86.38
478.127	91.38
478.346	74.38
478.564	102.38
478.783	84.38
479.002	90.38
479.22	89.38
479.439	104.38
479.658	104.38
479.876	91.38
480.095	82.38
480.313	78.38
480.532	98.38
480.751	84.38
480.969	107.38
481.188	154.38
481.406	110.38
481.624	88.38
481.843	77.38
482.061	90.38
482.28	86.38
482.498	90.38
482.717	82.38
482.935	99.38
483.153	95.38
483.372	87.38
483.59	95.38
483.808	87.38
484.027	83.38
484.245	84.38
484.463	96.38
484.681	90.38
484.9	96.38
485.118	110.38
485.336	103.38
485.554	94.38
485.772	97.38
485.99	101.38
486.209	101.38
486.427	96.38
486.645	110.38
486.863	115.38
487.081	108.38
487.299	83.38
487.517	100.38
487.735	97.38
487.953	88.38
488.171	99.38
488.389	86.38
488.607	91.38
488.825	84.38
489.043	91.38
489.261	90.38
489.479	90.38
489.696	88.38
489.914	98.38
490.132	93.38
490.35	86.38
490.568	85.38
490.786	102.38
491.003	94.38
491.221	95.38
491.439	93.38
491.657	91.38
491.874	96.38
492.092	72.38
492.31	84.38
492.527	96.38
492.745	85.38
492.963	83.38
493.18	89.38
493.398	98.38
493.615	96.38
493.833	89.38
494.05	90.38
494.268	80.38
494.485	93.38
494.703	82.38
494.92	78.38
495.138	86.38
495.355	87.38
495.573	83.38
495.79	100.38
496.008	99.38
496.225	97.38
496.442	83.38
496.66	88.38
496.877	90.38
497.094	96.38
497.312	87.38
497.529	79.38
497.746	90.38
497.963	95.38
498.181	79.38
498.398	92.38
498.615	100.38
498.832	94.38
499.049	94.38
499.267	87.38
499.484	84.38
499.701	99.38
499.918	88.38
500.135	87.38
500.352	87.38
500.569	87.38
500.786	87.38
501.003	94.38
501.22	90.38
501.437	77.38
501.654	74.38
501.871	123.38
502.088	87.38
502.305	88.38
502.522	104.38
502.739	90.38
502.956	86.38
503.172	77.38
503.389	109.38
503.606	94.38
503.823	102.38
504.04	98.38
504.256	99.38
504.473	88.38
504.69	89.38
504.907	96.38
505.123	95.38
505.34	82.38
505.557	85.38
505.773	81.38
505.99	89.38
506.207	96.38
506.423	107.38
506.64	96.38
506.856	94.38
507.073	86.38
507.289	88.38
507.506	94.38
507.722	126.38
507.939	121.38
508.155	98.38
508.372	98.38
508.588	81.38
508.805	90.38
509.021	95.38
509.238	109.38
509.454	97.38
509.67	106.38
509.887	108.38
510.103	142.38
510.319	237.38
510.536	938.38
510.752	3171.38
510.968	856.38
511.184	186.38
511.401	117.38
511.617	103.38
511.833	93.38
512.049	69.38
512.265	82.38
512.481	87.38
512.698	91.38
512.914	90.38
513.13	107.38
513.346	94.38
513.562	73.38
513.778	91.38
513.994	95.38
514.21	119.38
514.426	123.38
514.642	142.38
514.858	138.38
515.074	204.38
