Data from Circ_2008_H10_HRD10591_00098.txt Node
Date: Wed Jan 03 10:17:15 EST 2024
User: Yrep
Spectrometer: HR+D1059
Trigger mode: 1
Integration Time (sec): 1.000000E-1
Scans to average: 1
Electric dark correction enabled: true
Nonlinearity correction enabled: false
Boxcar width: 0
XAxis mode: Wavelengths
Number of Pixels in Spectrum: 2048
>>>>>Begin Spectral Data<<<<<
223.165	-5.31
223.4	-5.31
223.635	-5.31
223.869	-20.31
224.104	-5.31
224.338	-18.31
224.573	-17.31
224.808	-6.31
225.042	-14.31
225.277	-1.31
225.511	-0.31
225.746	2.69
225.98	2.69
226.215	10.69
226.449	9.69
226.683	27.69
226.918	15.69
227.152	19.69
227.387	29.69
227.621	32.69
227.856	47.69
228.09	61.69
228.324	47.69
228.559	48.69
228.793	61.69
229.027	63.69
229.262	49.69
229.496	68.69
229.73	79.69
229.964	90.69
230.199	64.69
230.433	74.69
230.667	71.69
230.901	73.69
231.136	76.69
231.37	80.69
231.604	73.69
231.838	85.69
232.072	89.69
232.306	89.69
232.541	77.69
232.775	74.69
233.009	81.69
233.243	80.69
233.477	82.69
233.711	92.69
233.945	77.69
234.179	82.69
234.413	86.69
234.647	84.69
234.881	72.69
235.115	75.69
235.349	82.69
235.583	70.69
235.817	91.69
236.051	68.69
236.285	73.69
236.519	74.69
236.753	72.69
236.987	85.69
237.221	80.69
237.455	100.69
237.689	72.69
237.922	73.69
238.156	66.69
238.39	77.69
238.624	81.69
238.858	79.69
239.091	83.69
239.325	83.69
239.559	82.69
239.793	77.69
240.027	79.69
240.26	68.69
240.494	64.69
240.728	90.69
240.961	72.69
241.195	60.69
241.429	62.69
241.662	78.69
241.896	82.69
242.13	71.69
242.363	60.69
242.597	64.69
242.83	65.69
243.064	80.69
243.298	67.69
243.531	88.69
243.765	82.69
243.998	81.69
244.232	67.69
244.465	79.69
244.699	87.69
244.932	70.69
245.166	75.69
245.399	68.69
245.633	74.69
245.866	74.69
246.099	71.69
246.333	62.69
246.566	84.69
246.8	87.69
247.033	86.69
247.266	69.69
247.5	74.69
247.733	82.69
247.966	76.69
248.2	77.69
248.433	80.69
248.666	76.69
248.899	95.69
249.133	85.69
249.366	87.69
249.599	90.69
249.832	81.69
250.066	76.69
250.299	67.69
250.532	91.69
250.765	83.69
250.998	70.69
251.231	73.69
251.465	85.69
251.698	76.69
251.931	73.69
252.164	76.69
252.397	79.69
252.63	75.69
252.863	77.69
253.096	77.69
253.329	73.69
253.562	74.69
253.795	90.69
254.028	79.69
254.261	82.69
254.494	76.69
254.727	68.69
254.96	79.69
255.193	82.69
255.426	76.69
255.659	70.69
255.892	79.69
256.124	87.69
256.357	91.69
256.59	89.69
256.823	79.69
257.056	79.69
257.289	88.69
257.521	78.69
257.754	90.69
257.987	71.69
258.22	82.69
258.452	78.69
258.685	67.69
258.918	89.69
259.151	78.69
259.383	68.69
259.616	65.69
259.849	85.69
260.081	72.69
260.314	75.69
260.547	95.69
260.779	85.69
261.012	87.69
261.244	88.69
261.477	85.69
261.71	91.69
261.942	125.69
262.175	122.69
262.407	77.69
262.64	85.69
262.872	81.69
263.105	86.69
263.337	88.69
263.57	81.69
263.802	83.69
264.035	82.69
264.267	78.69
264.499	64.69
264.732	89.69
264.964	78.69
265.197	75.69
265.429	104.69
265.661	83.69
265.894	71.69
266.126	73.69
266.358	83.69
266.591	79.69
266.823	87.69
267.055	87.69
267.287	77.69
267.52	72.69
267.752	78.69
267.984	81.69
268.216	76.69
268.448	77.69
268.681	91.69
268.913	85.69
269.145	77.69
269.377	89.69
269.609	85.69
269.841	82.69
270.073	85.69
270.306	58.69
270.538	84.69
270.77	78.69
271.002	90.69
271.234	77.69
271.466	85.69
271.698	76.69
271.93	99.69
272.162	80.69
272.394	102.69
272.626	79.69
272.858	72.69
273.09	95.69
273.322	93.69
273.553	109.69
273.785	71.69
274.017	71.69
274.249	76.69
274.481	93.69
274.713	73.69
274.945	89.69
275.176	81.69
275.408	82.69
275.64	84.69
275.872	80.69
276.104	87.69
276.335	89.69
276.567	99.69
276.799	113.69
277.031	105.69
277.262	97.69
277.494	80.69
277.726	71.69
277.957	91.69
278.189	91.69
278.421	93.69
278.652	82.69
278.884	89.69
279.115	86.69
279.347	80.69
279.579	86.69
279.81	91.69
280.042	94.69
280.273	98.69
280.505	91.69
280.736	89.69
280.968	82.69
281.199	78.69
281.431	88.69
281.662	86.69
281.894	101.69
282.125	104.69
282.356	118.69
282.588	152.69
282.819	119.69
283.051	87.69
283.282	84.69
283.513	89.69
283.745	79.69
283.976	92.69
284.207	92.69
284.439	73.69
284.67	82.69
284.901	76.69
285.132	76.69
285.364	87.69
285.595	71.69
285.826	78.69
286.057	81.69
286.288	82.69
286.52	82.69
286.751	86.69
286.982	89.69
287.213	80.69
287.444	86.69
287.675	97.69
287.906	81.69
288.138	91.69
288.369	95.69
288.6	87.69
288.831	87.69
289.062	77.69
289.293	83.69
289.524	82.69
289.755	81.69
289.986	82.69
290.217	81.69
290.448	85.69
290.679	87.69
290.91	91.69
291.141	81.69
291.371	85.69
291.602	89.69
291.833	85.69
292.064	82.69
292.295	86.69
292.526	94.69
292.757	85.69
292.987	87.69
293.218	74.69
293.449	79.69
293.68	90.69
293.91	86.69
294.141	92.69
294.372	105.69
294.603	81.69
294.833	88.69
295.064	88.69
295.295	85.69
295.525	96.69
295.756	103.69
295.987	121.69
296.217	145.69
296.448	136.69
296.679	97.69
296.909	94.69
297.14	79.69
297.37	81.69
297.601	91.69
297.831	92.69
298.062	95.69
298.292	85.69
298.523	87.69
298.753	68.69
298.984	83.69
299.214	88.69
299.445	90.69
299.675	91.69
299.905	87.69
300.136	87.69
300.366	95.69
300.597	86.69
300.827	85.69
301.057	101.69
301.288	93.69
301.518	104.69
301.748	102.69
301.979	105.69
302.209	91.69
302.439	97.69
302.669	93.69
302.9	81.69
303.13	92.69
303.36	99.69
303.59	101.69
303.82	113.69
304.051	87.69
304.281	72.69
304.511	98.69
304.741	93.69
304.971	77.69
305.201	92.69
305.431	100.69
305.661	69.69
305.891	87.69
306.121	92.69
306.352	103.69
306.582	106.69
306.812	99.69
307.042	95.69
307.272	104.69
307.502	108.69
307.731	97.69
307.961	108.69
308.191	97.69
308.421	77.69
308.651	91.69
308.881	95.69
309.111	96.69
309.341	89.69
309.571	97.69
309.8	81.69
310.03	91.69
310.26	108.69
310.49	92.69
310.72	92.69
310.949	90.69
311.179	98.69
311.409	88.69
311.639	96.69
311.868	93.69
312.098	77.69
312.328	101.69
312.557	95.69
312.787	105.69
313.017	100.69
313.246	90.69
313.476	92.69
313.706	94.69
313.935	96.69
314.165	90.69
314.394	107.69
314.624	102.69
314.853	89.69
315.083	87.69
315.312	95.69
315.542	93.69
315.771	92.69
316.001	102.69
316.23	88.69
316.46	78.69
316.689	92.69
316.919	90.69
317.148	91.69
317.377	93.69
317.607	85.69
317.836	77.69
318.065	94.69
318.295	85.69
318.524	99.69
318.753	79.69
318.983	102.69
319.212	105.69
319.441	111.69
319.67	108.69
319.9	87.69
320.129	82.69
320.358	97.69
320.587	99.69
320.816	103.69
321.046	97.69
321.275	99.69
321.504	96.69
321.733	81.69
321.962	96.69
322.191	94.69
322.42	112.69
322.649	121.69
322.878	104.69
323.108	98.69
323.337	124.69
323.566	137.69
323.795	158.69
324.024	206.69
324.253	395.69
324.482	874.69
324.71	1741.69
324.939	2340.69
325.168	858.69
325.397	258.69
325.626	157.69
325.855	137.69
326.084	124.69
326.313	128.69
326.542	159.69
326.77	238.69
326.999	444.69
327.228	916.69
327.457	1662.69
327.686	1347.69
327.914	413.69
328.143	244.69
328.372	206.69
328.6	152.69
328.829	145.69
329.058	134.69
329.287	150.69
329.515	106.69
329.744	112.69
329.972	153.69
330.201	202.69
330.43	273.69
330.658	194.69
330.887	174.69
331.115	136.69
331.344	106.69
331.572	90.69
331.801	97.69
332.03	93.69
332.258	89.69
332.486	84.69
332.715	88.69
332.943	94.69
333.172	102.69
333.4	93.69
333.629	105.69
333.857	134.69
334.085	157.69
334.314	205.69
334.542	303.69
334.771	286.69
334.999	135.69
335.227	108.69
335.455	93.69
335.684	107.69
335.912	98.69
336.14	93.69
336.369	96.69
336.597	99.69
336.825	109.69
337.053	96.69
337.281	101.69
337.51	98.69
337.738	106.69
337.966	98.69
338.194	93.69
338.422	100.69
338.65	99.69
338.878	96.69
339.106	88.69
339.334	101.69
339.562	87.69
339.79	79.69
340.018	84.69
340.246	91.69
340.474	101.69
340.702	93.69
340.93	89.69
341.158	86.69
341.386	97.69
341.614	102.69
341.842	91.69
342.07	82.69
342.298	83.69
342.526	90.69
342.754	82.69
342.981	97.69
343.209	65.69
343.437	96.69
343.665	94.69
343.893	82.69
344.12	96.69
344.348	82.69
344.576	92.69
344.804	90.69
345.031	101.69
345.259	112.69
345.487	99.69
345.714	105.69
345.942	91.69
346.17	101.69
346.397	71.69
346.625	86.69
346.853	88.69
347.08	82.69
347.308	95.69
347.535	89.69
347.763	90.69
347.99	99.69
348.218	94.69
348.445	95.69
348.673	104.69
348.9	96.69
349.128	85.69
349.355	97.69
349.583	100.69
349.81	98.69
350.037	97.69
350.265	92.69
350.492	89.69
350.72	84.69
350.947	93.69
351.174	109.69
351.402	129.69
351.629	99.69
351.856	100.69
352.083	101.69
352.311	99.69
352.538	105.69
352.765	99.69
352.992	125.69
353.22	106.69
353.447	91.69
353.674	86.69
353.901	93.69
354.128	93.69
354.355	93.69
354.583	102.69
354.81	89.69
355.037	93.69
355.264	88.69
355.491	95.69
355.718	95.69
355.945	94.69
356.172	101.69
356.399	111.69
356.626	89.69
356.853	88.69
357.08	95.69
357.307	95.69
357.534	76.69
357.761	72.69
357.988	87.69
358.215	80.69
358.441	88.69
358.668	94.69
358.895	96.69
359.122	93.69
359.349	89.69
359.576	95.69
359.802	100.69
360.029	108.69
360.256	121.69
360.483	88.69
360.709	96.69
360.936	87.69
361.163	87.69
361.39	105.69
361.616	96.69
361.843	81.69
362.07	86.69
362.296	99.69
362.523	87.69
362.749	90.69
362.976	88.69
363.203	94.69
363.429	89.69
363.656	89.69
363.882	89.69
364.109	79.69
364.335	80.69
364.562	95.69
364.788	89.69
365.015	92.69
365.241	101.69
365.468	106.69
365.694	105.69
365.92	101.69
366.147	100.69
366.373	86.69
366.599	102.69
366.826	88.69
367.052	88.69
367.278	69.69
367.505	90.69
367.731	82.69
367.957	97.69
368.184	101.69
368.41	94.69
368.636	108.69
368.862	122.69
369.089	104.69
369.315	96.69
369.541	96.69
369.767	89.69
369.993	85.69
370.219	91.69
370.445	88.69
370.672	77.69
370.898	78.69
371.124	85.69
371.35	95.69
371.576	76.69
371.802	72.69
372.028	92.69
372.254	74.69
372.48	84.69
372.706	81.69
372.932	83.69
373.158	84.69
373.384	92.69
373.61	96.69
373.835	112.69
374.061	81.69
374.287	82.69
374.513	85.69
374.739	77.69
374.965	75.69
375.191	82.69
375.416	95.69
375.642	89.69
375.868	89.69
376.094	84.69
376.319	78.69
376.545	88.69
376.771	80.69
376.997	77.69
377.222	72.69
377.448	96.69
377.674	78.69
377.899	82.69
378.125	76.69
378.35	90.69
378.576	89.69
378.802	94.69
379.027	86.69
379.253	99.69
379.478	86.69
379.704	93.69
379.929	83.69
380.155	97.69
380.38	89.69
380.606	91.69
380.831	104.69
381.057	93.69
381.282	104.69
381.507	98.69
381.733	97.69
381.958	88.69
382.184	92.69
382.409	89.69
382.634	104.69
382.86	97.69
383.085	94.69
383.31	95.69
383.535	82.69
383.761	104.69
383.986	77.69
384.211	93.69
384.436	90.69
384.662	101.69
384.887	105.69
385.112	102.69
385.337	96.69
385.562	94.69
385.787	106.69
386.013	105.69
386.238	119.69
386.463	117.69
386.688	108.69
386.913	106.69
387.138	97.69
387.363	93.69
387.588	102.69
387.813	114.69
388.038	89.69
388.263	105.69
388.488	114.69
388.713	98.69
388.938	89.69
389.163	80.69
389.387	84.69
389.612	84.69
389.837	85.69
390.062	85.69
390.287	75.69
390.512	88.69
390.736	85.69
390.961	76.69
391.186	86.69
391.411	100.69
391.636	91.69
391.86	81.69
392.085	77.69
392.31	76.69
392.534	88.69
392.759	80.69
392.984	92.69
393.208	84.69
393.433	87.69
393.658	83.69
393.882	75.69
394.107	76.69
394.331	86.69
394.556	80.69
394.78	74.69
395.005	87.69
395.229	79.69
395.454	78.69
395.678	89.69
395.903	78.69
396.127	82.69
396.352	84.69
396.576	90.69
396.801	79.69
397.025	86.69
397.249	70.69
397.474	85.69
397.698	75.69
397.922	80.69
398.147	89.69
398.371	87.69
398.595	89.69
398.82	83.69
399.044	96.69
399.268	86.69
399.492	77.69
399.717	102.69
399.941	103.69
400.165	103.69
400.389	81.69
400.613	75.69
400.837	85.69
401.062	81.69
401.286	80.69
401.51	93.69
401.734	81.69
401.958	100.69
402.182	141.69
402.406	172.69
402.63	135.69
402.854	91.69
403.078	75.69
403.302	93.69
403.526	83.69
403.75	85.69
403.974	82.69
404.198	86.69
404.422	94.69
404.645	83.69
404.869	88.69
405.093	107.69
405.317	102.69
405.541	105.69
405.765	101.69
405.988	117.69
406.212	199.69
406.436	277.69
406.66	180.69
406.883	92.69
407.107	73.69
407.331	71.69
407.555	104.69
407.778	97.69
408.002	101.69
408.226	87.69
408.449	82.69
408.673	91.69
408.896	81.69
409.12	95.69
409.344	87.69
409.567	77.69
409.791	93.69
410.014	86.69
410.238	84.69
410.461	94.69
410.685	89.69
410.908	91.69
411.132	77.69
411.355	82.69
411.578	90.69
411.802	91.69
412.025	90.69
412.249	90.69
412.472	96.69
412.695	88.69
412.919	98.69
413.142	91.69
413.365	85.69
413.589	101.69
413.812	96.69
414.035	94.69
414.258	81.69
414.482	92.69
414.705	83.69
414.928	83.69
415.151	84.69
415.374	89.69
415.597	100.69
415.821	84.69
416.044	97.69
416.267	73.69
416.49	84.69
416.713	76.69
416.936	77.69
417.159	92.69
417.382	96.69
417.605	88.69
417.828	95.69
418.051	86.69
418.274	86.69
418.497	82.69
418.72	80.69
418.943	85.69
419.166	80.69
419.389	82.69
419.611	64.69
419.834	89.69
420.057	94.69
420.28	87.69
420.503	84.69
420.726	68.69
420.948	81.69
421.171	88.69
421.394	86.69
421.617	76.69
421.839	79.69
422.062	92.69
422.285	87.69
422.507	106.69
422.73	89.69
422.953	94.69
423.175	70.69
423.398	81.69
423.621	78.69
423.843	86.69
424.066	93.69
424.288	76.69
424.511	92.69
424.733	108.69
424.956	104.69
425.178	94.69
425.401	96.69
425.623	87.69
425.846	93.69
426.068	89.69
426.291	99.69
426.513	82.69
426.735	93.69
426.958	95.69
427.18	101.69
427.402	134.69
427.625	197.69
427.847	148.69
428.069	134.69
428.292	97.69
428.514	95.69
428.736	87.69
428.958	72.69
429.181	75.69
429.403	75.69
429.625	92.69
429.847	100.69
430.069	96.69
430.292	79.69
430.514	65.69
430.736	72.69
430.958	80.69
431.18	62.69
431.402	86.69
431.624	78.69
431.846	65.69
432.068	79.69
432.29	73.69
432.512	92.69
432.734	93.69
432.956	96.69
433.178	88.69
433.4	88.69
433.622	76.69
433.844	90.69
434.066	88.69
434.287	89.69
434.509	69.69
434.731	87.69
434.953	89.69
435.175	80.69
435.397	86.69
435.618	106.69
435.84	78.69
436.062	117.69
436.284	106.69
436.505	105.69
436.727	102.69
436.949	82.69
437.17	87.69
437.392	80.69
437.614	96.69
437.835	102.69
438.057	135.69
438.278	111.69
438.5	99.69
438.721	109.69
438.943	92.69
439.165	88.69
439.386	75.69
439.608	92.69
439.829	103.69
440.05	124.69
440.272	130.69
440.493	97.69
440.715	70.69
440.936	87.69
441.158	87.69
441.379	86.69
441.6	84.69
441.822	85.69
442.043	104.69
442.264	93.69
442.486	86.69
442.707	89.69
442.928	105.69
443.149	124.69
443.371	136.69
443.592	96.69
443.813	98.69
444.034	95.69
444.255	81.69
444.476	70.69
444.698	89.69
444.919	86.69
445.14	132.69
445.361	105.69
445.582	106.69
445.803	136.69
446.024	134.69
446.245	130.69
446.466	110.69
446.687	81.69
446.908	76.69
447.129	80.69
447.35	93.69
447.571	93.69
447.792	94.69
448.013	102.69
448.234	97.69
448.455	98.69
448.675	103.69
448.896	110.69
449.117	98.69
449.338	109.69
449.559	107.69
449.779	107.69
450	90.69
450.221	86.69
450.442	90.69
450.662	91.69
450.883	112.69
451.104	103.69
451.324	95.69
451.545	90.69
451.766	79.69
451.986	81.69
452.207	91.69
452.428	76.69
452.648	105.69
452.869	132.69
453.089	119.69
453.31	132.69
453.53	103.69
453.751	104.69
453.971	115.69
454.192	117.69
454.412	94.69
454.633	86.69
454.853	89.69
455.073	87.69
455.294	92.69
455.514	108.69
455.734	82.69
455.955	82.69
456.175	77.69
456.395	74.69
456.616	85.69
456.836	82.69
457.056	94.69
457.276	73.69
457.497	76.69
457.717	80.69
457.937	86.69
458.157	90.69
458.377	97.69
458.598	118.69
458.818	158.69
459.038	174.69
459.258	127.69
459.478	96.69
459.698	75.69
459.918	92.69
460.138	86.69
460.358	76.69
460.578	86.69
460.798	73.69
461.018	87.69
461.238	74.69
461.458	96.69
461.678	78.69
461.898	73.69
462.118	93.69
462.338	87.69
462.558	96.69
462.777	96.69
462.997	86.69
463.217	78.69
463.437	80.69
463.657	78.69
463.876	78.69
464.096	96.69
464.316	94.69
464.536	99.69
464.755	87.69
464.975	118.69
465.195	190.69
465.414	188.69
465.634	96.69
465.854	75.69
466.073	98.69
466.293	82.69
466.512	91.69
466.732	102.69
466.951	87.69
467.171	85.69
467.391	86.69
467.61	117.69
467.829	101.69
468.049	166.69
468.268	188.69
468.488	96.69
468.707	78.69
468.927	81.69
469.146	83.69
469.365	80.69
469.585	90.69
469.804	83.69
470.023	101.69
470.243	90.69
470.462	107.69
470.681	112.69
470.901	80.69
471.12	73.69
471.339	91.69
471.558	83.69
471.777	97.69
471.997	110.69
472.216	238.69
472.435	422.69
472.654	152.69
472.873	105.69
473.092	90.69
473.311	78.69
473.53	69.69
473.749	95.69
473.968	87.69
474.187	100.69
474.406	91.69
474.625	82.69
474.844	93.69
475.063	84.69
475.282	79.69
475.501	78.69
475.72	101.69
475.939	83.69
476.158	78.69
476.377	75.69
476.596	76.69
476.814	81.69
477.033	94.69
477.252	84.69
477.471	79.69
477.69	83.69
477.908	82.69
478.127	92.69
478.346	77.69
478.564	103.69
478.783	74.69
479.002	96.69
479.22	93.69
479.439	98.69
479.658	106.69
479.876	99.69
480.095	84.69
480.313	92.69
480.532	88.69
480.751	112.69
480.969	234.69
481.188	703.69
481.406	445.69
481.624	131.69
481.843	89.69
482.061	82.69
482.28	76.69
482.498	77.69
482.717	77.69
482.935	84.69
483.153	81.69
483.372	98.69
483.59	94.69
483.808	69.69
484.027	102.69
484.245	90.69
484.463	88.69
484.681	89.69
484.9	98.69
485.118	86.69
485.336	98.69
485.554	97.69
485.772	101.69
485.99	105.69
486.209	106.69
486.427	98.69
486.645	105.69
486.863	135.69
487.081	90.69
487.299	88.69
487.517	100.69
487.735	85.69
487.953	87.69
488.171	94.69
488.389	95.69
488.607	95.69
488.825	95.69
489.043	89.69
489.261	79.69
489.479	80.69
489.696	81.69
489.914	85.69
490.132	77.69
490.35	93.69
490.568	85.69
490.786	93.69
491.003	92.69
491.221	95.69
491.439	94.69
491.657	91.69
491.874	100.69
492.092	86.69
492.31	83.69
492.527	83.69
492.745	73.69
492.963	89.69
493.18	96.69
493.398	89.69
493.615	91.69
493.833	100.69
494.05	91.69
494.268	99.69
494.485	82.69
494.703	90.69
494.92	93.69
495.138	95.69
495.355	88.69
495.573	89.69
495.79	99.69
496.008	94.69
496.225	95.69
496.442	96.69
496.66	88.69
496.877	79.69
497.094	95.69
497.312	102.69
497.529	89.69
497.746	78.69
497.963	70.69
498.181	95.69
498.398	114.69
498.615	109.69
498.832	85.69
499.049	82.69
499.267	97.69
499.484	78.69
499.701	89.69
499.918	94.69
500.135	90.69
500.352	93.69
500.569	92.69
500.786	92.69
501.003	86.69
501.22	107.69
501.437	104.69
501.654	102.69
501.871	106.69
502.088	85.69
502.305	86.69
502.522	93.69
502.739	87.69
502.956	79.69
503.172	85.69
503.389	103.69
503.606	111.69
503.823	98.69
504.04	97.69
504.256	98.69
504.473	77.69
504.69	81.69
504.907	103.69
505.123	79.69
505.34	73.69
505.557	93.69
505.773	80.69
505.99	74.69
506.207	92.69
506.423	91.69
506.64	72.69
506.856	82.69
507.073	85.69
507.289	84.69
507.506	117.69
507.722	120.69
507.939	117.69
508.155	100.69
508.372	94.69
508.588	91.69
508.805	96.69
509.021	91.69
509.238	103.69
509.454	106.69
509.67	117.69
509.887	121.69
510.103	141.69
510.319	250.69
510.536	1008.69
510.752	3324.69
510.968	922.69
511.184	182.69
511.401	112.69
511.617	98.69
511.833	103.69
512.049	94.69
512.265	107.69
512.481	85.69
512.698	99.69
512.914	93.69
513.13	91.69
513.346	72.69
513.562	90.69
513.778	91.69
513.994	103.69
514.21	113.69
514.426	126.69
514.642	135.69
514.858	128.69
515.074	190.69
515.29	618.69
515.506	2217.69
515.721	790.69
515.937	187.69
