Data from Circ_2008_H10_HRD10591_00035.txt Node
Date: Wed Jan 03 10:17:03 EST 2024
User: Yrep
Spectrometer: HR+D1059
Trigger mode: 1
Integration Time (sec): 1.000000E-1
Scans to average: 1
Electric dark correction enabled: true
Nonlinearity correction enabled: false
Boxcar width: 0
XAxis mode: Wavelengths
Number of Pixels in Spectrum: 2048
>>>>>Begin Spectral Data<<<<<
223.165	-12.69
223.4	-12.69
223.635	-12.69
223.869	-21.69
224.104	-11.69
224.338	-8.69
224.573	-17.69
224.808	-16.69
225.042	3.31
225.277	-4.69
225.511	-0.69
225.746	-2.69
225.98	3.31
226.215	4.31
226.449	4.31
226.683	19.31
226.918	19.31
227.152	43.31
227.387	29.31
227.621	31.31
227.856	39.31
228.09	24.31
228.324	29.31
228.559	60.31
228.793	65.31
229.027	71.31
229.262	67.31
229.496	72.31
229.73	88.31
229.964	72.31
230.199	83.31
230.433	83.31
230.667	67.31
230.901	81.31
231.136	82.31
231.37	89.31
231.604	86.31
231.838	78.31
232.072	81.31
232.306	74.31
232.541	76.31
232.775	78.31
233.009	71.31
233.243	73.31
233.477	73.31
233.711	86.31
233.945	89.31
234.179	83.31
234.413	89.31
234.647	86.31
234.881	91.31
235.115	77.31
235.349	89.31
235.583	85.31
235.817	80.31
236.051	76.31
236.285	73.31
236.519	79.31
236.753	72.31
236.987	83.31
237.221	77.31
237.455	87.31
237.689	68.31
237.922	86.31
238.156	77.31
238.39	75.31
238.624	65.31
238.858	79.31
239.091	76.31
239.325	82.31
239.559	76.31
239.793	78.31
240.027	70.31
240.26	76.31
240.494	64.31
240.728	74.31
240.961	79.31
241.195	81.31
241.429	65.31
241.662	86.31
241.896	85.31
242.13	82.31
242.363	71.31
242.597	78.31
242.83	75.31
243.064	82.31
243.298	76.31
243.531	72.31
243.765	79.31
243.998	79.31
244.232	89.31
244.465	83.31
244.699	76.31
244.932	74.31
245.166	83.31
245.399	80.31
245.633	72.31
245.866	80.31
246.099	81.31
246.333	78.31
246.566	67.31
246.8	87.31
247.033	67.31
247.266	79.31
247.5	68.31
247.733	79.31
247.966	98.31
248.2	96.31
248.433	78.31
248.666	83.31
248.899	83.31
249.133	92.31
249.366	88.31
249.599	87.31
249.832	80.31
250.066	70.31
250.299	79.31
250.532	79.31
250.765	69.31
250.998	80.31
251.231	70.31
251.465	82.31
251.698	93.31
251.931	85.31
252.164	68.31
252.397	71.31
252.63	75.31
252.863	78.31
253.096	85.31
253.329	90.31
253.562	84.31
253.795	89.31
254.028	71.31
254.261	75.31
254.494	79.31
254.727	75.31
254.96	89.31
255.193	99.31
255.426	77.31
255.659	93.31
255.892	91.31
256.124	78.31
256.357	73.31
256.59	74.31
256.823	93.31
257.056	81.31
257.289	78.31
257.521	90.31
257.754	75.31
257.987	81.31
258.22	83.31
258.452	71.31
258.685	78.31
258.918	72.31
259.151	69.31
259.383	78.31
259.616	78.31
259.849	103.31
260.081	89.31
260.314	92.31
260.547	79.31
260.779	77.31
261.012	83.31
261.244	83.31
261.477	85.31
261.71	82.31
261.942	116.31
262.175	111.31
262.407	85.31
262.64	80.31
262.872	83.31
263.105	88.31
263.337	80.31
263.57	95.31
263.802	80.31
264.035	75.31
264.267	73.31
264.499	76.31
264.732	89.31
264.964	83.31
265.197	86.31
265.429	79.31
265.661	89.31
265.894	75.31
266.126	81.31
266.358	98.31
266.591	82.31
266.823	77.31
267.055	87.31
267.287	84.31
267.52	85.31
267.752	57.31
267.984	71.31
268.216	71.31
268.448	84.31
268.681	74.31
268.913	86.31
269.145	85.31
269.377	85.31
269.609	73.31
269.841	95.31
270.073	82.31
270.306	70.31
270.538	74.31
270.77	88.31
271.002	80.31
271.234	77.31
271.466	81.31
271.698	95.31
271.93	79.31
272.162	96.31
272.394	97.31
272.626	88.31
272.858	85.31
273.09	76.31
273.322	84.31
273.553	92.31
273.785	82.31
274.017	91.31
274.249	91.31
274.481	90.31
274.713	77.31
274.945	75.31
275.176	84.31
275.408	79.31
275.64	98.31
275.872	82.31
276.104	78.31
276.335	93.31
276.567	95.31
276.799	99.31
277.031	88.31
277.262	85.31
277.494	85.31
277.726	82.31
277.957	82.31
278.189	75.31
278.421	71.31
278.652	88.31
278.884	88.31
279.115	83.31
279.347	86.31
279.579	83.31
279.81	96.31
280.042	80.31
280.273	91.31
280.505	91.31
280.736	80.31
280.968	74.31
281.199	85.31
281.431	89.31
281.662	82.31
281.894	87.31
282.125	92.31
282.356	98.31
282.588	140.31
282.819	112.31
283.051	77.31
283.282	83.31
283.513	101.31
283.745	82.31
283.976	87.31
284.207	85.31
284.439	92.31
284.67	92.31
284.901	98.31
285.132	89.31
285.364	76.31
285.595	81.31
285.826	89.31
286.057	111.31
286.288	79.31
286.52	84.31
286.751	84.31
286.982	86.31
287.213	97.31
287.444	88.31
287.675	89.31
287.906	82.31
288.138	78.31
288.369	81.31
288.6	88.31
288.831	94.31
289.062	88.31
289.293	95.31
289.524	88.31
289.755	82.31
289.986	85.31
290.217	105.31
290.448	96.31
290.679	87.31
290.91	82.31
291.141	83.31
291.371	92.31
291.602	80.31
291.833	82.31
292.064	96.31
292.295	95.31
292.526	80.31
292.757	76.31
292.987	95.31
293.218	75.31
293.449	101.31
293.68	81.31
293.91	76.31
294.141	95.31
294.372	95.31
294.603	77.31
294.833	75.31
295.064	82.31
295.295	76.31
295.525	107.31
295.756	102.31
295.987	96.31
296.217	133.31
296.448	104.31
296.679	100.31
296.909	93.31
297.14	87.31
297.37	98.31
297.601	90.31
297.831	93.31
298.062	80.31
298.292	74.31
298.523	88.31
298.753	100.31
298.984	100.31
299.214	80.31
299.445	87.31
299.675	99.31
299.905	89.31
300.136	98.31
300.366	84.31
300.597	77.31
300.827	79.31
301.057	97.31
301.288	99.31
301.518	104.31
301.748	82.31
301.979	81.31
302.209	90.31
302.439	107.31
302.669	99.31
302.9	85.31
303.13	95.31
303.36	89.31
303.59	90.31
303.82	89.31
304.051	85.31
304.281	75.31
304.511	101.31
304.741	77.31
304.971	89.31
305.201	95.31
305.431	80.31
305.661	88.31
305.891	93.31
306.121	97.31
306.352	101.31
306.582	112.31
306.812	91.31
307.042	105.31
307.272	93.31
307.502	98.31
307.731	89.31
307.961	90.31
308.191	80.31
308.421	77.31
308.651	88.31
308.881	82.31
309.111	96.31
309.341	97.31
309.571	89.31
309.8	87.31
310.03	97.31
310.26	101.31
310.49	101.31
310.72	99.31
310.949	99.31
311.179	105.31
311.409	93.31
311.639	108.31
311.868	113.31
312.098	92.31
312.328	92.31
312.557	97.31
312.787	101.31
313.017	99.31
313.246	98.31
313.476	91.31
313.706	96.31
313.935	91.31
314.165	102.31
314.394	82.31
314.624	107.31
314.853	89.31
315.083	94.31
315.312	93.31
315.542	91.31
315.771	88.31
316.001	99.31
316.23	103.31
316.46	94.31
316.689	85.31
316.919	97.31
317.148	90.31
317.377	93.31
317.607	108.31
317.836	94.31
318.065	97.31
318.295	85.31
318.524	104.31
318.753	85.31
318.983	83.31
319.212	101.31
319.441	114.31
319.67	95.31
319.9	75.31
320.129	88.31
320.358	85.31
320.587	98.31
320.816	82.31
321.046	100.31
321.275	89.31
321.504	103.31
321.733	96.31
321.962	84.31
322.191	90.31
322.42	104.31
322.649	106.31
322.878	108.31
323.108	115.31
323.337	112.31
323.566	114.31
323.795	141.31
324.024	179.31
324.253	329.31
324.482	665.31
324.71	1330.31
324.939	1786.31
325.168	667.31
325.397	213.31
325.626	135.31
325.855	124.31
326.084	114.31
326.313	117.31
326.542	139.31
326.77	198.31
326.999	363.31
327.228	738.31
327.457	1308.31
327.686	1079.31
327.914	335.31
328.143	188.31
328.372	149.31
328.6	119.31
328.829	119.31
329.058	108.31
329.287	112.31
329.515	119.31
329.744	105.31
329.972	111.31
330.201	109.31
330.43	137.31
330.658	114.31
330.887	133.31
331.115	127.31
331.344	94.31
331.572	100.31
331.801	98.31
332.03	92.31
332.258	89.31
332.486	90.31
332.715	99.31
332.943	105.31
333.172	94.31
333.4	95.31
333.629	116.31
333.857	119.31
334.085	111.31
334.314	112.31
334.542	145.31
334.771	126.31
334.999	102.31
335.227	103.31
335.455	94.31
335.684	111.31
335.912	93.31
336.14	83.31
336.369	99.31
336.597	89.31
336.825	101.31
337.053	105.31
337.281	90.31
337.51	89.31
337.738	85.31
337.966	83.31
338.194	92.31
338.422	85.31
338.65	94.31
338.878	84.31
339.106	101.31
339.334	103.31
339.562	72.31
339.79	98.31
340.018	85.31
340.246	85.31
340.474	90.31
340.702	91.31
340.93	97.31
341.158	90.31
341.386	86.31
341.614	98.31
341.842	98.31
342.07	80.31
342.298	86.31
342.526	94.31
342.754	93.31
342.981	92.31
343.209	92.31
343.437	94.31
343.665	87.31
343.893	86.31
344.12	83.31
344.348	100.31
344.576	84.31
344.804	92.31
345.031	96.31
345.259	89.31
345.487	102.31
345.714	94.31
345.942	91.31
346.17	85.31
346.397	91.31
346.625	104.31
346.853	96.31
347.08	94.31
347.308	80.31
347.535	99.31
347.763	98.31
347.99	90.31
348.218	109.31
348.445	100.31
348.673	105.31
348.9	94.31
349.128	106.31
349.355	92.31
349.583	92.31
349.81	87.31
350.037	90.31
350.265	98.31
350.492	110.31
350.72	98.31
350.947	106.31
351.174	115.31
351.402	82.31
351.629	99.31
351.856	101.31
352.083	98.31
352.311	99.31
352.538	104.31
352.765	110.31
352.992	106.31
353.22	111.31
353.447	102.31
353.674	104.31
353.901	97.31
354.128	91.31
354.355	96.31
354.583	94.31
354.81	99.31
355.037	106.31
355.264	93.31
355.491	90.31
355.718	98.31
355.945	104.31
356.172	101.31
356.399	106.31
356.626	103.31
356.853	84.31
357.08	82.31
357.307	81.31
357.534	91.31
357.761	95.31
357.988	98.31
358.215	95.31
358.441	81.31
358.668	97.31
358.895	101.31
359.122	88.31
359.349	80.31
359.576	94.31
359.802	106.31
360.029	110.31
360.256	101.31
360.483	91.31
360.709	89.31
360.936	91.31
361.163	81.31
361.39	95.31
361.616	88.31
361.843	91.31
362.07	108.31
362.296	90.31
362.523	87.31
362.749	90.31
362.976	88.31
363.203	94.31
363.429	82.31
363.656	80.31
363.882	84.31
364.109	92.31
364.335	92.31
364.562	89.31
364.788	94.31
365.015	87.31
365.241	92.31
365.468	111.31
365.694	99.31
365.92	98.31
366.147	91.31
366.373	91.31
366.599	91.31
366.826	106.31
367.052	98.31
367.278	83.31
367.505	97.31
367.731	100.31
367.957	85.31
368.184	70.31
368.41	91.31
368.636	95.31
368.862	108.31
369.089	110.31
369.315	88.31
369.541	89.31
369.767	108.31
369.993	81.31
370.219	77.31
370.445	72.31
370.672	83.31
370.898	76.31
371.124	92.31
371.35	78.31
371.576	85.31
371.802	92.31
372.028	98.31
372.254	80.31
372.48	86.31
372.706	88.31
372.932	82.31
373.158	86.31
373.384	84.31
373.61	84.31
373.835	85.31
374.061	94.31
374.287	94.31
374.513	80.31
374.739	81.31
374.965	93.31
375.191	102.31
375.416	100.31
375.642	87.31
375.868	85.31
376.094	95.31
376.319	89.31
376.545	103.31
376.771	88.31
376.997	82.31
377.222	107.31
377.448	88.31
377.674	101.31
377.899	82.31
378.125	103.31
378.35	100.31
378.576	86.31
378.802	82.31
379.027	98.31
379.253	95.31
379.478	95.31
379.704	89.31
379.929	91.31
380.155	84.31
380.38	97.31
380.606	69.31
380.831	93.31
381.057	101.31
381.282	97.31
381.507	94.31
381.733	93.31
381.958	93.31
382.184	92.31
382.409	109.31
382.634	100.31
382.86	106.31
383.085	105.31
383.31	109.31
383.535	99.31
383.761	101.31
383.986	111.31
384.211	96.31
384.436	104.31
384.662	106.31
384.887	112.31
385.112	102.31
385.337	107.31
385.562	106.31
385.787	101.31
386.013	112.31
386.238	114.31
386.463	121.31
386.688	108.31
386.913	91.31
387.138	125.31
387.363	110.31
387.588	99.31
387.813	110.31
388.038	114.31
388.263	117.31
388.488	101.31
388.713	115.31
388.938	96.31
389.163	108.31
389.387	103.31
389.612	95.31
389.837	92.31
390.062	90.31
390.287	68.31
390.512	90.31
390.736	79.31
390.961	87.31
391.186	89.31
391.411	80.31
391.636	90.31
391.86	82.31
392.085	84.31
392.31	106.31
392.534	111.31
392.759	85.31
392.984	75.31
393.208	85.31
393.433	91.31
393.658	99.31
393.882	80.31
394.107	82.31
394.331	78.31
394.556	80.31
394.78	83.31
395.005	89.31
395.229	87.31
395.454	86.31
395.678	91.31
395.903	90.31
396.127	92.31
396.352	86.31
396.576	82.31
396.801	85.31
397.025	85.31
397.249	86.31
397.474	95.31
397.698	80.31
397.922	80.31
398.147	91.31
398.371	96.31
398.595	85.31
398.82	79.31
399.044	88.31
399.268	87.31
399.492	84.31
399.717	80.31
399.941	95.31
400.165	101.31
400.389	92.31
400.613	89.31
400.837	79.31
401.062	82.31
401.286	91.31
401.51	86.31
401.734	91.31
401.958	90.31
402.182	128.31
402.406	155.31
402.63	124.31
402.854	92.31
403.078	99.31
403.302	86.31
403.526	73.31
403.75	95.31
403.974	78.31
404.198	86.31
404.422	85.31
404.645	93.31
404.869	84.31
405.093	92.31
405.317	80.31
405.541	80.31
405.765	95.31
405.988	106.31
406.212	169.31
406.436	210.31
406.66	139.31
406.883	88.31
407.107	99.31
407.331	87.31
407.555	89.31
407.778	100.31
408.002	85.31
408.226	82.31
408.449	85.31
408.673	80.31
408.896	87.31
409.12	104.31
409.344	78.31
409.567	85.31
409.791	100.31
410.014	94.31
410.238	87.31
410.461	84.31
410.685	92.31
410.908	84.31
411.132	100.31
411.355	92.31
411.578	90.31
411.802	90.31
412.025	91.31
412.249	94.31
412.472	98.31
412.695	103.31
412.919	88.31
413.142	87.31
413.365	95.31
413.589	91.31
413.812	93.31
414.035	95.31
414.258	107.31
414.482	107.31
414.705	92.31
414.928	85.31
415.151	99.31
415.374	85.31
415.597	95.31
415.821	97.31
416.044	90.31
416.267	91.31
416.49	83.31
416.713	94.31
416.936	77.31
417.159	71.31
417.382	86.31
417.605	99.31
417.828	94.31
418.051	97.31
418.274	99.31
418.497	85.31
418.72	99.31
418.943	85.31
419.166	93.31
419.389	94.31
419.611	85.31
419.834	87.31
420.057	91.31
420.28	95.31
420.503	76.31
420.726	85.31
420.948	88.31
421.171	102.31
421.394	83.31
421.617	96.31
421.839	87.31
422.062	92.31
422.285	109.31
422.507	89.31
422.73	83.31
422.953	83.31
423.175	84.31
423.398	85.31
423.621	86.31
423.843	101.31
424.066	94.31
424.288	89.31
424.511	94.31
424.733	97.31
424.956	109.31
425.178	103.31
425.401	100.31
425.623	94.31
425.846	95.31
426.068	98.31
426.291	101.31
426.513	96.31
426.735	89.31
426.958	82.31
427.18	102.31
427.402	137.31
427.625	161.31
427.847	117.31
428.069	109.31
428.292	83.31
428.514	79.31
428.736	75.31
428.958	81.31
429.181	102.31
429.403	88.31
429.625	77.31
429.847	101.31
430.069	83.31
430.292	91.31
430.514	92.31
430.736	85.31
430.958	72.31
431.18	85.31
431.402	77.31
431.624	92.31
431.846	86.31
432.068	80.31
432.29	85.31
432.512	84.31
432.734	91.31
432.956	95.31
433.178	91.31
433.4	88.31
433.622	85.31
433.844	87.31
434.066	82.31
434.287	80.31
434.509	99.31
434.731	88.31
434.953	82.31
435.175	90.31
435.397	83.31
435.618	86.31
435.84	92.31
436.062	108.31
436.284	111.31
436.505	98.31
436.727	92.31
436.949	87.31
437.17	81.31
437.392	83.31
437.614	98.31
437.835	104.31
438.057	118.31
438.278	96.31
438.5	117.31
438.721	109.31
438.943	101.31
439.165	92.31
439.386	79.31
439.608	84.31
439.829	93.31
440.05	105.31
440.272	123.31
440.493	87.31
440.715	93.31
440.936	89.31
441.158	103.31
441.379	83.31
441.6	102.31
441.822	106.31
442.043	87.31
442.264	93.31
442.486	87.31
442.707	76.31
442.928	104.31
443.149	112.31
443.371	123.31
443.592	104.31
443.813	94.31
444.034	114.31
444.255	96.31
444.476	84.31
444.698	90.31
444.919	91.31
445.14	126.31
445.361	111.31
445.582	99.31
445.803	120.31
446.024	108.31
446.245	110.31
446.466	93.31
446.687	87.31
446.908	80.31
447.129	82.31
447.35	84.31
447.571	79.31
447.792	89.31
448.013	105.31
448.234	95.31
448.455	100.31
448.675	105.31
448.896	100.31
449.117	96.31
449.338	96.31
449.559	119.31
449.779	123.31
450	100.31
450.221	90.31
450.442	73.31
450.662	91.31
450.883	111.31
451.104	86.31
451.324	87.31
451.545	90.31
451.766	83.31
451.986	83.31
452.207	94.31
452.428	84.31
452.648	98.31
452.869	95.31
453.089	109.31
453.31	129.31
453.53	99.31
453.751	85.31
453.971	104.31
454.192	117.31
454.412	80.31
454.633	78.31
454.853	75.31
455.073	92.31
455.294	83.31
455.514	99.31
455.734	72.31
455.955	87.31
456.175	85.31
456.395	80.31
456.616	78.31
456.836	82.31
457.056	77.31
457.276	92.31
457.497	87.31
457.717	91.31
457.937	93.31
458.157	89.31
458.377	88.31
458.598	102.31
458.818	137.31
459.038	163.31
459.258	109.31
459.478	88.31
459.698	86.31
459.918	107.31
460.138	94.31
460.358	83.31
460.578	91.31
460.798	106.31
461.018	85.31
461.238	88.31
461.458	83.31
461.678	87.31
461.898	88.31
462.118	84.31
462.338	81.31
462.558	95.31
462.777	89.31
462.997	81.31
463.217	95.31
463.437	88.31
463.657	82.31
463.876	75.31
464.096	79.31
464.316	78.31
464.536	82.31
464.755	88.31
464.975	91.31
465.195	129.31
465.414	147.31
465.634	97.31
465.854	87.31
466.073	85.31
466.293	94.31
466.512	90.31
466.732	87.31
466.951	89.31
467.171	90.31
467.391	83.31
467.61	93.31
467.829	107.31
468.049	98.31
468.268	116.31
468.488	92.31
468.707	80.31
468.927	82.31
469.146	82.31
469.365	75.31
469.585	97.31
469.804	92.31
470.023	100.31
470.243	75.31
470.462	98.31
470.681	100.31
470.901	95.31
471.12	89.31
471.339	87.31
471.558	90.31
471.777	93.31
471.997	84.31
472.216	122.31
472.435	155.31
472.654	93.31
472.873	96.31
473.092	89.31
473.311	91.31
473.53	95.31
473.749	92.31
473.968	98.31
474.187	95.31
474.406	80.31
474.625	68.31
474.844	80.31
475.063	91.31
475.282	79.31
475.501	80.31
475.72	87.31
475.939	98.31
476.158	83.31
476.377	90.31
476.596	92.31
476.814	97.31
477.033	93.31
477.252	90.31
477.471	102.31
477.69	80.31
477.908	85.31
478.127	95.31
478.346	88.31
478.564	87.31
478.783	84.31
479.002	94.31
479.22	98.31
479.439	104.31
479.658	101.31
479.876	83.31
480.095	90.31
480.313	89.31
480.532	81.31
480.751	89.31
480.969	133.31
481.188	221.31
481.406	169.31
481.624	93.31
481.843	92.31
482.061	79.31
482.28	97.31
482.498	94.31
482.717	81.31
482.935	103.31
483.153	79.31
483.372	95.31
483.59	93.31
483.808	84.31
484.027	84.31
484.245	91.31
484.463	91.31
484.681	93.31
484.9	92.31
485.118	86.31
485.336	104.31
485.554	108.31
485.772	100.31
485.99	92.31
486.209	103.31
486.427	89.31
486.645	104.31
486.863	121.31
487.081	106.31
487.299	106.31
487.517	85.31
487.735	92.31
487.953	100.31
488.171	90.31
488.389	101.31
488.607	95.31
488.825	92.31
489.043	98.31
489.261	89.31
489.479	78.31
489.696	83.31
489.914	82.31
490.132	87.31
490.35	84.31
490.568	89.31
490.786	89.31
491.003	84.31
491.221	89.31
491.439	105.31
491.657	103.31
491.874	96.31
492.092	94.31
492.31	93.31
492.527	93.31
492.745	94.31
492.963	106.31
493.18	95.31
493.398	102.31
493.615	107.31
493.833	92.31
494.05	96.31
494.268	94.31
494.485	91.31
494.703	75.31
494.92	78.31
495.138	75.31
495.355	90.31
495.573	80.31
495.79	77.31
496.008	90.31
496.225	82.31
496.442	89.31
496.66	98.31
496.877	93.31
497.094	98.31
497.312	80.31
497.529	97.31
497.746	83.31
497.963	104.31
498.181	100.31
498.398	104.31
498.615	97.31
498.832	99.31
499.049	98.31
499.267	97.31
499.484	77.31
499.701	103.31
499.918	109.31
500.135	99.31
500.352	93.31
500.569	90.31
500.786	85.31
501.003	97.31
501.22	103.31
501.437	108.31
501.654	96.31
501.871	109.31
502.088	85.31
502.305	82.31
502.522	94.31
502.739	76.31
502.956	89.31
503.172	87.31
503.389	89.31
503.606	102.31
503.823	101.31
504.04	99.31
504.256	93.31
504.473	87.31
504.69	92.31
504.907	92.31
505.123	103.31
505.34	86.31
505.557	93.31
505.773	93.31
505.99	96.31
506.207	95.31
506.423	98.31
506.64	86.31
506.856	91.31
507.073	79.31
507.289	86.31
507.506	102.31
507.722	112.31
507.939	100.31
508.155	102.31
508.372	85.31
508.588	109.31
508.805	87.31
509.021	103.31
509.238	97.31
509.454	103.31
509.67	95.31
509.887	103.31
510.103	136.31
510.319	224.31
510.536	750.31
510.752	2479.31
510.968	706.31
511.184	161.31
511.401	112.31
511.617	100.31
511.833	96.31
512.049	88.31
512.265	86.31
512.481	96.31
512.698	98.31
512.914	96.31
513.13	99.31
513.346	85.31
513.562	96.31
513.778	100.31
513.994	101.31
514.21	115.31
514.426	119.31
514.642	131.31
514.858	103.31
515.074	159.31
515.29	424.31
515.506	1474.31
515.721	543.31
515.937	157.31
