Data from Circ_2008_H10_HRD10591_00040.txt Node
Date: Wed Jan 03 10:17:04 EST 2024
User: Yrep
Spectrometer: HR+D1059
Trigger mode: 1
Integration Time (sec): 1.000000E-1
Scans to average: 1
Electric dark correction enabled: true
Nonlinearity correction enabled: false
Boxcar width: 0
XAxis mode: Wavelengths
Number of Pixels in Spectrum: 2048
>>>>>Begin Spectral Data<<<<<
223.165	-19.75
223.4	-19.75
223.635	-19.75
223.869	-19.75
224.104	-13.75
224.338	-15.75
224.573	-18.75
224.808	-9.75
225.042	-5.75
225.277	-12.75
225.511	-19.75
225.746	7.25
225.98	9.25
226.215	16.25
226.449	12.25
226.683	36.25
226.918	22.25
227.152	32.25
227.387	38.25
227.621	37.25
227.856	42.25
228.09	46.25
228.324	30.25
228.559	53.25
228.793	49.25
229.027	53.25
229.262	64.25
229.496	74.25
229.73	81.25
229.964	79.25
230.199	81.25
230.433	65.25
230.667	73.25
230.901	66.25
231.136	72.25
231.37	87.25
231.604	65.25
231.838	86.25
232.072	84.25
232.306	80.25
232.541	76.25
232.775	79.25
233.009	78.25
233.243	75.25
233.477	69.25
233.711	92.25
233.945	80.25
234.179	86.25
234.413	83.25
234.647	75.25
234.881	77.25
235.115	75.25
235.349	59.25
235.583	82.25
235.817	73.25
236.051	83.25
236.285	73.25
236.519	73.25
236.753	63.25
236.987	62.25
237.221	75.25
237.455	78.25
237.689	82.25
237.922	74.25
238.156	70.25
238.39	80.25
238.624	66.25
238.858	69.25
239.091	73.25
239.325	69.25
239.559	85.25
239.793	72.25
240.027	75.25
240.26	89.25
240.494	80.25
240.728	69.25
240.961	61.25
241.195	70.25
241.429	63.25
241.662	71.25
241.896	75.25
242.13	87.25
242.363	78.25
242.597	65.25
242.83	75.25
243.064	79.25
243.298	77.25
243.531	71.25
243.765	56.25
243.998	75.25
244.232	87.25
244.465	86.25
244.699	71.25
244.932	79.25
245.166	63.25
245.399	69.25
245.633	72.25
245.866	80.25
246.099	79.25
246.333	67.25
246.566	71.25
246.8	77.25
247.033	86.25
247.266	69.25
247.5	62.25
247.733	86.25
247.966	73.25
248.2	91.25
248.433	75.25
248.666	68.25
248.899	71.25
249.133	71.25
249.366	87.25
249.599	86.25
249.832	85.25
250.066	73.25
250.299	73.25
250.532	80.25
250.765	71.25
250.998	55.25
251.231	70.25
251.465	68.25
251.698	70.25
251.931	88.25
252.164	84.25
252.397	71.25
252.63	74.25
252.863	67.25
253.096	66.25
253.329	64.25
253.562	70.25
253.795	77.25
254.028	86.25
254.261	78.25
254.494	80.25
254.727	83.25
254.96	82.25
255.193	76.25
255.426	74.25
255.659	72.25
255.892	80.25
256.124	78.25
256.357	82.25
256.59	87.25
256.823	73.25
257.056	70.25
257.289	67.25
257.521	58.25
257.754	78.25
257.987	91.25
258.22	78.25
258.452	93.25
258.685	80.25
258.918	76.25
259.151	73.25
259.383	63.25
259.616	64.25
259.849	86.25
260.081	75.25
260.314	79.25
260.547	63.25
260.779	66.25
261.012	78.25
261.244	76.25
261.477	89.25
261.71	88.25
261.942	103.25
262.175	103.25
262.407	87.25
262.64	65.25
262.872	70.25
263.105	74.25
263.337	72.25
263.57	78.25
263.802	91.25
264.035	72.25
264.267	89.25
264.499	92.25
264.732	102.25
264.964	75.25
265.197	92.25
265.429	76.25
265.661	84.25
265.894	76.25
266.126	84.25
266.358	79.25
266.591	81.25
266.823	70.25
267.055	83.25
267.287	67.25
267.52	75.25
267.752	77.25
267.984	70.25
268.216	63.25
268.448	83.25
268.681	81.25
268.913	84.25
269.145	75.25
269.377	76.25
269.609	81.25
269.841	88.25
270.073	89.25
270.306	94.25
270.538	82.25
270.77	85.25
271.002	62.25
271.234	88.25
271.466	76.25
271.698	85.25
271.93	71.25
272.162	86.25
272.394	91.25
272.626	78.25
272.858	74.25
273.09	70.25
273.322	79.25
273.553	83.25
273.785	76.25
274.017	70.25
274.249	84.25
274.481	79.25
274.713	71.25
274.945	75.25
275.176	86.25
275.408	91.25
275.64	79.25
275.872	95.25
276.104	83.25
276.335	95.25
276.567	95.25
276.799	101.25
277.031	100.25
277.262	87.25
277.494	81.25
277.726	69.25
277.957	84.25
278.189	77.25
278.421	85.25
278.652	78.25
278.884	83.25
279.115	63.25
279.347	79.25
279.579	80.25
279.81	94.25
280.042	78.25
280.273	81.25
280.505	72.25
280.736	84.25
280.968	79.25
281.199	86.25
281.431	90.25
281.662	81.25
281.894	87.25
282.125	104.25
282.356	110.25
282.588	139.25
282.819	127.25
283.051	88.25
283.282	81.25
283.513	73.25
283.745	77.25
283.976	78.25
284.207	100.25
284.439	79.25
284.67	76.25
284.901	70.25
285.132	75.25
285.364	86.25
285.595	81.25
285.826	84.25
286.057	87.25
286.288	80.25
286.52	77.25
286.751	82.25
286.982	73.25
287.213	69.25
287.444	81.25
287.675	80.25
287.906	98.25
288.138	65.25
288.369	89.25
288.6	91.25
288.831	83.25
289.062	78.25
289.293	81.25
289.524	83.25
289.755	67.25
289.986	78.25
290.217	97.25
290.448	81.25
290.679	75.25
290.91	72.25
291.141	95.25
291.371	75.25
291.602	79.25
291.833	80.25
292.064	72.25
292.295	86.25
292.526	88.25
292.757	92.25
292.987	87.25
293.218	82.25
293.449	87.25
293.68	75.25
293.91	79.25
294.141	80.25
294.372	75.25
294.603	91.25
294.833	85.25
295.064	81.25
295.295	79.25
295.525	91.25
295.756	84.25
295.987	109.25
296.217	137.25
296.448	102.25
296.679	91.25
296.909	88.25
297.14	81.25
297.37	88.25
297.601	86.25
297.831	80.25
298.062	80.25
298.292	87.25
298.523	94.25
298.753	84.25
298.984	83.25
299.214	77.25
299.445	77.25
299.675	86.25
299.905	85.25
300.136	87.25
300.366	81.25
300.597	80.25
300.827	86.25
301.057	94.25
301.288	103.25
301.518	94.25
301.748	83.25
301.979	106.25
302.209	87.25
302.439	81.25
302.669	89.25
302.9	88.25
303.13	88.25
303.36	84.25
303.59	92.25
303.82	106.25
304.051	80.25
304.281	87.25
304.511	73.25
304.741	78.25
304.971	68.25
305.201	87.25
305.431	75.25
305.661	102.25
305.891	84.25
306.121	88.25
306.352	97.25
306.582	91.25
306.812	100.25
307.042	93.25
307.272	73.25
307.502	93.25
307.731	87.25
307.961	75.25
308.191	75.25
308.421	80.25
308.651	85.25
308.881	88.25
309.111	100.25
309.341	89.25
309.571	104.25
309.8	93.25
310.03	91.25
310.26	103.25
310.49	93.25
310.72	97.25
310.949	81.25
311.179	91.25
311.409	90.25
311.639	90.25
311.868	95.25
312.098	90.25
312.328	99.25
312.557	93.25
312.787	90.25
313.017	101.25
313.246	103.25
313.476	75.25
313.706	87.25
313.935	86.25
314.165	100.25
314.394	86.25
314.624	88.25
314.853	74.25
315.083	103.25
315.312	80.25
315.542	94.25
315.771	79.25
316.001	76.25
316.23	87.25
316.46	97.25
316.689	81.25
316.919	87.25
317.148	81.25
317.377	86.25
317.607	69.25
317.836	92.25
318.065	84.25
318.295	89.25
318.524	85.25
318.753	93.25
318.983	95.25
319.212	89.25
319.441	102.25
319.67	115.25
319.9	97.25
320.129	84.25
320.358	81.25
320.587	89.25
320.816	106.25
321.046	100.25
321.275	108.25
321.504	100.25
321.733	86.25
321.962	92.25
322.191	94.25
322.42	91.25
322.649	101.25
322.878	92.25
323.108	117.25
323.337	114.25
323.566	135.25
323.795	136.25
324.024	187.25
324.253	343.25
324.482	660.25
324.71	1360.25
324.939	1758.25
325.168	700.25
325.397	224.25
325.626	115.25
325.855	112.25
326.084	126.25
326.313	126.25
326.542	129.25
326.77	192.25
326.999	375.25
327.228	738.25
327.457	1299.25
327.686	1064.25
327.914	316.25
328.143	163.25
328.372	147.25
328.6	121.25
328.829	103.25
329.058	128.25
329.287	117.25
329.515	109.25
329.744	97.25
329.972	101.25
330.201	112.25
330.43	133.25
330.658	121.25
330.887	109.25
331.115	115.25
331.344	96.25
331.572	90.25
331.801	78.25
332.03	99.25
332.258	90.25
332.486	102.25
332.715	93.25
332.943	81.25
333.172	100.25
333.4	116.25
333.629	99.25
333.857	112.25
334.085	109.25
334.314	109.25
334.542	147.25
334.771	152.25
334.999	117.25
335.227	96.25
335.455	94.25
335.684	100.25
335.912	94.25
336.14	85.25
336.369	90.25
336.597	86.25
336.825	88.25
337.053	94.25
337.281	88.25
337.51	88.25
337.738	92.25
337.966	93.25
338.194	73.25
338.422	102.25
338.65	88.25
338.878	91.25
339.106	87.25
339.334	65.25
339.562	89.25
339.79	105.25
340.018	87.25
340.246	81.25
340.474	84.25
340.702	74.25
340.93	96.25
341.158	92.25
341.386	91.25
341.614	91.25
341.842	92.25
342.07	91.25
342.298	81.25
342.526	87.25
342.754	82.25
342.981	83.25
343.209	93.25
343.437	93.25
343.665	80.25
343.893	84.25
344.12	91.25
344.348	97.25
344.576	85.25
344.804	73.25
345.031	98.25
345.259	87.25
345.487	94.25
345.714	85.25
345.942	78.25
346.17	89.25
346.397	80.25
346.625	91.25
346.853	86.25
347.08	85.25
347.308	96.25
347.535	99.25
347.763	86.25
347.99	87.25
348.218	86.25
348.445	95.25
348.673	107.25
348.9	84.25
349.128	84.25
349.355	91.25
349.583	90.25
349.81	93.25
350.037	73.25
350.265	79.25
350.492	78.25
350.72	84.25
350.947	84.25
351.174	100.25
351.402	100.25
351.629	107.25
351.856	104.25
352.083	105.25
352.311	115.25
352.538	117.25
352.765	98.25
352.992	102.25
353.22	120.25
353.447	100.25
353.674	106.25
353.901	85.25
354.128	94.25
354.355	93.25
354.583	95.25
354.81	93.25
355.037	90.25
355.264	89.25
355.491	84.25
355.718	87.25
355.945	90.25
356.172	98.25
356.399	93.25
356.626	91.25
356.853	91.25
357.08	87.25
357.307	84.25
357.534	82.25
357.761	92.25
357.988	97.25
358.215	82.25
358.441	94.25
358.668	87.25
358.895	71.25
359.122	94.25
359.349	90.25
359.576	94.25
359.802	84.25
360.029	98.25
360.256	90.25
360.483	95.25
360.709	92.25
360.936	83.25
361.163	81.25
361.39	88.25
361.616	85.25
361.843	76.25
362.07	92.25
362.296	77.25
362.523	84.25
362.749	86.25
362.976	89.25
363.203	88.25
363.429	103.25
363.656	93.25
363.882	81.25
364.109	87.25
364.335	89.25
364.562	72.25
364.788	91.25
365.015	97.25
365.241	80.25
365.468	97.25
365.694	111.25
365.92	96.25
366.147	91.25
366.373	79.25
366.599	65.25
366.826	89.25
367.052	94.25
367.278	89.25
367.505	103.25
367.731	99.25
367.957	79.25
368.184	87.25
368.41	90.25
368.636	99.25
368.862	109.25
369.089	96.25
369.315	80.25
369.541	85.25
369.767	83.25
369.993	74.25
370.219	96.25
370.445	86.25
370.672	92.25
370.898	88.25
371.124	88.25
371.35	93.25
371.576	93.25
371.802	76.25
372.028	86.25
372.254	79.25
372.48	81.25
372.706	82.25
372.932	70.25
373.158	81.25
373.384	79.25
373.61	91.25
373.835	84.25
374.061	88.25
374.287	79.25
374.513	96.25
374.739	73.25
374.965	79.25
375.191	81.25
375.416	83.25
375.642	90.25
375.868	85.25
376.094	85.25
376.319	81.25
376.545	86.25
376.771	75.25
376.997	80.25
377.222	105.25
377.448	81.25
377.674	82.25
377.899	77.25
378.125	79.25
378.35	77.25
378.576	93.25
378.802	82.25
379.027	77.25
379.253	82.25
379.478	92.25
379.704	84.25
379.929	77.25
380.155	91.25
380.38	93.25
380.606	89.25
380.831	98.25
381.057	91.25
381.282	87.25
381.507	85.25
381.733	83.25
381.958	91.25
382.184	103.25
382.409	100.25
382.634	95.25
382.86	93.25
383.085	90.25
383.31	101.25
383.535	99.25
383.761	92.25
383.986	93.25
384.211	97.25
384.436	101.25
384.662	95.25
384.887	99.25
385.112	105.25
385.337	92.25
385.562	120.25
385.787	92.25
386.013	102.25
386.238	110.25
386.463	97.25
386.688	115.25
386.913	104.25
387.138	122.25
387.363	103.25
387.588	94.25
387.813	87.25
388.038	95.25
388.263	96.25
388.488	105.25
388.713	98.25
388.938	97.25
389.163	97.25
389.387	80.25
389.612	88.25
389.837	74.25
390.062	86.25
390.287	93.25
390.512	97.25
390.736	86.25
390.961	92.25
391.186	91.25
391.411	79.25
391.636	89.25
391.86	94.25
392.085	79.25
392.31	80.25
392.534	84.25
392.759	83.25
392.984	94.25
393.208	91.25
393.433	87.25
393.658	86.25
393.882	70.25
394.107	87.25
394.331	75.25
394.556	101.25
394.78	72.25
395.005	87.25
395.229	86.25
395.454	85.25
395.678	85.25
395.903	77.25
396.127	91.25
396.352	81.25
396.576	92.25
396.801	81.25
397.025	89.25
397.249	80.25
397.474	80.25
397.698	84.25
397.922	82.25
398.147	88.25
398.371	80.25
398.595	96.25
398.82	80.25
399.044	86.25
399.268	89.25
399.492	88.25
399.717	85.25
399.941	78.25
400.165	80.25
400.389	96.25
400.613	85.25
400.837	89.25
401.062	76.25
401.286	85.25
401.51	72.25
401.734	88.25
401.958	94.25
402.182	119.25
402.406	153.25
402.63	106.25
402.854	82.25
403.078	80.25
403.302	67.25
403.526	77.25
403.75	97.25
403.974	80.25
404.198	82.25
404.422	87.25
404.645	80.25
404.869	89.25
405.093	105.25
405.317	89.25
405.541	94.25
405.765	96.25
405.988	107.25
406.212	149.25
406.436	221.25
406.66	123.25
406.883	93.25
407.107	90.25
407.331	76.25
407.555	88.25
407.778	93.25
408.002	71.25
408.226	73.25
408.449	87.25
408.673	80.25
408.896	73.25
409.12	80.25
409.344	83.25
409.567	73.25
409.791	86.25
410.014	87.25
410.238	76.25
410.461	88.25
410.685	90.25
410.908	99.25
411.132	89.25
411.355	97.25
411.578	78.25
411.802	86.25
412.025	83.25
412.249	83.25
412.472	84.25
412.695	91.25
412.919	80.25
413.142	89.25
413.365	89.25
413.589	76.25
413.812	82.25
414.035	75.25
414.258	87.25
414.482	95.25
414.705	87.25
414.928	91.25
415.151	96.25
415.374	100.25
415.597	85.25
415.821	85.25
416.044	86.25
416.267	75.25
416.49	88.25
416.713	83.25
416.936	89.25
417.159	83.25
417.382	74.25
417.605	89.25
417.828	82.25
418.051	81.25
418.274	77.25
418.497	78.25
418.72	95.25
418.943	84.25
419.166	84.25
419.389	93.25
419.611	88.25
419.834	90.25
420.057	74.25
420.28	91.25
420.503	94.25
420.726	87.25
420.948	81.25
421.171	89.25
421.394	97.25
421.617	72.25
421.839	74.25
422.062	76.25
422.285	94.25
422.507	106.25
422.73	89.25
422.953	95.25
423.175	77.25
423.398	80.25
423.621	73.25
423.843	74.25
424.066	88.25
424.288	78.25
424.511	79.25
424.733	103.25
424.956	97.25
425.178	90.25
425.401	98.25
425.623	82.25
425.846	85.25
426.068	83.25
426.291	78.25
426.513	86.25
426.735	81.25
426.958	90.25
427.18	89.25
427.402	120.25
427.625	134.25
427.847	116.25
428.069	96.25
428.292	81.25
428.514	79.25
428.736	78.25
428.958	72.25
429.181	80.25
429.403	80.25
429.625	88.25
429.847	84.25
430.069	94.25
430.292	80.25
430.514	85.25
430.736	69.25
430.958	86.25
431.18	79.25
431.402	75.25
431.624	84.25
431.846	67.25
432.068	81.25
432.29	69.25
432.512	82.25
432.734	84.25
432.956	87.25
433.178	85.25
433.4	84.25
433.622	93.25
433.844	88.25
434.066	90.25
434.287	103.25
434.509	79.25
434.731	83.25
434.953	87.25
435.175	87.25
435.397	70.25
435.618	95.25
435.84	85.25
436.062	101.25
436.284	87.25
436.505	96.25
436.727	96.25
436.949	97.25
437.17	84.25
437.392	92.25
437.614	82.25
437.835	98.25
438.057	111.25
438.278	93.25
438.5	117.25
438.721	88.25
438.943	85.25
439.165	83.25
439.386	67.25
439.608	85.25
439.829	76.25
440.05	90.25
440.272	124.25
440.493	92.25
440.715	82.25
440.936	72.25
441.158	88.25
441.379	86.25
441.6	93.25
441.822	93.25
442.043	91.25
442.264	89.25
442.486	95.25
442.707	79.25
442.928	101.25
443.149	107.25
443.371	120.25
443.592	98.25
443.813	94.25
444.034	107.25
444.255	97.25
444.476	96.25
444.698	100.25
444.919	89.25
445.14	124.25
445.361	111.25
445.582	81.25
445.803	115.25
446.024	122.25
446.245	120.25
446.466	95.25
446.687	83.25
446.908	76.25
447.129	73.25
447.35	79.25
447.571	96.25
447.792	84.25
448.013	107.25
448.234	102.25
448.455	92.25
448.675	96.25
448.896	93.25
449.117	89.25
449.338	99.25
449.559	119.25
449.779	114.25
450	94.25
450.221	79.25
450.442	96.25
450.662	83.25
450.883	93.25
451.104	120.25
451.324	95.25
451.545	93.25
451.766	91.25
451.986	107.25
452.207	95.25
452.428	86.25
452.648	88.25
452.869	91.25
453.089	105.25
453.31	103.25
453.53	85.25
453.751	72.25
453.971	99.25
454.192	109.25
454.412	89.25
454.633	89.25
454.853	89.25
455.073	75.25
455.294	91.25
455.514	102.25
455.734	95.25
455.955	84.25
456.175	80.25
456.395	93.25
456.616	76.25
456.836	78.25
457.056	105.25
457.276	76.25
457.497	80.25
457.717	83.25
457.937	86.25
458.157	81.25
458.377	81.25
458.598	95.25
458.818	129.25
459.038	147.25
459.258	90.25
459.478	91.25
459.698	73.25
459.918	82.25
460.138	80.25
460.358	79.25
460.578	89.25
460.798	81.25
461.018	78.25
461.238	88.25
461.458	77.25
461.678	79.25
461.898	83.25
462.118	67.25
462.338	88.25
462.558	85.25
462.777	79.25
462.997	90.25
463.217	96.25
463.437	88.25
463.657	78.25
463.876	71.25
464.096	93.25
464.316	85.25
464.536	87.25
464.755	75.25
464.975	93.25
465.195	153.25
465.414	154.25
465.634	96.25
465.854	82.25
466.073	96.25
466.293	85.25
466.512	79.25
466.732	90.25
466.951	81.25
467.171	81.25
467.391	87.25
467.61	91.25
467.829	84.25
468.049	89.25
468.268	109.25
468.488	87.25
468.707	90.25
468.927	83.25
469.146	76.25
469.365	73.25
469.585	88.25
469.804	84.25
470.023	77.25
470.243	89.25
470.462	80.25
470.681	108.25
470.901	79.25
471.12	79.25
471.339	80.25
471.558	80.25
471.777	88.25
471.997	92.25
472.216	123.25
472.435	166.25
472.654	96.25
472.873	89.25
473.092	84.25
473.311	89.25
473.53	84.25
473.749	91.25
473.968	98.25
474.187	89.25
474.406	86.25
474.625	73.25
474.844	89.25
475.063	76.25
475.282	95.25
475.501	79.25
475.72	87.25
475.939	77.25
476.158	74.25
476.377	71.25
476.596	71.25
476.814	78.25
477.033	85.25
477.252	91.25
477.471	83.25
477.69	89.25
477.908	78.25
478.127	76.25
478.346	87.25
478.564	85.25
478.783	90.25
479.002	89.25
479.22	74.25
479.439	69.25
479.658	101.25
479.876	81.25
480.095	86.25
480.313	87.25
480.532	81.25
480.751	92.25
480.969	118.25
481.188	251.25
481.406	193.25
481.624	103.25
481.843	89.25
482.061	84.25
482.28	85.25
482.498	94.25
482.717	88.25
482.935	79.25
483.153	83.25
483.372	75.25
483.59	100.25
483.808	76.25
484.027	86.25
484.245	92.25
484.463	87.25
484.681	98.25
484.9	104.25
485.118	80.25
485.336	88.25
485.554	92.25
485.772	94.25
485.99	92.25
486.209	105.25
486.427	105.25
486.645	96.25
486.863	107.25
487.081	93.25
487.299	91.25
487.517	98.25
487.735	101.25
487.953	81.25
488.171	93.25
488.389	80.25
488.607	93.25
488.825	74.25
489.043	76.25
489.261	90.25
489.479	83.25
489.696	88.25
489.914	94.25
490.132	83.25
490.35	87.25
490.568	79.25
490.786	80.25
491.003	93.25
491.221	100.25
491.439	86.25
491.657	92.25
491.874	85.25
492.092	91.25
492.31	71.25
492.527	79.25
492.745	87.25
492.963	80.25
493.18	86.25
493.398	91.25
493.615	103.25
493.833	80.25
494.05	87.25
494.268	90.25
494.485	81.25
494.703	79.25
494.92	78.25
495.138	95.25
495.355	82.25
495.573	93.25
495.79	81.25
496.008	90.25
496.225	80.25
496.442	81.25
496.66	84.25
496.877	91.25
497.094	83.25
497.312	90.25
497.529	96.25
497.746	95.25
497.963	67.25
498.181	87.25
498.398	112.25
498.615	92.25
498.832	88.25
499.049	98.25
499.267	83.25
499.484	77.25
499.701	91.25
499.918	76.25
500.135	81.25
500.352	99.25
500.569	89.25
500.786	89.25
501.003	85.25
501.22	87.25
501.437	86.25
501.654	88.25
501.871	102.25
502.088	87.25
502.305	92.25
502.522	78.25
502.739	85.25
502.956	85.25
503.172	90.25
503.389	87.25
503.606	101.25
503.823	93.25
504.04	94.25
504.256	87.25
504.473	91.25
504.69	71.25
504.907	96.25
505.123	82.25
505.34	102.25
505.557	64.25
505.773	89.25
505.99	91.25
506.207	93.25
506.423	87.25
506.64	85.25
506.856	92.25
507.073	85.25
507.289	88.25
507.506	76.25
507.722	102.25
507.939	94.25
508.155	95.25
508.372	91.25
508.588	92.25
508.805	87.25
509.021	95.25
509.238	80.25
509.454	96.25
509.67	86.25
509.887	123.25
510.103	137.25
510.319	211.25
510.536	778.25
510.752	2584.25
510.968	717.25
511.184	163.25
511.401	108.25
511.617	110.25
511.833	84.25
512.049	78.25
512.265	104.25
512.481	87.25
512.698	72.25
512.914	108.25
513.13	95.25
513.346	86.25
513.562	88.25
513.778	99.25
513.994	91.25
514.21	116.25
514.426	109.25
514.642	122.25
514.858	122.25
515.074	160.25
515.29	448.25
515.506	1519.25
515.721	559.25
515.937	144.25
516.153	94.25
516.369	98.25
516.585	103.25
516.801	76.25
517.016	91.25
517.232	84.25
