Data from Circ_2008_H10_HRD10591_00041.txt Node
Date: Wed Jan 03 10:17:04 EST 2024
User: Yrep
Spectrometer: HR+D1059
Trigger mode: 1
Integration Time (sec): 1.000000E-1
Scans to average: 1
Electric dark correction enabled: true
Nonlinearity correction enabled: false
Boxcar width: 0
XAxis mode: Wavelengths
Number of Pixels in Spectrum: 2048
>>>>>Begin Spectral Data<<<<<
223.165	-25.44
223.4	-25.44
223.635	-25.44
223.869	-17.44
224.104	-26.44
224.338	-19.44
224.573	-6.44
224.808	-6.44
225.042	-9.44
225.277	-3.44
225.511	-2.44
225.746	13.56
225.98	-1.44
226.215	11.56
226.449	14.56
226.683	23.56
226.918	26.56
227.152	28.56
227.387	31.56
227.621	44.56
227.856	41.56
228.09	46.56
228.324	57.56
228.559	60.56
228.793	51.56
229.027	59.56
229.262	71.56
229.496	78.56
229.73	90.56
229.964	82.56
230.199	91.56
230.433	91.56
230.667	84.56
230.901	74.56
231.136	70.56
231.37	69.56
231.604	82.56
231.838	85.56
232.072	77.56
232.306	84.56
232.541	86.56
232.775	102.56
233.009	94.56
233.243	85.56
233.477	83.56
233.711	87.56
233.945	93.56
234.179	74.56
234.413	82.56
234.647	79.56
234.881	72.56
235.115	86.56
235.349	77.56
235.583	82.56
235.817	82.56
236.051	81.56
236.285	72.56
236.519	73.56
236.753	71.56
236.987	79.56
237.221	77.56
237.455	84.56
237.689	85.56
237.922	76.56
238.156	76.56
238.39	79.56
238.624	71.56
238.858	70.56
239.091	87.56
239.325	82.56
239.559	74.56
239.793	75.56
240.027	80.56
240.26	76.56
240.494	73.56
240.728	75.56
240.961	73.56
241.195	76.56
241.429	76.56
241.662	66.56
241.896	73.56
242.13	81.56
242.363	94.56
242.597	91.56
242.83	89.56
243.064	86.56
243.298	78.56
243.531	73.56
243.765	95.56
243.998	82.56
244.232	72.56
244.465	95.56
244.699	91.56
244.932	77.56
245.166	63.56
245.399	90.56
245.633	81.56
245.866	77.56
246.099	82.56
246.333	87.56
246.566	63.56
246.8	64.56
247.033	83.56
247.266	80.56
247.5	95.56
247.733	79.56
247.966	75.56
248.2	87.56
248.433	88.56
248.666	76.56
248.899	75.56
249.133	79.56
249.366	95.56
249.599	90.56
249.832	69.56
250.066	92.56
250.299	86.56
250.532	84.56
250.765	85.56
250.998	68.56
251.231	67.56
251.465	87.56
251.698	72.56
251.931	63.56
252.164	82.56
252.397	68.56
252.63	77.56
252.863	78.56
253.096	75.56
253.329	75.56
253.562	76.56
253.795	76.56
254.028	84.56
254.261	81.56
254.494	81.56
254.727	71.56
254.96	72.56
255.193	79.56
255.426	73.56
255.659	75.56
255.892	87.56
256.124	81.56
256.357	87.56
256.59	71.56
256.823	75.56
257.056	74.56
257.289	90.56
257.521	84.56
257.754	81.56
257.987	83.56
258.22	83.56
258.452	74.56
258.685	88.56
258.918	81.56
259.151	87.56
259.383	72.56
259.616	91.56
259.849	80.56
260.081	75.56
260.314	79.56
260.547	91.56
260.779	87.56
261.012	81.56
261.244	79.56
261.477	84.56
261.71	89.56
261.942	112.56
262.175	122.56
262.407	99.56
262.64	79.56
262.872	91.56
263.105	69.56
263.337	81.56
263.57	85.56
263.802	87.56
264.035	92.56
264.267	89.56
264.499	75.56
264.732	85.56
264.964	79.56
265.197	84.56
265.429	84.56
265.661	80.56
265.894	82.56
266.126	84.56
266.358	87.56
266.591	79.56
266.823	83.56
267.055	73.56
267.287	78.56
267.52	81.56
267.752	84.56
267.984	75.56
268.216	79.56
268.448	89.56
268.681	75.56
268.913	76.56
269.145	80.56
269.377	81.56
269.609	73.56
269.841	96.56
270.073	93.56
270.306	73.56
270.538	81.56
270.77	83.56
271.002	75.56
271.234	89.56
271.466	83.56
271.698	76.56
271.93	75.56
272.162	83.56
272.394	93.56
272.626	84.56
272.858	85.56
273.09	71.56
273.322	89.56
273.553	82.56
273.785	81.56
274.017	84.56
274.249	86.56
274.481	76.56
274.713	77.56
274.945	88.56
275.176	84.56
275.408	95.56
275.64	89.56
275.872	80.56
276.104	79.56
276.335	99.56
276.567	109.56
276.799	105.56
277.031	105.56
277.262	85.56
277.494	80.56
277.726	84.56
277.957	90.56
278.189	100.56
278.421	96.56
278.652	76.56
278.884	78.56
279.115	98.56
279.347	80.56
279.579	82.56
279.81	80.56
280.042	76.56
280.273	85.56
280.505	76.56
280.736	85.56
280.968	95.56
281.199	78.56
281.431	81.56
281.662	84.56
281.894	88.56
282.125	103.56
282.356	121.56
282.588	122.56
282.819	111.56
283.051	81.56
283.282	76.56
283.513	90.56
283.745	82.56
283.976	96.56
284.207	95.56
284.439	85.56
284.67	93.56
284.901	84.56
285.132	83.56
285.364	80.56
285.595	89.56
285.826	90.56
286.057	87.56
286.288	104.56
286.52	89.56
286.751	98.56
286.982	76.56
287.213	93.56
287.444	100.56
287.675	89.56
287.906	95.56
288.138	97.56
288.369	103.56
288.6	79.56
288.831	89.56
289.062	94.56
289.293	82.56
289.524	96.56
289.755	107.56
289.986	90.56
290.217	92.56
290.448	87.56
290.679	89.56
290.91	92.56
291.141	85.56
291.371	93.56
291.602	85.56
291.833	99.56
292.064	81.56
292.295	91.56
292.526	94.56
292.757	76.56
292.987	73.56
293.218	77.56
293.449	85.56
293.68	75.56
293.91	103.56
294.141	97.56
294.372	98.56
294.603	92.56
294.833	76.56
295.064	94.56
295.295	86.56
295.525	87.56
295.756	110.56
295.987	103.56
296.217	141.56
296.448	123.56
296.679	103.56
296.909	85.56
297.14	83.56
297.37	76.56
297.601	74.56
297.831	93.56
298.062	86.56
298.292	96.56
298.523	83.56
298.753	84.56
298.984	81.56
299.214	92.56
299.445	93.56
299.675	82.56
299.905	99.56
300.136	78.56
300.366	92.56
300.597	95.56
300.827	100.56
301.057	106.56
301.288	109.56
301.518	89.56
301.748	95.56
301.979	104.56
302.209	95.56
302.439	95.56
302.669	93.56
302.9	85.56
303.13	87.56
303.36	89.56
303.59	93.56
303.82	104.56
304.051	93.56
304.281	102.56
304.511	81.56
304.741	74.56
304.971	92.56
305.201	94.56
305.431	92.56
305.661	83.56
305.891	82.56
306.121	96.56
306.352	93.56
306.582	113.56
306.812	95.56
307.042	96.56
307.272	88.56
307.502	95.56
307.731	98.56
307.961	100.56
308.191	93.56
308.421	97.56
308.651	85.56
308.881	95.56
309.111	93.56
309.341	97.56
309.571	106.56
309.8	97.56
310.03	94.56
310.26	92.56
310.49	97.56
310.72	98.56
310.949	107.56
311.179	113.56
311.409	93.56
311.639	94.56
311.868	94.56
312.098	96.56
312.328	103.56
312.557	95.56
312.787	111.56
313.017	86.56
313.246	84.56
313.476	96.56
313.706	76.56
313.935	95.56
314.165	99.56
314.394	109.56
314.624	85.56
314.853	105.56
315.083	91.56
315.312	89.56
315.542	83.56
315.771	85.56
316.001	89.56
316.23	94.56
316.46	92.56
316.689	100.56
316.919	86.56
317.148	100.56
317.377	107.56
317.607	95.56
317.836	95.56
318.065	93.56
318.295	80.56
318.524	78.56
318.753	83.56
318.983	92.56
319.212	121.56
319.441	106.56
319.67	99.56
319.9	108.56
320.129	96.56
320.358	98.56
320.587	100.56
320.816	124.56
321.046	111.56
321.275	98.56
321.504	107.56
321.733	99.56
321.962	101.56
322.191	110.56
322.42	111.56
322.649	93.56
322.878	111.56
323.108	103.56
323.337	105.56
323.566	139.56
323.795	139.56
324.024	181.56
324.253	346.56
324.482	717.56
324.71	1383.56
324.939	1781.56
325.168	701.56
325.397	226.56
325.626	151.56
325.855	124.56
326.084	126.56
326.313	130.56
326.542	136.56
326.77	197.56
326.999	376.56
327.228	716.56
327.457	1364.56
327.686	1081.56
327.914	332.56
328.143	183.56
328.372	173.56
328.6	130.56
328.829	112.56
329.058	127.56
329.287	129.56
329.515	114.56
329.744	110.56
329.972	114.56
330.201	136.56
330.43	147.56
330.658	135.56
330.887	149.56
331.115	124.56
331.344	116.56
331.572	101.56
331.801	101.56
332.03	111.56
332.258	98.56
332.486	83.56
332.715	97.56
332.943	84.56
333.172	95.56
333.4	98.56
333.629	112.56
333.857	102.56
334.085	113.56
334.314	129.56
334.542	150.56
334.771	149.56
334.999	116.56
335.227	101.56
335.455	95.56
335.684	99.56
335.912	94.56
336.14	97.56
336.369	94.56
336.597	98.56
336.825	96.56
337.053	87.56
337.281	87.56
337.51	91.56
337.738	109.56
337.966	88.56
338.194	89.56
338.422	95.56
338.65	99.56
338.878	88.56
339.106	90.56
339.334	95.56
339.562	79.56
339.79	88.56
340.018	94.56
340.246	91.56
340.474	91.56
340.702	99.56
340.93	91.56
341.158	103.56
341.386	97.56
341.614	85.56
341.842	92.56
342.07	87.56
342.298	73.56
342.526	95.56
342.754	81.56
342.981	87.56
343.209	97.56
343.437	110.56
343.665	94.56
343.893	94.56
344.12	95.56
344.348	90.56
344.576	93.56
344.804	97.56
345.031	103.56
345.259	98.56
345.487	98.56
345.714	96.56
345.942	97.56
346.17	100.56
346.397	83.56
346.625	87.56
346.853	97.56
347.08	94.56
347.308	98.56
347.535	96.56
347.763	98.56
347.99	92.56
348.218	100.56
348.445	81.56
348.673	98.56
348.9	100.56
349.128	89.56
349.355	92.56
349.583	113.56
349.81	93.56
350.037	99.56
350.265	96.56
350.492	87.56
350.72	90.56
350.947	91.56
351.174	104.56
351.402	111.56
351.629	112.56
351.856	106.56
352.083	83.56
352.311	101.56
352.538	103.56
352.765	105.56
352.992	113.56
353.22	121.56
353.447	105.56
353.674	100.56
353.901	99.56
354.128	91.56
354.355	90.56
354.583	100.56
354.81	98.56
355.037	108.56
355.264	91.56
355.491	97.56
355.718	94.56
355.945	82.56
356.172	71.56
356.399	92.56
356.626	93.56
356.853	105.56
357.08	93.56
357.307	99.56
357.534	93.56
357.761	101.56
357.988	93.56
358.215	95.56
358.441	98.56
358.668	99.56
358.895	99.56
359.122	84.56
359.349	96.56
359.576	90.56
359.802	89.56
360.029	97.56
360.256	116.56
360.483	97.56
360.709	96.56
360.936	103.56
361.163	97.56
361.39	92.56
361.616	96.56
361.843	92.56
362.07	93.56
362.296	96.56
362.523	97.56
362.749	96.56
362.976	94.56
363.203	106.56
363.429	89.56
363.656	103.56
363.882	97.56
364.109	96.56
364.335	96.56
364.562	105.56
364.788	83.56
365.015	97.56
365.241	81.56
365.468	90.56
365.694	107.56
365.92	92.56
366.147	87.56
366.373	98.56
366.599	91.56
366.826	78.56
367.052	79.56
367.278	96.56
367.505	89.56
367.731	89.56
367.957	91.56
368.184	96.56
368.41	96.56
368.636	124.56
368.862	99.56
369.089	115.56
369.315	94.56
369.541	92.56
369.767	91.56
369.993	94.56
370.219	89.56
370.445	94.56
370.672	87.56
370.898	81.56
371.124	92.56
371.35	91.56
371.576	90.56
371.802	108.56
372.028	78.56
372.254	74.56
372.48	101.56
372.706	88.56
372.932	98.56
373.158	90.56
373.384	99.56
373.61	102.56
373.835	85.56
374.061	82.56
374.287	93.56
374.513	89.56
374.739	84.56
374.965	106.56
375.191	91.56
375.416	90.56
375.642	101.56
375.868	81.56
376.094	93.56
376.319	95.56
376.545	93.56
376.771	81.56
376.997	73.56
377.222	93.56
377.448	99.56
377.674	108.56
377.899	96.56
378.125	82.56
378.35	82.56
378.576	95.56
378.802	100.56
379.027	99.56
379.253	98.56
379.478	93.56
379.704	102.56
379.929	98.56
380.155	96.56
380.38	85.56
380.606	96.56
380.831	99.56
381.057	94.56
381.282	97.56
381.507	91.56
381.733	88.56
381.958	94.56
382.184	102.56
382.409	104.56
382.634	105.56
382.86	110.56
383.085	96.56
383.31	94.56
383.535	97.56
383.761	98.56
383.986	95.56
384.211	98.56
384.436	100.56
384.662	94.56
384.887	104.56
385.112	111.56
385.337	97.56
385.562	101.56
385.787	107.56
386.013	110.56
386.238	113.56
386.463	106.56
386.688	111.56
386.913	108.56
387.138	114.56
387.363	95.56
387.588	103.56
387.813	109.56
388.038	116.56
388.263	115.56
388.488	129.56
388.713	93.56
388.938	97.56
389.163	99.56
389.387	95.56
389.612	91.56
389.837	108.56
390.062	81.56
390.287	94.56
390.512	98.56
390.736	86.56
390.961	88.56
391.186	96.56
391.411	93.56
391.636	87.56
391.86	86.56
392.085	87.56
392.31	89.56
392.534	92.56
392.759	85.56
392.984	101.56
393.208	103.56
393.433	100.56
393.658	90.56
393.882	84.56
394.107	81.56
394.331	82.56
394.556	77.56
394.78	85.56
395.005	105.56
395.229	99.56
395.454	82.56
395.678	89.56
395.903	85.56
396.127	95.56
396.352	79.56
396.576	85.56
396.801	90.56
397.025	86.56
397.249	83.56
397.474	95.56
397.698	83.56
397.922	77.56
398.147	100.56
398.371	91.56
398.595	101.56
398.82	78.56
399.044	89.56
399.268	82.56
399.492	79.56
399.717	82.56
399.941	87.56
400.165	100.56
400.389	77.56
400.613	98.56
400.837	85.56
401.062	92.56
401.286	83.56
401.51	79.56
401.734	93.56
401.958	97.56
402.182	138.56
402.406	151.56
402.63	136.56
402.854	101.56
403.078	80.56
403.302	83.56
403.526	87.56
403.75	91.56
403.974	86.56
404.198	105.56
404.422	97.56
404.645	74.56
404.869	81.56
405.093	99.56
405.317	89.56
405.541	89.56
405.765	93.56
405.988	94.56
406.212	157.56
406.436	249.56
406.66	148.56
406.883	100.56
407.107	75.56
407.331	89.56
407.555	99.56
407.778	95.56
408.002	86.56
408.226	94.56
408.449	98.56
408.673	96.56
408.896	89.56
409.12	86.56
409.344	95.56
409.567	95.56
409.791	81.56
410.014	71.56
410.238	91.56
410.461	80.56
410.685	91.56
410.908	105.56
411.132	87.56
411.355	95.56
411.578	83.56
411.802	92.56
412.025	99.56
412.249	87.56
412.472	95.56
412.695	100.56
412.919	98.56
413.142	90.56
413.365	79.56
413.589	83.56
413.812	94.56
414.035	89.56
414.258	81.56
414.482	91.56
414.705	85.56
414.928	88.56
415.151	91.56
415.374	89.56
415.597	70.56
415.821	92.56
416.044	100.56
416.267	86.56
416.49	103.56
416.713	78.56
416.936	90.56
417.159	94.56
417.382	92.56
417.605	95.56
417.828	106.56
418.051	97.56
418.274	95.56
418.497	80.56
418.72	93.56
418.943	96.56
419.166	88.56
419.389	88.56
419.611	98.56
419.834	97.56
420.057	94.56
420.28	82.56
420.503	92.56
420.726	83.56
420.948	87.56
421.171	92.56
421.394	85.56
421.617	85.56
421.839	83.56
422.062	79.56
422.285	83.56
422.507	95.56
422.73	105.56
422.953	107.56
423.175	93.56
423.398	100.56
423.621	89.56
423.843	78.56
424.066	81.56
424.288	99.56
424.511	87.56
424.733	85.56
424.956	95.56
425.178	92.56
425.401	105.56
425.623	97.56
425.846	89.56
426.068	70.56
426.291	91.56
426.513	86.56
426.735	80.56
426.958	87.56
427.18	100.56
427.402	121.56
427.625	155.56
427.847	139.56
428.069	125.56
428.292	90.56
428.514	84.56
428.736	98.56
428.958	92.56
429.181	95.56
429.403	94.56
429.625	82.56
429.847	82.56
430.069	92.56
430.292	103.56
430.514	92.56
430.736	73.56
430.958	92.56
431.18	87.56
431.402	73.56
431.624	92.56
431.846	91.56
432.068	85.56
432.29	100.56
432.512	92.56
432.734	107.56
432.956	86.56
433.178	91.56
433.4	92.56
433.622	95.56
433.844	94.56
434.066	82.56
434.287	88.56
434.509	93.56
434.731	81.56
434.953	90.56
435.175	89.56
435.397	88.56
435.618	96.56
435.84	97.56
436.062	120.56
436.284	112.56
436.505	105.56
436.727	109.56
436.949	94.56
437.17	85.56
437.392	101.56
437.614	88.56
437.835	101.56
438.057	103.56
438.278	93.56
438.5	93.56
438.721	108.56
438.943	100.56
439.165	77.56
439.386	83.56
439.608	83.56
439.829	99.56
440.05	118.56
440.272	124.56
440.493	93.56
440.715	95.56
440.936	86.56
441.158	84.56
441.379	82.56
441.6	87.56
441.822	95.56
442.043	96.56
442.264	85.56
442.486	98.56
442.707	98.56
442.928	98.56
443.149	117.56
443.371	131.56
443.592	104.56
443.813	99.56
444.034	95.56
444.255	95.56
444.476	96.56
444.698	89.56
444.919	81.56
445.14	140.56
445.361	113.56
445.582	93.56
445.803	111.56
446.024	126.56
446.245	106.56
446.466	84.56
446.687	95.56
446.908	89.56
447.129	72.56
447.35	102.56
447.571	97.56
447.792	86.56
448.013	107.56
448.234	110.56
448.455	99.56
448.675	93.56
448.896	110.56
449.117	94.56
449.338	99.56
449.559	92.56
449.779	110.56
450	94.56
450.221	78.56
450.442	96.56
450.662	97.56
450.883	116.56
451.104	112.56
451.324	86.56
451.545	85.56
451.766	93.56
451.986	81.56
452.207	85.56
452.428	98.56
452.648	85.56
452.869	104.56
453.089	107.56
453.31	112.56
453.53	87.56
453.751	81.56
453.971	106.56
454.192	106.56
454.412	84.56
454.633	90.56
454.853	84.56
455.073	89.56
455.294	75.56
455.514	93.56
455.734	90.56
455.955	89.56
456.175	91.56
456.395	83.56
456.616	105.56
456.836	79.56
457.056	90.56
457.276	96.56
457.497	95.56
457.717	87.56
457.937	87.56
458.157	86.56
458.377	88.56
458.598	86.56
458.818	145.56
459.038	156.56
459.258	107.56
459.478	91.56
459.698	83.56
459.918	80.56
460.138	87.56
460.358	88.56
460.578	82.56
460.798	86.56
461.018	99.56
461.238	91.56
461.458	80.56
461.678	82.56
461.898	89.56
462.118	84.56
462.338	83.56
462.558	96.56
462.777	80.56
462.997	89.56
463.217	73.56
463.437	80.56
463.657	94.56
463.876	83.56
464.096	105.56
464.316	96.56
464.536	88.56
464.755	99.56
464.975	112.56
465.195	153.56
465.414	163.56
465.634	91.56
465.854	85.56
466.073	90.56
466.293	86.56
466.512	82.56
466.732	82.56
466.951	72.56
467.171	84.56
467.391	89.56
467.61	109.56
467.829	103.56
468.049	101.56
468.268	117.56
468.488	88.56
468.707	75.56
468.927	97.56
469.146	75.56
469.365	76.56
469.585	88.56
469.804	97.56
470.023	106.56
470.243	82.56
470.462	94.56
470.681	115.56
470.901	90.56
471.12	92.56
471.339	79.56
471.558	85.56
471.777	78.56
471.997	91.56
472.216	137.56
472.435	181.56
472.654	119.56
472.873	92.56
473.092	75.56
473.311	92.56
473.53	83.56
473.749	99.56
473.968	90.56
474.187	95.56
474.406	101.56
474.625	83.56
474.844	88.56
475.063	87.56
475.282	79.56
475.501	86.56
475.72	81.56
475.939	77.56
476.158	96.56
476.377	82.56
476.596	85.56
476.814	100.56
477.033	88.56
477.252	97.56
477.471	94.56
477.69	100.56
477.908	101.56
478.127	90.56
478.346	84.56
478.564	82.56
478.783	96.56
479.002	97.56
479.22	101.56
479.439	85.56
479.658	95.56
479.876	86.56
480.095	86.56
480.313	98.56
480.532	106.56
480.751	101.56
480.969	135.56
481.188	255.56
481.406	180.56
481.624	100.56
481.843	108.56
482.061	94.56
482.28	82.56
482.498	76.56
482.717	85.56
482.935	91.56
483.153	87.56
483.372	90.56
483.59	90.56
483.808	92.56
484.027	87.56
484.245	92.56
484.463	95.56
484.681	79.56
484.9	84.56
485.118	95.56
485.336	90.56
485.554	105.56
485.772	93.56
485.99	92.56
486.209	104.56
486.427	100.56
486.645	97.56
486.863	105.56
487.081	109.56
487.299	93.56
487.517	102.56
487.735	91.56
487.953	98.56
488.171	82.56
488.389	91.56
488.607	91.56
488.825	89.56
489.043	80.56
489.261	76.56
489.479	92.56
489.696	100.56
489.914	94.56
490.132	84.56
490.35	82.56
490.568	81.56
490.786	84.56
491.003	94.56
491.221	87.56
491.439	81.56
491.657	91.56
491.874	104.56
492.092	85.56
492.31	88.56
492.527	78.56
492.745	93.56
492.963	96.56
493.18	107.56
493.398	100.56
493.615	106.56
493.833	78.56
494.05	82.56
494.268	77.56
494.485	100.56
494.703	91.56
494.92	97.56
495.138	94.56
495.355	95.56
495.573	111.56
495.79	92.56
496.008	89.56
496.225	90.56
496.442	81.56
496.66	91.56
496.877	85.56
497.094	101.56
497.312	91.56
497.529	94.56
497.746	84.56
497.963	77.56
498.181	98.56
498.398	91.56
498.615	89.56
498.832	105.56
499.049	93.56
499.267	93.56
499.484	89.56
499.701	82.56
499.918	92.56
500.135	85.56
500.352	99.56
500.569	74.56
500.786	98.56
501.003	94.56
501.22	82.56
501.437	101.56
501.654	89.56
501.871	113.56
502.088	106.56
502.305	111.56
502.522	100.56
502.739	93.56
502.956	93.56
503.172	89.56
503.389	91.56
503.606	109.56
503.823	92.56
504.04	92.56
504.256	92.56
504.473	92.56
504.69	95.56
504.907	97.56
505.123	89.56
505.34	86.56
505.557	87.56
505.773	96.56
505.99	96.56
506.207	85.56
506.423	104.56
506.64	88.56
506.856	85.56
507.073	91.56
507.289	96.56
507.506	101.56
507.722	107.56
507.939	114.56
508.155	101.56
508.372	104.56
508.588	107.56
508.805	85.56
509.021	102.56
509.238	104.56
509.454	96.56
509.67	104.56
509.887	107.56
510.103	125.56
510.319	218.56
510.536	826.56
510.752	2765.56
510.968	771.56
511.184	167.56
511.401	125.56
511.617	102.56
511.833	91.56
512.049	97.56
512.265	88.56
512.481	91.56
512.698	83.56
512.914	79.56
513.13	91.56
513.346	95.56
513.562	90.56
513.778	92.56
513.994	98.56
514.21	110.56
514.426	133.56
514.642	133.56
514.858	132.56
515.074	152.56
515.29	492.56
515.506	1665.56
515.721	598.56
