Data from Circ_2008_H10_HRD10591_00076.txt Node
Date: Wed Jan 03 10:17:11 EST 2024
User: Yrep
Spectrometer: HR+D1059
Trigger mode: 1
Integration Time (sec): 1.000000E-1
Scans to average: 1
Electric dark correction enabled: true
Nonlinearity correction enabled: false
Boxcar width: 0
XAxis mode: Wavelengths
Number of Pixels in Spectrum: 2048
>>>>>Begin Spectral Data<<<<<
223.165	-14.12
223.4	-14.12
223.635	-14.12
223.869	-15.12
224.104	-20.12
224.338	-11.12
224.573	-17.12
224.808	-2.12
225.042	-10.12
225.277	-14.12
225.511	-13.12
225.746	5.88
225.98	1.88
226.215	14.88
226.449	15.88
226.683	16.88
226.918	34.88
227.152	26.88
227.387	24.88
227.621	35.88
227.856	44.88
228.09	45.88
228.324	35.88
228.559	55.88
228.793	53.88
229.027	59.88
229.262	60.88
229.496	65.88
229.73	74.88
229.964	75.88
230.199	62.88
230.433	77.88
230.667	92.88
230.901	72.88
231.136	74.88
231.37	71.88
231.604	76.88
231.838	78.88
232.072	92.88
232.306	75.88
232.541	83.88
232.775	92.88
233.009	90.88
233.243	78.88
233.477	73.88
233.711	78.88
233.945	86.88
234.179	76.88
234.413	104.88
234.647	90.88
234.881	64.88
235.115	79.88
235.349	85.88
235.583	78.88
235.817	78.88
236.051	79.88
236.285	77.88
236.519	71.88
236.753	92.88
236.987	87.88
237.221	83.88
237.455	83.88
237.689	74.88
237.922	82.88
238.156	81.88
238.39	92.88
238.624	81.88
238.858	74.88
239.091	83.88
239.325	85.88
239.559	70.88
239.793	75.88
240.027	74.88
240.26	73.88
240.494	74.88
240.728	70.88
240.961	80.88
241.195	72.88
241.429	84.88
241.662	78.88
241.896	67.88
242.13	70.88
242.363	78.88
242.597	63.88
242.83	71.88
243.064	64.88
243.298	94.88
243.531	68.88
243.765	69.88
243.998	82.88
244.232	87.88
244.465	79.88
244.699	76.88
244.932	98.88
245.166	75.88
245.399	80.88
245.633	75.88
245.866	82.88
246.099	78.88
246.333	69.88
246.566	80.88
246.8	73.88
247.033	72.88
247.266	63.88
247.5	73.88
247.733	70.88
247.966	76.88
248.2	78.88
248.433	87.88
248.666	73.88
248.899	72.88
249.133	71.88
249.366	89.88
249.599	78.88
249.832	76.88
250.066	79.88
250.299	86.88
250.532	77.88
250.765	88.88
250.998	69.88
251.231	79.88
251.465	89.88
251.698	88.88
251.931	69.88
252.164	81.88
252.397	83.88
252.63	79.88
252.863	71.88
253.096	85.88
253.329	85.88
253.562	83.88
253.795	71.88
254.028	87.88
254.261	79.88
254.494	88.88
254.727	84.88
254.96	82.88
255.193	81.88
255.426	71.88
255.659	66.88
255.892	91.88
256.124	78.88
256.357	79.88
256.59	87.88
256.823	88.88
257.056	67.88
257.289	92.88
257.521	73.88
257.754	86.88
257.987	86.88
258.22	81.88
258.452	89.88
258.685	75.88
258.918	82.88
259.151	97.88
259.383	87.88
259.616	84.88
259.849	80.88
260.081	83.88
260.314	94.88
260.547	87.88
260.779	86.88
261.012	102.88
261.244	94.88
261.477	93.88
261.71	82.88
261.942	97.88
262.175	107.88
262.407	74.88
262.64	92.88
262.872	79.88
263.105	101.88
263.337	88.88
263.57	85.88
263.802	86.88
264.035	83.88
264.267	77.88
264.499	97.88
264.732	85.88
264.964	71.88
265.197	83.88
265.429	77.88
265.661	90.88
265.894	83.88
266.126	82.88
266.358	75.88
266.591	79.88
266.823	80.88
267.055	73.88
267.287	80.88
267.52	93.88
267.752	85.88
267.984	91.88
268.216	82.88
268.448	91.88
268.681	90.88
268.913	88.88
269.145	99.88
269.377	77.88
269.609	87.88
269.841	78.88
270.073	85.88
270.306	88.88
270.538	78.88
270.77	84.88
271.002	97.88
271.234	80.88
271.466	82.88
271.698	83.88
271.93	81.88
272.162	89.88
272.394	80.88
272.626	80.88
272.858	91.88
273.09	94.88
273.322	92.88
273.553	83.88
273.785	88.88
274.017	93.88
274.249	77.88
274.481	84.88
274.713	78.88
274.945	88.88
275.176	83.88
275.408	85.88
275.64	81.88
275.872	89.88
276.104	85.88
276.335	77.88
276.567	94.88
276.799	102.88
277.031	97.88
277.262	104.88
277.494	82.88
277.726	73.88
277.957	77.88
278.189	85.88
278.421	95.88
278.652	84.88
278.884	81.88
279.115	86.88
279.347	88.88
279.579	96.88
279.81	84.88
280.042	82.88
280.273	105.88
280.505	99.88
280.736	89.88
280.968	80.88
281.199	82.88
281.431	75.88
281.662	82.88
281.894	81.88
282.125	104.88
282.356	113.88
282.588	141.88
282.819	117.88
283.051	93.88
283.282	84.88
283.513	86.88
283.745	82.88
283.976	83.88
284.207	82.88
284.439	93.88
284.67	91.88
284.901	108.88
285.132	93.88
285.364	75.88
285.595	75.88
285.826	85.88
286.057	95.88
286.288	88.88
286.52	75.88
286.751	85.88
286.982	100.88
287.213	107.88
287.444	89.88
287.675	87.88
287.906	77.88
288.138	74.88
288.369	87.88
288.6	77.88
288.831	87.88
289.062	91.88
289.293	82.88
289.524	70.88
289.755	89.88
289.986	86.88
290.217	90.88
290.448	85.88
290.679	81.88
290.91	85.88
291.141	79.88
291.371	75.88
291.602	88.88
291.833	69.88
292.064	86.88
292.295	80.88
292.526	87.88
292.757	95.88
292.987	85.88
293.218	82.88
293.449	81.88
293.68	84.88
293.91	78.88
294.141	88.88
294.372	91.88
294.603	74.88
294.833	90.88
295.064	102.88
295.295	97.88
295.525	105.88
295.756	100.88
295.987	103.88
296.217	146.88
296.448	123.88
296.679	98.88
296.909	103.88
297.14	89.88
297.37	83.88
297.601	74.88
297.831	88.88
298.062	95.88
298.292	94.88
298.523	82.88
298.753	96.88
298.984	83.88
299.214	82.88
299.445	86.88
299.675	91.88
299.905	93.88
300.136	87.88
300.366	76.88
300.597	89.88
300.827	75.88
301.057	96.88
301.288	93.88
301.518	98.88
301.748	93.88
301.979	82.88
302.209	101.88
302.439	77.88
302.669	86.88
302.9	95.88
303.13	91.88
303.36	93.88
303.59	97.88
303.82	118.88
304.051	92.88
304.281	92.88
304.511	95.88
304.741	85.88
304.971	91.88
305.201	83.88
305.431	96.88
305.661	86.88
305.891	105.88
306.121	104.88
306.352	104.88
306.582	93.88
306.812	81.88
307.042	98.88
307.272	101.88
307.502	97.88
307.731	101.88
307.961	98.88
308.191	111.88
308.421	90.88
308.651	89.88
308.881	97.88
309.111	102.88
309.341	84.88
309.571	96.88
309.8	104.88
310.03	90.88
310.26	103.88
310.49	101.88
310.72	107.88
310.949	89.88
311.179	98.88
311.409	105.88
311.639	101.88
311.868	85.88
312.098	95.88
312.328	93.88
312.557	110.88
312.787	102.88
313.017	103.88
313.246	87.88
313.476	98.88
313.706	93.88
313.935	95.88
314.165	83.88
314.394	96.88
314.624	99.88
314.853	106.88
315.083	86.88
315.312	93.88
315.542	89.88
315.771	91.88
316.001	90.88
316.23	89.88
316.46	81.88
316.689	78.88
316.919	105.88
317.148	101.88
317.377	98.88
317.607	102.88
317.836	85.88
318.065	77.88
318.295	86.88
318.524	112.88
318.753	87.88
318.983	86.88
319.212	102.88
319.441	105.88
319.67	107.88
319.9	110.88
320.129	99.88
320.358	103.88
320.587	93.88
320.816	94.88
321.046	101.88
321.275	94.88
321.504	88.88
321.733	102.88
321.962	91.88
322.191	104.88
322.42	101.88
322.649	116.88
322.878	117.88
323.108	114.88
323.337	119.88
323.566	124.88
323.795	146.88
324.024	182.88
324.253	345.88
324.482	689.88
324.71	1382.88
324.939	1785.88
325.168	690.88
325.397	209.88
325.626	130.88
325.855	129.88
326.084	118.88
326.313	109.88
326.542	143.88
326.77	201.88
326.999	382.88
327.228	762.88
327.457	1325.88
327.686	1084.88
327.914	333.88
328.143	205.88
328.372	173.88
328.6	136.88
328.829	117.88
329.058	129.88
329.287	105.88
329.515	107.88
329.744	104.88
329.972	136.88
330.201	152.88
330.43	198.88
330.658	139.88
330.887	127.88
331.115	112.88
331.344	96.88
331.572	114.88
331.801	90.88
332.03	94.88
332.258	103.88
332.486	93.88
332.715	93.88
332.943	88.88
333.172	101.88
333.4	107.88
333.629	117.88
333.857	113.88
334.085	125.88
334.314	162.88
334.542	224.88
334.771	222.88
334.999	121.88
335.227	105.88
335.455	93.88
335.684	90.88
335.912	108.88
336.14	106.88
336.369	92.88
336.597	104.88
336.825	98.88
337.053	95.88
337.281	84.88
337.51	94.88
337.738	83.88
337.966	85.88
338.194	97.88
338.422	88.88
338.65	83.88
338.878	99.88
339.106	83.88
339.334	114.88
339.562	87.88
339.79	73.88
340.018	99.88
340.246	100.88
340.474	97.88
340.702	100.88
340.93	86.88
341.158	80.88
341.386	89.88
341.614	112.88
341.842	97.88
342.07	78.88
342.298	100.88
342.526	88.88
342.754	85.88
342.981	83.88
343.209	90.88
343.437	90.88
343.665	79.88
343.893	83.88
344.12	96.88
344.348	106.88
344.576	82.88
344.804	103.88
345.031	90.88
345.259	86.88
345.487	91.88
345.714	88.88
345.942	101.88
346.17	104.88
346.397	84.88
346.625	83.88
346.853	94.88
347.08	87.88
347.308	111.88
347.535	86.88
347.763	103.88
347.99	98.88
348.218	83.88
348.445	102.88
348.673	100.88
348.9	96.88
349.128	101.88
349.355	91.88
349.583	100.88
349.81	83.88
350.037	89.88
350.265	82.88
350.492	99.88
350.72	89.88
350.947	94.88
351.174	117.88
351.402	111.88
351.629	95.88
351.856	103.88
352.083	100.88
352.311	107.88
352.538	110.88
352.765	106.88
352.992	104.88
353.22	97.88
353.447	100.88
353.674	109.88
353.901	100.88
354.128	97.88
354.355	90.88
354.583	89.88
354.81	97.88
355.037	105.88
355.264	87.88
355.491	91.88
355.718	88.88
355.945	74.88
356.172	86.88
356.399	93.88
356.626	90.88
356.853	66.88
357.08	89.88
357.307	82.88
357.534	90.88
357.761	88.88
357.988	84.88
358.215	96.88
358.441	91.88
358.668	105.88
358.895	91.88
359.122	71.88
359.349	80.88
359.576	101.88
359.802	105.88
360.029	102.88
360.256	111.88
360.483	92.88
360.709	90.88
360.936	92.88
361.163	103.88
361.39	96.88
361.616	94.88
361.843	89.88
362.07	86.88
362.296	90.88
362.523	90.88
362.749	77.88
362.976	82.88
363.203	83.88
363.429	109.88
363.656	89.88
363.882	80.88
364.109	101.88
364.335	100.88
364.562	96.88
364.788	88.88
365.015	94.88
365.241	79.88
365.468	98.88
365.694	103.88
365.92	93.88
366.147	95.88
366.373	97.88
366.599	101.88
366.826	96.88
367.052	90.88
367.278	92.88
367.505	83.88
367.731	73.88
367.957	92.88
368.184	84.88
368.41	87.88
368.636	111.88
368.862	110.88
369.089	97.88
369.315	97.88
369.541	88.88
369.767	87.88
369.993	91.88
370.219	105.88
370.445	100.88
370.672	93.88
370.898	92.88
371.124	88.88
371.35	90.88
371.576	89.88
371.802	104.88
372.028	83.88
372.254	79.88
372.48	80.88
372.706	81.88
372.932	88.88
373.158	82.88
373.384	73.88
373.61	99.88
373.835	99.88
374.061	81.88
374.287	94.88
374.513	83.88
374.739	89.88
374.965	85.88
375.191	89.88
375.416	85.88
375.642	82.88
375.868	91.88
376.094	94.88
376.319	97.88
376.545	89.88
376.771	92.88
376.997	91.88
377.222	81.88
377.448	90.88
377.674	86.88
377.899	73.88
378.125	82.88
378.35	97.88
378.576	90.88
378.802	97.88
379.027	110.88
379.253	93.88
379.478	93.88
379.704	106.88
379.929	93.88
380.155	90.88
380.38	93.88
380.606	93.88
380.831	101.88
381.057	104.88
381.282	97.88
381.507	86.88
381.733	92.88
381.958	92.88
382.184	65.88
382.409	98.88
382.634	95.88
382.86	95.88
383.085	106.88
383.31	93.88
383.535	93.88
383.761	105.88
383.986	89.88
384.211	82.88
384.436	101.88
384.662	97.88
384.887	112.88
385.112	101.88
385.337	93.88
385.562	107.88
385.787	96.88
386.013	98.88
386.238	109.88
386.463	118.88
386.688	101.88
386.913	101.88
387.138	89.88
387.363	102.88
387.588	98.88
387.813	101.88
388.038	100.88
388.263	107.88
388.488	107.88
388.713	83.88
388.938	102.88
389.163	94.88
389.387	106.88
389.612	80.88
389.837	104.88
390.062	101.88
390.287	89.88
390.512	97.88
390.736	91.88
390.961	87.88
391.186	108.88
391.411	89.88
391.636	79.88
391.86	76.88
392.085	74.88
392.31	93.88
392.534	82.88
392.759	77.88
392.984	79.88
393.208	90.88
393.433	88.88
393.658	95.88
393.882	81.88
394.107	80.88
394.331	86.88
394.556	93.88
394.78	90.88
395.005	89.88
395.229	93.88
395.454	96.88
395.678	83.88
395.903	94.88
396.127	96.88
396.352	91.88
396.576	88.88
396.801	90.88
397.025	85.88
397.249	71.88
397.474	88.88
397.698	87.88
397.922	81.88
398.147	82.88
398.371	94.88
398.595	79.88
398.82	80.88
399.044	95.88
399.268	97.88
399.492	90.88
399.717	66.88
399.941	93.88
400.165	72.88
400.389	86.88
400.613	89.88
400.837	89.88
401.062	82.88
401.286	79.88
401.51	82.88
401.734	86.88
401.958	102.88
402.182	118.88
402.406	157.88
402.63	137.88
402.854	93.88
403.078	93.88
403.302	80.88
403.526	94.88
403.75	67.88
403.974	84.88
404.198	94.88
404.422	81.88
404.645	94.88
404.869	74.88
405.093	98.88
405.317	100.88
405.541	92.88
405.765	90.88
405.988	110.88
406.212	168.88
406.436	235.88
406.66	129.88
406.883	90.88
407.107	87.88
407.331	105.88
407.555	105.88
407.778	88.88
408.002	98.88
408.226	92.88
408.449	86.88
408.673	96.88
408.896	87.88
409.12	107.88
409.344	93.88
409.567	93.88
409.791	79.88
410.014	103.88
410.238	92.88
410.461	83.88
410.685	94.88
410.908	94.88
411.132	93.88
411.355	98.88
411.578	101.88
411.802	89.88
412.025	92.88
412.249	75.88
412.472	88.88
412.695	86.88
412.919	75.88
413.142	81.88
413.365	79.88
413.589	90.88
413.812	89.88
414.035	97.88
414.258	105.88
414.482	98.88
414.705	79.88
414.928	94.88
415.151	77.88
415.374	85.88
415.597	82.88
415.821	96.88
416.044	94.88
416.267	86.88
416.49	83.88
416.713	74.88
416.936	82.88
417.159	91.88
417.382	91.88
417.605	81.88
417.828	94.88
418.051	104.88
418.274	91.88
418.497	83.88
418.72	95.88
418.943	84.88
419.166	92.88
419.389	87.88
419.611	92.88
419.834	81.88
420.057	82.88
420.28	70.88
420.503	87.88
420.726	81.88
420.948	88.88
421.171	99.88
421.394	87.88
421.617	98.88
421.839	98.88
422.062	96.88
422.285	97.88
422.507	92.88
422.73	88.88
422.953	108.88
423.175	69.88
423.398	83.88
423.621	91.88
423.843	93.88
424.066	94.88
424.288	73.88
424.511	82.88
424.733	85.88
424.956	112.88
425.178	95.88
425.401	94.88
425.623	82.88
425.846	96.88
426.068	103.88
426.291	86.88
426.513	91.88
426.735	107.88
426.958	89.88
427.18	91.88
427.402	132.88
427.625	157.88
427.847	152.88
428.069	113.88
428.292	88.88
428.514	82.88
428.736	89.88
428.958	81.88
429.181	96.88
429.403	89.88
429.625	95.88
429.847	82.88
430.069	89.88
430.292	81.88
430.514	89.88
430.736	81.88
430.958	81.88
431.18	78.88
431.402	87.88
431.624	90.88
431.846	71.88
432.068	88.88
432.29	74.88
432.512	96.88
432.734	81.88
432.956	89.88
433.178	98.88
433.4	86.88
433.622	89.88
433.844	80.88
434.066	86.88
434.287	96.88
434.509	98.88
434.731	88.88
434.953	94.88
435.175	81.88
435.397	77.88
435.618	98.88
435.84	89.88
436.062	92.88
436.284	106.88
436.505	83.88
436.727	100.88
436.949	98.88
437.17	77.88
437.392	82.88
437.614	97.88
437.835	105.88
438.057	113.88
438.278	81.88
438.5	97.88
438.721	106.88
438.943	104.88
439.165	75.88
439.386	81.88
439.608	79.88
439.829	98.88
440.05	104.88
440.272	136.88
440.493	101.88
440.715	95.88
440.936	81.88
441.158	79.88
441.379	92.88
441.6	87.88
441.822	92.88
442.043	92.88
442.264	99.88
442.486	100.88
442.707	82.88
442.928	103.88
443.149	137.88
443.371	129.88
443.592	105.88
443.813	91.88
444.034	93.88
444.255	97.88
444.476	87.88
444.698	93.88
444.919	93.88
445.14	119.88
445.361	136.88
445.582	109.88
445.803	123.88
446.024	119.88
446.245	105.88
446.466	91.88
446.687	91.88
446.908	82.88
447.129	105.88
447.35	93.88
447.571	83.88
447.792	99.88
448.013	92.88
448.234	96.88
448.455	89.88
448.675	109.88
448.896	108.88
449.117	94.88
449.338	101.88
449.559	130.88
449.779	122.88
450	98.88
450.221	85.88
450.442	92.88
450.662	91.88
450.883	102.88
451.104	99.88
451.324	97.88
451.545	81.88
451.766	76.88
451.986	73.88
452.207	99.88
452.428	85.88
452.648	101.88
452.869	109.88
453.089	120.88
453.31	106.88
453.53	99.88
453.751	99.88
453.971	81.88
454.192	104.88
454.412	105.88
454.633	85.88
454.853	86.88
455.073	95.88
455.294	89.88
455.514	90.88
455.734	100.88
455.955	88.88
456.175	90.88
456.395	83.88
456.616	75.88
456.836	90.88
457.056	91.88
457.276	85.88
457.497	82.88
457.717	71.88
457.937	81.88
458.157	79.88
458.377	93.88
458.598	112.88
458.818	148.88
459.038	145.88
459.258	109.88
459.478	85.88
459.698	80.88
459.918	85.88
460.138	82.88
460.358	86.88
460.578	86.88
460.798	86.88
461.018	94.88
461.238	86.88
461.458	76.88
461.678	76.88
461.898	75.88
462.118	75.88
462.338	89.88
462.558	87.88
462.777	73.88
462.997	94.88
463.217	95.88
463.437	84.88
463.657	83.88
463.876	94.88
464.096	74.88
464.316	83.88
464.536	77.88
464.755	87.88
464.975	110.88
465.195	166.88
465.414	142.88
465.634	94.88
465.854	105.88
466.073	87.88
466.293	89.88
466.512	94.88
466.732	83.88
466.951	82.88
467.171	78.88
467.391	85.88
467.61	106.88
467.829	104.88
468.049	119.88
468.268	139.88
468.488	86.88
468.707	83.88
468.927	79.88
469.146	82.88
469.365	89.88
469.585	77.88
469.804	86.88
470.023	72.88
470.243	92.88
470.462	105.88
470.681	114.88
470.901	100.88
471.12	86.88
471.339	82.88
471.558	94.88
471.777	94.88
471.997	107.88
472.216	184.88
472.435	309.88
472.654	123.88
472.873	76.88
473.092	75.88
473.311	73.88
473.53	84.88
473.749	87.88
473.968	96.88
474.187	104.88
474.406	123.88
474.625	96.88
474.844	83.88
475.063	88.88
475.282	89.88
475.501	91.88
475.72	94.88
475.939	83.88
476.158	89.88
476.377	87.88
476.596	81.88
476.814	100.88
477.033	104.88
477.252	75.88
477.471	80.88
477.69	98.88
477.908	78.88
478.127	78.88
478.346	85.88
478.564	90.88
478.783	88.88
479.002	92.88
479.22	98.88
479.439	92.88
479.658	90.88
479.876	102.88
480.095	95.88
480.313	78.88
480.532	101.88
480.751	104.88
480.969	189.88
481.188	467.88
481.406	321.88
481.624	108.88
481.843	74.88
482.061	91.88
482.28	92.88
482.498	96.88
482.717	95.88
482.935	99.88
483.153	96.88
483.372	89.88
483.59	93.88
483.808	84.88
484.027	84.88
484.245	96.88
484.463	82.88
484.681	82.88
484.9	98.88
485.118	89.88
485.336	88.88
485.554	86.88
485.772	92.88
485.99	87.88
486.209	98.88
486.427	102.88
486.645	96.88
486.863	91.88
487.081	100.88
487.299	100.88
487.517	89.88
487.735	89.88
487.953	83.88
488.171	69.88
488.389	85.88
488.607	92.88
488.825	94.88
489.043	99.88
489.261	76.88
489.479	91.88
489.696	83.88
489.914	91.88
490.132	76.88
490.35	81.88
490.568	81.88
490.786	75.88
491.003	90.88
491.221	91.88
491.439	77.88
491.657	99.88
491.874	90.88
492.092	87.88
492.31	90.88
492.527	85.88
492.745	86.88
492.963	78.88
493.18	102.88
493.398	88.88
493.615	92.88
493.833	83.88
494.05	90.88
494.268	82.88
494.485	91.88
494.703	88.88
494.92	78.88
495.138	91.88
495.355	90.88
495.573	79.88
495.79	89.88
496.008	90.88
496.225	82.88
496.442	85.88
496.66	89.88
496.877	92.88
497.094	88.88
497.312	82.88
497.529	80.88
497.746	94.88
497.963	100.88
498.181	88.88
498.398	100.88
498.615	120.88
498.832	86.88
499.049	79.88
499.267	95.88
499.484	94.88
499.701	91.88
499.918	96.88
500.135	87.88
500.352	88.88
500.569	77.88
500.786	77.88
501.003	102.88
501.22	88.88
501.437	80.88
501.654	80.88
501.871	102.88
502.088	98.88
502.305	90.88
502.522	85.88
502.739	88.88
502.956	93.88
503.172	93.88
503.389	96.88
503.606	98.88
503.823	88.88
504.04	83.88
504.256	83.88
504.473	92.88
504.69	92.88
504.907	94.88
505.123	95.88
505.34	83.88
505.557	80.88
505.773	92.88
505.99	85.88
506.207	79.88
506.423	76.88
506.64	89.88
506.856	86.88
507.073	83.88
507.289	89.88
507.506	88.88
507.722	103.88
507.939	101.88
508.155	104.88
508.372	93.88
508.588	86.88
508.805	99.88
509.021	102.88
509.238	96.88
509.454	94.88
509.67	94.88
509.887	105.88
510.103	134.88
510.319	206.88
510.536	757.88
510.752	2441.88
510.968	689.88
511.184	166.88
511.401	105.88
511.617	105.88
511.833	86.88
512.049	79.88
512.265	98.88
512.481	108.88
512.698	105.88
512.914	86.88
513.13	104.88
513.346	86.88
513.562	76.88
513.778	93.88
513.994	94.88
514.21	90.88
514.426	111.88
514.642	144.88
514.858	131.88
515.074	177.88
515.29	457.88
515.506	1519.88
515.721	577.88
515.937	163.88
