Data from Circ_2008_H10_HRD10591_00016.txt Node
Date: Wed Jan 03 10:16:59 EST 2024
User: Yrep
Spectrometer: HR+D1059
Trigger mode: 1
Integration Time (sec): 1.000000E-1
Scans to average: 1
Electric dark correction enabled: true
Nonlinearity correction enabled: false
Boxcar width: 0
XAxis mode: Wavelengths
Number of Pixels in Spectrum: 2048
>>>>>Begin Spectral Data<<<<<
223.165	-21.56
223.4	-21.56
223.635	-21.56
223.869	-16.56
224.104	-25.56
224.338	-16.56
224.573	-16.56
224.808	-7.56
225.042	-6.56
225.277	-0.56
225.511	-1.56
225.746	4.44
225.98	-0.56
226.215	8.44
226.449	11.44
226.683	26.44
226.918	18.44
227.152	44.44
227.387	43.44
227.621	38.44
227.856	38.44
228.09	53.44
228.324	43.44
228.559	55.44
228.793	54.44
229.027	69.44
229.262	71.44
229.496	54.44
229.73	88.44
229.964	86.44
230.199	68.44
230.433	73.44
230.667	79.44
230.901	84.44
231.136	61.44
231.37	62.44
231.604	82.44
231.838	73.44
232.072	69.44
232.306	76.44
232.541	89.44
232.775	88.44
233.009	78.44
233.243	79.44
233.477	79.44
233.711	76.44
233.945	75.44
234.179	76.44
234.413	81.44
234.647	72.44
234.881	83.44
235.115	69.44
235.349	85.44
235.583	70.44
235.817	77.44
236.051	67.44
236.285	82.44
236.519	77.44
236.753	71.44
236.987	65.44
237.221	87.44
237.455	76.44
237.689	72.44
237.922	79.44
238.156	85.44
238.39	74.44
238.624	85.44
238.858	75.44
239.091	75.44
239.325	56.44
239.559	82.44
239.793	67.44
240.027	72.44
240.26	76.44
240.494	94.44
240.728	69.44
240.961	61.44
241.195	72.44
241.429	69.44
241.662	70.44
241.896	70.44
242.13	69.44
242.363	89.44
242.597	75.44
242.83	74.44
243.064	82.44
243.298	83.44
243.531	75.44
243.765	75.44
243.998	67.44
244.232	75.44
244.465	84.44
244.699	79.44
244.932	68.44
245.166	72.44
245.399	73.44
245.633	76.44
245.866	71.44
246.099	76.44
246.333	86.44
246.566	78.44
246.8	75.44
247.033	76.44
247.266	76.44
247.5	86.44
247.733	80.44
247.966	80.44
248.2	71.44
248.433	83.44
248.666	69.44
248.899	76.44
249.133	92.44
249.366	88.44
249.599	72.44
249.832	78.44
250.066	74.44
250.299	85.44
250.532	55.44
250.765	79.44
250.998	74.44
251.231	71.44
251.465	74.44
251.698	76.44
251.931	75.44
252.164	80.44
252.397	83.44
252.63	84.44
252.863	73.44
253.096	72.44
253.329	79.44
253.562	69.44
253.795	74.44
254.028	80.44
254.261	72.44
254.494	84.44
254.727	83.44
254.96	61.44
255.193	82.44
255.426	67.44
255.659	80.44
255.892	71.44
256.124	80.44
256.357	84.44
256.59	75.44
256.823	71.44
257.056	70.44
257.289	73.44
257.521	71.44
257.754	79.44
257.987	76.44
258.22	76.44
258.452	86.44
258.685	78.44
258.918	56.44
259.151	80.44
259.383	81.44
259.616	70.44
259.849	61.44
260.081	77.44
260.314	84.44
260.547	84.44
260.779	69.44
261.012	74.44
261.244	77.44
261.477	86.44
261.71	78.44
261.942	108.44
262.175	93.44
262.407	76.44
262.64	75.44
262.872	89.44
263.105	83.44
263.337	87.44
263.57	72.44
263.802	75.44
264.035	71.44
264.267	75.44
264.499	79.44
264.732	86.44
264.964	75.44
265.197	74.44
265.429	76.44
265.661	73.44
265.894	88.44
266.126	72.44
266.358	86.44
266.591	87.44
266.823	77.44
267.055	73.44
267.287	81.44
267.52	79.44
267.752	84.44
267.984	87.44
268.216	86.44
268.448	78.44
268.681	72.44
268.913	86.44
269.145	69.44
269.377	76.44
269.609	71.44
269.841	95.44
270.073	83.44
270.306	87.44
270.538	78.44
270.77	75.44
271.002	86.44
271.234	81.44
271.466	83.44
271.698	90.44
271.93	85.44
272.162	83.44
272.394	93.44
272.626	91.44
272.858	90.44
273.09	92.44
273.322	68.44
273.553	77.44
273.785	85.44
274.017	70.44
274.249	87.44
274.481	76.44
274.713	75.44
274.945	84.44
275.176	79.44
275.408	85.44
275.64	86.44
275.872	72.44
276.104	91.44
276.335	87.44
276.567	91.44
276.799	98.44
277.031	94.44
277.262	75.44
277.494	88.44
277.726	83.44
277.957	85.44
278.189	97.44
278.421	79.44
278.652	90.44
278.884	86.44
279.115	88.44
279.347	85.44
279.579	89.44
279.81	97.44
280.042	84.44
280.273	86.44
280.505	83.44
280.736	82.44
280.968	83.44
281.199	88.44
281.431	88.44
281.662	102.44
281.894	93.44
282.125	97.44
282.356	112.44
282.588	146.44
282.819	116.44
283.051	90.44
283.282	88.44
283.513	86.44
283.745	88.44
283.976	85.44
284.207	75.44
284.439	88.44
284.67	97.44
284.901	88.44
285.132	83.44
285.364	84.44
285.595	74.44
285.826	74.44
286.057	76.44
286.288	77.44
286.52	60.44
286.751	80.44
286.982	80.44
287.213	85.44
287.444	80.44
287.675	100.44
287.906	77.44
288.138	90.44
288.369	96.44
288.6	103.44
288.831	91.44
289.062	96.44
289.293	77.44
289.524	93.44
289.755	73.44
289.986	93.44
290.217	89.44
290.448	77.44
290.679	94.44
290.91	87.44
291.141	81.44
291.371	80.44
291.602	86.44
291.833	103.44
292.064	91.44
292.295	79.44
292.526	95.44
292.757	63.44
292.987	83.44
293.218	85.44
293.449	73.44
293.68	88.44
293.91	83.44
294.141	81.44
294.372	88.44
294.603	87.44
294.833	78.44
295.064	92.44
295.295	86.44
295.525	86.44
295.756	108.44
295.987	88.44
296.217	137.44
296.448	119.44
296.679	93.44
296.909	76.44
297.14	85.44
297.37	95.44
297.601	81.44
297.831	91.44
298.062	90.44
298.292	95.44
298.523	82.44
298.753	89.44
298.984	93.44
299.214	84.44
299.445	85.44
299.675	87.44
299.905	94.44
300.136	89.44
300.366	88.44
300.597	79.44
300.827	83.44
301.057	99.44
301.288	86.44
301.518	92.44
301.748	83.44
301.979	89.44
302.209	94.44
302.439	97.44
302.669	74.44
302.9	91.44
303.13	85.44
303.36	81.44
303.59	106.44
303.82	94.44
304.051	96.44
304.281	96.44
304.511	116.44
304.741	87.44
304.971	82.44
305.201	82.44
305.431	88.44
305.661	75.44
305.891	97.44
306.121	84.44
306.352	94.44
306.582	103.44
306.812	94.44
307.042	93.44
307.272	83.44
307.502	95.44
307.731	97.44
307.961	81.44
308.191	91.44
308.421	96.44
308.651	86.44
308.881	102.44
309.111	80.44
309.341	92.44
309.571	91.44
309.8	96.44
310.03	87.44
310.26	93.44
310.49	88.44
310.72	96.44
310.949	99.44
311.179	105.44
311.409	90.44
311.639	98.44
311.868	98.44
312.098	98.44
312.328	98.44
312.557	94.44
312.787	111.44
313.017	96.44
313.246	93.44
313.476	96.44
313.706	84.44
313.935	81.44
314.165	93.44
314.394	101.44
314.624	96.44
314.853	92.44
315.083	90.44
315.312	85.44
315.542	83.44
315.771	90.44
316.001	85.44
316.23	75.44
316.46	91.44
316.689	83.44
316.919	103.44
317.148	89.44
317.377	87.44
317.607	89.44
317.836	91.44
318.065	86.44
318.295	91.44
318.524	87.44
318.753	74.44
318.983	81.44
319.212	93.44
319.441	88.44
319.67	97.44
319.9	101.44
320.129	96.44
320.358	75.44
320.587	94.44
320.816	101.44
321.046	103.44
321.275	87.44
321.504	91.44
321.733	96.44
321.962	94.44
322.191	84.44
322.42	109.44
322.649	113.44
322.878	101.44
323.108	102.44
323.337	117.44
323.566	130.44
323.795	141.44
324.024	176.44
324.253	358.44
324.482	763.44
324.71	1529.44
324.939	1982.44
325.168	743.44
325.397	221.44
325.626	140.44
325.855	125.44
326.084	121.44
326.313	118.44
326.542	137.44
326.77	204.44
326.999	400.44
327.228	821.44
327.457	1463.44
327.686	1191.44
327.914	332.44
328.143	187.44
328.372	161.44
328.6	124.44
328.829	118.44
329.058	124.44
329.287	121.44
329.515	103.44
329.744	101.44
329.972	96.44
330.201	88.44
330.43	101.44
330.658	124.44
330.887	135.44
331.115	128.44
331.344	102.44
331.572	105.44
331.801	103.44
332.03	94.44
332.258	85.44
332.486	98.44
332.715	99.44
332.943	86.44
333.172	104.44
333.4	85.44
333.629	87.44
333.857	119.44
334.085	112.44
334.314	98.44
334.542	102.44
334.771	106.44
334.999	92.44
335.227	93.44
335.455	103.44
335.684	89.44
335.912	88.44
336.14	92.44
336.369	96.44
336.597	86.44
336.825	112.44
337.053	95.44
337.281	85.44
337.51	98.44
337.738	95.44
337.966	88.44
338.194	91.44
338.422	97.44
338.65	93.44
338.878	99.44
339.106	88.44
339.334	75.44
339.562	77.44
339.79	88.44
340.018	79.44
340.246	83.44
340.474	96.44
340.702	96.44
340.93	104.44
341.158	88.44
341.386	88.44
341.614	104.44
341.842	101.44
342.07	99.44
342.298	91.44
342.526	93.44
342.754	67.44
342.981	98.44
343.209	85.44
343.437	88.44
343.665	86.44
343.893	91.44
344.12	94.44
344.348	84.44
344.576	90.44
344.804	84.44
345.031	88.44
345.259	97.44
345.487	90.44
345.714	93.44
345.942	97.44
346.17	94.44
346.397	92.44
346.625	81.44
346.853	92.44
347.08	88.44
347.308	88.44
347.535	93.44
347.763	87.44
347.99	84.44
348.218	92.44
348.445	100.44
348.673	106.44
348.9	107.44
349.128	97.44
349.355	74.44
349.583	85.44
349.81	88.44
350.037	92.44
350.265	86.44
350.492	76.44
350.72	81.44
350.947	78.44
351.174	91.44
351.402	102.44
351.629	105.44
351.856	111.44
352.083	100.44
352.311	106.44
352.538	93.44
352.765	102.44
352.992	119.44
353.22	115.44
353.447	100.44
353.674	95.44
353.901	101.44
354.128	91.44
354.355	106.44
354.583	89.44
354.81	95.44
355.037	99.44
355.264	99.44
355.491	102.44
355.718	76.44
355.945	89.44
356.172	86.44
356.399	100.44
356.626	95.44
356.853	79.44
357.08	96.44
357.307	95.44
357.534	92.44
357.761	93.44
357.988	91.44
358.215	89.44
358.441	108.44
358.668	81.44
358.895	93.44
359.122	100.44
359.349	92.44
359.576	91.44
359.802	97.44
360.029	106.44
360.256	108.44
360.483	101.44
360.709	81.44
360.936	96.44
361.163	87.44
361.39	96.44
361.616	96.44
361.843	83.44
362.07	99.44
362.296	70.44
362.523	97.44
362.749	91.44
362.976	83.44
363.203	92.44
363.429	90.44
363.656	91.44
363.882	89.44
364.109	79.44
364.335	94.44
364.562	96.44
364.788	76.44
365.015	100.44
365.241	89.44
365.468	104.44
365.694	95.44
365.92	86.44
366.147	83.44
366.373	77.44
366.599	102.44
366.826	72.44
367.052	89.44
367.278	74.44
367.505	90.44
367.731	85.44
367.957	100.44
368.184	102.44
368.41	97.44
368.636	108.44
368.862	129.44
369.089	116.44
369.315	105.44
369.541	87.44
369.767	93.44
369.993	89.44
370.219	90.44
370.445	79.44
370.672	69.44
370.898	85.44
371.124	103.44
371.35	89.44
371.576	91.44
371.802	89.44
372.028	95.44
372.254	87.44
372.48	76.44
372.706	90.44
372.932	84.44
373.158	90.44
373.384	89.44
373.61	78.44
373.835	79.44
374.061	81.44
374.287	97.44
374.513	90.44
374.739	78.44
374.965	83.44
375.191	81.44
375.416	85.44
375.642	107.44
375.868	93.44
376.094	95.44
376.319	81.44
376.545	95.44
376.771	96.44
376.997	69.44
377.222	104.44
377.448	81.44
377.674	88.44
377.899	100.44
378.125	80.44
378.35	89.44
378.576	86.44
378.802	100.44
379.027	95.44
379.253	89.44
379.478	93.44
379.704	80.44
379.929	99.44
380.155	101.44
380.38	98.44
380.606	100.44
380.831	102.44
381.057	103.44
381.282	94.44
381.507	83.44
381.733	90.44
381.958	94.44
382.184	92.44
382.409	114.44
382.634	106.44
382.86	97.44
383.085	90.44
383.31	95.44
383.535	105.44
383.761	97.44
383.986	105.44
384.211	113.44
384.436	104.44
384.662	110.44
384.887	119.44
385.112	94.44
385.337	112.44
385.562	107.44
385.787	107.44
386.013	116.44
386.238	123.44
386.463	110.44
386.688	114.44
386.913	108.44
387.138	107.44
387.363	109.44
387.588	92.44
387.813	108.44
388.038	99.44
388.263	112.44
388.488	111.44
388.713	107.44
388.938	92.44
389.163	82.44
389.387	92.44
389.612	103.44
389.837	75.44
390.062	108.44
390.287	91.44
390.512	95.44
390.736	78.44
390.961	91.44
391.186	89.44
391.411	86.44
391.636	84.44
391.86	81.44
392.085	77.44
392.31	76.44
392.534	86.44
392.759	71.44
392.984	80.44
393.208	89.44
393.433	100.44
393.658	103.44
393.882	79.44
394.107	89.44
394.331	98.44
394.556	76.44
394.78	112.44
395.005	83.44
395.229	78.44
395.454	83.44
395.678	80.44
395.903	95.44
396.127	92.44
396.352	93.44
396.576	92.44
396.801	81.44
397.025	93.44
397.249	100.44
397.474	92.44
397.698	81.44
397.922	94.44
398.147	88.44
398.371	79.44
398.595	85.44
398.82	85.44
399.044	87.44
399.268	83.44
399.492	88.44
399.717	78.44
399.941	91.44
400.165	100.44
400.389	100.44
400.613	75.44
400.837	79.44
401.062	87.44
401.286	77.44
401.51	81.44
401.734	79.44
401.958	96.44
402.182	133.44
402.406	157.44
402.63	112.44
402.854	86.44
403.078	89.44
403.302	80.44
403.526	78.44
403.75	93.44
403.974	96.44
404.198	94.44
404.422	85.44
404.645	93.44
404.869	100.44
405.093	83.44
405.317	91.44
405.541	91.44
405.765	91.44
405.988	115.44
406.212	181.44
406.436	234.44
406.66	149.44
406.883	99.44
407.107	88.44
407.331	86.44
407.555	93.44
407.778	93.44
408.002	88.44
408.226	80.44
408.449	85.44
408.673	77.44
408.896	74.44
409.12	106.44
409.344	77.44
409.567	77.44
409.791	87.44
410.014	107.44
410.238	101.44
410.461	80.44
410.685	104.44
410.908	94.44
411.132	90.44
411.355	104.44
411.578	92.44
411.802	101.44
412.025	88.44
412.249	86.44
412.472	105.44
412.695	92.44
412.919	78.44
413.142	78.44
413.365	93.44
413.589	86.44
413.812	82.44
414.035	101.44
414.258	87.44
414.482	98.44
414.705	84.44
414.928	79.44
415.151	105.44
415.374	90.44
415.597	87.44
415.821	71.44
416.044	82.44
416.267	87.44
416.49	88.44
416.713	99.44
416.936	83.44
417.159	81.44
417.382	87.44
417.605	85.44
417.828	87.44
418.051	76.44
418.274	80.44
418.497	75.44
418.72	82.44
418.943	101.44
419.166	92.44
419.389	91.44
419.611	99.44
419.834	84.44
420.057	78.44
420.28	89.44
420.503	78.44
420.726	90.44
420.948	82.44
421.171	90.44
421.394	92.44
421.617	89.44
421.839	80.44
422.062	80.44
422.285	91.44
422.507	99.44
422.73	109.44
422.953	86.44
423.175	83.44
423.398	80.44
423.621	88.44
423.843	79.44
424.066	71.44
424.288	80.44
424.511	80.44
424.733	103.44
424.956	91.44
425.178	89.44
425.401	109.44
425.623	87.44
425.846	80.44
426.068	90.44
426.291	93.44
426.513	99.44
426.735	94.44
426.958	93.44
427.18	95.44
427.402	131.44
427.625	180.44
427.847	128.44
428.069	111.44
428.292	92.44
428.514	98.44
428.736	75.44
428.958	85.44
429.181	84.44
429.403	94.44
429.625	79.44
429.847	103.44
430.069	104.44
430.292	92.44
430.514	80.44
430.736	81.44
430.958	81.44
431.18	89.44
431.402	85.44
431.624	79.44
431.846	81.44
432.068	87.44
432.29	78.44
432.512	86.44
432.734	96.44
432.956	95.44
433.178	84.44
433.4	99.44
433.622	82.44
433.844	91.44
434.066	93.44
434.287	101.44
434.509	101.44
434.731	84.44
434.953	83.44
435.175	74.44
435.397	91.44
435.618	101.44
435.84	94.44
436.062	119.44
436.284	97.44
436.505	99.44
436.727	110.44
436.949	94.44
437.17	93.44
437.392	72.44
437.614	95.44
437.835	105.44
438.057	115.44
438.278	103.44
438.5	104.44
438.721	106.44
438.943	85.44
439.165	89.44
439.386	79.44
439.608	82.44
439.829	85.44
440.05	116.44
440.272	132.44
440.493	101.44
440.715	86.44
440.936	76.44
441.158	76.44
441.379	95.44
441.6	88.44
441.822	88.44
442.043	95.44
442.264	125.44
442.486	104.44
442.707	100.44
442.928	108.44
443.149	128.44
443.371	119.44
443.592	101.44
443.813	106.44
444.034	101.44
444.255	91.44
444.476	82.44
444.698	83.44
444.919	88.44
445.14	125.44
445.361	108.44
445.582	111.44
445.803	127.44
446.024	132.44
446.245	115.44
446.466	117.44
446.687	84.44
446.908	84.44
447.129	82.44
447.35	90.44
447.571	76.44
447.792	93.44
448.013	99.44
448.234	113.44
448.455	99.44
448.675	121.44
448.896	123.44
449.117	104.44
449.338	94.44
449.559	152.44
449.779	131.44
450	82.44
450.221	86.44
450.442	96.44
450.662	87.44
450.883	114.44
451.104	99.44
451.324	86.44
451.545	101.44
451.766	92.44
451.986	79.44
452.207	105.44
452.428	100.44
452.648	103.44
452.869	98.44
453.089	116.44
453.31	107.44
453.53	93.44
453.751	92.44
453.971	110.44
454.192	100.44
454.412	81.44
454.633	83.44
454.853	99.44
455.073	87.44
455.294	81.44
455.514	106.44
455.734	79.44
455.955	94.44
456.175	92.44
456.395	87.44
456.616	75.44
456.836	82.44
457.056	94.44
457.276	69.44
457.497	81.44
457.717	74.44
457.937	82.44
458.157	85.44
458.377	89.44
458.598	101.44
458.818	158.44
459.038	153.44
459.258	98.44
459.478	83.44
459.698	88.44
459.918	82.44
460.138	95.44
460.358	86.44
460.578	87.44
460.798	99.44
461.018	71.44
461.238	84.44
461.458	97.44
461.678	91.44
461.898	84.44
462.118	74.44
462.338	82.44
462.558	88.44
462.777	86.44
462.997	82.44
463.217	90.44
463.437	86.44
463.657	74.44
463.876	86.44
464.096	89.44
464.316	100.44
464.536	94.44
464.755	83.44
464.975	108.44
465.195	166.44
465.414	154.44
465.634	91.44
465.854	87.44
466.073	101.44
466.293	76.44
466.512	78.44
466.732	88.44
466.951	87.44
467.171	93.44
467.391	93.44
467.61	110.44
467.829	97.44
468.049	86.44
468.268	86.44
468.488	80.44
468.707	79.44
468.927	75.44
469.146	85.44
469.365	83.44
469.585	80.44
469.804	88.44
470.023	90.44
470.243	93.44
470.462	97.44
470.681	102.44
470.901	92.44
471.12	91.44
471.339	92.44
471.558	79.44
471.777	85.44
471.997	92.44
472.216	84.44
472.435	118.44
472.654	95.44
472.873	92.44
473.092	96.44
473.311	84.44
473.53	87.44
473.749	86.44
473.968	83.44
474.187	105.44
474.406	95.44
474.625	77.44
474.844	92.44
475.063	96.44
475.282	92.44
475.501	81.44
475.72	76.44
475.939	77.44
476.158	86.44
476.377	71.44
476.596	86.44
476.814	97.44
477.033	77.44
477.252	88.44
477.471	92.44
477.69	94.44
477.908	88.44
478.127	79.44
478.346	82.44
478.564	84.44
478.783	96.44
479.002	105.44
479.22	97.44
479.439	101.44
479.658	102.44
479.876	93.44
480.095	96.44
480.313	93.44
480.532	82.44
480.751	80.44
480.969	104.44
481.188	136.44
481.406	116.44
481.624	87.44
481.843	100.44
482.061	79.44
482.28	95.44
482.498	76.44
482.717	91.44
482.935	66.44
483.153	88.44
483.372	85.44
483.59	85.44
483.808	88.44
484.027	85.44
484.245	84.44
484.463	84.44
484.681	76.44
484.9	93.44
485.118	81.44
485.336	78.44
485.554	94.44
485.772	96.44
485.99	93.44
486.209	107.44
486.427	94.44
486.645	110.44
486.863	105.44
487.081	96.44
487.299	91.44
487.517	94.44
487.735	92.44
487.953	87.44
488.171	95.44
488.389	87.44
488.607	96.44
488.825	86.44
489.043	78.44
489.261	91.44
489.479	89.44
489.696	67.44
489.914	88.44
490.132	87.44
490.35	84.44
490.568	85.44
490.786	91.44
491.003	89.44
491.221	80.44
491.439	67.44
491.657	96.44
491.874	77.44
492.092	88.44
492.31	84.44
492.527	89.44
492.745	101.44
492.963	92.44
493.18	76.44
493.398	97.44
493.615	96.44
493.833	95.44
494.05	91.44
494.268	89.44
494.485	89.44
494.703	92.44
494.92	97.44
495.138	87.44
495.355	91.44
495.573	81.44
495.79	108.44
496.008	84.44
496.225	82.44
496.442	77.44
496.66	94.44
496.877	98.44
497.094	104.44
497.312	74.44
497.529	89.44
497.746	92.44
497.963	80.44
498.181	87.44
498.398	99.44
498.615	98.44
498.832	99.44
499.049	97.44
499.267	86.44
499.484	80.44
499.701	85.44
499.918	87.44
500.135	75.44
500.352	86.44
500.569	77.44
500.786	75.44
501.003	96.44
501.22	98.44
501.437	94.44
501.654	90.44
501.871	90.44
502.088	80.44
502.305	88.44
502.522	92.44
502.739	104.44
502.956	84.44
503.172	103.44
503.389	96.44
503.606	98.44
503.823	86.44
504.04	81.44
504.256	88.44
504.473	87.44
504.69	97.44
504.907	87.44
505.123	71.44
505.34	81.44
505.557	94.44
505.773	99.44
505.99	80.44
506.207	85.44
506.423	103.44
506.64	71.44
506.856	76.44
507.073	81.44
507.289	95.44
507.506	87.44
507.722	107.44
507.939	98.44
508.155	84.44
508.372	93.44
508.588	94.44
508.805	86.44
509.021	81.44
509.238	97.44
509.454	105.44
509.67	95.44
509.887	94.44
510.103	136.44
510.319	219.44
510.536	798.44
510.752	2664.44
510.968	745.44
511.184	150.44
511.401	104.44
511.617	90.44
511.833	86.44
512.049	89.44
512.265	92.44
512.481	90.44
512.698	88.44
512.914	96.44
513.13	81.44
513.346	91.44
513.562	102.44
513.778	98.44
513.994	86.44
514.21	97.44
514.426	128.44
514.642	131.44
514.858	131.44
515.074	145.44
515.29	464.44
515.506	1627.44
515.721	608.44
515.937	156.44
516.153	99.44
516.369	97.44
