Data from Circ_2008_H10_HRD10591_00021.txt Node
Date: Wed Jan 03 10:17:00 EST 2024
User: Yrep
Spectrometer: HR+D1059
Trigger mode: 1
Integration Time (sec): 1.000000E-1
Scans to average: 1
Electric dark correction enabled: true
Nonlinearity correction enabled: false
Boxcar width: 0
XAxis mode: Wavelengths
Number of Pixels in Spectrum: 2048
>>>>>Begin Spectral Data<<<<<
223.165	-10.38
223.4	-10.38
223.635	-10.38
223.869	-19.38
224.104	-28.38
224.338	-16.38
224.573	-21.38
224.808	-12.38
225.042	-9.38
225.277	-6.38
225.511	-1.38
225.746	6.62
225.98	6.62
226.215	8.62
226.449	25.62
226.683	21.62
226.918	25.62
227.152	30.62
227.387	22.62
227.621	30.62
227.856	52.62
228.09	30.62
228.324	62.62
228.559	62.62
228.793	57.62
229.027	57.62
229.262	64.62
229.496	66.62
229.73	70.62
229.964	82.62
230.199	76.62
230.433	78.62
230.667	79.62
230.901	77.62
231.136	80.62
231.37	81.62
231.604	82.62
231.838	64.62
232.072	61.62
232.306	76.62
232.541	68.62
232.775	81.62
233.009	76.62
233.243	81.62
233.477	71.62
233.711	58.62
233.945	86.62
234.179	79.62
234.413	61.62
234.647	72.62
234.881	84.62
235.115	73.62
235.349	83.62
235.583	63.62
235.817	65.62
236.051	86.62
236.285	74.62
236.519	72.62
236.753	67.62
236.987	75.62
237.221	75.62
237.455	76.62
237.689	67.62
237.922	70.62
238.156	73.62
238.39	71.62
238.624	69.62
238.858	69.62
239.091	72.62
239.325	80.62
239.559	82.62
239.793	65.62
240.027	83.62
240.26	70.62
240.494	91.62
240.728	73.62
240.961	65.62
241.195	71.62
241.429	68.62
241.662	56.62
241.896	88.62
242.13	68.62
242.363	64.62
242.597	74.62
242.83	60.62
243.064	69.62
243.298	81.62
243.531	88.62
243.765	85.62
243.998	75.62
244.232	73.62
244.465	79.62
244.699	77.62
244.932	82.62
245.166	79.62
245.399	90.62
245.633	75.62
245.866	72.62
246.099	77.62
246.333	67.62
246.566	80.62
246.8	80.62
247.033	74.62
247.266	80.62
247.5	71.62
247.733	75.62
247.966	82.62
248.2	78.62
248.433	85.62
248.666	92.62
248.899	94.62
249.133	81.62
249.366	88.62
249.599	90.62
249.832	78.62
250.066	97.62
250.299	75.62
250.532	83.62
250.765	73.62
250.998	82.62
251.231	68.62
251.465	86.62
251.698	75.62
251.931	77.62
252.164	77.62
252.397	84.62
252.63	82.62
252.863	69.62
253.096	73.62
253.329	57.62
253.562	86.62
253.795	83.62
254.028	83.62
254.261	78.62
254.494	65.62
254.727	82.62
254.96	94.62
255.193	80.62
255.426	89.62
255.659	80.62
255.892	72.62
256.124	85.62
256.357	83.62
256.59	86.62
256.823	84.62
257.056	83.62
257.289	78.62
257.521	83.62
257.754	89.62
257.987	73.62
258.22	81.62
258.452	91.62
258.685	84.62
258.918	74.62
259.151	82.62
259.383	70.62
259.616	79.62
259.849	67.62
260.081	99.62
260.314	81.62
260.547	81.62
260.779	83.62
261.012	89.62
261.244	80.62
261.477	82.62
261.71	97.62
261.942	121.62
262.175	129.62
262.407	94.62
262.64	88.62
262.872	82.62
263.105	82.62
263.337	88.62
263.57	69.62
263.802	87.62
264.035	80.62
264.267	81.62
264.499	74.62
264.732	87.62
264.964	82.62
265.197	90.62
265.429	86.62
265.661	76.62
265.894	74.62
266.126	93.62
266.358	83.62
266.591	97.62
266.823	73.62
267.055	71.62
267.287	87.62
267.52	94.62
267.752	82.62
267.984	95.62
268.216	84.62
268.448	79.62
268.681	94.62
268.913	85.62
269.145	73.62
269.377	82.62
269.609	78.62
269.841	86.62
270.073	90.62
270.306	82.62
270.538	85.62
270.77	86.62
271.002	85.62
271.234	85.62
271.466	73.62
271.698	71.62
271.93	83.62
272.162	91.62
272.394	81.62
272.626	86.62
272.858	87.62
273.09	85.62
273.322	82.62
273.553	82.62
273.785	77.62
274.017	77.62
274.249	74.62
274.481	84.62
274.713	86.62
274.945	70.62
275.176	75.62
275.408	80.62
275.64	84.62
275.872	86.62
276.104	94.62
276.335	94.62
276.567	88.62
276.799	105.62
277.031	80.62
277.262	86.62
277.494	83.62
277.726	90.62
277.957	90.62
278.189	87.62
278.421	72.62
278.652	82.62
278.884	77.62
279.115	76.62
279.347	88.62
279.579	81.62
279.81	66.62
280.042	85.62
280.273	72.62
280.505	87.62
280.736	80.62
280.968	92.62
281.199	89.62
281.431	83.62
281.662	84.62
281.894	86.62
282.125	94.62
282.356	120.62
282.588	153.62
282.819	136.62
283.051	95.62
283.282	98.62
283.513	82.62
283.745	74.62
283.976	80.62
284.207	91.62
284.439	83.62
284.67	84.62
284.901	90.62
285.132	87.62
285.364	81.62
285.595	78.62
285.826	86.62
286.057	78.62
286.288	92.62
286.52	96.62
286.751	84.62
286.982	89.62
287.213	95.62
287.444	89.62
287.675	76.62
287.906	88.62
288.138	105.62
288.369	94.62
288.6	96.62
288.831	87.62
289.062	78.62
289.293	87.62
289.524	84.62
289.755	84.62
289.986	89.62
290.217	91.62
290.448	84.62
290.679	89.62
290.91	97.62
291.141	90.62
291.371	92.62
291.602	76.62
291.833	95.62
292.064	93.62
292.295	96.62
292.526	79.62
292.757	77.62
292.987	75.62
293.218	74.62
293.449	68.62
293.68	77.62
293.91	94.62
294.141	80.62
294.372	75.62
294.603	93.62
294.833	96.62
295.064	91.62
295.295	94.62
295.525	99.62
295.756	102.62
295.987	117.62
296.217	153.62
296.448	142.62
296.679	99.62
296.909	95.62
297.14	92.62
297.37	84.62
297.601	73.62
297.831	77.62
298.062	85.62
298.292	87.62
298.523	83.62
298.753	84.62
298.984	100.62
299.214	80.62
299.445	96.62
299.675	89.62
299.905	95.62
300.136	91.62
300.366	89.62
300.597	89.62
300.827	93.62
301.057	98.62
301.288	104.62
301.518	94.62
301.748	83.62
301.979	98.62
302.209	89.62
302.439	97.62
302.669	89.62
302.9	94.62
303.13	87.62
303.36	92.62
303.59	96.62
303.82	115.62
304.051	90.62
304.281	69.62
304.511	91.62
304.741	92.62
304.971	102.62
305.201	98.62
305.431	87.62
305.661	86.62
305.891	87.62
306.121	97.62
306.352	110.62
306.582	109.62
306.812	105.62
307.042	96.62
307.272	91.62
307.502	99.62
307.731	102.62
307.961	93.62
308.191	89.62
308.421	94.62
308.651	78.62
308.881	86.62
309.111	86.62
309.341	86.62
309.571	94.62
309.8	89.62
310.03	91.62
310.26	87.62
310.49	94.62
310.72	106.62
310.949	94.62
311.179	97.62
311.409	97.62
311.639	97.62
311.868	91.62
312.098	84.62
312.328	78.62
312.557	83.62
312.787	96.62
313.017	102.62
313.246	93.62
313.476	96.62
313.706	79.62
313.935	89.62
314.165	96.62
314.394	102.62
314.624	96.62
314.853	100.62
315.083	96.62
315.312	99.62
315.542	95.62
315.771	77.62
316.001	96.62
316.23	90.62
316.46	86.62
316.689	88.62
316.919	103.62
317.148	110.62
317.377	94.62
317.607	78.62
317.836	97.62
318.065	94.62
318.295	84.62
318.524	74.62
318.753	86.62
318.983	96.62
319.212	101.62
319.441	99.62
319.67	118.62
319.9	91.62
320.129	75.62
320.358	90.62
320.587	89.62
320.816	93.62
321.046	93.62
321.275	101.62
321.504	98.62
321.733	99.62
321.962	98.62
322.191	105.62
322.42	104.62
322.649	112.62
322.878	87.62
323.108	118.62
323.337	120.62
323.566	118.62
323.795	144.62
324.024	221.62
324.253	400.62
324.482	809.62
324.71	1668.62
324.939	2133.62
325.168	821.62
325.397	256.62
325.626	150.62
325.855	137.62
326.084	133.62
326.313	139.62
326.542	158.62
326.77	228.62
326.999	447.62
327.228	910.62
327.457	1632.62
327.686	1285.62
327.914	346.62
328.143	197.62
328.372	153.62
328.6	129.62
328.829	107.62
329.058	138.62
329.287	112.62
329.515	114.62
329.744	108.62
329.972	96.62
330.201	107.62
330.43	143.62
330.658	111.62
330.887	142.62
331.115	117.62
331.344	109.62
331.572	106.62
331.801	98.62
332.03	92.62
332.258	104.62
332.486	99.62
332.715	95.62
332.943	99.62
333.172	103.62
333.4	86.62
333.629	104.62
333.857	107.62
334.085	120.62
334.314	110.62
334.542	113.62
334.771	129.62
334.999	114.62
335.227	99.62
335.455	98.62
335.684	101.62
335.912	101.62
336.14	105.62
336.369	96.62
336.597	105.62
336.825	91.62
337.053	88.62
337.281	107.62
337.51	83.62
337.738	101.62
337.966	94.62
338.194	89.62
338.422	90.62
338.65	94.62
338.878	89.62
339.106	100.62
339.334	86.62
339.562	88.62
339.79	91.62
340.018	83.62
340.246	92.62
340.474	93.62
340.702	82.62
340.93	89.62
341.158	80.62
341.386	98.62
341.614	105.62
341.842	77.62
342.07	100.62
342.298	82.62
342.526	86.62
342.754	90.62
342.981	87.62
343.209	91.62
343.437	99.62
343.665	85.62
343.893	86.62
344.12	99.62
344.348	100.62
344.576	89.62
344.804	100.62
345.031	85.62
345.259	86.62
345.487	89.62
345.714	99.62
345.942	97.62
346.17	92.62
346.397	97.62
346.625	89.62
346.853	87.62
347.08	98.62
347.308	88.62
347.535	90.62
347.763	102.62
347.99	84.62
348.218	108.62
348.445	108.62
348.673	95.62
348.9	86.62
349.128	92.62
349.355	101.62
349.583	89.62
349.81	109.62
350.037	94.62
350.265	93.62
350.492	101.62
350.72	110.62
350.947	94.62
351.174	108.62
351.402	108.62
351.629	101.62
351.856	107.62
352.083	104.62
352.311	101.62
352.538	99.62
352.765	115.62
352.992	110.62
353.22	121.62
353.447	103.62
353.674	98.62
353.901	94.62
354.128	103.62
354.355	97.62
354.583	89.62
354.81	90.62
355.037	88.62
355.264	91.62
355.491	69.62
355.718	99.62
355.945	110.62
356.172	99.62
356.399	97.62
356.626	93.62
356.853	91.62
357.08	87.62
357.307	101.62
357.534	93.62
357.761	94.62
357.988	101.62
358.215	99.62
358.441	86.62
358.668	98.62
358.895	102.62
359.122	99.62
359.349	87.62
359.576	87.62
359.802	108.62
360.029	115.62
360.256	97.62
360.483	92.62
360.709	93.62
360.936	87.62
361.163	91.62
361.39	105.62
361.616	101.62
361.843	96.62
362.07	91.62
362.296	97.62
362.523	96.62
362.749	99.62
362.976	89.62
363.203	92.62
363.429	90.62
363.656	91.62
363.882	80.62
364.109	82.62
364.335	79.62
364.562	101.62
364.788	78.62
365.015	81.62
365.241	88.62
365.468	109.62
365.694	114.62
365.92	95.62
366.147	80.62
366.373	92.62
366.599	86.62
366.826	91.62
367.052	93.62
367.278	75.62
367.505	95.62
367.731	102.62
367.957	90.62
368.184	90.62
368.41	106.62
368.636	109.62
368.862	127.62
369.089	105.62
369.315	87.62
369.541	93.62
369.767	91.62
369.993	86.62
370.219	96.62
370.445	94.62
370.672	100.62
370.898	83.62
371.124	79.62
371.35	89.62
371.576	108.62
371.802	104.62
372.028	100.62
372.254	96.62
372.48	71.62
372.706	78.62
372.932	90.62
373.158	85.62
373.384	95.62
373.61	78.62
373.835	89.62
374.061	82.62
374.287	82.62
374.513	84.62
374.739	91.62
374.965	95.62
375.191	91.62
375.416	93.62
375.642	101.62
375.868	92.62
376.094	75.62
376.319	96.62
376.545	95.62
376.771	93.62
376.997	82.62
377.222	89.62
377.448	99.62
377.674	87.62
377.899	87.62
378.125	83.62
378.35	90.62
378.576	87.62
378.802	90.62
379.027	91.62
379.253	104.62
379.478	96.62
379.704	87.62
379.929	81.62
380.155	93.62
380.38	100.62
380.606	99.62
380.831	111.62
381.057	114.62
381.282	102.62
381.507	92.62
381.733	101.62
381.958	98.62
382.184	102.62
382.409	98.62
382.634	104.62
382.86	91.62
383.085	98.62
383.31	97.62
383.535	124.62
383.761	104.62
383.986	110.62
384.211	85.62
384.436	106.62
384.662	104.62
384.887	106.62
385.112	138.62
385.337	126.62
385.562	107.62
385.787	114.62
386.013	101.62
386.238	109.62
386.463	94.62
386.688	103.62
386.913	102.62
387.138	114.62
387.363	107.62
387.588	100.62
387.813	109.62
388.038	105.62
388.263	124.62
388.488	118.62
388.713	94.62
388.938	96.62
389.163	90.62
389.387	95.62
389.612	95.62
389.837	101.62
390.062	83.62
390.287	90.62
390.512	81.62
390.736	93.62
390.961	86.62
391.186	89.62
391.411	81.62
391.636	86.62
391.86	86.62
392.085	90.62
392.31	83.62
392.534	83.62
392.759	89.62
392.984	85.62
393.208	110.62
393.433	120.62
393.658	113.62
393.882	87.62
394.107	78.62
394.331	89.62
394.556	76.62
394.78	87.62
395.005	78.62
395.229	77.62
395.454	85.62
395.678	87.62
395.903	86.62
396.127	81.62
396.352	83.62
396.576	88.62
396.801	97.62
397.025	106.62
397.249	76.62
397.474	83.62
397.698	99.62
397.922	81.62
398.147	93.62
398.371	82.62
398.595	69.62
398.82	94.62
399.044	86.62
399.268	85.62
399.492	88.62
399.717	78.62
399.941	94.62
400.165	91.62
400.389	88.62
400.613	95.62
400.837	70.62
401.062	80.62
401.286	88.62
401.51	77.62
401.734	105.62
401.958	103.62
402.182	127.62
402.406	173.62
402.63	135.62
402.854	87.62
403.078	79.62
403.302	86.62
403.526	82.62
403.75	88.62
403.974	84.62
404.198	84.62
404.422	95.62
404.645	96.62
404.869	99.62
405.093	90.62
405.317	90.62
405.541	104.62
405.765	109.62
405.988	109.62
406.212	185.62
406.436	266.62
406.66	165.62
406.883	99.62
407.107	91.62
407.331	97.62
407.555	100.62
407.778	98.62
408.002	97.62
408.226	95.62
408.449	86.62
408.673	96.62
408.896	98.62
409.12	89.62
409.344	82.62
409.567	81.62
409.791	87.62
410.014	86.62
410.238	81.62
410.461	79.62
410.685	98.62
410.908	95.62
411.132	97.62
411.355	90.62
411.578	93.62
411.802	108.62
412.025	86.62
412.249	89.62
412.472	87.62
412.695	100.62
412.919	86.62
413.142	86.62
413.365	101.62
413.589	96.62
413.812	83.62
414.035	95.62
414.258	87.62
414.482	83.62
414.705	90.62
414.928	85.62
415.151	81.62
415.374	80.62
415.597	91.62
415.821	94.62
416.044	89.62
416.267	90.62
416.49	91.62
416.713	83.62
416.936	84.62
417.159	105.62
417.382	95.62
417.605	89.62
417.828	86.62
418.051	76.62
418.274	99.62
418.497	82.62
418.72	70.62
418.943	86.62
419.166	62.62
419.389	81.62
419.611	96.62
419.834	97.62
420.057	77.62
420.28	81.62
420.503	82.62
420.726	93.62
420.948	89.62
421.171	91.62
421.394	77.62
421.617	95.62
421.839	89.62
422.062	90.62
422.285	111.62
422.507	92.62
422.73	94.62
422.953	98.62
423.175	91.62
423.398	94.62
423.621	90.62
423.843	94.62
424.066	81.62
424.288	93.62
424.511	92.62
424.733	103.62
424.956	110.62
425.178	93.62
425.401	97.62
425.623	99.62
425.846	89.62
426.068	89.62
426.291	95.62
426.513	91.62
426.735	87.62
426.958	89.62
427.18	103.62
427.402	137.62
427.625	169.62
427.847	127.62
428.069	113.62
428.292	80.62
428.514	86.62
428.736	78.62
428.958	90.62
429.181	82.62
429.403	83.62
429.625	78.62
429.847	95.62
430.069	94.62
430.292	94.62
430.514	73.62
430.736	85.62
430.958	84.62
431.18	71.62
431.402	79.62
431.624	83.62
431.846	78.62
432.068	95.62
432.29	80.62
432.512	93.62
432.734	88.62
432.956	97.62
433.178	105.62
433.4	96.62
433.622	93.62
433.844	86.62
434.066	83.62
434.287	83.62
434.509	86.62
434.731	78.62
434.953	86.62
435.175	65.62
435.397	93.62
435.618	98.62
435.84	109.62
436.062	112.62
436.284	114.62
436.505	96.62
436.727	90.62
436.949	90.62
437.17	93.62
437.392	93.62
437.614	98.62
437.835	106.62
438.057	118.62
438.278	103.62
438.5	118.62
438.721	119.62
438.943	90.62
439.165	96.62
439.386	89.62
439.608	104.62
439.829	92.62
440.05	118.62
440.272	137.62
440.493	90.62
440.715	87.62
440.936	78.62
441.158	93.62
441.379	79.62
441.6	81.62
441.822	79.62
442.043	90.62
442.264	97.62
442.486	88.62
442.707	93.62
442.928	107.62
443.149	129.62
443.371	144.62
443.592	105.62
443.813	106.62
444.034	105.62
444.255	92.62
444.476	86.62
444.698	91.62
444.919	73.62
445.14	119.62
445.361	106.62
445.582	99.62
445.803	132.62
446.024	138.62
446.245	128.62
446.466	122.62
446.687	98.62
446.908	108.62
447.129	89.62
447.35	92.62
447.571	90.62
447.792	77.62
448.013	101.62
448.234	112.62
448.455	102.62
448.675	107.62
448.896	114.62
449.117	93.62
449.338	111.62
449.559	126.62
449.779	133.62
450	110.62
450.221	78.62
450.442	73.62
450.662	101.62
450.883	100.62
451.104	105.62
451.324	87.62
451.545	87.62
451.766	85.62
451.986	89.62
452.207	81.62
452.428	92.62
452.648	117.62
452.869	119.62
453.089	113.62
453.31	110.62
453.53	94.62
453.751	88.62
453.971	92.62
454.192	113.62
454.412	107.62
454.633	83.62
454.853	94.62
455.073	88.62
455.294	84.62
455.514	96.62
455.734	81.62
455.955	80.62
456.175	78.62
456.395	93.62
456.616	93.62
456.836	86.62
457.056	83.62
457.276	71.62
457.497	74.62
457.717	67.62
457.937	99.62
458.157	87.62
458.377	84.62
458.598	102.62
458.818	166.62
459.038	151.62
459.258	111.62
459.478	95.62
459.698	87.62
459.918	88.62
460.138	74.62
460.358	80.62
460.578	85.62
460.798	96.62
461.018	76.62
461.238	89.62
461.458	87.62
461.678	91.62
461.898	83.62
462.118	95.62
462.338	85.62
462.558	99.62
462.777	81.62
462.997	83.62
463.217	85.62
463.437	91.62
463.657	83.62
463.876	86.62
464.096	94.62
464.316	89.62
464.536	91.62
464.755	86.62
464.975	113.62
465.195	161.62
465.414	172.62
465.634	90.62
465.854	81.62
466.073	87.62
466.293	75.62
466.512	88.62
466.732	89.62
466.951	90.62
467.171	92.62
467.391	100.62
467.61	113.62
467.829	98.62
468.049	98.62
468.268	99.62
468.488	96.62
468.707	79.62
468.927	69.62
469.146	85.62
469.365	81.62
469.585	93.62
469.804	99.62
470.023	101.62
470.243	99.62
470.462	96.62
470.681	101.62
470.901	91.62
471.12	91.62
471.339	83.62
471.558	85.62
471.777	101.62
471.997	90.62
472.216	116.62
472.435	135.62
472.654	98.62
472.873	102.62
473.092	96.62
473.311	77.62
473.53	85.62
473.749	95.62
473.968	99.62
474.187	90.62
474.406	105.62
474.625	65.62
474.844	85.62
475.063	93.62
475.282	81.62
475.501	90.62
475.72	101.62
475.939	85.62
476.158	78.62
476.377	88.62
476.596	89.62
476.814	79.62
477.033	94.62
477.252	87.62
477.471	82.62
477.69	98.62
477.908	89.62
478.127	75.62
478.346	86.62
478.564	91.62
478.783	94.62
479.002	108.62
479.22	86.62
479.439	106.62
479.658	107.62
479.876	102.62
480.095	84.62
480.313	89.62
480.532	93.62
480.751	100.62
480.969	117.62
481.188	188.62
481.406	134.62
481.624	94.62
481.843	86.62
482.061	84.62
482.28	79.62
482.498	87.62
482.717	85.62
482.935	71.62
483.153	91.62
483.372	90.62
483.59	104.62
483.808	79.62
484.027	91.62
484.245	90.62
484.463	82.62
484.681	92.62
484.9	87.62
485.118	85.62
485.336	87.62
485.554	96.62
485.772	110.62
485.99	107.62
486.209	97.62
486.427	106.62
486.645	115.62
486.863	121.62
487.081	106.62
487.299	98.62
487.517	97.62
487.735	102.62
487.953	91.62
488.171	88.62
488.389	101.62
488.607	90.62
488.825	101.62
489.043	87.62
489.261	93.62
489.479	69.62
489.696	86.62
489.914	95.62
490.132	79.62
490.35	101.62
490.568	85.62
490.786	81.62
491.003	83.62
491.221	79.62
491.439	83.62
491.657	83.62
491.874	85.62
492.092	92.62
492.31	83.62
492.527	89.62
492.745	87.62
492.963	87.62
493.18	88.62
493.398	102.62
493.615	95.62
493.833	92.62
494.05	95.62
494.268	101.62
494.485	86.62
494.703	86.62
494.92	91.62
495.138	93.62
495.355	82.62
495.573	101.62
495.79	91.62
496.008	113.62
496.225	90.62
496.442	95.62
496.66	90.62
496.877	87.62
497.094	93.62
497.312	102.62
497.529	89.62
497.746	93.62
497.963	101.62
498.181	87.62
498.398	87.62
498.615	114.62
498.832	102.62
499.049	81.62
499.267	89.62
499.484	88.62
499.701	96.62
499.918	83.62
500.135	103.62
500.352	89.62
500.569	79.62
500.786	93.62
501.003	97.62
501.22	76.62
501.437	97.62
501.654	110.62
501.871	107.62
502.088	106.62
502.305	91.62
502.522	83.62
502.739	83.62
502.956	98.62
503.172	98.62
503.389	93.62
503.606	106.62
503.823	103.62
504.04	80.62
504.256	100.62
504.473	74.62
504.69	78.62
504.907	90.62
505.123	82.62
505.34	97.62
505.557	85.62
505.773	101.62
505.99	87.62
506.207	98.62
506.423	92.62
506.64	97.62
506.856	91.62
507.073	98.62
507.289	90.62
507.506	98.62
507.722	120.62
507.939	106.62
508.155	104.62
508.372	86.62
508.588	93.62
508.805	115.62
509.021	107.62
509.238	102.62
509.454	96.62
509.67	106.62
509.887	133.62
510.103	143.62
510.319	236.62
510.536	888.62
510.752	2897.62
510.968	799.62
511.184	173.62
511.401	115.62
511.617	114.62
511.833	84.62
512.049	74.62
512.265	90.62
512.481	81.62
512.698	101.62
512.914	91.62
513.13	98.62
513.346	107.62
513.562	92.62
513.778	105.62
513.994	99.62
514.21	110.62
514.426	134.62
514.642	141.62
514.858	129.62
515.074	171.62
515.29	526.62
515.506	1809.62
515.721	665.62
