Data from Circ_2008_H10_HRD10591_00009.txt Node
Date: Wed Jan 03 10:16:58 EST 2024
User: Yrep
Spectrometer: HR+D1059
Trigger mode: 1
Integration Time (sec): 1.000000E-1
Scans to average: 1
Electric dark correction enabled: true
Nonlinearity correction enabled: false
Boxcar width: 0
XAxis mode: Wavelengths
Number of Pixels in Spectrum: 2048
>>>>>Begin Spectral Data<<<<<
223.165	-29.12
223.4	-29.12
223.635	-29.12
223.869	0.88
224.104	-20.12
224.338	2.88
224.573	-11.12
224.808	-9.12
225.042	-13.12
225.277	-16.12
225.511	-0.12
225.746	17.88
225.98	2.88
226.215	5.88
226.449	9.88
226.683	4.88
226.918	23.88
227.152	29.88
227.387	36.88
227.621	27.88
227.856	43.88
228.09	67.88
228.324	40.88
228.559	47.88
228.793	51.88
229.027	63.88
229.262	79.88
229.496	79.88
229.73	87.88
229.964	89.88
230.199	78.88
230.433	63.88
230.667	69.88
230.901	77.88
231.136	70.88
231.37	82.88
231.604	79.88
231.838	78.88
232.072	86.88
232.306	70.88
232.541	84.88
232.775	77.88
233.009	82.88
233.243	75.88
233.477	78.88
233.711	82.88
233.945	92.88
234.179	73.88
234.413	91.88
234.647	77.88
234.881	88.88
235.115	83.88
235.349	55.88
235.583	68.88
235.817	69.88
236.051	79.88
236.285	74.88
236.519	66.88
236.753	79.88
236.987	66.88
237.221	91.88
237.455	70.88
237.689	64.88
237.922	76.88
238.156	81.88
238.39	71.88
238.624	76.88
238.858	74.88
239.091	78.88
239.325	74.88
239.559	74.88
239.793	78.88
240.027	91.88
240.26	69.88
240.494	80.88
240.728	82.88
240.961	87.88
241.195	77.88
241.429	83.88
241.662	92.88
241.896	69.88
242.13	69.88
242.363	78.88
242.597	77.88
242.83	79.88
243.064	74.88
243.298	79.88
243.531	74.88
243.765	96.88
243.998	84.88
244.232	67.88
244.465	93.88
244.699	84.88
244.932	77.88
245.166	83.88
245.399	77.88
245.633	91.88
245.866	75.88
246.099	82.88
246.333	73.88
246.566	74.88
246.8	72.88
247.033	77.88
247.266	79.88
247.5	87.88
247.733	77.88
247.966	93.88
248.2	78.88
248.433	71.88
248.666	78.88
248.899	83.88
249.133	94.88
249.366	104.88
249.599	92.88
249.832	88.88
250.066	89.88
250.299	76.88
250.532	75.88
250.765	75.88
250.998	77.88
251.231	82.88
251.465	80.88
251.698	81.88
251.931	75.88
252.164	74.88
252.397	70.88
252.63	78.88
252.863	70.88
253.096	80.88
253.329	84.88
253.562	83.88
253.795	81.88
254.028	77.88
254.261	83.88
254.494	88.88
254.727	87.88
254.96	88.88
255.193	89.88
255.426	82.88
255.659	77.88
255.892	98.88
256.124	87.88
256.357	70.88
256.59	86.88
256.823	83.88
257.056	83.88
257.289	81.88
257.521	73.88
257.754	70.88
257.987	77.88
258.22	69.88
258.452	77.88
258.685	65.88
258.918	69.88
259.151	83.88
259.383	75.88
259.616	83.88
259.849	78.88
260.081	85.88
260.314	97.88
260.547	80.88
260.779	92.88
261.012	81.88
261.244	83.88
261.477	85.88
261.71	98.88
261.942	123.88
262.175	137.88
262.407	92.88
262.64	80.88
262.872	66.88
263.105	72.88
263.337	74.88
263.57	83.88
263.802	83.88
264.035	88.88
264.267	61.88
264.499	82.88
264.732	74.88
264.964	89.88
265.197	78.88
265.429	76.88
265.661	74.88
265.894	78.88
266.126	80.88
266.358	71.88
266.591	79.88
266.823	85.88
267.055	89.88
267.287	87.88
267.52	81.88
267.752	90.88
267.984	78.88
268.216	74.88
268.448	83.88
268.681	66.88
268.913	96.88
269.145	74.88
269.377	81.88
269.609	86.88
269.841	77.88
270.073	81.88
270.306	75.88
270.538	72.88
270.77	80.88
271.002	74.88
271.234	68.88
271.466	87.88
271.698	98.88
271.93	73.88
272.162	90.88
272.394	82.88
272.626	93.88
272.858	69.88
273.09	81.88
273.322	76.88
273.553	73.88
273.785	101.88
274.017	76.88
274.249	80.88
274.481	85.88
274.713	76.88
274.945	83.88
275.176	84.88
275.408	87.88
275.64	96.88
275.872	89.88
276.104	86.88
276.335	84.88
276.567	122.88
276.799	125.88
277.031	102.88
277.262	94.88
277.494	91.88
277.726	89.88
277.957	84.88
278.189	101.88
278.421	76.88
278.652	80.88
278.884	86.88
279.115	84.88
279.347	90.88
279.579	85.88
279.81	86.88
280.042	96.88
280.273	96.88
280.505	74.88
280.736	93.88
280.968	67.88
281.199	87.88
281.431	83.88
281.662	85.88
281.894	92.88
282.125	102.88
282.356	136.88
282.588	153.88
282.819	116.88
283.051	86.88
283.282	92.88
283.513	81.88
283.745	89.88
283.976	76.88
284.207	87.88
284.439	87.88
284.67	75.88
284.901	79.88
285.132	91.88
285.364	83.88
285.595	87.88
285.826	94.88
286.057	86.88
286.288	70.88
286.52	100.88
286.751	83.88
286.982	88.88
287.213	82.88
287.444	87.88
287.675	87.88
287.906	92.88
288.138	102.88
288.369	90.88
288.6	113.88
288.831	89.88
289.062	83.88
289.293	88.88
289.524	88.88
289.755	80.88
289.986	78.88
290.217	83.88
290.448	81.88
290.679	83.88
290.91	76.88
291.141	96.88
291.371	81.88
291.602	81.88
291.833	95.88
292.064	83.88
292.295	80.88
292.526	102.88
292.757	88.88
292.987	88.88
293.218	80.88
293.449	79.88
293.68	97.88
293.91	101.88
294.141	93.88
294.372	89.88
294.603	93.88
294.833	78.88
295.064	83.88
295.295	92.88
295.525	96.88
295.756	105.88
295.987	141.88
296.217	157.88
296.448	147.88
296.679	107.88
296.909	90.88
297.14	90.88
297.37	79.88
297.601	79.88
297.831	72.88
298.062	74.88
298.292	85.88
298.523	94.88
298.753	97.88
298.984	80.88
299.214	83.88
299.445	86.88
299.675	102.88
299.905	93.88
300.136	83.88
300.366	74.88
300.597	96.88
300.827	97.88
301.057	99.88
301.288	104.88
301.518	98.88
301.748	72.88
301.979	106.88
302.209	86.88
302.439	97.88
302.669	83.88
302.9	91.88
303.13	91.88
303.36	90.88
303.59	122.88
303.82	120.88
304.051	81.88
304.281	77.88
304.511	83.88
304.741	90.88
304.971	86.88
305.201	94.88
305.431	79.88
305.661	91.88
305.891	81.88
306.121	95.88
306.352	110.88
306.582	112.88
306.812	95.88
307.042	100.88
307.272	85.88
307.502	100.88
307.731	97.88
307.961	90.88
308.191	93.88
308.421	89.88
308.651	87.88
308.881	93.88
309.111	102.88
309.341	87.88
309.571	102.88
309.8	102.88
310.03	96.88
310.26	81.88
310.49	90.88
310.72	101.88
310.949	101.88
311.179	106.88
311.409	89.88
311.639	94.88
311.868	100.88
312.098	84.88
312.328	99.88
312.557	101.88
312.787	121.88
313.017	102.88
313.246	91.88
313.476	93.88
313.706	101.88
313.935	95.88
314.165	98.88
314.394	102.88
314.624	99.88
314.853	96.88
315.083	95.88
315.312	94.88
315.542	90.88
315.771	83.88
316.001	87.88
316.23	94.88
316.46	93.88
316.689	97.88
316.919	97.88
317.148	103.88
317.377	111.88
317.607	90.88
317.836	73.88
318.065	83.88
318.295	94.88
318.524	110.88
318.753	95.88
318.983	91.88
319.212	109.88
319.441	125.88
319.67	119.88
319.9	100.88
320.129	69.88
320.358	94.88
320.587	113.88
320.816	106.88
321.046	106.88
321.275	99.88
321.504	93.88
321.733	91.88
321.962	84.88
322.191	105.88
322.42	96.88
322.649	118.88
322.878	124.88
323.108	133.88
323.337	144.88
323.566	135.88
323.795	179.88
324.024	253.88
324.253	469.88
324.482	1040.88
324.71	2203.88
324.939	2841.88
325.168	1034.88
325.397	307.88
325.626	178.88
325.855	138.88
326.084	136.88
326.313	150.88
326.542	161.88
326.77	253.88
326.999	562.88
327.228	1131.88
327.457	2055.88
327.686	1658.88
327.914	452.88
328.143	241.88
328.372	178.88
328.6	145.88
328.829	137.88
329.058	151.88
329.287	135.88
329.515	123.88
329.744	106.88
329.972	91.88
330.201	94.88
330.43	143.88
330.658	144.88
330.887	175.88
331.115	138.88
331.344	104.88
331.572	111.88
331.801	106.88
332.03	110.88
332.258	99.88
332.486	83.88
332.715	91.88
332.943	95.88
333.172	97.88
333.4	97.88
333.629	114.88
333.857	120.88
334.085	124.88
334.314	110.88
334.542	120.88
334.771	117.88
334.999	106.88
335.227	109.88
335.455	103.88
335.684	101.88
335.912	98.88
336.14	96.88
336.369	105.88
336.597	113.88
336.825	88.88
337.053	96.88
337.281	106.88
337.51	89.88
337.738	88.88
337.966	90.88
338.194	94.88
338.422	116.88
338.65	108.88
338.878	93.88
339.106	94.88
339.334	82.88
339.562	100.88
339.79	82.88
340.018	93.88
340.246	93.88
340.474	95.88
340.702	104.88
340.93	79.88
341.158	97.88
341.386	98.88
341.614	101.88
341.842	91.88
342.07	98.88
342.298	77.88
342.526	88.88
342.754	92.88
342.981	82.88
343.209	100.88
343.437	98.88
343.665	95.88
343.893	87.88
344.12	97.88
344.348	88.88
344.576	94.88
344.804	100.88
345.031	110.88
345.259	95.88
345.487	82.88
345.714	77.88
345.942	101.88
346.17	99.88
346.397	86.88
346.625	97.88
346.853	88.88
347.08	104.88
347.308	96.88
347.535	89.88
347.763	95.88
347.99	98.88
348.218	110.88
348.445	96.88
348.673	94.88
348.9	105.88
349.128	108.88
349.355	78.88
349.583	82.88
349.81	88.88
350.037	94.88
350.265	103.88
350.492	101.88
350.72	95.88
350.947	93.88
351.174	122.88
351.402	113.88
351.629	102.88
351.856	107.88
352.083	92.88
352.311	94.88
352.538	120.88
352.765	117.88
352.992	111.88
353.22	124.88
353.447	110.88
353.674	96.88
353.901	83.88
354.128	94.88
354.355	93.88
354.583	98.88
354.81	123.88
355.037	97.88
355.264	84.88
355.491	101.88
355.718	99.88
355.945	92.88
356.172	92.88
356.399	105.88
356.626	97.88
356.853	84.88
357.08	83.88
357.307	89.88
357.534	95.88
357.761	85.88
357.988	95.88
358.215	108.88
358.441	104.88
358.668	98.88
358.895	89.88
359.122	84.88
359.349	85.88
359.576	94.88
359.802	108.88
360.029	114.88
360.256	120.88
360.483	107.88
360.709	82.88
360.936	115.88
361.163	87.88
361.39	97.88
361.616	91.88
361.843	81.88
362.07	115.88
362.296	90.88
362.523	95.88
362.749	101.88
362.976	90.88
363.203	99.88
363.429	84.88
363.656	96.88
363.882	86.88
364.109	98.88
364.335	86.88
364.562	90.88
364.788	106.88
365.015	100.88
365.241	121.88
365.468	105.88
365.694	105.88
365.92	94.88
366.147	80.88
366.373	80.88
366.599	96.88
366.826	99.88
367.052	85.88
367.278	92.88
367.505	91.88
367.731	107.88
367.957	95.88
368.184	86.88
368.41	103.88
368.636	137.88
368.862	133.88
369.089	113.88
369.315	111.88
369.541	81.88
369.767	80.88
369.993	98.88
370.219	86.88
370.445	83.88
370.672	83.88
370.898	86.88
371.124	88.88
371.35	88.88
371.576	86.88
371.802	72.88
372.028	88.88
372.254	81.88
372.48	83.88
372.706	82.88
372.932	92.88
373.158	84.88
373.384	94.88
373.61	95.88
373.835	95.88
374.061	85.88
374.287	83.88
374.513	90.88
374.739	80.88
374.965	86.88
375.191	85.88
375.416	90.88
375.642	90.88
375.868	90.88
376.094	86.88
376.319	87.88
376.545	100.88
376.771	96.88
376.997	95.88
377.222	97.88
377.448	82.88
377.674	100.88
377.899	104.88
378.125	93.88
378.35	111.88
378.576	97.88
378.802	87.88
379.027	87.88
379.253	81.88
379.478	93.88
379.704	101.88
379.929	97.88
380.155	91.88
380.38	93.88
380.606	99.88
380.831	114.88
381.057	96.88
381.282	97.88
381.507	109.88
381.733	93.88
381.958	94.88
382.184	104.88
382.409	110.88
382.634	115.88
382.86	89.88
383.085	95.88
383.31	104.88
383.535	96.88
383.761	102.88
383.986	97.88
384.211	87.88
384.436	106.88
384.662	109.88
384.887	110.88
385.112	126.88
385.337	123.88
385.562	122.88
385.787	129.88
386.013	127.88
386.238	133.88
386.463	110.88
386.688	117.88
386.913	119.88
387.138	125.88
387.363	127.88
387.588	113.88
387.813	106.88
388.038	110.88
388.263	127.88
388.488	126.88
388.713	93.88
388.938	85.88
389.163	97.88
389.387	91.88
389.612	94.88
389.837	82.88
390.062	100.88
390.287	82.88
390.512	80.88
390.736	99.88
390.961	100.88
391.186	91.88
391.411	97.88
391.636	105.88
391.86	99.88
392.085	75.88
392.31	86.88
392.534	76.88
392.759	85.88
392.984	90.88
393.208	109.88
393.433	141.88
393.658	113.88
393.882	97.88
394.107	86.88
394.331	93.88
394.556	90.88
394.78	86.88
395.005	90.88
395.229	86.88
395.454	90.88
395.678	103.88
395.903	87.88
396.127	74.88
396.352	83.88
396.576	90.88
396.801	92.88
397.025	109.88
397.249	92.88
397.474	103.88
397.698	96.88
397.922	102.88
398.147	74.88
398.371	96.88
398.595	81.88
398.82	76.88
399.044	86.88
399.268	91.88
399.492	96.88
399.717	110.88
399.941	100.88
400.165	94.88
400.389	90.88
400.613	90.88
400.837	81.88
401.062	95.88
401.286	103.88
401.51	87.88
401.734	99.88
401.958	111.88
402.182	162.88
402.406	205.88
402.63	140.88
402.854	96.88
403.078	89.88
403.302	87.88
403.526	81.88
403.75	76.88
403.974	97.88
404.198	94.88
404.422	89.88
404.645	90.88
404.869	106.88
405.093	108.88
405.317	110.88
405.541	101.88
405.765	108.88
405.988	145.88
406.212	217.88
406.436	315.88
406.66	191.88
406.883	111.88
407.107	90.88
407.331	117.88
407.555	88.88
407.778	98.88
408.002	95.88
408.226	103.88
408.449	87.88
408.673	96.88
408.896	90.88
409.12	78.88
409.344	84.88
409.567	87.88
409.791	85.88
410.014	97.88
410.238	86.88
410.461	90.88
410.685	104.88
410.908	84.88
411.132	100.88
411.355	90.88
411.578	74.88
411.802	82.88
412.025	85.88
412.249	95.88
412.472	86.88
412.695	105.88
412.919	89.88
413.142	91.88
413.365	89.88
413.589	79.88
413.812	89.88
414.035	102.88
414.258	98.88
414.482	96.88
414.705	74.88
414.928	94.88
415.151	96.88
415.374	81.88
415.597	103.88
415.821	79.88
416.044	71.88
416.267	90.88
416.49	85.88
416.713	81.88
416.936	85.88
417.159	95.88
417.382	83.88
417.605	86.88
417.828	77.88
418.051	88.88
418.274	93.88
418.497	90.88
418.72	92.88
418.943	89.88
419.166	84.88
419.389	85.88
419.611	99.88
419.834	93.88
420.057	78.88
420.28	97.88
420.503	87.88
420.726	86.88
420.948	85.88
421.171	89.88
421.394	73.88
421.617	90.88
421.839	93.88
422.062	102.88
422.285	91.88
422.507	95.88
422.73	107.88
422.953	95.88
423.175	100.88
423.398	74.88
423.621	86.88
423.843	89.88
424.066	93.88
424.288	93.88
424.511	91.88
424.733	95.88
424.956	107.88
425.178	109.88
425.401	101.88
425.623	94.88
425.846	83.88
426.068	108.88
426.291	83.88
426.513	94.88
426.735	91.88
426.958	99.88
427.18	104.88
427.402	149.88
427.625	205.88
427.847	155.88
428.069	108.88
428.292	90.88
428.514	89.88
428.736	83.88
428.958	80.88
429.181	82.88
429.403	66.88
429.625	79.88
429.847	93.88
430.069	103.88
430.292	96.88
430.514	80.88
430.736	76.88
430.958	86.88
431.18	87.88
431.402	83.88
431.624	73.88
431.846	87.88
432.068	85.88
432.29	80.88
432.512	85.88
432.734	89.88
432.956	94.88
433.178	104.88
433.4	101.88
433.622	82.88
433.844	86.88
434.066	104.88
434.287	87.88
434.509	90.88
434.731	90.88
434.953	80.88
435.175	87.88
435.397	85.88
435.618	102.88
435.84	101.88
436.062	142.88
436.284	118.88
436.505	98.88
436.727	117.88
436.949	83.88
437.17	88.88
437.392	82.88
437.614	87.88
437.835	125.88
438.057	143.88
438.278	103.88
438.5	103.88
438.721	123.88
438.943	117.88
439.165	86.88
439.386	97.88
439.608	117.88
439.829	120.88
440.05	150.88
440.272	160.88
440.493	95.88
440.715	86.88
440.936	75.88
441.158	82.88
441.379	91.88
441.6	87.88
441.822	80.88
442.043	100.88
442.264	115.88
442.486	109.88
442.707	87.88
442.928	110.88
443.149	146.88
443.371	136.88
443.592	130.88
443.813	122.88
444.034	96.88
444.255	93.88
444.476	82.88
444.698	88.88
444.919	103.88
445.14	134.88
445.361	116.88
445.582	125.88
445.803	151.88
446.024	155.88
446.245	141.88
446.466	121.88
446.687	84.88
446.908	82.88
447.129	85.88
447.35	83.88
447.571	94.88
447.792	76.88
448.013	109.88
448.234	125.88
448.455	118.88
448.675	123.88
448.896	119.88
449.117	94.88
449.338	105.88
449.559	133.88
449.779	123.88
450	82.88
450.221	104.88
450.442	93.88
450.662	100.88
450.883	103.88
451.104	131.88
451.324	106.88
451.545	84.88
451.766	84.88
451.986	77.88
452.207	74.88
452.428	99.88
452.648	106.88
452.869	130.88
453.089	130.88
453.31	124.88
453.53	96.88
453.751	98.88
453.971	114.88
454.192	118.88
454.412	84.88
454.633	87.88
454.853	78.88
455.073	86.88
455.294	79.88
455.514	88.88
455.734	93.88
455.955	81.88
456.175	91.88
456.395	91.88
456.616	82.88
456.836	74.88
457.056	102.88
457.276	72.88
457.497	78.88
457.717	83.88
457.937	82.88
458.157	79.88
458.377	93.88
458.598	136.88
458.818	181.88
459.038	209.88
459.258	120.88
459.478	96.88
459.698	84.88
459.918	72.88
460.138	74.88
460.358	89.88
460.578	97.88
460.798	82.88
461.018	87.88
461.238	78.88
461.458	87.88
461.678	82.88
461.898	89.88
462.118	85.88
462.338	73.88
462.558	97.88
462.777	78.88
462.997	90.88
463.217	92.88
463.437	84.88
463.657	96.88
463.876	92.88
464.096	88.88
464.316	111.88
464.536	110.88
464.755	92.88
464.975	134.88
465.195	210.88
465.414	202.88
465.634	116.88
465.854	81.88
466.073	89.88
466.293	92.88
466.512	100.88
466.732	82.88
466.951	81.88
467.171	103.88
467.391	103.88
467.61	111.88
467.829	108.88
468.049	102.88
468.268	86.88
468.488	89.88
468.707	87.88
468.927	81.88
469.146	79.88
469.365	90.88
469.585	79.88
469.804	110.88
470.023	91.88
470.243	105.88
470.462	97.88
470.681	121.88
470.901	98.88
471.12	81.88
471.339	87.88
471.558	82.88
471.777	85.88
471.997	96.88
472.216	102.88
472.435	133.88
472.654	96.88
472.873	83.88
473.092	79.88
473.311	75.88
473.53	90.88
473.749	98.88
473.968	82.88
474.187	102.88
474.406	117.88
474.625	101.88
474.844	66.88
475.063	98.88
475.282	100.88
475.501	86.88
475.72	85.88
475.939	78.88
476.158	90.88
476.377	78.88
476.596	77.88
476.814	90.88
477.033	93.88
477.252	85.88
477.471	91.88
477.69	81.88
477.908	81.88
478.127	87.88
478.346	79.88
478.564	86.88
478.783	101.88
479.002	102.88
479.22	85.88
479.439	101.88
479.658	102.88
479.876	98.88
480.095	99.88
480.313	93.88
480.532	66.88
480.751	91.88
480.969	93.88
481.188	136.88
481.406	117.88
481.624	89.88
481.843	97.88
482.061	84.88
482.28	80.88
482.498	80.88
482.717	91.88
482.935	77.88
483.153	85.88
483.372	90.88
483.59	88.88
483.808	87.88
484.027	92.88
484.245	97.88
484.463	94.88
484.681	89.88
484.9	99.88
485.118	95.88
485.336	87.88
485.554	103.88
485.772	87.88
485.99	88.88
486.209	105.88
486.427	105.88
486.645	121.88
486.863	121.88
487.081	104.88
487.299	83.88
487.517	92.88
487.735	88.88
487.953	104.88
488.171	95.88
488.389	88.88
488.607	113.88
488.825	93.88
489.043	90.88
489.261	82.88
489.479	77.88
489.696	96.88
489.914	87.88
490.132	94.88
490.35	97.88
490.568	92.88
490.786	84.88
491.003	91.88
491.221	89.88
491.439	78.88
491.657	93.88
491.874	78.88
492.092	88.88
492.31	92.88
492.527	92.88
492.745	98.88
492.963	89.88
493.18	89.88
493.398	108.88
493.615	91.88
493.833	91.88
494.05	87.88
494.268	87.88
494.485	92.88
494.703	89.88
494.92	96.88
495.138	78.88
495.355	93.88
495.573	94.88
495.79	82.88
496.008	111.88
496.225	101.88
496.442	82.88
496.66	102.88
496.877	90.88
497.094	98.88
497.312	80.88
497.529	91.88
497.746	99.88
497.963	83.88
498.181	83.88
498.398	83.88
498.615	117.88
498.832	112.88
499.049	96.88
499.267	83.88
499.484	86.88
499.701	94.88
499.918	85.88
500.135	82.88
500.352	89.88
500.569	93.88
500.786	93.88
501.003	78.88
501.22	82.88
501.437	95.88
501.654	91.88
501.871	108.88
502.088	103.88
502.305	90.88
502.522	82.88
502.739	97.88
502.956	90.88
503.172	105.88
503.389	88.88
503.606	132.88
503.823	106.88
504.04	97.88
504.256	90.88
504.473	93.88
504.69	94.88
504.907	91.88
505.123	71.88
505.34	74.88
505.557	87.88
505.773	80.88
505.99	89.88
506.207	81.88
506.423	103.88
506.64	94.88
506.856	74.88
507.073	104.88
507.289	105.88
507.506	95.88
507.722	106.88
507.939	124.88
508.155	101.88
508.372	93.88
508.588	92.88
508.805	108.88
509.021	104.88
509.238	112.88
509.454	104.88
509.67	117.88
509.887	127.88
510.103	146.88
510.319	293.88
510.536	1104.88
510.752	3869.88
510.968	1016.88
511.184	201.88
511.401	139.88
511.617	96.88
511.833	93.88
512.049	72.88
512.265	87.88
512.481	108.88
512.698	97.88
512.914	89.88
513.13	85.88
513.346	93.88
513.562	117.88
513.778	95.88
513.994	106.88
514.21	97.88
514.426	127.88
514.642	165.88
514.858	167.88
