Data from Circ_2008_H10_HRD10591_00022.txt Node
Date: Wed Jan 03 10:17:00 EST 2024
User: Yrep
Spectrometer: HR+D1059
Trigger mode: 1
Integration Time (sec): 1.000000E-1
Scans to average: 1
Electric dark correction enabled: true
Nonlinearity correction enabled: false
Boxcar width: 0
XAxis mode: Wavelengths
Number of Pixels in Spectrum: 2048
>>>>>Begin Spectral Data<<<<<
223.165	-9.56
223.4	-9.56
223.635	-9.56
223.869	-17.56
224.104	-23.56
224.338	-14.56
224.573	-11.56
224.808	-16.56
225.042	-12.56
225.277	-5.56
225.511	8.44
225.746	4.44
225.98	5.44
226.215	16.44
226.449	10.44
226.683	24.44
226.918	27.44
227.152	14.44
227.387	14.44
227.621	38.44
227.856	31.44
228.09	26.44
228.324	63.44
228.559	58.44
228.793	49.44
229.027	60.44
229.262	57.44
229.496	75.44
229.73	72.44
229.964	67.44
230.199	74.44
230.433	77.44
230.667	66.44
230.901	83.44
231.136	71.44
231.37	75.44
231.604	87.44
231.838	93.44
232.072	76.44
232.306	76.44
232.541	92.44
232.775	85.44
233.009	84.44
233.243	85.44
233.477	82.44
233.711	80.44
233.945	100.44
234.179	82.44
234.413	76.44
234.647	67.44
234.881	76.44
235.115	74.44
235.349	76.44
235.583	69.44
235.817	85.44
236.051	73.44
236.285	89.44
236.519	76.44
236.753	82.44
236.987	72.44
237.221	83.44
237.455	72.44
237.689	80.44
237.922	73.44
238.156	72.44
238.39	72.44
238.624	76.44
238.858	66.44
239.091	70.44
239.325	90.44
239.559	87.44
239.793	79.44
240.027	78.44
240.26	85.44
240.494	60.44
240.728	76.44
240.961	86.44
241.195	78.44
241.429	84.44
241.662	77.44
241.896	77.44
242.13	76.44
242.363	77.44
242.597	74.44
242.83	82.44
243.064	79.44
243.298	72.44
243.531	70.44
243.765	75.44
243.998	97.44
244.232	73.44
244.465	88.44
244.699	76.44
244.932	74.44
245.166	84.44
245.399	74.44
245.633	83.44
245.866	76.44
246.099	71.44
246.333	74.44
246.566	82.44
246.8	67.44
247.033	82.44
247.266	73.44
247.5	74.44
247.733	80.44
247.966	75.44
248.2	90.44
248.433	73.44
248.666	76.44
248.899	75.44
249.133	64.44
249.366	90.44
249.599	93.44
249.832	80.44
250.066	90.44
250.299	82.44
250.532	78.44
250.765	70.44
250.998	91.44
251.231	66.44
251.465	69.44
251.698	76.44
251.931	71.44
252.164	72.44
252.397	89.44
252.63	86.44
252.863	68.44
253.096	95.44
253.329	90.44
253.562	86.44
253.795	81.44
254.028	75.44
254.261	81.44
254.494	82.44
254.727	75.44
254.96	77.44
255.193	87.44
255.426	64.44
255.659	80.44
255.892	89.44
256.124	74.44
256.357	93.44
256.59	85.44
256.823	93.44
257.056	83.44
257.289	82.44
257.521	76.44
257.754	80.44
257.987	76.44
258.22	98.44
258.452	82.44
258.685	71.44
258.918	78.44
259.151	89.44
259.383	97.44
259.616	76.44
259.849	83.44
260.081	80.44
260.314	91.44
260.547	89.44
260.779	81.44
261.012	78.44
261.244	80.44
261.477	75.44
261.71	85.44
261.942	102.44
262.175	118.44
262.407	90.44
262.64	95.44
262.872	85.44
263.105	76.44
263.337	80.44
263.57	83.44
263.802	84.44
264.035	82.44
264.267	75.44
264.499	76.44
264.732	72.44
264.964	80.44
265.197	90.44
265.429	92.44
265.661	87.44
265.894	80.44
266.126	88.44
266.358	78.44
266.591	70.44
266.823	83.44
267.055	92.44
267.287	94.44
267.52	78.44
267.752	93.44
267.984	81.44
268.216	88.44
268.448	84.44
268.681	74.44
268.913	79.44
269.145	62.44
269.377	77.44
269.609	91.44
269.841	79.44
270.073	81.44
270.306	83.44
270.538	64.44
270.77	87.44
271.002	88.44
271.234	92.44
271.466	94.44
271.698	78.44
271.93	82.44
272.162	91.44
272.394	82.44
272.626	82.44
272.858	84.44
273.09	77.44
273.322	83.44
273.553	79.44
273.785	77.44
274.017	72.44
274.249	80.44
274.481	76.44
274.713	93.44
274.945	95.44
275.176	80.44
275.408	88.44
275.64	80.44
275.872	88.44
276.104	89.44
276.335	99.44
276.567	98.44
276.799	104.44
277.031	79.44
277.262	94.44
277.494	70.44
277.726	77.44
277.957	71.44
278.189	93.44
278.421	85.44
278.652	80.44
278.884	93.44
279.115	89.44
279.347	87.44
279.579	88.44
279.81	83.44
280.042	90.44
280.273	70.44
280.505	93.44
280.736	103.44
280.968	81.44
281.199	94.44
281.431	82.44
281.662	72.44
281.894	98.44
282.125	90.44
282.356	110.44
282.588	123.44
282.819	121.44
283.051	93.44
283.282	91.44
283.513	103.44
283.745	76.44
283.976	104.44
284.207	81.44
284.439	83.44
284.67	87.44
284.901	95.44
285.132	76.44
285.364	77.44
285.595	80.44
285.826	87.44
286.057	94.44
286.288	75.44
286.52	92.44
286.751	98.44
286.982	88.44
287.213	73.44
287.444	88.44
287.675	75.44
287.906	82.44
288.138	86.44
288.369	88.44
288.6	93.44
288.831	76.44
289.062	81.44
289.293	81.44
289.524	94.44
289.755	75.44
289.986	92.44
290.217	82.44
290.448	75.44
290.679	80.44
290.91	78.44
291.141	83.44
291.371	68.44
291.602	60.44
291.833	82.44
292.064	87.44
292.295	89.44
292.526	97.44
292.757	88.44
292.987	74.44
293.218	87.44
293.449	86.44
293.68	86.44
293.91	73.44
294.141	110.44
294.372	100.44
294.603	91.44
294.833	86.44
295.064	81.44
295.295	90.44
295.525	98.44
295.756	89.44
295.987	117.44
296.217	130.44
296.448	128.44
296.679	109.44
296.909	94.44
297.14	95.44
297.37	72.44
297.601	77.44
297.831	99.44
298.062	100.44
298.292	99.44
298.523	96.44
298.753	97.44
298.984	87.44
299.214	74.44
299.445	102.44
299.675	93.44
299.905	101.44
300.136	78.44
300.366	94.44
300.597	95.44
300.827	105.44
301.057	103.44
301.288	102.44
301.518	87.44
301.748	89.44
301.979	95.44
302.209	113.44
302.439	87.44
302.669	82.44
302.9	84.44
303.13	89.44
303.36	93.44
303.59	102.44
303.82	91.44
304.051	94.44
304.281	88.44
304.511	82.44
304.741	86.44
304.971	82.44
305.201	87.44
305.431	84.44
305.661	92.44
305.891	91.44
306.121	94.44
306.352	95.44
306.582	100.44
306.812	86.44
307.042	99.44
307.272	92.44
307.502	83.44
307.731	75.44
307.961	91.44
308.191	71.44
308.421	103.44
308.651	84.44
308.881	89.44
309.111	97.44
309.341	93.44
309.571	101.44
309.8	90.44
310.03	88.44
310.26	88.44
310.49	106.44
310.72	86.44
310.949	91.44
311.179	108.44
311.409	86.44
311.639	88.44
311.868	88.44
312.098	98.44
312.328	96.44
312.557	88.44
312.787	97.44
313.017	74.44
313.246	95.44
313.476	88.44
313.706	90.44
313.935	87.44
314.165	100.44
314.394	98.44
314.624	84.44
314.853	102.44
315.083	96.44
315.312	77.44
315.542	84.44
315.771	77.44
316.001	88.44
316.23	94.44
316.46	84.44
316.689	102.44
316.919	96.44
317.148	82.44
317.377	78.44
317.607	90.44
317.836	104.44
318.065	97.44
318.295	85.44
318.524	90.44
318.753	104.44
318.983	97.44
319.212	92.44
319.441	109.44
319.67	103.44
319.9	84.44
320.129	77.44
320.358	92.44
320.587	92.44
320.816	97.44
321.046	99.44
321.275	86.44
321.504	88.44
321.733	97.44
321.962	92.44
322.191	89.44
322.42	97.44
322.649	100.44
322.878	122.44
323.108	110.44
323.337	114.44
323.566	116.44
323.795	164.44
324.024	179.44
324.253	355.44
324.482	708.44
324.71	1394.44
324.939	1838.44
325.168	698.44
325.397	228.44
325.626	145.44
325.855	128.44
326.084	118.44
326.313	106.44
326.542	138.44
326.77	210.44
326.999	384.44
327.228	758.44
327.457	1375.44
327.686	1099.44
327.914	319.44
328.143	183.44
328.372	133.44
328.6	131.44
328.829	101.44
329.058	128.44
329.287	137.44
329.515	116.44
329.744	107.44
329.972	93.44
330.201	119.44
330.43	122.44
330.658	126.44
330.887	122.44
331.115	102.44
331.344	104.44
331.572	110.44
331.801	105.44
332.03	97.44
332.258	93.44
332.486	86.44
332.715	93.44
332.943	106.44
333.172	104.44
333.4	107.44
333.629	103.44
333.857	102.44
334.085	111.44
334.314	118.44
334.542	134.44
334.771	104.44
334.999	92.44
335.227	81.44
335.455	80.44
335.684	94.44
335.912	106.44
336.14	102.44
336.369	104.44
336.597	88.44
336.825	111.44
337.053	117.44
337.281	80.44
337.51	82.44
337.738	92.44
337.966	87.44
338.194	84.44
338.422	94.44
338.65	100.44
338.878	100.44
339.106	91.44
339.334	98.44
339.562	89.44
339.79	86.44
340.018	91.44
340.246	98.44
340.474	109.44
340.702	97.44
340.93	87.44
341.158	90.44
341.386	83.44
341.614	89.44
341.842	91.44
342.07	90.44
342.298	82.44
342.526	97.44
342.754	92.44
342.981	86.44
343.209	79.44
343.437	101.44
343.665	82.44
343.893	87.44
344.12	88.44
344.348	89.44
344.576	82.44
344.804	94.44
345.031	105.44
345.259	99.44
345.487	87.44
345.714	90.44
345.942	91.44
346.17	93.44
346.397	76.44
346.625	97.44
346.853	79.44
347.08	62.44
347.308	106.44
347.535	94.44
347.763	95.44
347.99	91.44
348.218	110.44
348.445	108.44
348.673	100.44
348.9	94.44
349.128	82.44
349.355	88.44
349.583	84.44
349.81	86.44
350.037	94.44
350.265	104.44
350.492	88.44
350.72	94.44
350.947	98.44
351.174	113.44
351.402	107.44
351.629	100.44
351.856	110.44
352.083	94.44
352.311	95.44
352.538	108.44
352.765	113.44
352.992	110.44
353.22	119.44
353.447	105.44
353.674	94.44
353.901	96.44
354.128	96.44
354.355	81.44
354.583	102.44
354.81	106.44
355.037	101.44
355.264	92.44
355.491	87.44
355.718	87.44
355.945	95.44
356.172	100.44
356.399	97.44
356.626	93.44
356.853	83.44
357.08	102.44
357.307	79.44
357.534	90.44
357.761	92.44
357.988	105.44
358.215	96.44
358.441	99.44
358.668	103.44
358.895	90.44
359.122	83.44
359.349	87.44
359.576	76.44
359.802	93.44
360.029	111.44
360.256	106.44
360.483	81.44
360.709	69.44
360.936	92.44
361.163	91.44
361.39	97.44
361.616	98.44
361.843	98.44
362.07	83.44
362.296	95.44
362.523	95.44
362.749	90.44
362.976	87.44
363.203	83.44
363.429	100.44
363.656	96.44
363.882	83.44
364.109	90.44
364.335	95.44
364.562	90.44
364.788	80.44
365.015	86.44
365.241	101.44
365.468	122.44
365.694	106.44
365.92	92.44
366.147	84.44
366.373	88.44
366.599	84.44
366.826	86.44
367.052	96.44
367.278	100.44
367.505	92.44
367.731	95.44
367.957	95.44
368.184	75.44
368.41	101.44
368.636	106.44
368.862	115.44
369.089	105.44
369.315	90.44
369.541	93.44
369.767	90.44
369.993	94.44
370.219	97.44
370.445	99.44
370.672	79.44
370.898	99.44
371.124	98.44
371.35	83.44
371.576	87.44
371.802	88.44
372.028	91.44
372.254	82.44
372.48	83.44
372.706	87.44
372.932	101.44
373.158	95.44
373.384	105.44
373.61	95.44
373.835	101.44
374.061	83.44
374.287	86.44
374.513	98.44
374.739	81.44
374.965	79.44
375.191	89.44
375.416	91.44
375.642	81.44
375.868	82.44
376.094	100.44
376.319	89.44
376.545	84.44
376.771	86.44
376.997	85.44
377.222	89.44
377.448	86.44
377.674	97.44
377.899	80.44
378.125	87.44
378.35	98.44
378.576	103.44
378.802	81.44
379.027	96.44
379.253	95.44
379.478	87.44
379.704	90.44
379.929	73.44
380.155	92.44
380.38	90.44
380.606	98.44
380.831	90.44
381.057	107.44
381.282	85.44
381.507	94.44
381.733	96.44
381.958	88.44
382.184	98.44
382.409	102.44
382.634	96.44
382.86	92.44
383.085	114.44
383.31	107.44
383.535	115.44
383.761	107.44
383.986	111.44
384.211	104.44
384.436	95.44
384.662	94.44
384.887	100.44
385.112	112.44
385.337	110.44
385.562	111.44
385.787	115.44
386.013	118.44
386.238	122.44
386.463	115.44
386.688	128.44
386.913	113.44
387.138	119.44
387.363	99.44
387.588	94.44
387.813	97.44
388.038	113.44
388.263	123.44
388.488	113.44
388.713	99.44
388.938	88.44
389.163	95.44
389.387	102.44
389.612	91.44
389.837	89.44
390.062	87.44
390.287	91.44
390.512	100.44
390.736	92.44
390.961	76.44
391.186	101.44
391.411	87.44
391.636	79.44
391.86	71.44
392.085	76.44
392.31	86.44
392.534	77.44
392.759	98.44
392.984	90.44
393.208	91.44
393.433	89.44
393.658	98.44
393.882	87.44
394.107	93.44
394.331	88.44
394.556	91.44
394.78	95.44
395.005	95.44
395.229	89.44
395.454	90.44
395.678	84.44
395.903	83.44
396.127	86.44
396.352	84.44
396.576	90.44
396.801	87.44
397.025	84.44
397.249	97.44
397.474	100.44
397.698	90.44
397.922	78.44
398.147	82.44
398.371	87.44
398.595	81.44
398.82	80.44
399.044	87.44
399.268	81.44
399.492	90.44
399.717	97.44
399.941	93.44
400.165	77.44
400.389	84.44
400.613	84.44
400.837	100.44
401.062	95.44
401.286	92.44
401.51	76.44
401.734	89.44
401.958	91.44
402.182	98.44
402.406	139.44
402.63	120.44
402.854	84.44
403.078	87.44
403.302	93.44
403.526	91.44
403.75	100.44
403.974	88.44
404.198	87.44
404.422	84.44
404.645	83.44
404.869	89.44
405.093	100.44
405.317	99.44
405.541	106.44
405.765	82.44
405.988	115.44
406.212	161.44
406.436	231.44
406.66	141.44
406.883	90.44
407.107	102.44
407.331	93.44
407.555	92.44
407.778	82.44
408.002	91.44
408.226	87.44
408.449	84.44
408.673	83.44
408.896	78.44
409.12	91.44
409.344	93.44
409.567	107.44
409.791	90.44
410.014	80.44
410.238	82.44
410.461	91.44
410.685	79.44
410.908	94.44
411.132	106.44
411.355	96.44
411.578	97.44
411.802	76.44
412.025	90.44
412.249	86.44
412.472	88.44
412.695	95.44
412.919	78.44
413.142	88.44
413.365	77.44
413.589	94.44
413.812	86.44
414.035	84.44
414.258	81.44
414.482	88.44
414.705	82.44
414.928	98.44
415.151	90.44
415.374	92.44
415.597	86.44
415.821	96.44
416.044	84.44
416.267	99.44
416.49	90.44
416.713	88.44
416.936	90.44
417.159	84.44
417.382	86.44
417.605	97.44
417.828	87.44
418.051	90.44
418.274	89.44
418.497	79.44
418.72	70.44
418.943	91.44
419.166	94.44
419.389	94.44
419.611	89.44
419.834	81.44
420.057	88.44
420.28	76.44
420.503	101.44
420.726	94.44
420.948	82.44
421.171	96.44
421.394	87.44
421.617	87.44
421.839	80.44
422.062	90.44
422.285	95.44
422.507	84.44
422.73	97.44
422.953	95.44
423.175	85.44
423.398	77.44
423.621	95.44
423.843	88.44
424.066	88.44
424.288	89.44
424.511	91.44
424.733	98.44
424.956	98.44
425.178	99.44
425.401	94.44
425.623	92.44
425.846	94.44
426.068	88.44
426.291	78.44
426.513	85.44
426.735	95.44
426.958	108.44
427.18	93.44
427.402	131.44
427.625	161.44
427.847	126.44
428.069	91.44
428.292	92.44
428.514	83.44
428.736	79.44
428.958	76.44
429.181	91.44
429.403	90.44
429.625	85.44
429.847	97.44
430.069	91.44
430.292	95.44
430.514	86.44
430.736	88.44
430.958	94.44
431.18	80.44
431.402	71.44
431.624	89.44
431.846	83.44
432.068	77.44
432.29	84.44
432.512	89.44
432.734	94.44
432.956	81.44
433.178	87.44
433.4	98.44
433.622	93.44
433.844	104.44
434.066	79.44
434.287	92.44
434.509	87.44
434.731	81.44
434.953	75.44
435.175	91.44
435.397	85.44
435.618	67.44
435.84	100.44
436.062	114.44
436.284	100.44
436.505	87.44
436.727	92.44
436.949	96.44
437.17	70.44
437.392	78.44
437.614	74.44
437.835	103.44
438.057	110.44
438.278	100.44
438.5	102.44
438.721	116.44
438.943	103.44
439.165	87.44
439.386	92.44
439.608	89.44
439.829	90.44
440.05	115.44
440.272	148.44
440.493	95.44
440.715	84.44
440.936	81.44
441.158	91.44
441.379	79.44
441.6	88.44
441.822	90.44
442.043	96.44
442.264	104.44
442.486	102.44
442.707	89.44
442.928	107.44
443.149	103.44
443.371	123.44
443.592	107.44
443.813	100.44
444.034	100.44
444.255	80.44
444.476	73.44
444.698	85.44
444.919	73.44
445.14	127.44
445.361	114.44
445.582	109.44
445.803	126.44
446.024	126.44
446.245	119.44
446.466	112.44
446.687	94.44
446.908	86.44
447.129	81.44
447.35	97.44
447.571	93.44
447.792	105.44
448.013	99.44
448.234	101.44
448.455	91.44
448.675	104.44
448.896	106.44
449.117	94.44
449.338	105.44
449.559	123.44
449.779	108.44
450	90.44
450.221	81.44
450.442	90.44
450.662	91.44
450.883	96.44
451.104	95.44
451.324	105.44
451.545	78.44
451.766	86.44
451.986	78.44
452.207	99.44
452.428	87.44
452.648	81.44
452.869	116.44
453.089	109.44
453.31	113.44
453.53	109.44
453.751	74.44
453.971	100.44
454.192	106.44
454.412	84.44
454.633	87.44
454.853	79.44
455.073	83.44
455.294	87.44
455.514	96.44
455.734	82.44
455.955	88.44
456.175	95.44
456.395	79.44
456.616	87.44
456.836	89.44
457.056	81.44
457.276	91.44
457.497	72.44
457.717	86.44
457.937	78.44
458.157	73.44
458.377	77.44
458.598	99.44
458.818	141.44
459.038	147.44
459.258	113.44
459.478	89.44
459.698	103.44
459.918	100.44
460.138	89.44
460.358	88.44
460.578	83.44
460.798	90.44
461.018	89.44
461.238	82.44
461.458	81.44
461.678	76.44
461.898	79.44
462.118	84.44
462.338	94.44
462.558	83.44
462.777	90.44
462.997	92.44
463.217	90.44
463.437	79.44
463.657	91.44
463.876	72.44
464.096	83.44
464.316	86.44
464.536	81.44
464.755	90.44
464.975	97.44
465.195	160.44
465.414	148.44
465.634	102.44
465.854	90.44
466.073	91.44
466.293	96.44
466.512	81.44
466.732	90.44
466.951	67.44
467.171	100.44
467.391	93.44
467.61	101.44
467.829	101.44
468.049	90.44
468.268	100.44
468.488	75.44
468.707	74.44
468.927	105.44
469.146	91.44
469.365	87.44
469.585	95.44
469.804	96.44
470.023	96.44
470.243	84.44
470.462	92.44
470.681	91.44
470.901	84.44
471.12	81.44
471.339	95.44
471.558	85.44
471.777	91.44
471.997	84.44
472.216	116.44
472.435	155.44
472.654	112.44
472.873	90.44
473.092	84.44
473.311	100.44
473.53	76.44
473.749	81.44
473.968	103.44
474.187	103.44
474.406	86.44
474.625	95.44
474.844	103.44
475.063	89.44
475.282	82.44
475.501	84.44
475.72	91.44
475.939	77.44
476.158	80.44
476.377	97.44
476.596	86.44
476.814	93.44
477.033	94.44
477.252	98.44
477.471	91.44
477.69	83.44
477.908	100.44
478.127	91.44
478.346	89.44
478.564	95.44
478.783	97.44
479.002	90.44
479.22	100.44
479.439	96.44
479.658	103.44
479.876	78.44
480.095	92.44
480.313	67.44
480.532	81.44
480.751	90.44
480.969	113.44
481.188	159.44
481.406	136.44
481.624	98.44
481.843	89.44
482.061	91.44
482.28	91.44
482.498	101.44
482.717	98.44
482.935	84.44
483.153	85.44
483.372	71.44
483.59	96.44
483.808	94.44
484.027	94.44
484.245	91.44
484.463	91.44
484.681	89.44
484.9	75.44
485.118	83.44
485.336	90.44
485.554	99.44
485.772	83.44
485.99	99.44
486.209	100.44
486.427	105.44
486.645	108.44
486.863	104.44
487.081	106.44
487.299	94.44
487.517	90.44
487.735	89.44
487.953	82.44
488.171	89.44
488.389	82.44
488.607	73.44
488.825	94.44
489.043	93.44
489.261	91.44
489.479	89.44
489.696	84.44
489.914	84.44
490.132	79.44
490.35	74.44
490.568	74.44
490.786	81.44
491.003	82.44
491.221	82.44
491.439	83.44
491.657	94.44
491.874	97.44
492.092	97.44
492.31	107.44
492.527	103.44
492.745	72.44
492.963	80.44
493.18	81.44
493.398	83.44
493.615	95.44
493.833	94.44
494.05	90.44
494.268	83.44
494.485	95.44
494.703	91.44
494.92	103.44
495.138	90.44
495.355	93.44
495.573	109.44
495.79	87.44
496.008	118.44
496.225	88.44
496.442	93.44
496.66	83.44
496.877	91.44
497.094	83.44
497.312	97.44
497.529	92.44
497.746	92.44
497.963	102.44
498.181	104.44
498.398	103.44
498.615	96.44
498.832	85.44
499.049	106.44
499.267	94.44
499.484	107.44
499.701	93.44
499.918	88.44
500.135	88.44
500.352	96.44
500.569	96.44
500.786	96.44
501.003	91.44
501.22	85.44
501.437	85.44
501.654	94.44
501.871	103.44
502.088	74.44
502.305	90.44
502.522	97.44
502.739	80.44
502.956	90.44
503.172	96.44
503.389	108.44
503.606	96.44
503.823	97.44
504.04	94.44
504.256	90.44
504.473	90.44
504.69	109.44
504.907	90.44
505.123	97.44
505.34	97.44
505.557	91.44
505.773	88.44
505.99	84.44
506.207	78.44
506.423	77.44
506.64	92.44
506.856	88.44
507.073	90.44
507.289	80.44
507.506	79.44
507.722	100.44
507.939	112.44
508.155	101.44
508.372	83.44
508.588	90.44
508.805	90.44
509.021	93.44
509.238	100.44
509.454	93.44
509.67	96.44
509.887	119.44
510.103	139.44
510.319	224.44
510.536	747.44
510.752	2496.44
510.968	703.44
511.184	158.44
511.401	97.44
511.617	100.44
511.833	85.44
512.049	99.44
512.265	82.44
512.481	95.44
512.698	91.44
512.914	93.44
513.13	93.44
513.346	96.44
513.562	91.44
513.778	98.44
513.994	81.44
514.21	96.44
514.426	129.44
514.642	124.44
514.858	113.44
515.074	154.44
515.29	432.44
515.506	1489.44
515.721	542.44
515.937	152.44
516.153	113.44
