Data from Circ_2008_H10_HRD10591_00069.txt Node
Date: Wed Jan 03 10:17:10 EST 2024
User: Yrep
Spectrometer: HR+D1059
Trigger mode: 1
Integration Time (sec): 1.000000E-1
Scans to average: 1
Electric dark correction enabled: true
Nonlinearity correction enabled: false
Boxcar width: 0
XAxis mode: Wavelengths
Number of Pixels in Spectrum: 2048
>>>>>Begin Spectral Data<<<<<
223.165	-13.88
223.4	-13.88
223.635	-13.88
223.869	-23.88
224.104	-22.88
224.338	-19.88
224.573	-11.88
224.808	-26.88
225.042	-15.88
225.277	2.12
225.511	2.12
225.746	-0.88
225.98	21.12
226.215	4.12
226.449	20.12
226.683	25.12
226.918	40.12
227.152	21.12
227.387	36.12
227.621	34.12
227.856	39.12
228.09	46.12
228.324	48.12
228.559	55.12
228.793	64.12
229.027	63.12
229.262	68.12
229.496	80.12
229.73	75.12
229.964	76.12
230.199	72.12
230.433	68.12
230.667	76.12
230.901	83.12
231.136	83.12
231.37	73.12
231.604	73.12
231.838	82.12
232.072	74.12
232.306	79.12
232.541	87.12
232.775	73.12
233.009	76.12
233.243	70.12
233.477	91.12
233.711	86.12
233.945	90.12
234.179	92.12
234.413	84.12
234.647	83.12
234.881	67.12
235.115	84.12
235.349	89.12
235.583	81.12
235.817	91.12
236.051	72.12
236.285	81.12
236.519	76.12
236.753	84.12
236.987	69.12
237.221	83.12
237.455	98.12
237.689	78.12
237.922	70.12
238.156	74.12
238.39	59.12
238.624	72.12
238.858	71.12
239.091	82.12
239.325	74.12
239.559	74.12
239.793	69.12
240.027	64.12
240.26	90.12
240.494	87.12
240.728	80.12
240.961	82.12
241.195	72.12
241.429	74.12
241.662	72.12
241.896	75.12
242.13	76.12
242.363	89.12
242.597	90.12
242.83	94.12
243.064	80.12
243.298	75.12
243.531	89.12
243.765	74.12
243.998	94.12
244.232	62.12
244.465	85.12
244.699	92.12
244.932	82.12
245.166	76.12
245.399	74.12
245.633	77.12
245.866	78.12
246.099	88.12
246.333	84.12
246.566	81.12
246.8	75.12
247.033	68.12
247.266	81.12
247.5	82.12
247.733	81.12
247.966	91.12
248.2	82.12
248.433	77.12
248.666	83.12
248.899	87.12
249.133	79.12
249.366	94.12
249.599	99.12
249.832	86.12
250.066	67.12
250.299	66.12
250.532	79.12
250.765	83.12
250.998	86.12
251.231	77.12
251.465	87.12
251.698	73.12
251.931	69.12
252.164	70.12
252.397	81.12
252.63	76.12
252.863	76.12
253.096	85.12
253.329	80.12
253.562	84.12
253.795	68.12
254.028	84.12
254.261	72.12
254.494	73.12
254.727	91.12
254.96	82.12
255.193	91.12
255.426	78.12
255.659	78.12
255.892	78.12
256.124	92.12
256.357	83.12
256.59	86.12
256.823	86.12
257.056	86.12
257.289	69.12
257.521	82.12
257.754	85.12
257.987	83.12
258.22	87.12
258.452	76.12
258.685	91.12
258.918	91.12
259.151	83.12
259.383	84.12
259.616	83.12
259.849	86.12
260.081	84.12
260.314	79.12
260.547	91.12
260.779	78.12
261.012	90.12
261.244	91.12
261.477	89.12
261.71	93.12
261.942	100.12
262.175	122.12
262.407	84.12
262.64	88.12
262.872	88.12
263.105	88.12
263.337	75.12
263.57	81.12
263.802	81.12
264.035	80.12
264.267	70.12
264.499	83.12
264.732	84.12
264.964	82.12
265.197	90.12
265.429	77.12
265.661	84.12
265.894	76.12
266.126	90.12
266.358	86.12
266.591	80.12
266.823	88.12
267.055	71.12
267.287	85.12
267.52	77.12
267.752	95.12
267.984	89.12
268.216	73.12
268.448	91.12
268.681	84.12
268.913	91.12
269.145	81.12
269.377	91.12
269.609	81.12
269.841	82.12
270.073	79.12
270.306	93.12
270.538	86.12
270.77	80.12
271.002	93.12
271.234	89.12
271.466	84.12
271.698	80.12
271.93	91.12
272.162	104.12
272.394	95.12
272.626	92.12
272.858	73.12
273.09	84.12
273.322	88.12
273.553	74.12
273.785	81.12
274.017	83.12
274.249	74.12
274.481	73.12
274.713	90.12
274.945	83.12
275.176	88.12
275.408	95.12
275.64	93.12
275.872	74.12
276.104	82.12
276.335	82.12
276.567	101.12
276.799	96.12
277.031	97.12
277.262	94.12
277.494	94.12
277.726	74.12
277.957	78.12
278.189	82.12
278.421	84.12
278.652	76.12
278.884	97.12
279.115	82.12
279.347	85.12
279.579	81.12
279.81	83.12
280.042	92.12
280.273	102.12
280.505	97.12
280.736	89.12
280.968	92.12
281.199	82.12
281.431	85.12
281.662	93.12
281.894	91.12
282.125	100.12
282.356	122.12
282.588	136.12
282.819	105.12
283.051	80.12
283.282	86.12
283.513	81.12
283.745	75.12
283.976	80.12
284.207	80.12
284.439	83.12
284.67	93.12
284.901	90.12
285.132	79.12
285.364	82.12
285.595	89.12
285.826	92.12
286.057	77.12
286.288	89.12
286.52	93.12
286.751	88.12
286.982	72.12
287.213	90.12
287.444	88.12
287.675	93.12
287.906	102.12
288.138	76.12
288.369	98.12
288.6	86.12
288.831	91.12
289.062	99.12
289.293	79.12
289.524	91.12
289.755	73.12
289.986	81.12
290.217	83.12
290.448	91.12
290.679	94.12
290.91	93.12
291.141	80.12
291.371	95.12
291.602	95.12
291.833	88.12
292.064	100.12
292.295	85.12
292.526	92.12
292.757	94.12
292.987	90.12
293.218	88.12
293.449	96.12
293.68	92.12
293.91	98.12
294.141	82.12
294.372	100.12
294.603	93.12
294.833	72.12
295.064	78.12
295.295	97.12
295.525	86.12
295.756	94.12
295.987	117.12
296.217	140.12
296.448	137.12
296.679	100.12
296.909	70.12
297.14	79.12
297.37	93.12
297.601	109.12
297.831	82.12
298.062	79.12
298.292	81.12
298.523	84.12
298.753	88.12
298.984	86.12
299.214	81.12
299.445	88.12
299.675	84.12
299.905	84.12
300.136	88.12
300.366	95.12
300.597	83.12
300.827	92.12
301.057	96.12
301.288	80.12
301.518	90.12
301.748	89.12
301.979	94.12
302.209	94.12
302.439	90.12
302.669	88.12
302.9	82.12
303.13	87.12
303.36	104.12
303.59	111.12
303.82	116.12
304.051	105.12
304.281	82.12
304.511	91.12
304.741	86.12
304.971	78.12
305.201	86.12
305.431	90.12
305.661	92.12
305.891	95.12
306.121	87.12
306.352	98.12
306.582	109.12
306.812	98.12
307.042	93.12
307.272	90.12
307.502	91.12
307.731	110.12
307.961	101.12
308.191	93.12
308.421	91.12
308.651	77.12
308.881	95.12
309.111	91.12
309.341	93.12
309.571	89.12
309.8	93.12
310.03	100.12
310.26	93.12
310.49	88.12
310.72	104.12
310.949	97.12
311.179	111.12
311.409	90.12
311.639	93.12
311.868	83.12
312.098	104.12
312.328	92.12
312.557	111.12
312.787	99.12
313.017	105.12
313.246	107.12
313.476	102.12
313.706	92.12
313.935	84.12
314.165	90.12
314.394	79.12
314.624	92.12
314.853	84.12
315.083	96.12
315.312	99.12
315.542	94.12
315.771	91.12
316.001	89.12
316.23	99.12
316.46	76.12
316.689	83.12
316.919	90.12
317.148	93.12
317.377	85.12
317.607	103.12
317.836	100.12
318.065	84.12
318.295	87.12
318.524	92.12
318.753	96.12
318.983	89.12
319.212	112.12
319.441	95.12
319.67	109.12
319.9	109.12
320.129	104.12
320.358	84.12
320.587	92.12
320.816	80.12
321.046	97.12
321.275	106.12
321.504	96.12
321.733	106.12
321.962	108.12
322.191	104.12
322.42	95.12
322.649	101.12
322.878	111.12
323.108	111.12
323.337	108.12
323.566	124.12
323.795	139.12
324.024	192.12
324.253	341.12
324.482	700.12
324.71	1440.12
324.939	1872.12
325.168	725.12
325.397	231.12
325.626	144.12
325.855	128.12
326.084	130.12
326.313	127.12
326.542	134.12
326.77	212.12
326.999	393.12
327.228	798.12
327.457	1409.12
327.686	1130.12
327.914	317.12
328.143	196.12
328.372	186.12
328.6	141.12
328.829	122.12
329.058	135.12
329.287	111.12
329.515	110.12
329.744	115.12
329.972	123.12
330.201	155.12
330.43	217.12
330.658	142.12
330.887	143.12
331.115	129.12
331.344	99.12
331.572	101.12
331.801	95.12
332.03	94.12
332.258	94.12
332.486	85.12
332.715	79.12
332.943	97.12
333.172	97.12
333.4	102.12
333.629	101.12
333.857	112.12
334.085	125.12
334.314	161.12
334.542	228.12
334.771	225.12
334.999	124.12
335.227	111.12
335.455	96.12
335.684	99.12
335.912	98.12
336.14	91.12
336.369	99.12
336.597	107.12
336.825	100.12
337.053	103.12
337.281	95.12
337.51	101.12
337.738	86.12
337.966	87.12
338.194	90.12
338.422	101.12
338.65	92.12
338.878	93.12
339.106	82.12
339.334	97.12
339.562	90.12
339.79	88.12
340.018	97.12
340.246	100.12
340.474	65.12
340.702	83.12
340.93	82.12
341.158	97.12
341.386	88.12
341.614	93.12
341.842	90.12
342.07	104.12
342.298	97.12
342.526	106.12
342.754	105.12
342.981	79.12
343.209	87.12
343.437	79.12
343.665	88.12
343.893	90.12
344.12	100.12
344.348	90.12
344.576	93.12
344.804	96.12
345.031	91.12
345.259	99.12
345.487	82.12
345.714	91.12
345.942	92.12
346.17	101.12
346.397	106.12
346.625	104.12
346.853	94.12
347.08	93.12
347.308	98.12
347.535	97.12
347.763	103.12
347.99	115.12
348.218	108.12
348.445	93.12
348.673	106.12
348.9	106.12
349.128	104.12
349.355	101.12
349.583	108.12
349.81	88.12
350.037	102.12
350.265	100.12
350.492	92.12
350.72	110.12
350.947	105.12
351.174	97.12
351.402	115.12
351.629	95.12
351.856	109.12
352.083	109.12
352.311	106.12
352.538	113.12
352.765	89.12
352.992	115.12
353.22	120.12
353.447	111.12
353.674	109.12
353.901	82.12
354.128	99.12
354.355	93.12
354.583	103.12
354.81	97.12
355.037	100.12
355.264	86.12
355.491	82.12
355.718	86.12
355.945	79.12
356.172	84.12
356.399	101.12
356.626	110.12
356.853	96.12
357.08	90.12
357.307	103.12
357.534	90.12
357.761	86.12
357.988	85.12
358.215	96.12
358.441	98.12
358.668	84.12
358.895	104.12
359.122	105.12
359.349	89.12
359.576	97.12
359.802	104.12
360.029	109.12
360.256	102.12
360.483	95.12
360.709	94.12
360.936	99.12
361.163	97.12
361.39	90.12
361.616	93.12
361.843	89.12
362.07	77.12
362.296	91.12
362.523	90.12
362.749	94.12
362.976	97.12
363.203	94.12
363.429	93.12
363.656	89.12
363.882	97.12
364.109	93.12
364.335	85.12
364.562	90.12
364.788	92.12
365.015	84.12
365.241	114.12
365.468	109.12
365.694	106.12
365.92	108.12
366.147	83.12
366.373	80.12
366.599	84.12
366.826	90.12
367.052	81.12
367.278	102.12
367.505	95.12
367.731	96.12
367.957	96.12
368.184	101.12
368.41	114.12
368.636	122.12
368.862	117.12
369.089	105.12
369.315	94.12
369.541	93.12
369.767	88.12
369.993	87.12
370.219	93.12
370.445	90.12
370.672	82.12
370.898	92.12
371.124	88.12
371.35	93.12
371.576	102.12
371.802	85.12
372.028	88.12
372.254	90.12
372.48	104.12
372.706	88.12
372.932	96.12
373.158	85.12
373.384	99.12
373.61	87.12
373.835	76.12
374.061	88.12
374.287	89.12
374.513	82.12
374.739	91.12
374.965	83.12
375.191	84.12
375.416	95.12
375.642	96.12
375.868	90.12
376.094	104.12
376.319	101.12
376.545	91.12
376.771	98.12
376.997	96.12
377.222	78.12
377.448	97.12
377.674	93.12
377.899	92.12
378.125	82.12
378.35	76.12
378.576	91.12
378.802	98.12
379.027	97.12
379.253	106.12
379.478	92.12
379.704	108.12
379.929	104.12
380.155	97.12
380.38	96.12
380.606	105.12
380.831	100.12
381.057	104.12
381.282	79.12
381.507	89.12
381.733	89.12
381.958	98.12
382.184	95.12
382.409	91.12
382.634	111.12
382.86	96.12
383.085	105.12
383.31	101.12
383.535	92.12
383.761	105.12
383.986	107.12
384.211	97.12
384.436	101.12
384.662	112.12
384.887	87.12
385.112	100.12
385.337	105.12
385.562	87.12
385.787	104.12
386.013	118.12
386.238	117.12
386.463	104.12
386.688	117.12
386.913	107.12
387.138	111.12
387.363	96.12
387.588	103.12
387.813	101.12
388.038	107.12
388.263	108.12
388.488	115.12
388.713	103.12
388.938	94.12
389.163	117.12
389.387	100.12
389.612	95.12
389.837	86.12
390.062	92.12
390.287	101.12
390.512	85.12
390.736	88.12
390.961	95.12
391.186	87.12
391.411	105.12
391.636	79.12
391.86	93.12
392.085	74.12
392.31	83.12
392.534	97.12
392.759	93.12
392.984	100.12
393.208	93.12
393.433	92.12
393.658	88.12
393.882	89.12
394.107	87.12
394.331	86.12
394.556	75.12
394.78	88.12
395.005	84.12
395.229	78.12
395.454	89.12
395.678	84.12
395.903	92.12
396.127	101.12
396.352	91.12
396.576	86.12
396.801	103.12
397.025	86.12
397.249	83.12
397.474	96.12
397.698	81.12
397.922	88.12
398.147	97.12
398.371	84.12
398.595	84.12
398.82	84.12
399.044	83.12
399.268	86.12
399.492	89.12
399.717	94.12
399.941	89.12
400.165	95.12
400.389	85.12
400.613	78.12
400.837	83.12
401.062	88.12
401.286	77.12
401.51	94.12
401.734	103.12
401.958	107.12
402.182	116.12
402.406	152.12
402.63	118.12
402.854	79.12
403.078	79.12
403.302	96.12
403.526	95.12
403.75	109.12
403.974	87.12
404.198	89.12
404.422	84.12
404.645	74.12
404.869	91.12
405.093	102.12
405.317	89.12
405.541	92.12
405.765	97.12
405.988	107.12
406.212	190.12
406.436	238.12
406.66	139.12
406.883	100.12
407.107	76.12
407.331	91.12
407.555	106.12
407.778	91.12
408.002	90.12
408.226	92.12
408.449	83.12
408.673	73.12
408.896	89.12
409.12	105.12
409.344	89.12
409.567	85.12
409.791	96.12
410.014	92.12
410.238	109.12
410.461	100.12
410.685	100.12
410.908	90.12
411.132	99.12
411.355	102.12
411.578	101.12
411.802	86.12
412.025	88.12
412.249	89.12
412.472	100.12
412.695	110.12
412.919	96.12
413.142	102.12
413.365	91.12
413.589	88.12
413.812	98.12
414.035	91.12
414.258	93.12
414.482	82.12
414.705	96.12
414.928	90.12
415.151	86.12
415.374	91.12
415.597	90.12
415.821	73.12
416.044	97.12
416.267	98.12
416.49	94.12
416.713	78.12
416.936	84.12
417.159	92.12
417.382	82.12
417.605	100.12
417.828	75.12
418.051	101.12
418.274	92.12
418.497	81.12
418.72	103.12
418.943	86.12
419.166	94.12
419.389	91.12
419.611	92.12
419.834	90.12
420.057	95.12
420.28	95.12
420.503	87.12
420.726	91.12
420.948	89.12
421.171	90.12
421.394	91.12
421.617	91.12
421.839	77.12
422.062	93.12
422.285	99.12
422.507	99.12
422.73	93.12
422.953	104.12
423.175	77.12
423.398	75.12
423.621	86.12
423.843	80.12
424.066	86.12
424.288	90.12
424.511	85.12
424.733	106.12
424.956	97.12
425.178	100.12
425.401	93.12
425.623	98.12
425.846	91.12
426.068	85.12
426.291	99.12
426.513	95.12
426.735	91.12
426.958	99.12
427.18	106.12
427.402	123.12
427.625	174.12
427.847	156.12
428.069	126.12
428.292	86.12
428.514	106.12
428.736	83.12
428.958	77.12
429.181	94.12
429.403	88.12
429.625	87.12
429.847	88.12
430.069	93.12
430.292	83.12
430.514	94.12
430.736	94.12
430.958	85.12
431.18	88.12
431.402	81.12
431.624	93.12
431.846	90.12
432.068	86.12
432.29	81.12
432.512	86.12
432.734	91.12
432.956	83.12
433.178	95.12
433.4	102.12
433.622	99.12
433.844	103.12
434.066	94.12
434.287	80.12
434.509	83.12
434.731	83.12
434.953	80.12
435.175	85.12
435.397	91.12
435.618	89.12
435.84	87.12
436.062	119.12
436.284	123.12
436.505	101.12
436.727	81.12
436.949	102.12
437.17	89.12
437.392	82.12
437.614	63.12
437.835	100.12
438.057	122.12
438.278	108.12
438.5	85.12
438.721	105.12
438.943	93.12
439.165	96.12
439.386	81.12
439.608	98.12
439.829	99.12
440.05	111.12
440.272	134.12
440.493	106.12
440.715	87.12
440.936	96.12
441.158	97.12
441.379	87.12
441.6	98.12
441.822	100.12
442.043	91.12
442.264	96.12
442.486	96.12
442.707	99.12
442.928	105.12
443.149	116.12
443.371	119.12
443.592	101.12
443.813	97.12
444.034	109.12
444.255	92.12
444.476	80.12
444.698	92.12
444.919	81.12
445.14	130.12
445.361	122.12
445.582	124.12
445.803	127.12
446.024	133.12
446.245	130.12
446.466	94.12
446.687	97.12
446.908	87.12
447.129	82.12
447.35	82.12
447.571	90.12
447.792	92.12
448.013	101.12
448.234	107.12
448.455	99.12
448.675	111.12
448.896	116.12
449.117	100.12
449.338	99.12
449.559	132.12
449.779	121.12
450	102.12
450.221	90.12
450.442	89.12
450.662	111.12
450.883	94.12
451.104	99.12
451.324	113.12
451.545	85.12
451.766	85.12
451.986	98.12
452.207	91.12
452.428	92.12
452.648	97.12
452.869	109.12
453.089	129.12
453.31	123.12
453.53	89.12
453.751	103.12
453.971	102.12
454.192	113.12
454.412	91.12
454.633	90.12
454.853	89.12
455.073	100.12
455.294	101.12
455.514	93.12
455.734	98.12
455.955	79.12
456.175	82.12
456.395	95.12
456.616	89.12
456.836	89.12
457.056	91.12
457.276	85.12
457.497	84.12
457.717	88.12
457.937	78.12
458.157	80.12
458.377	96.12
458.598	92.12
458.818	157.12
459.038	158.12
459.258	107.12
459.478	96.12
459.698	73.12
459.918	84.12
460.138	67.12
460.358	89.12
460.578	107.12
460.798	105.12
461.018	89.12
461.238	78.12
461.458	84.12
461.678	107.12
461.898	76.12
462.118	100.12
462.338	84.12
462.558	72.12
462.777	92.12
462.997	84.12
463.217	78.12
463.437	77.12
463.657	78.12
463.876	90.12
464.096	89.12
464.316	93.12
464.536	95.12
464.755	101.12
464.975	104.12
465.195	181.12
465.414	152.12
465.634	92.12
465.854	85.12
466.073	80.12
466.293	80.12
466.512	99.12
466.732	90.12
466.951	85.12
467.171	85.12
467.391	94.12
467.61	92.12
467.829	104.12
468.049	112.12
468.268	146.12
468.488	97.12
468.707	94.12
468.927	92.12
469.146	89.12
469.365	89.12
469.585	86.12
469.804	101.12
470.023	92.12
470.243	84.12
470.462	102.12
470.681	107.12
470.901	79.12
471.12	90.12
471.339	84.12
471.558	92.12
471.777	85.12
471.997	107.12
472.216	180.12
472.435	282.12
472.654	138.12
472.873	80.12
473.092	88.12
473.311	91.12
473.53	86.12
473.749	80.12
473.968	93.12
474.187	102.12
474.406	91.12
474.625	91.12
474.844	85.12
475.063	90.12
475.282	96.12
475.501	93.12
475.72	85.12
475.939	84.12
476.158	86.12
476.377	80.12
476.596	86.12
476.814	93.12
477.033	97.12
477.252	81.12
477.471	101.12
477.69	77.12
477.908	81.12
478.127	87.12
478.346	93.12
478.564	95.12
478.783	93.12
479.002	89.12
479.22	85.12
479.439	89.12
479.658	102.12
479.876	93.12
480.095	106.12
480.313	86.12
480.532	91.12
480.751	106.12
480.969	180.12
481.188	454.12
481.406	310.12
481.624	103.12
481.843	94.12
482.061	98.12
482.28	104.12
482.498	91.12
482.717	93.12
482.935	74.12
483.153	91.12
483.372	97.12
483.59	88.12
483.808	83.12
484.027	101.12
484.245	98.12
484.463	83.12
484.681	101.12
484.9	90.12
485.118	88.12
485.336	95.12
485.554	99.12
485.772	95.12
485.99	118.12
486.209	92.12
486.427	99.12
486.645	106.12
486.863	103.12
487.081	83.12
487.299	83.12
487.517	93.12
487.735	104.12
487.953	100.12
488.171	101.12
488.389	86.12
488.607	94.12
488.825	86.12
489.043	83.12
489.261	86.12
489.479	86.12
489.696	101.12
489.914	98.12
490.132	88.12
490.35	92.12
490.568	78.12
490.786	85.12
491.003	86.12
491.221	83.12
491.439	91.12
491.657	92.12
491.874	102.12
492.092	93.12
492.31	76.12
492.527	82.12
492.745	99.12
492.963	102.12
493.18	84.12
493.398	89.12
493.615	95.12
493.833	84.12
494.05	96.12
494.268	77.12
494.485	96.12
494.703	90.12
494.92	89.12
495.138	93.12
495.355	90.12
495.573	100.12
495.79	76.12
496.008	98.12
496.225	85.12
496.442	81.12
496.66	94.12
496.877	98.12
497.094	89.12
497.312	83.12
497.529	86.12
497.746	78.12
497.963	82.12
498.181	82.12
498.398	85.12
498.615	110.12
498.832	101.12
499.049	78.12
499.267	99.12
499.484	98.12
499.701	89.12
499.918	109.12
500.135	94.12
500.352	84.12
500.569	113.12
500.786	88.12
501.003	85.12
501.22	90.12
501.437	86.12
501.654	86.12
501.871	91.12
502.088	90.12
502.305	89.12
502.522	97.12
502.739	95.12
502.956	92.12
503.172	86.12
503.389	83.12
503.606	109.12
503.823	105.12
504.04	104.12
504.256	83.12
504.473	95.12
504.69	90.12
504.907	93.12
505.123	87.12
505.34	92.12
505.557	92.12
505.773	81.12
505.99	97.12
506.207	92.12
506.423	100.12
506.64	100.12
506.856	93.12
507.073	91.12
507.289	92.12
507.506	92.12
507.722	121.12
507.939	116.12
508.155	86.12
508.372	92.12
508.588	113.12
508.805	99.12
509.021	95.12
509.238	108.12
509.454	91.12
509.67	106.12
509.887	116.12
510.103	125.12
510.319	212.12
510.536	745.12
510.752	2454.12
510.968	686.12
511.184	164.12
511.401	98.12
511.617	102.12
511.833	93.12
512.049	102.12
512.265	94.12
512.481	104.12
512.698	97.12
512.914	102.12
513.13	104.12
513.346	92.12
513.562	91.12
513.778	93.12
513.994	102.12
514.21	97.12
514.426	106.12
514.642	147.12
514.858	115.12
515.074	177.12
515.29	451.12
