Data from Circ_2008_H10_HRD10591_00095.txt Node
Date: Wed Jan 03 10:17:15 EST 2024
User: Yrep
Spectrometer: HR+D1059
Trigger mode: 1
Integration Time (sec): 1.000000E-1
Scans to average: 1
Electric dark correction enabled: true
Nonlinearity correction enabled: false
Boxcar width: 0
XAxis mode: Wavelengths
Number of Pixels in Spectrum: 2048
>>>>>Begin Spectral Data<<<<<
223.165	-16.94
223.4	-16.94
223.635	-16.94
223.869	-14.94
224.104	-21.94
224.338	-11.94
224.573	-13.94
224.808	-11.94
225.042	-18.94
225.277	-4.94
225.511	0.06
225.746	6.06
225.98	13.06
226.215	24.06
226.449	13.06
226.683	21.06
226.918	23.06
227.152	15.06
227.387	42.06
227.621	32.06
227.856	42.06
228.09	41.06
228.324	49.06
228.559	58.06
228.793	63.06
229.027	68.06
229.262	66.06
229.496	78.06
229.73	80.06
229.964	76.06
230.199	75.06
230.433	79.06
230.667	87.06
230.901	58.06
231.136	82.06
231.37	90.06
231.604	86.06
231.838	77.06
232.072	80.06
232.306	74.06
232.541	89.06
232.775	99.06
233.009	90.06
233.243	86.06
233.477	60.06
233.711	79.06
233.945	81.06
234.179	84.06
234.413	83.06
234.647	95.06
234.881	90.06
235.115	68.06
235.349	85.06
235.583	79.06
235.817	89.06
236.051	68.06
236.285	80.06
236.519	79.06
236.753	83.06
236.987	73.06
237.221	82.06
237.455	87.06
237.689	89.06
237.922	75.06
238.156	78.06
238.39	88.06
238.624	61.06
238.858	78.06
239.091	86.06
239.325	81.06
239.559	77.06
239.793	75.06
240.027	70.06
240.26	63.06
240.494	92.06
240.728	81.06
240.961	84.06
241.195	78.06
241.429	75.06
241.662	69.06
241.896	87.06
242.13	87.06
242.363	74.06
242.597	90.06
242.83	69.06
243.064	76.06
243.298	77.06
243.531	79.06
243.765	74.06
243.998	83.06
244.232	88.06
244.465	78.06
244.699	84.06
244.932	74.06
245.166	76.06
245.399	76.06
245.633	84.06
245.866	70.06
246.099	62.06
246.333	83.06
246.566	81.06
246.8	92.06
247.033	79.06
247.266	91.06
247.5	78.06
247.733	84.06
247.966	85.06
248.2	75.06
248.433	75.06
248.666	77.06
248.899	83.06
249.133	83.06
249.366	98.06
249.599	101.06
249.832	95.06
250.066	81.06
250.299	85.06
250.532	83.06
250.765	76.06
250.998	80.06
251.231	74.06
251.465	78.06
251.698	80.06
251.931	82.06
252.164	83.06
252.397	79.06
252.63	92.06
252.863	92.06
253.096	80.06
253.329	93.06
253.562	77.06
253.795	81.06
254.028	88.06
254.261	79.06
254.494	88.06
254.727	78.06
254.96	70.06
255.193	79.06
255.426	83.06
255.659	91.06
255.892	73.06
256.124	73.06
256.357	88.06
256.59	83.06
256.823	82.06
257.056	80.06
257.289	85.06
257.521	87.06
257.754	82.06
257.987	84.06
258.22	95.06
258.452	99.06
258.685	82.06
258.918	76.06
259.151	78.06
259.383	100.06
259.616	94.06
259.849	83.06
260.081	78.06
260.314	73.06
260.547	98.06
260.779	72.06
261.012	94.06
261.244	87.06
261.477	89.06
261.71	99.06
261.942	114.06
262.175	118.06
262.407	98.06
262.64	88.06
262.872	78.06
263.105	81.06
263.337	83.06
263.57	85.06
263.802	88.06
264.035	81.06
264.267	94.06
264.499	79.06
264.732	86.06
264.964	87.06
265.197	76.06
265.429	84.06
265.661	87.06
265.894	75.06
266.126	82.06
266.358	77.06
266.591	87.06
266.823	91.06
267.055	83.06
267.287	84.06
267.52	80.06
267.752	79.06
267.984	91.06
268.216	96.06
268.448	86.06
268.681	87.06
268.913	79.06
269.145	86.06
269.377	84.06
269.609	84.06
269.841	95.06
270.073	81.06
270.306	75.06
270.538	81.06
270.77	82.06
271.002	98.06
271.234	73.06
271.466	83.06
271.698	90.06
271.93	79.06
272.162	91.06
272.394	93.06
272.626	103.06
272.858	83.06
273.09	67.06
273.322	81.06
273.553	78.06
273.785	74.06
274.017	94.06
274.249	83.06
274.481	91.06
274.713	75.06
274.945	83.06
275.176	84.06
275.408	85.06
275.64	99.06
275.872	93.06
276.104	96.06
276.335	89.06
276.567	99.06
276.799	115.06
277.031	105.06
277.262	101.06
277.494	97.06
277.726	79.06
277.957	83.06
278.189	97.06
278.421	83.06
278.652	79.06
278.884	76.06
279.115	84.06
279.347	88.06
279.579	94.06
279.81	94.06
280.042	112.06
280.273	92.06
280.505	89.06
280.736	85.06
280.968	87.06
281.199	91.06
281.431	89.06
281.662	85.06
281.894	84.06
282.125	109.06
282.356	144.06
282.588	157.06
282.819	122.06
283.051	91.06
283.282	78.06
283.513	75.06
283.745	92.06
283.976	95.06
284.207	76.06
284.439	88.06
284.67	78.06
284.901	70.06
285.132	84.06
285.364	93.06
285.595	83.06
285.826	92.06
286.057	100.06
286.288	103.06
286.52	98.06
286.751	83.06
286.982	70.06
287.213	80.06
287.444	91.06
287.675	87.06
287.906	94.06
288.138	88.06
288.369	100.06
288.6	90.06
288.831	90.06
289.062	83.06
289.293	87.06
289.524	85.06
289.755	92.06
289.986	78.06
290.217	91.06
290.448	100.06
290.679	90.06
290.91	90.06
291.141	94.06
291.371	71.06
291.602	78.06
291.833	93.06
292.064	78.06
292.295	86.06
292.526	88.06
292.757	99.06
292.987	71.06
293.218	91.06
293.449	89.06
293.68	90.06
293.91	94.06
294.141	101.06
294.372	93.06
294.603	83.06
294.833	83.06
295.064	87.06
295.295	90.06
295.525	100.06
295.756	106.06
295.987	116.06
296.217	159.06
296.448	142.06
296.679	102.06
296.909	92.06
297.14	89.06
297.37	92.06
297.601	89.06
297.831	91.06
298.062	96.06
298.292	96.06
298.523	106.06
298.753	86.06
298.984	101.06
299.214	97.06
299.445	99.06
299.675	101.06
299.905	99.06
300.136	103.06
300.366	90.06
300.597	92.06
300.827	96.06
301.057	103.06
301.288	111.06
301.518	88.06
301.748	83.06
301.979	110.06
302.209	86.06
302.439	81.06
302.669	82.06
302.9	96.06
303.13	91.06
303.36	109.06
303.59	120.06
303.82	110.06
304.051	85.06
304.281	80.06
304.511	98.06
304.741	73.06
304.971	88.06
305.201	96.06
305.431	93.06
305.661	95.06
305.891	104.06
306.121	101.06
306.352	122.06
306.582	116.06
306.812	104.06
307.042	95.06
307.272	106.06
307.502	110.06
307.731	107.06
307.961	108.06
308.191	98.06
308.421	65.06
308.651	90.06
308.881	90.06
309.111	97.06
309.341	91.06
309.571	99.06
309.8	81.06
310.03	93.06
310.26	106.06
310.49	108.06
310.72	106.06
310.949	113.06
311.179	95.06
311.409	97.06
311.639	97.06
311.868	101.06
312.098	96.06
312.328	108.06
312.557	96.06
312.787	104.06
313.017	103.06
313.246	87.06
313.476	79.06
313.706	91.06
313.935	106.06
314.165	97.06
314.394	94.06
314.624	88.06
314.853	91.06
315.083	94.06
315.312	108.06
315.542	90.06
315.771	100.06
316.001	88.06
316.23	87.06
316.46	106.06
316.689	88.06
316.919	98.06
317.148	97.06
317.377	98.06
317.607	105.06
317.836	94.06
318.065	94.06
318.295	84.06
318.524	83.06
318.753	85.06
318.983	92.06
319.212	102.06
319.441	115.06
319.67	113.06
319.9	94.06
320.129	85.06
320.358	91.06
320.587	94.06
320.816	109.06
321.046	112.06
321.275	94.06
321.504	87.06
321.733	100.06
321.962	116.06
322.191	105.06
322.42	102.06
322.649	134.06
322.878	111.06
323.108	115.06
323.337	135.06
323.566	127.06
323.795	156.06
324.024	212.06
324.253	434.06
324.482	829.06
324.71	1748.06
324.939	2231.06
325.168	831.06
325.397	246.06
325.626	158.06
325.855	134.06
326.084	118.06
326.313	123.06
326.542	148.06
326.77	230.06
326.999	459.06
327.228	922.06
327.457	1639.06
327.686	1305.06
327.914	410.06
328.143	259.06
328.372	216.06
328.6	154.06
328.829	123.06
329.058	146.06
329.287	143.06
329.515	121.06
329.744	134.06
329.972	164.06
330.201	207.06
330.43	257.06
330.658	180.06
330.887	164.06
331.115	136.06
331.344	115.06
331.572	119.06
331.801	103.06
332.03	117.06
332.258	106.06
332.486	77.06
332.715	98.06
332.943	94.06
333.172	112.06
333.4	114.06
333.629	107.06
333.857	130.06
334.085	146.06
334.314	229.06
334.542	322.06
334.771	305.06
334.999	136.06
335.227	101.06
335.455	106.06
335.684	112.06
335.912	111.06
336.14	104.06
336.369	106.06
336.597	89.06
336.825	97.06
337.053	97.06
337.281	93.06
337.51	89.06
337.738	82.06
337.966	103.06
338.194	92.06
338.422	99.06
338.65	96.06
338.878	108.06
339.106	99.06
339.334	81.06
339.562	90.06
339.79	91.06
340.018	83.06
340.246	94.06
340.474	90.06
340.702	90.06
340.93	85.06
341.158	93.06
341.386	97.06
341.614	95.06
341.842	97.06
342.07	86.06
342.298	93.06
342.526	86.06
342.754	83.06
342.981	80.06
343.209	101.06
343.437	103.06
343.665	84.06
343.893	97.06
344.12	95.06
344.348	89.06
344.576	90.06
344.804	92.06
345.031	105.06
345.259	91.06
345.487	84.06
345.714	95.06
345.942	93.06
346.17	93.06
346.397	95.06
346.625	96.06
346.853	93.06
347.08	83.06
347.308	101.06
347.535	106.06
347.763	97.06
347.99	103.06
348.218	116.06
348.445	119.06
348.673	102.06
348.9	97.06
349.128	98.06
349.355	92.06
349.583	94.06
349.81	99.06
350.037	103.06
350.265	99.06
350.492	84.06
350.72	98.06
350.947	97.06
351.174	121.06
351.402	140.06
351.629	107.06
351.856	96.06
352.083	81.06
352.311	109.06
352.538	121.06
352.765	106.06
352.992	116.06
353.22	123.06
353.447	106.06
353.674	99.06
353.901	101.06
354.128	93.06
354.355	85.06
354.583	91.06
354.81	99.06
355.037	89.06
355.264	77.06
355.491	100.06
355.718	102.06
355.945	82.06
356.172	84.06
356.399	96.06
356.626	95.06
356.853	98.06
357.08	91.06
357.307	100.06
357.534	102.06
357.761	92.06
357.988	83.06
358.215	97.06
358.441	96.06
358.668	94.06
358.895	88.06
359.122	92.06
359.349	88.06
359.576	94.06
359.802	109.06
360.029	114.06
360.256	105.06
360.483	117.06
360.709	94.06
360.936	102.06
361.163	89.06
361.39	103.06
361.616	108.06
361.843	99.06
362.07	94.06
362.296	96.06
362.523	92.06
362.749	89.06
362.976	92.06
363.203	95.06
363.429	106.06
363.656	96.06
363.882	90.06
364.109	84.06
364.335	94.06
364.562	83.06
364.788	89.06
365.015	103.06
365.241	99.06
365.468	120.06
365.694	97.06
365.92	99.06
366.147	91.06
366.373	103.06
366.599	85.06
366.826	83.06
367.052	96.06
367.278	91.06
367.505	89.06
367.731	95.06
367.957	103.06
368.184	88.06
368.41	99.06
368.636	115.06
368.862	114.06
369.089	106.06
369.315	89.06
369.541	90.06
369.767	84.06
369.993	79.06
370.219	83.06
370.445	93.06
370.672	91.06
370.898	89.06
371.124	87.06
371.35	73.06
371.576	92.06
371.802	78.06
372.028	72.06
372.254	94.06
372.48	80.06
372.706	92.06
372.932	86.06
373.158	79.06
373.384	93.06
373.61	94.06
373.835	89.06
374.061	85.06
374.287	88.06
374.513	77.06
374.739	88.06
374.965	86.06
375.191	71.06
375.416	85.06
375.642	87.06
375.868	90.06
376.094	103.06
376.319	98.06
376.545	93.06
376.771	106.06
376.997	91.06
377.222	87.06
377.448	94.06
377.674	83.06
377.899	92.06
378.125	103.06
378.35	105.06
378.576	88.06
378.802	86.06
379.027	90.06
379.253	93.06
379.478	89.06
379.704	79.06
379.929	96.06
380.155	89.06
380.38	90.06
380.606	98.06
380.831	103.06
381.057	108.06
381.282	85.06
381.507	104.06
381.733	95.06
381.958	91.06
382.184	101.06
382.409	97.06
382.634	98.06
382.86	95.06
383.085	96.06
383.31	97.06
383.535	97.06
383.761	87.06
383.986	97.06
384.211	102.06
384.436	95.06
384.662	99.06
384.887	98.06
385.112	99.06
385.337	107.06
385.562	98.06
385.787	97.06
386.013	111.06
386.238	117.06
386.463	98.06
386.688	105.06
386.913	100.06
387.138	112.06
387.363	99.06
387.588	105.06
387.813	102.06
388.038	97.06
388.263	101.06
388.488	101.06
388.713	92.06
388.938	80.06
389.163	93.06
389.387	83.06
389.612	96.06
389.837	95.06
390.062	95.06
390.287	83.06
390.512	97.06
390.736	103.06
390.961	86.06
391.186	99.06
391.411	89.06
391.636	78.06
391.86	88.06
392.085	94.06
392.31	87.06
392.534	87.06
392.759	75.06
392.984	91.06
393.208	76.06
393.433	93.06
393.658	107.06
393.882	94.06
394.107	99.06
394.331	91.06
394.556	97.06
394.78	101.06
395.005	89.06
395.229	71.06
395.454	74.06
395.678	75.06
395.903	73.06
396.127	83.06
396.352	84.06
396.576	96.06
396.801	86.06
397.025	83.06
397.249	86.06
397.474	93.06
397.698	88.06
397.922	96.06
398.147	81.06
398.371	79.06
398.595	90.06
398.82	82.06
399.044	73.06
399.268	88.06
399.492	72.06
399.717	98.06
399.941	87.06
400.165	91.06
400.389	87.06
400.613	84.06
400.837	92.06
401.062	82.06
401.286	104.06
401.51	104.06
401.734	98.06
401.958	103.06
402.182	137.06
402.406	202.06
402.63	128.06
402.854	93.06
403.078	98.06
403.302	89.06
403.526	90.06
403.75	82.06
403.974	102.06
404.198	92.06
404.422	92.06
404.645	86.06
404.869	107.06
405.093	99.06
405.317	99.06
405.541	95.06
405.765	103.06
405.988	113.06
406.212	204.06
406.436	262.06
406.66	172.06
406.883	95.06
407.107	97.06
407.331	97.06
407.555	99.06
407.778	92.06
408.002	96.06
408.226	101.06
408.449	82.06
408.673	79.06
408.896	97.06
409.12	104.06
409.344	91.06
409.567	88.06
409.791	92.06
410.014	101.06
410.238	78.06
410.461	103.06
410.685	98.06
410.908	88.06
411.132	96.06
411.355	95.06
411.578	98.06
411.802	90.06
412.025	97.06
412.249	89.06
412.472	98.06
412.695	84.06
412.919	91.06
413.142	87.06
413.365	88.06
413.589	91.06
413.812	85.06
414.035	78.06
414.258	97.06
414.482	99.06
414.705	84.06
414.928	82.06
415.151	93.06
415.374	92.06
415.597	85.06
415.821	92.06
416.044	103.06
416.267	84.06
416.49	89.06
416.713	108.06
416.936	94.06
417.159	91.06
417.382	93.06
417.605	98.06
417.828	85.06
418.051	98.06
418.274	91.06
418.497	103.06
418.72	92.06
418.943	87.06
419.166	83.06
419.389	92.06
419.611	93.06
419.834	73.06
420.057	74.06
420.28	82.06
420.503	77.06
420.726	81.06
420.948	89.06
421.171	88.06
421.394	99.06
421.617	85.06
421.839	80.06
422.062	95.06
422.285	83.06
422.507	114.06
422.73	86.06
422.953	90.06
423.175	93.06
423.398	81.06
423.621	80.06
423.843	79.06
424.066	87.06
424.288	91.06
424.511	83.06
424.733	104.06
424.956	111.06
425.178	99.06
425.401	105.06
425.623	104.06
425.846	95.06
426.068	86.06
426.291	89.06
426.513	93.06
426.735	98.06
426.958	107.06
427.18	106.06
427.402	142.06
427.625	201.06
427.847	142.06
428.069	120.06
428.292	100.06
428.514	98.06
428.736	102.06
428.958	70.06
429.181	95.06
429.403	78.06
429.625	92.06
429.847	88.06
430.069	119.06
430.292	97.06
430.514	94.06
430.736	84.06
430.958	90.06
431.18	76.06
431.402	77.06
431.624	76.06
431.846	86.06
432.068	84.06
432.29	90.06
432.512	91.06
432.734	76.06
432.956	95.06
433.178	83.06
433.4	94.06
433.622	86.06
433.844	91.06
434.066	87.06
434.287	103.06
434.509	83.06
434.731	76.06
434.953	79.06
435.175	90.06
435.397	82.06
435.618	96.06
435.84	106.06
436.062	93.06
436.284	99.06
436.505	89.06
436.727	103.06
436.949	93.06
437.17	88.06
437.392	75.06
437.614	99.06
437.835	104.06
438.057	118.06
438.278	112.06
438.5	108.06
438.721	110.06
438.943	88.06
439.165	88.06
439.386	82.06
439.608	84.06
439.829	89.06
440.05	132.06
440.272	138.06
440.493	91.06
440.715	85.06
440.936	80.06
441.158	77.06
441.379	83.06
441.6	90.06
441.822	93.06
442.043	107.06
442.264	118.06
442.486	94.06
442.707	79.06
442.928	103.06
443.149	128.06
443.371	136.06
443.592	106.06
443.813	106.06
444.034	119.06
444.255	92.06
444.476	86.06
444.698	82.06
444.919	90.06
445.14	135.06
445.361	125.06
445.582	123.06
445.803	140.06
446.024	128.06
446.245	136.06
446.466	116.06
446.687	90.06
446.908	84.06
447.129	86.06
447.35	100.06
447.571	89.06
447.792	92.06
448.013	105.06
448.234	108.06
448.455	112.06
448.675	107.06
448.896	90.06
449.117	105.06
449.338	104.06
449.559	121.06
449.779	146.06
450	106.06
450.221	104.06
450.442	76.06
450.662	86.06
450.883	108.06
451.104	119.06
451.324	88.06
451.545	74.06
451.766	90.06
451.986	95.06
452.207	108.06
452.428	81.06
452.648	104.06
452.869	130.06
453.089	134.06
453.31	122.06
453.53	92.06
453.751	104.06
453.971	92.06
454.192	132.06
454.412	98.06
454.633	97.06
454.853	81.06
455.073	86.06
455.294	81.06
455.514	104.06
455.734	88.06
455.955	92.06
456.175	80.06
456.395	74.06
456.616	75.06
456.836	84.06
457.056	88.06
457.276	73.06
457.497	93.06
457.717	89.06
457.937	79.06
458.157	77.06
458.377	82.06
458.598	113.06
458.818	158.06
459.038	174.06
459.258	119.06
459.478	97.06
459.698	93.06
459.918	87.06
460.138	73.06
460.358	84.06
460.578	100.06
460.798	98.06
461.018	74.06
461.238	88.06
461.458	85.06
461.678	94.06
461.898	73.06
462.118	89.06
462.338	89.06
462.558	94.06
462.777	79.06
462.997	88.06
463.217	70.06
463.437	91.06
463.657	105.06
463.876	89.06
464.096	80.06
464.316	96.06
464.536	86.06
464.755	90.06
464.975	93.06
465.195	186.06
465.414	193.06
465.634	102.06
465.854	82.06
466.073	93.06
466.293	67.06
466.512	81.06
466.732	90.06
466.951	82.06
467.171	82.06
467.391	101.06
467.61	123.06
467.829	119.06
468.049	139.06
468.268	190.06
468.488	102.06
468.707	103.06
468.927	76.06
469.146	93.06
469.365	90.06
469.585	87.06
469.804	85.06
470.023	91.06
470.243	83.06
470.462	102.06
470.681	127.06
470.901	96.06
471.12	93.06
471.339	92.06
471.558	89.06
471.777	98.06
471.997	114.06
472.216	250.06
472.435	439.06
472.654	163.06
472.873	97.06
473.092	96.06
473.311	95.06
473.53	78.06
473.749	88.06
473.968	105.06
474.187	103.06
474.406	91.06
474.625	99.06
474.844	94.06
475.063	82.06
475.282	86.06
475.501	85.06
475.72	99.06
475.939	83.06
476.158	82.06
476.377	107.06
476.596	78.06
476.814	97.06
477.033	87.06
477.252	95.06
477.471	84.06
477.69	102.06
477.908	92.06
478.127	90.06
478.346	105.06
478.564	83.06
478.783	106.06
479.002	85.06
479.22	87.06
479.439	94.06
479.658	107.06
479.876	105.06
480.095	102.06
480.313	82.06
480.532	96.06
480.751	118.06
480.969	240.06
481.188	722.06
481.406	482.06
481.624	147.06
481.843	105.06
482.061	83.06
482.28	84.06
482.498	94.06
482.717	79.06
482.935	70.06
483.153	85.06
483.372	92.06
483.59	90.06
483.808	87.06
484.027	91.06
484.245	81.06
484.463	82.06
484.681	105.06
484.9	90.06
485.118	89.06
485.336	95.06
485.554	90.06
485.772	104.06
485.99	88.06
486.209	117.06
486.427	110.06
486.645	113.06
486.863	122.06
487.081	84.06
487.299	88.06
487.517	97.06
487.735	81.06
487.953	94.06
488.171	85.06
488.389	87.06
488.607	107.06
488.825	87.06
489.043	102.06
489.261	88.06
489.479	91.06
489.696	84.06
489.914	89.06
490.132	100.06
490.35	99.06
490.568	75.06
490.786	104.06
491.003	93.06
491.221	87.06
491.439	91.06
491.657	84.06
491.874	83.06
492.092	91.06
492.31	87.06
492.527	86.06
492.745	95.06
492.963	83.06
493.18	99.06
493.398	84.06
493.615	98.06
493.833	96.06
494.05	95.06
494.268	92.06
494.485	98.06
494.703	93.06
494.92	96.06
495.138	84.06
495.355	96.06
495.573	93.06
495.79	105.06
496.008	86.06
496.225	92.06
496.442	87.06
496.66	85.06
496.877	88.06
497.094	88.06
497.312	88.06
497.529	86.06
497.746	79.06
497.963	81.06
498.181	89.06
498.398	97.06
498.615	119.06
498.832	115.06
499.049	96.06
499.267	76.06
499.484	85.06
499.701	95.06
499.918	94.06
500.135	103.06
500.352	114.06
500.569	101.06
500.786	83.06
501.003	98.06
501.22	94.06
501.437	80.06
501.654	90.06
501.871	114.06
502.088	95.06
502.305	94.06
502.522	79.06
502.739	91.06
502.956	97.06
503.172	104.06
503.389	90.06
503.606	97.06
503.823	99.06
504.04	87.06
504.256	93.06
504.473	82.06
504.69	79.06
504.907	91.06
505.123	84.06
505.34	95.06
505.557	95.06
505.773	91.06
505.99	94.06
506.207	79.06
506.423	90.06
506.64	98.06
506.856	94.06
507.073	95.06
507.289	89.06
507.506	87.06
507.722	119.06
507.939	118.06
508.155	88.06
508.372	98.06
508.588	96.06
508.805	111.06
509.021	104.06
509.238	97.06
509.454	94.06
509.67	101.06
509.887	134.06
510.103	148.06
510.319	254.06
510.536	1015.06
510.752	3345.06
510.968	906.06
511.184	186.06
511.401	132.06
511.617	108.06
511.833	91.06
512.049	104.06
512.265	99.06
512.481	95.06
512.698	82.06
512.914	97.06
513.13	84.06
513.346	82.06
513.562	104.06
513.778	112.06
513.994	91.06
514.21	101.06
514.426	127.06
514.642	154.06
514.858	145.06
515.074	218.06
