Data from Circ_2008_H10_HRD10591_00044.txt Node
Date: Wed Jan 03 10:17:05 EST 2024
User: Yrep
Spectrometer: HR+D1059
Trigger mode: 1
Integration Time (sec): 1.000000E-1
Scans to average: 1
Electric dark correction enabled: true
Nonlinearity correction enabled: false
Boxcar width: 0
XAxis mode: Wavelengths
Number of Pixels in Spectrum: 2048
>>>>>Begin Spectral Data<<<<<
223.165	-14.88
223.4	-14.88
223.635	-14.88
223.869	-6.88
224.104	-23.88
224.338	-27.88
224.573	-18.88
224.808	-6.88
225.042	1.12
225.277	-7.88
225.511	-0.88
225.746	1.12
225.98	16.12
226.215	2.12
226.449	11.12
226.683	19.12
226.918	26.12
227.152	31.12
227.387	31.12
227.621	41.12
227.856	51.12
228.09	52.12
228.324	65.12
228.559	68.12
228.793	41.12
229.027	64.12
229.262	75.12
229.496	69.12
229.73	70.12
229.964	83.12
230.199	71.12
230.433	79.12
230.667	87.12
230.901	67.12
231.136	83.12
231.37	83.12
231.604	76.12
231.838	83.12
232.072	74.12
232.306	71.12
232.541	90.12
232.775	92.12
233.009	76.12
233.243	73.12
233.477	71.12
233.711	74.12
233.945	62.12
234.179	77.12
234.413	95.12
234.647	74.12
234.881	70.12
235.115	91.12
235.349	78.12
235.583	76.12
235.817	74.12
236.051	78.12
236.285	77.12
236.519	76.12
236.753	86.12
236.987	78.12
237.221	72.12
237.455	88.12
237.689	59.12
237.922	76.12
238.156	69.12
238.39	74.12
238.624	73.12
238.858	77.12
239.091	66.12
239.325	76.12
239.559	83.12
239.793	69.12
240.027	67.12
240.26	80.12
240.494	69.12
240.728	71.12
240.961	73.12
241.195	81.12
241.429	82.12
241.662	79.12
241.896	67.12
242.13	65.12
242.363	72.12
242.597	72.12
242.83	73.12
243.064	73.12
243.298	63.12
243.531	77.12
243.765	76.12
243.998	82.12
244.232	85.12
244.465	85.12
244.699	88.12
244.932	87.12
245.166	93.12
245.399	69.12
245.633	81.12
245.866	86.12
246.099	69.12
246.333	81.12
246.566	101.12
246.8	71.12
247.033	81.12
247.266	76.12
247.5	86.12
247.733	70.12
247.966	78.12
248.2	82.12
248.433	76.12
248.666	73.12
248.899	84.12
249.133	89.12
249.366	91.12
249.599	94.12
249.832	79.12
250.066	81.12
250.299	74.12
250.532	76.12
250.765	79.12
250.998	86.12
251.231	78.12
251.465	64.12
251.698	71.12
251.931	78.12
252.164	74.12
252.397	83.12
252.63	99.12
252.863	78.12
253.096	84.12
253.329	85.12
253.562	76.12
253.795	72.12
254.028	73.12
254.261	72.12
254.494	80.12
254.727	73.12
254.96	79.12
255.193	83.12
255.426	72.12
255.659	84.12
255.892	86.12
256.124	78.12
256.357	68.12
256.59	88.12
256.823	86.12
257.056	80.12
257.289	84.12
257.521	77.12
257.754	72.12
257.987	67.12
258.22	69.12
258.452	75.12
258.685	72.12
258.918	73.12
259.151	92.12
259.383	90.12
259.616	87.12
259.849	65.12
260.081	84.12
260.314	86.12
260.547	78.12
260.779	90.12
261.012	81.12
261.244	92.12
261.477	82.12
261.71	99.12
261.942	107.12
262.175	107.12
262.407	87.12
262.64	78.12
262.872	86.12
263.105	97.12
263.337	73.12
263.57	79.12
263.802	78.12
264.035	77.12
264.267	82.12
264.499	85.12
264.732	93.12
264.964	89.12
265.197	87.12
265.429	69.12
265.661	83.12
265.894	95.12
266.126	90.12
266.358	66.12
266.591	76.12
266.823	88.12
267.055	76.12
267.287	84.12
267.52	74.12
267.752	87.12
267.984	59.12
268.216	86.12
268.448	89.12
268.681	83.12
268.913	86.12
269.145	92.12
269.377	75.12
269.609	83.12
269.841	65.12
270.073	78.12
270.306	98.12
270.538	77.12
270.77	85.12
271.002	73.12
271.234	75.12
271.466	87.12
271.698	77.12
271.93	89.12
272.162	91.12
272.394	85.12
272.626	76.12
272.858	85.12
273.09	78.12
273.322	90.12
273.553	75.12
273.785	79.12
274.017	79.12
274.249	84.12
274.481	83.12
274.713	83.12
274.945	94.12
275.176	82.12
275.408	81.12
275.64	89.12
275.872	79.12
276.104	84.12
276.335	111.12
276.567	100.12
276.799	100.12
277.031	95.12
277.262	94.12
277.494	95.12
277.726	85.12
277.957	81.12
278.189	86.12
278.421	101.12
278.652	87.12
278.884	100.12
279.115	80.12
279.347	77.12
279.579	77.12
279.81	94.12
280.042	90.12
280.273	87.12
280.505	70.12
280.736	77.12
280.968	83.12
281.199	91.12
281.431	76.12
281.662	77.12
281.894	92.12
282.125	98.12
282.356	129.12
282.588	117.12
282.819	123.12
283.051	95.12
283.282	76.12
283.513	86.12
283.745	86.12
283.976	85.12
284.207	87.12
284.439	74.12
284.67	86.12
284.901	85.12
285.132	92.12
285.364	75.12
285.595	77.12
285.826	82.12
286.057	83.12
286.288	84.12
286.52	91.12
286.751	85.12
286.982	96.12
287.213	82.12
287.444	79.12
287.675	87.12
287.906	89.12
288.138	94.12
288.369	97.12
288.6	88.12
288.831	87.12
289.062	83.12
289.293	79.12
289.524	91.12
289.755	87.12
289.986	97.12
290.217	78.12
290.448	78.12
290.679	88.12
290.91	88.12
291.141	80.12
291.371	92.12
291.602	105.12
291.833	85.12
292.064	91.12
292.295	89.12
292.526	93.12
292.757	69.12
292.987	78.12
293.218	93.12
293.449	78.12
293.68	79.12
293.91	80.12
294.141	85.12
294.372	104.12
294.603	95.12
294.833	82.12
295.064	89.12
295.295	85.12
295.525	82.12
295.756	109.12
295.987	118.12
296.217	119.12
296.448	134.12
296.679	96.12
296.909	91.12
297.14	102.12
297.37	91.12
297.601	89.12
297.831	79.12
298.062	93.12
298.292	90.12
298.523	83.12
298.753	80.12
298.984	95.12
299.214	87.12
299.445	94.12
299.675	83.12
299.905	85.12
300.136	85.12
300.366	91.12
300.597	82.12
300.827	94.12
301.057	92.12
301.288	104.12
301.518	83.12
301.748	83.12
301.979	90.12
302.209	94.12
302.439	104.12
302.669	91.12
302.9	94.12
303.13	86.12
303.36	102.12
303.59	92.12
303.82	117.12
304.051	110.12
304.281	89.12
304.511	74.12
304.741	102.12
304.971	101.12
305.201	98.12
305.431	90.12
305.661	90.12
305.891	84.12
306.121	92.12
306.352	100.12
306.582	110.12
306.812	97.12
307.042	86.12
307.272	90.12
307.502	95.12
307.731	97.12
307.961	92.12
308.191	93.12
308.421	89.12
308.651	90.12
308.881	96.12
309.111	88.12
309.341	91.12
309.571	85.12
309.8	98.12
310.03	97.12
310.26	92.12
310.49	102.12
310.72	98.12
310.949	95.12
311.179	89.12
311.409	70.12
311.639	83.12
311.868	88.12
312.098	94.12
312.328	89.12
312.557	94.12
312.787	114.12
313.017	87.12
313.246	92.12
313.476	107.12
313.706	87.12
313.935	90.12
314.165	84.12
314.394	106.12
314.624	98.12
314.853	94.12
315.083	89.12
315.312	88.12
315.542	91.12
315.771	95.12
316.001	101.12
316.23	96.12
316.46	80.12
316.689	102.12
316.919	86.12
317.148	77.12
317.377	83.12
317.607	92.12
317.836	101.12
318.065	94.12
318.295	95.12
318.524	91.12
318.753	88.12
318.983	101.12
319.212	99.12
319.441	111.12
319.67	112.12
319.9	87.12
320.129	94.12
320.358	87.12
320.587	94.12
320.816	97.12
321.046	102.12
321.275	86.12
321.504	82.12
321.733	92.12
321.962	79.12
322.191	97.12
322.42	102.12
322.649	106.12
322.878	98.12
323.108	98.12
323.337	119.12
323.566	137.12
323.795	133.12
324.024	176.12
324.253	356.12
324.482	722.12
324.71	1433.12
324.939	1873.12
325.168	697.12
325.397	222.12
325.626	145.12
325.855	112.12
326.084	114.12
326.313	125.12
326.542	130.12
326.77	206.12
326.999	389.12
327.228	787.12
327.457	1437.12
327.686	1119.12
327.914	325.12
328.143	181.12
328.372	164.12
328.6	119.12
328.829	109.12
329.058	113.12
329.287	121.12
329.515	111.12
329.744	102.12
329.972	106.12
330.201	155.12
330.43	143.12
330.658	128.12
330.887	133.12
331.115	130.12
331.344	84.12
331.572	107.12
331.801	94.12
332.03	119.12
332.258	96.12
332.486	99.12
332.715	74.12
332.943	89.12
333.172	89.12
333.4	92.12
333.629	94.12
333.857	122.12
334.085	115.12
334.314	130.12
334.542	169.12
334.771	155.12
334.999	96.12
335.227	97.12
335.455	102.12
335.684	96.12
335.912	105.12
336.14	98.12
336.369	89.12
336.597	89.12
336.825	86.12
337.053	91.12
337.281	95.12
337.51	91.12
337.738	115.12
337.966	82.12
338.194	95.12
338.422	84.12
338.65	93.12
338.878	92.12
339.106	83.12
339.334	98.12
339.562	97.12
339.79	72.12
340.018	86.12
340.246	89.12
340.474	85.12
340.702	95.12
340.93	78.12
341.158	101.12
341.386	99.12
341.614	103.12
341.842	86.12
342.07	80.12
342.298	81.12
342.526	95.12
342.754	85.12
342.981	83.12
343.209	79.12
343.437	101.12
343.665	103.12
343.893	83.12
344.12	90.12
344.348	92.12
344.576	79.12
344.804	92.12
345.031	91.12
345.259	92.12
345.487	90.12
345.714	95.12
345.942	99.12
346.17	90.12
346.397	93.12
346.625	73.12
346.853	87.12
347.08	89.12
347.308	100.12
347.535	102.12
347.763	93.12
347.99	98.12
348.218	97.12
348.445	91.12
348.673	92.12
348.9	101.12
349.128	97.12
349.355	77.12
349.583	95.12
349.81	88.12
350.037	90.12
350.265	89.12
350.492	90.12
350.72	86.12
350.947	83.12
351.174	96.12
351.402	113.12
351.629	119.12
351.856	95.12
352.083	93.12
352.311	94.12
352.538	110.12
352.765	123.12
352.992	99.12
353.22	107.12
353.447	105.12
353.674	86.12
353.901	99.12
354.128	94.12
354.355	100.12
354.583	92.12
354.81	90.12
355.037	104.12
355.264	86.12
355.491	86.12
355.718	87.12
355.945	97.12
356.172	87.12
356.399	78.12
356.626	86.12
356.853	100.12
357.08	84.12
357.307	88.12
357.534	97.12
357.761	94.12
357.988	105.12
358.215	93.12
358.441	88.12
358.668	86.12
358.895	83.12
359.122	87.12
359.349	80.12
359.576	87.12
359.802	98.12
360.029	108.12
360.256	108.12
360.483	96.12
360.709	91.12
360.936	100.12
361.163	94.12
361.39	107.12
361.616	100.12
361.843	81.12
362.07	104.12
362.296	88.12
362.523	88.12
362.749	86.12
362.976	89.12
363.203	98.12
363.429	80.12
363.656	85.12
363.882	97.12
364.109	101.12
364.335	103.12
364.562	94.12
364.788	96.12
365.015	103.12
365.241	104.12
365.468	102.12
365.694	105.12
365.92	95.12
366.147	80.12
366.373	82.12
366.599	77.12
366.826	82.12
367.052	112.12
367.278	83.12
367.505	88.12
367.731	98.12
367.957	83.12
368.184	81.12
368.41	98.12
368.636	95.12
368.862	116.12
369.089	102.12
369.315	95.12
369.541	83.12
369.767	96.12
369.993	94.12
370.219	94.12
370.445	69.12
370.672	86.12
370.898	87.12
371.124	82.12
371.35	86.12
371.576	96.12
371.802	93.12
372.028	89.12
372.254	80.12
372.48	102.12
372.706	85.12
372.932	81.12
373.158	93.12
373.384	97.12
373.61	90.12
373.835	79.12
374.061	82.12
374.287	101.12
374.513	91.12
374.739	91.12
374.965	85.12
375.191	99.12
375.416	104.12
375.642	100.12
375.868	88.12
376.094	70.12
376.319	79.12
376.545	97.12
376.771	100.12
376.997	90.12
377.222	93.12
377.448	89.12
377.674	93.12
377.899	94.12
378.125	99.12
378.35	83.12
378.576	93.12
378.802	88.12
379.027	82.12
379.253	82.12
379.478	81.12
379.704	93.12
379.929	94.12
380.155	80.12
380.38	75.12
380.606	89.12
380.831	101.12
381.057	96.12
381.282	89.12
381.507	86.12
381.733	82.12
381.958	94.12
382.184	104.12
382.409	99.12
382.634	97.12
382.86	92.12
383.085	95.12
383.31	95.12
383.535	93.12
383.761	96.12
383.986	97.12
384.211	93.12
384.436	106.12
384.662	104.12
384.887	99.12
385.112	105.12
385.337	110.12
385.562	97.12
385.787	94.12
386.013	108.12
386.238	110.12
386.463	107.12
386.688	107.12
386.913	101.12
387.138	96.12
387.363	105.12
387.588	95.12
387.813	117.12
388.038	99.12
388.263	107.12
388.488	105.12
388.713	98.12
388.938	88.12
389.163	92.12
389.387	91.12
389.612	94.12
389.837	95.12
390.062	93.12
390.287	84.12
390.512	93.12
390.736	79.12
390.961	83.12
391.186	93.12
391.411	85.12
391.636	92.12
391.86	87.12
392.085	86.12
392.31	100.12
392.534	91.12
392.759	86.12
392.984	97.12
393.208	99.12
393.433	88.12
393.658	85.12
393.882	99.12
394.107	94.12
394.331	89.12
394.556	89.12
394.78	81.12
395.005	83.12
395.229	75.12
395.454	76.12
395.678	80.12
395.903	84.12
396.127	83.12
396.352	93.12
396.576	92.12
396.801	76.12
397.025	85.12
397.249	78.12
397.474	90.12
397.698	97.12
397.922	93.12
398.147	83.12
398.371	83.12
398.595	88.12
398.82	77.12
399.044	102.12
399.268	79.12
399.492	79.12
399.717	89.12
399.941	82.12
400.165	87.12
400.389	90.12
400.613	72.12
400.837	73.12
401.062	76.12
401.286	94.12
401.51	100.12
401.734	91.12
401.958	98.12
402.182	125.12
402.406	159.12
402.63	118.12
402.854	106.12
403.078	85.12
403.302	93.12
403.526	90.12
403.75	94.12
403.974	90.12
404.198	77.12
404.422	85.12
404.645	84.12
404.869	91.12
405.093	103.12
405.317	101.12
405.541	102.12
405.765	96.12
405.988	119.12
406.212	169.12
406.436	210.12
406.66	135.12
406.883	89.12
407.107	98.12
407.331	93.12
407.555	105.12
407.778	106.12
408.002	95.12
408.226	105.12
408.449	97.12
408.673	104.12
408.896	85.12
409.12	75.12
409.344	89.12
409.567	80.12
409.791	75.12
410.014	93.12
410.238	87.12
410.461	92.12
410.685	103.12
410.908	78.12
411.132	95.12
411.355	101.12
411.578	75.12
411.802	83.12
412.025	86.12
412.249	84.12
412.472	74.12
412.695	89.12
412.919	98.12
413.142	89.12
413.365	87.12
413.589	87.12
413.812	85.12
414.035	87.12
414.258	84.12
414.482	87.12
414.705	89.12
414.928	98.12
415.151	76.12
415.374	83.12
415.597	85.12
415.821	90.12
416.044	83.12
416.267	85.12
416.49	87.12
416.713	93.12
416.936	86.12
417.159	90.12
417.382	98.12
417.605	95.12
417.828	102.12
418.051	88.12
418.274	99.12
418.497	70.12
418.72	93.12
418.943	89.12
419.166	81.12
419.389	71.12
419.611	91.12
419.834	81.12
420.057	82.12
420.28	87.12
420.503	77.12
420.726	97.12
420.948	76.12
421.171	90.12
421.394	87.12
421.617	95.12
421.839	87.12
422.062	99.12
422.285	89.12
422.507	101.12
422.73	106.12
422.953	94.12
423.175	82.12
423.398	106.12
423.621	106.12
423.843	70.12
424.066	81.12
424.288	76.12
424.511	89.12
424.733	101.12
424.956	91.12
425.178	96.12
425.401	82.12
425.623	106.12
425.846	102.12
426.068	96.12
426.291	102.12
426.513	94.12
426.735	77.12
426.958	87.12
427.18	104.12
427.402	123.12
427.625	170.12
427.847	128.12
428.069	117.12
428.292	89.12
428.514	86.12
428.736	91.12
428.958	97.12
429.181	84.12
429.403	86.12
429.625	95.12
429.847	93.12
430.069	91.12
430.292	98.12
430.514	88.12
430.736	84.12
430.958	81.12
431.18	75.12
431.402	71.12
431.624	75.12
431.846	84.12
432.068	81.12
432.29	97.12
432.512	92.12
432.734	90.12
432.956	94.12
433.178	104.12
433.4	93.12
433.622	90.12
433.844	77.12
434.066	96.12
434.287	89.12
434.509	87.12
434.731	91.12
434.953	96.12
435.175	87.12
435.397	87.12
435.618	91.12
435.84	91.12
436.062	98.12
436.284	105.12
436.505	103.12
436.727	106.12
436.949	107.12
437.17	89.12
437.392	88.12
437.614	98.12
437.835	106.12
438.057	100.12
438.278	100.12
438.5	100.12
438.721	110.12
438.943	90.12
439.165	71.12
439.386	86.12
439.608	93.12
439.829	75.12
440.05	103.12
440.272	131.12
440.493	101.12
440.715	86.12
440.936	86.12
441.158	70.12
441.379	88.12
441.6	98.12
441.822	90.12
442.043	105.12
442.264	103.12
442.486	102.12
442.707	95.12
442.928	103.12
443.149	127.12
443.371	122.12
443.592	98.12
443.813	110.12
444.034	98.12
444.255	97.12
444.476	69.12
444.698	88.12
444.919	88.12
445.14	110.12
445.361	135.12
445.582	125.12
445.803	122.12
446.024	104.12
446.245	112.12
446.466	110.12
446.687	81.12
446.908	93.12
447.129	103.12
447.35	75.12
447.571	91.12
447.792	87.12
448.013	88.12
448.234	103.12
448.455	87.12
448.675	109.12
448.896	99.12
449.117	93.12
449.338	91.12
449.559	114.12
449.779	114.12
450	91.12
450.221	98.12
450.442	98.12
450.662	97.12
450.883	106.12
451.104	110.12
451.324	86.12
451.545	74.12
451.766	83.12
451.986	84.12
452.207	89.12
452.428	86.12
452.648	90.12
452.869	106.12
453.089	107.12
453.31	110.12
453.53	92.12
453.751	94.12
453.971	95.12
454.192	105.12
454.412	93.12
454.633	78.12
454.853	84.12
455.073	85.12
455.294	76.12
455.514	92.12
455.734	93.12
455.955	93.12
456.175	88.12
456.395	81.12
456.616	83.12
456.836	96.12
457.056	90.12
457.276	80.12
457.497	78.12
457.717	87.12
457.937	73.12
458.157	81.12
458.377	82.12
458.598	113.12
458.818	139.12
459.038	147.12
459.258	103.12
459.478	80.12
459.698	78.12
459.918	86.12
460.138	79.12
460.358	78.12
460.578	92.12
460.798	88.12
461.018	79.12
461.238	87.12
461.458	88.12
461.678	98.12
461.898	84.12
462.118	83.12
462.338	75.12
462.558	95.12
462.777	88.12
462.997	97.12
463.217	79.12
463.437	93.12
463.657	87.12
463.876	95.12
464.096	86.12
464.316	96.12
464.536	90.12
464.755	83.12
464.975	98.12
465.195	150.12
465.414	151.12
465.634	92.12
465.854	83.12
466.073	89.12
466.293	87.12
466.512	82.12
466.732	89.12
466.951	94.12
467.171	78.12
467.391	91.12
467.61	90.12
467.829	102.12
468.049	111.12
468.268	99.12
468.488	90.12
468.707	73.12
468.927	89.12
469.146	86.12
469.365	87.12
469.585	87.12
469.804	94.12
470.023	83.12
470.243	99.12
470.462	105.12
470.681	109.12
470.901	87.12
471.12	96.12
471.339	86.12
471.558	87.12
471.777	88.12
471.997	86.12
472.216	123.12
472.435	177.12
472.654	97.12
472.873	96.12
473.092	70.12
473.311	88.12
473.53	79.12
473.749	87.12
473.968	96.12
474.187	109.12
474.406	101.12
474.625	98.12
474.844	88.12
475.063	82.12
475.282	96.12
475.501	94.12
475.72	82.12
475.939	81.12
476.158	88.12
476.377	102.12
476.596	82.12
476.814	79.12
477.033	88.12
477.252	78.12
477.471	86.12
477.69	80.12
477.908	91.12
478.127	91.12
478.346	97.12
478.564	85.12
478.783	92.12
479.002	101.12
479.22	90.12
479.439	90.12
479.658	117.12
479.876	87.12
480.095	75.12
480.313	100.12
480.532	89.12
480.751	101.12
480.969	131.12
481.188	292.12
481.406	179.12
481.624	112.12
481.843	92.12
482.061	83.12
482.28	81.12
482.498	90.12
482.717	93.12
482.935	89.12
483.153	86.12
483.372	79.12
483.59	90.12
483.808	100.12
484.027	98.12
484.245	79.12
484.463	93.12
484.681	81.12
484.9	92.12
485.118	85.12
485.336	96.12
485.554	89.12
485.772	86.12
485.99	98.12
486.209	85.12
486.427	101.12
486.645	102.12
486.863	104.12
487.081	101.12
487.299	96.12
487.517	102.12
487.735	93.12
487.953	81.12
488.171	101.12
488.389	101.12
488.607	98.12
488.825	72.12
489.043	95.12
489.261	91.12
489.479	105.12
489.696	86.12
489.914	95.12
490.132	87.12
490.35	105.12
490.568	93.12
490.786	92.12
491.003	87.12
491.221	98.12
491.439	82.12
491.657	83.12
491.874	72.12
492.092	95.12
492.31	80.12
492.527	82.12
492.745	97.12
492.963	98.12
493.18	90.12
493.398	103.12
493.615	86.12
493.833	93.12
494.05	82.12
494.268	75.12
494.485	81.12
494.703	83.12
494.92	75.12
495.138	91.12
495.355	83.12
495.573	86.12
495.79	107.12
496.008	93.12
496.225	69.12
496.442	90.12
496.66	80.12
496.877	88.12
497.094	104.12
497.312	95.12
497.529	91.12
497.746	91.12
497.963	88.12
498.181	91.12
498.398	94.12
498.615	93.12
498.832	107.12
499.049	94.12
499.267	89.12
499.484	88.12
499.701	84.12
499.918	86.12
500.135	97.12
500.352	95.12
500.569	88.12
500.786	93.12
501.003	96.12
501.22	92.12
501.437	90.12
501.654	103.12
501.871	102.12
502.088	97.12
502.305	90.12
502.522	76.12
502.739	93.12
502.956	92.12
503.172	113.12
503.389	96.12
503.606	108.12
503.823	86.12
504.04	85.12
504.256	90.12
504.473	96.12
504.69	79.12
504.907	85.12
505.123	97.12
505.34	85.12
505.557	87.12
505.773	90.12
505.99	80.12
506.207	88.12
506.423	90.12
506.64	92.12
506.856	94.12
507.073	85.12
507.289	82.12
507.506	84.12
507.722	105.12
507.939	117.12
508.155	85.12
508.372	95.12
508.588	100.12
508.805	83.12
509.021	106.12
509.238	95.12
509.454	88.12
509.67	107.12
509.887	110.12
510.103	136.12
510.319	209.12
510.536	809.12
510.752	2609.12
510.968	727.12
511.184	162.12
511.401	111.12
511.617	97.12
511.833	99.12
512.049	85.12
512.265	77.12
512.481	80.12
512.698	87.12
512.914	82.12
513.13	91.12
513.346	94.12
513.562	92.12
513.778	82.12
513.994	90.12
514.21	97.12
514.426	120.12
514.642	135.12
514.858	130.12
515.074	161.12
515.29	478.12
515.506	1583.12
515.721	591.12
515.937	141.12
516.153	96.12
516.369	97.12
