Data from Circ_2008_H10_HRD10591_00092.txt Node
Date: Wed Jan 03 10:17:14 EST 2024
User: Yrep
Spectrometer: HR+D1059
Trigger mode: 1
Integration Time (sec): 1.000000E-1
Scans to average: 1
Electric dark correction enabled: true
Nonlinearity correction enabled: false
Boxcar width: 0
XAxis mode: Wavelengths
Number of Pixels in Spectrum: 2048
>>>>>Begin Spectral Data<<<<<
223.165	-25
223.4	-25
223.635	-25
223.869	-19
224.104	-20
224.338	-5
224.573	-4
224.808	-10
225.042	-20
225.277	-9
225.511	-2
225.746	3
225.98	7
226.215	8
226.449	12
226.683	23
226.918	27
227.152	34
227.387	43
227.621	26
227.856	21
228.09	45
228.324	41
228.559	48
228.793	48
229.027	57
229.262	68
229.496	72
229.73	88
229.964	104
230.199	72
230.433	88
230.667	77
230.901	95
231.136	72
231.37	63
231.604	67
231.838	84
232.072	77
232.306	91
232.541	81
232.775	68
233.009	70
233.243	59
233.477	88
233.711	65
233.945	68
234.179	74
234.413	71
234.647	78
234.881	82
235.115	72
235.349	84
235.583	72
235.817	56
236.051	80
236.285	56
236.519	71
236.753	85
236.987	75
237.221	62
237.455	86
237.689	91
237.922	64
238.156	64
238.39	75
238.624	56
238.858	66
239.091	57
239.325	71
239.559	87
239.793	75
240.027	73
240.26	74
240.494	72
240.728	76
240.961	61
241.195	75
241.429	58
241.662	69
241.896	66
242.13	79
242.363	66
242.597	78
242.83	92
243.064	64
243.298	88
243.531	76
243.765	77
243.998	77
244.232	76
244.465	88
244.699	76
244.932	74
245.166	78
245.399	77
245.633	89
245.866	75
246.099	68
246.333	73
246.566	76
246.8	63
247.033	70
247.266	72
247.5	74
247.733	81
247.966	70
248.2	62
248.433	71
248.666	87
248.899	73
249.133	88
249.366	97
249.599	88
249.832	72
250.066	92
250.299	69
250.532	86
250.765	79
250.998	82
251.231	85
251.465	81
251.698	69
251.931	74
252.164	70
252.397	67
252.63	76
252.863	71
253.096	87
253.329	80
253.562	65
253.795	71
254.028	72
254.261	74
254.494	69
254.727	63
254.96	79
255.193	80
255.426	77
255.659	74
255.892	75
256.124	85
256.357	82
256.59	63
256.823	71
257.056	81
257.289	86
257.521	70
257.754	78
257.987	64
258.22	79
258.452	75
258.685	65
258.918	78
259.151	91
259.383	89
259.616	69
259.849	84
260.081	83
260.314	85
260.547	66
260.779	77
261.012	80
261.244	88
261.477	91
261.71	94
261.942	103
262.175	116
262.407	75
262.64	77
262.872	77
263.105	84
263.337	103
263.57	77
263.802	75
264.035	55
264.267	85
264.499	93
264.732	84
264.964	80
265.197	75
265.429	72
265.661	75
265.894	78
266.126	87
266.358	83
266.591	69
266.823	84
267.055	84
267.287	95
267.52	96
267.752	82
267.984	67
268.216	73
268.448	71
268.681	73
268.913	93
269.145	98
269.377	71
269.609	70
269.841	91
270.073	61
270.306	80
270.538	66
270.77	75
271.002	91
271.234	92
271.466	83
271.698	75
271.93	75
272.162	78
272.394	84
272.626	85
272.858	79
273.09	85
273.322	78
273.553	75
273.785	68
274.017	86
274.249	78
274.481	85
274.713	84
274.945	90
275.176	78
275.408	99
275.64	85
275.872	86
276.104	96
276.335	92
276.567	97
276.799	103
277.031	101
277.262	88
277.494	89
277.726	66
277.957	74
278.189	64
278.421	70
278.652	82
278.884	91
279.115	78
279.347	76
279.579	71
279.81	92
280.042	109
280.273	113
280.505	88
280.736	79
280.968	81
281.199	91
281.431	80
281.662	80
281.894	92
282.125	102
282.356	119
282.588	142
282.819	119
283.051	73
283.282	89
283.513	87
283.745	85
283.976	94
284.207	84
284.439	92
284.67	87
284.901	85
285.132	87
285.364	93
285.595	90
285.826	71
286.057	75
286.288	76
286.52	81
286.751	89
286.982	88
287.213	85
287.444	81
287.675	91
287.906	80
288.138	82
288.369	89
288.6	99
288.831	85
289.062	92
289.293	91
289.524	94
289.755	74
289.986	84
290.217	72
290.448	83
290.679	85
290.91	84
291.141	71
291.371	75
291.602	90
291.833	76
292.064	70
292.295	93
292.526	95
292.757	87
292.987	90
293.218	81
293.449	83
293.68	78
293.91	89
294.141	77
294.372	93
294.603	81
294.833	77
295.064	97
295.295	93
295.525	96
295.756	94
295.987	120
296.217	140
296.448	125
296.679	100
296.909	94
297.14	81
297.37	85
297.601	85
297.831	94
298.062	81
298.292	81
298.523	77
298.753	87
298.984	86
299.214	89
299.445	92
299.675	88
299.905	104
300.136	102
300.366	80
300.597	76
300.827	94
301.057	91
301.288	106
301.518	84
301.748	89
301.979	100
302.209	91
302.439	103
302.669	90
302.9	92
303.13	86
303.36	91
303.59	103
303.82	103
304.051	99
304.281	100
304.511	100
304.741	81
304.971	83
305.201	81
305.431	88
305.661	81
305.891	83
306.121	96
306.352	94
306.582	93
306.812	97
307.042	87
307.272	92
307.502	95
307.731	79
307.961	84
308.191	79
308.421	84
308.651	85
308.881	82
309.111	90
309.341	84
309.571	102
309.8	80
310.03	102
310.26	97
310.49	83
310.72	94
310.949	91
311.179	111
311.409	83
311.639	99
311.868	97
312.098	88
312.328	88
312.557	92
312.787	111
313.017	101
313.246	79
313.476	79
313.706	84
313.935	91
314.165	96
314.394	85
314.624	103
314.853	98
315.083	101
315.312	88
315.542	92
315.771	75
316.001	81
316.23	72
316.46	92
316.689	80
316.919	79
317.148	96
317.377	97
317.607	88
317.836	89
318.065	94
318.295	81
318.524	69
318.753	93
318.983	75
319.212	100
319.441	112
319.67	118
319.9	93
320.129	82
320.358	84
320.587	100
320.816	103
321.046	104
321.275	103
321.504	94
321.733	88
321.962	105
322.191	92
322.42	111
322.649	112
322.878	112
323.108	108
323.337	137
323.566	131
323.795	159
324.024	206
324.253	412
324.482	848
324.71	1685
324.939	2247
325.168	823
325.397	239
325.626	149
325.855	139
326.084	135
326.313	141
326.542	148
326.77	233
326.999	430
327.228	916
327.457	1641
327.686	1329
327.914	383
328.143	224
328.372	207
328.6	160
328.829	132
329.058	134
329.287	149
329.515	117
329.744	115
329.972	140
330.201	226
330.43	284
330.658	200
330.887	159
331.115	125
331.344	106
331.572	106
331.801	102
332.03	101
332.258	86
332.486	90
332.715	92
332.943	85
333.172	96
333.4	107
333.629	115
333.857	132
334.085	151
334.314	241
334.542	365
334.771	334
334.999	167
335.227	106
335.455	89
335.684	88
335.912	100
336.14	102
336.369	102
336.597	105
336.825	97
337.053	84
337.281	94
337.51	81
337.738	88
337.966	84
338.194	82
338.422	79
338.65	88
338.878	96
339.106	89
339.334	85
339.562	94
339.79	78
340.018	85
340.246	106
340.474	84
340.702	85
340.93	79
341.158	92
341.386	93
341.614	103
341.842	93
342.07	94
342.298	101
342.526	82
342.754	99
342.981	78
343.209	93
343.437	86
343.665	83
343.893	88
344.12	80
344.348	92
344.576	85
344.804	99
345.031	97
345.259	97
345.487	80
345.714	90
345.942	94
346.17	91
346.397	77
346.625	87
346.853	92
347.08	82
347.308	85
347.535	98
347.763	100
347.99	92
348.218	94
348.445	108
348.673	100
348.9	81
349.128	100
349.355	96
349.583	91
349.81	92
350.037	103
350.265	100
350.492	81
350.72	108
350.947	96
351.174	107
351.402	105
351.629	97
351.856	97
352.083	100
352.311	96
352.538	108
352.765	98
352.992	93
353.22	117
353.447	97
353.674	97
353.901	88
354.128	85
354.355	83
354.583	102
354.81	84
355.037	105
355.264	81
355.491	88
355.718	91
355.945	73
356.172	85
356.399	82
356.626	92
356.853	92
357.08	90
357.307	86
357.534	82
357.761	78
357.988	104
358.215	101
358.441	93
358.668	76
358.895	79
359.122	98
359.349	88
359.576	95
359.802	104
360.029	106
360.256	122
360.483	94
360.709	92
360.936	86
361.163	93
361.39	82
361.616	104
361.843	86
362.07	104
362.296	79
362.523	87
362.749	79
362.976	98
363.203	100
363.429	82
363.656	104
363.882	81
364.109	102
364.335	78
364.562	91
364.788	115
365.015	95
365.241	91
365.468	103
365.694	118
365.92	101
366.147	110
366.373	74
366.599	91
366.826	94
367.052	94
367.278	89
367.505	96
367.731	95
367.957	94
368.184	99
368.41	101
368.636	96
368.862	116
369.089	117
369.315	96
369.541	95
369.767	95
369.993	104
370.219	98
370.445	81
370.672	84
370.898	81
371.124	81
371.35	85
371.576	99
371.802	95
372.028	71
372.254	77
372.48	88
372.706	85
372.932	85
373.158	81
373.384	78
373.61	76
373.835	78
374.061	90
374.287	90
374.513	95
374.739	86
374.965	69
375.191	78
375.416	85
375.642	95
375.868	103
376.094	91
376.319	79
376.545	83
376.771	80
376.997	76
377.222	93
377.448	91
377.674	72
377.899	87
378.125	84
378.35	79
378.576	83
378.802	85
379.027	95
379.253	99
379.478	88
379.704	87
379.929	94
380.155	99
380.38	88
380.606	93
380.831	79
381.057	87
381.282	104
381.507	88
381.733	92
381.958	85
382.184	92
382.409	82
382.634	86
382.86	77
383.085	105
383.31	85
383.535	91
383.761	99
383.986	103
384.211	97
384.436	92
384.662	97
384.887	91
385.112	89
385.337	105
385.562	96
385.787	91
386.013	107
386.238	107
386.463	100
386.688	108
386.913	96
387.138	94
387.363	100
387.588	100
387.813	100
388.038	96
388.263	94
388.488	103
388.713	82
388.938	89
389.163	98
389.387	87
389.612	73
389.837	79
390.062	68
390.287	76
390.512	100
390.736	93
390.961	83
391.186	84
391.411	85
391.636	92
391.86	82
392.085	91
392.31	86
392.534	79
392.759	74
392.984	89
393.208	86
393.433	85
393.658	77
393.882	100
394.107	80
394.331	94
394.556	88
394.78	88
395.005	80
395.229	77
395.454	76
395.678	86
395.903	80
396.127	75
396.352	78
396.576	82
396.801	83
397.025	93
397.249	94
397.474	73
397.698	101
397.922	74
398.147	88
398.371	88
398.595	90
398.82	89
399.044	85
399.268	85
399.492	94
399.717	88
399.941	91
400.165	93
400.389	85
400.613	82
400.837	85
401.062	81
401.286	103
401.51	85
401.734	87
401.958	107
402.182	129
402.406	161
402.63	123
402.854	90
403.078	84
403.302	74
403.526	88
403.75	86
403.974	88
404.198	87
404.422	73
404.645	85
404.869	100
405.093	98
405.317	111
405.541	107
405.765	102
405.988	108
406.212	188
406.436	272
406.66	171
406.883	123
407.107	96
407.331	86
407.555	97
407.778	102
408.002	93
408.226	85
408.449	93
408.673	84
408.896	93
409.12	93
409.344	84
409.567	102
409.791	85
410.014	85
410.238	108
410.461	90
410.685	89
410.908	84
411.132	82
411.355	86
411.578	84
411.802	72
412.025	80
412.249	85
412.472	99
412.695	87
412.919	85
413.142	85
413.365	85
413.589	72
413.812	88
414.035	82
414.258	86
414.482	89
414.705	86
414.928	85
415.151	92
415.374	89
415.597	80
415.821	86
416.044	85
416.267	87
416.49	91
416.713	91
416.936	82
417.159	81
417.382	101
417.605	74
417.828	94
418.051	93
418.274	95
418.497	77
418.72	85
418.943	96
419.166	79
419.389	88
419.611	82
419.834	76
420.057	78
420.28	70
420.503	77
420.726	81
420.948	77
421.171	88
421.394	88
421.617	87
421.839	78
422.062	90
422.285	82
422.507	91
422.73	98
422.953	90
423.175	92
423.398	87
423.621	85
423.843	84
424.066	104
424.288	90
424.511	81
424.733	97
424.956	87
425.178	95
425.401	99
425.623	95
425.846	85
426.068	82
426.291	68
426.513	91
426.735	84
426.958	75
427.18	92
427.402	131
427.625	199
427.847	163
428.069	121
428.292	93
428.514	85
428.736	80
428.958	75
429.181	71
429.403	91
429.625	83
429.847	92
430.069	91
430.292	73
430.514	80
430.736	83
430.958	90
431.18	93
431.402	90
431.624	91
431.846	76
432.068	88
432.29	82
432.512	76
432.734	83
432.956	81
433.178	87
433.4	95
433.622	79
433.844	92
434.066	71
434.287	87
434.509	73
434.731	75
434.953	88
435.175	88
435.397	93
435.618	88
435.84	93
436.062	119
436.284	111
436.505	88
436.727	98
436.949	80
437.17	81
437.392	89
437.614	83
437.835	100
438.057	117
438.278	102
438.5	107
438.721	105
438.943	92
439.165	85
439.386	101
439.608	97
439.829	101
440.05	110
440.272	153
440.493	94
440.715	95
440.936	87
441.158	96
441.379	93
441.6	78
441.822	83
442.043	81
442.264	91
442.486	101
442.707	97
442.928	118
443.149	118
443.371	132
443.592	115
443.813	101
444.034	101
444.255	88
444.476	96
444.698	87
444.919	84
445.14	121
445.361	126
445.582	99
445.803	142
446.024	134
446.245	133
446.466	93
446.687	83
446.908	92
447.129	81
447.35	89
447.571	86
447.792	96
448.013	111
448.234	115
448.455	100
448.675	108
448.896	107
449.117	98
449.338	91
449.559	130
449.779	129
450	97
450.221	88
450.442	90
450.662	110
450.883	117
451.104	110
451.324	82
451.545	78
451.766	74
451.986	81
452.207	85
452.428	96
452.648	100
452.869	112
453.089	125
453.31	121
453.53	106
453.751	92
453.971	103
454.192	116
454.412	89
454.633	87
454.853	81
455.073	89
455.294	84
455.514	90
455.734	78
455.955	93
456.175	95
456.395	76
456.616	80
456.836	79
457.056	66
457.276	80
457.497	91
457.717	93
457.937	97
458.157	74
458.377	85
458.598	110
458.818	180
459.038	181
459.258	135
459.478	85
459.698	74
459.918	81
460.138	81
460.358	86
460.578	75
460.798	99
461.018	81
461.238	79
461.458	87
461.678	83
461.898	87
462.118	91
462.338	97
462.558	88
462.777	71
462.997	86
463.217	82
463.437	90
463.657	76
463.876	83
464.096	89
464.316	91
464.536	86
464.755	94
464.975	118
465.195	193
465.414	181
465.634	98
465.854	83
466.073	81
466.293	78
466.512	82
466.732	88
466.951	78
467.171	87
467.391	87
467.61	120
467.829	111
468.049	150
468.268	192
468.488	90
468.707	93
468.927	80
469.146	80
469.365	87
469.585	98
469.804	95
470.023	96
470.243	84
470.462	103
470.681	121
470.901	91
471.12	81
471.339	92
471.558	80
471.777	91
471.997	110
472.216	271
472.435	484
472.654	170
472.873	80
473.092	78
473.311	68
473.53	83
473.749	93
473.968	92
474.187	92
474.406	97
474.625	91
474.844	99
475.063	66
475.282	85
475.501	90
475.72	81
475.939	79
476.158	83
476.377	79
476.596	79
476.814	91
477.033	89
477.252	76
477.471	87
477.69	90
477.908	82
478.127	92
478.346	81
478.564	73
478.783	109
479.002	98
479.22	88
479.439	102
479.658	120
479.876	92
480.095	102
480.313	96
480.532	95
480.751	116
480.969	258
481.188	811
481.406	506
481.624	131
481.843	75
482.061	80
482.28	79
482.498	94
482.717	80
482.935	85
483.153	93
483.372	91
483.59	84
483.808	88
484.027	79
484.245	79
484.463	85
484.681	79
484.9	84
485.118	80
485.336	87
485.554	85
485.772	92
485.99	110
486.209	109
486.427	92
486.645	109
486.863	99
487.081	85
487.299	87
487.517	93
487.735	88
487.953	78
488.171	97
488.389	86
488.607	93
488.825	91
489.043	75
489.261	91
489.479	78
489.696	65
489.914	77
490.132	86
490.35	87
490.568	78
490.786	77
491.003	83
491.221	107
491.439	88
491.657	71
491.874	76
492.092	82
492.31	83
492.527	90
492.745	89
492.963	82
493.18	76
493.398	102
493.615	101
493.833	79
494.05	96
494.268	89
494.485	84
494.703	85
494.92	77
495.138	93
495.355	84
495.573	88
495.79	75
496.008	93
496.225	92
496.442	77
496.66	90
496.877	90
497.094	86
497.312	76
497.529	81
497.746	85
497.963	90
498.181	99
498.398	88
498.615	89
498.832	99
499.049	89
499.267	81
499.484	89
499.701	79
499.918	96
500.135	81
500.352	85
500.569	66
500.786	96
501.003	76
501.22	80
501.437	101
501.654	109
501.871	103
502.088	99
502.305	87
502.522	78
502.739	79
502.956	74
503.172	78
503.389	103
503.606	118
503.823	115
504.04	80
504.256	81
504.473	88
504.69	89
504.907	95
505.123	76
505.34	96
505.557	95
505.773	81
505.99	80
506.207	85
506.423	78
506.64	75
506.856	81
507.073	82
507.289	85
507.506	104
507.722	110
507.939	123
508.155	95
508.372	73
508.588	84
508.805	84
509.021	100
509.238	80
509.454	87
509.67	104
509.887	117
510.103	137
510.319	235
510.536	902
510.752	2997
510.968	831
511.184	170
511.401	129
511.617	107
511.833	90
512.049	85
512.265	84
512.481	94
512.698	74
512.914	106
513.13	74
513.346	87
513.562	89
513.778	84
513.994	95
514.21	99
514.426	111
514.642	142
514.858	117
515.074	179
515.29	557
515.506	1984
515.721	724
515.937	172
516.153	123
516.369	102
516.585	95
516.801	97
517.016	94
517.232	61
517.448	90
517.664	81
517.879	91
518.095	80
518.311	83
518.527	102
518.742	95
518.958	80
519.173	97
519.389	84
519.605	91
519.82	85
520.036	98
520.251	150
520.467	121
520.682	102
520.898	106
521.113	116
521.329	141
521.544	243
521.76	718
521.975	3341
522.19	2006
522.406	396
522.621	133
522.836	103
523.052	102
523.267	77
523.482	102
523.698	95
523.913	117
524.128	110
524.343	85
524.559	103
524.774	84
524.989	94
525.204	105
525.419	97
525.634	83
525.849	93
526.064	81
526.28	79
526.495	78
526.71	79
526.925	91
527.14	82
527.355	92
527.57	90
527.785	74
527.999	91
528.214	87
528.429	102
528.644	87
528.859	91
529.074	95
529.289	133
529.503	198
529.718	109
529.933	80
530.148	75
530.363	80
530.577	81
530.792	83
531.007	96
531.221	84
531.436	89
531.651	76
531.865	85
532.08	79
532.295	96
532.509	90
532.724	94
532.938	99
533.153	81
533.367	81
533.582	91
533.796	102
534.011	91
534.225	85
534.44	87
534.654	87
534.868	93
535.083	82
535.297	93
535.511	112
535.726	90
535.94	97
536.154	88
536.369	81
536.583	83
536.797	80
537.011	85
537.225	100
537.44	81
537.654	76
537.868	73
538.082	88
538.296	92
538.51	92
538.724	87
538.938	98
539.153	89
539.367	103
539.581	101
539.795	84
540.009	83
540.222	90
540.436	96
540.65	94
540.864	91
541.078	101
541.292	82
541.506	85
541.72	86
541.934	85
542.147	93
542.361	87
542.575	85
542.789	100
543.002	91
543.216	106
543.43	104
543.644	93
543.857	82
544.071	89
544.285	90
544.498	81
544.712	88
544.925	95
545.139	89
545.352	77
545.566	78
545.779	90
545.993	85
546.206	79
546.42	87
546.633	70
546.847	82
547.06	82
547.274	79
547.487	91
547.7	75
547.914	96
548.127	91
548.34	84
548.554	61
548.767	85
548.98	75
549.193	88
549.407	99
549.62	83
549.833	97
550.046	83
550.259	89
550.473	98
550.686	90
550.899	94
551.112	77
551.325	74
551.538	90
551.751	97
551.964	80
552.177	79
552.39	73
552.603	76
552.816	87
553.029	96
553.242	97
553.455	105
553.667	109
553.88	107
554.093	88
554.306	92
554.519	81
554.732	103
554.944	81
555.157	84
555.37	91
555.583	98
555.795	79
556.008	81
556.221	101
556.433	94
556.646	104
556.859	84
557.071	84
557.284	99
557.496	84
557.709	91
557.921	72
558.134	92
558.346	67
558.559	94
558.771	73
558.984	80
559.196	69
559.409	67
559.621	74
559.833	83
560.046	78
560.258	99
560.47	97
560.683	90
560.895	88
561.107	74
561.32	72
561.532	89
561.744	91
561.956	93
562.168	83
562.381	90
562.593	89
562.805	101
563.017	94
563.229	92
563.441	91
563.653	82
563.865	95
564.077	85
564.289	106
564.501	76
564.713	91
564.925	81
565.137	97
565.349	78
565.561	76
565.773	77
565.985	86
566.197	94
566.408	93
566.62	91
566.832	80
567.044	84
567.255	77
567.467	87
567.679	91
567.891	97
568.102	92
568.314	79
568.526	82
568.737	89
568.949	75
569.161	88
569.372	81
569.584	91
569.795	93
570.007	116
570.218	279
570.43	151
570.641	99
570.853	76
571.064	94
571.276	81
571.487	72
571.698	82
571.91	86
572.121	77
572.333	80
572.544	92
572.755	72
572.966	89
573.178	76
573.389	91
573.6	84
573.811	99
574.023	93
574.234	90
574.445	95
574.656	77
574.867	87
575.078	72
575.289	95
575.501	88
575.712	79
575.923	84
576.134	80
576.345	90
576.556	85
576.767	88
576.978	91
577.188	92
577.399	106
577.61	96
577.821	96
578.032	116
578.243	316
578.454	961
578.665	244
578.875	105
579.086	78
579.297	80
579.508	81
579.718	78
579.929	64
580.14	98
580.35	86
580.561	80
580.772	63
580.982	94
581.193	77
581.403	82
581.614	79
581.825	73
582.035	73
582.246	84
582.456	83
582.667	86
582.877	80
583.087	100
583.298	95
583.508	81
583.719	90
583.929	86
584.139	73
584.35	86
584.56	92
584.77	87
584.981	87
585.191	63
