Data from Circ_2008_H10_HRD10591_00073.txt Node
Date: Wed Jan 03 10:17:10 EST 2024
User: Yrep
Spectrometer: HR+D1059
Trigger mode: 1
Integration Time (sec): 1.000000E-1
Scans to average: 1
Electric dark correction enabled: true
Nonlinearity correction enabled: false
Boxcar width: 0
XAxis mode: Wavelengths
Number of Pixels in Spectrum: 2048
>>>>>Begin Spectral Data<<<<<
223.165	-13.81
223.4	-13.81
223.635	-13.81
223.869	-14.81
224.104	-21.81
224.338	-8.81
224.573	-24.81
224.808	-2.81
225.042	0.19
225.277	-8.81
225.511	6.19
225.746	-4.81
225.98	4.19
226.215	6.19
226.449	30.19
226.683	13.19
226.918	13.19
227.152	27.19
227.387	36.19
227.621	45.19
227.856	56.19
228.09	42.19
228.324	58.19
228.559	59.19
228.793	64.19
229.027	72.19
229.262	68.19
229.496	88.19
229.73	82.19
229.964	82.19
230.199	76.19
230.433	75.19
230.667	88.19
230.901	85.19
231.136	72.19
231.37	88.19
231.604	72.19
231.838	83.19
232.072	87.19
232.306	85.19
232.541	91.19
232.775	93.19
233.009	87.19
233.243	92.19
233.477	89.19
233.711	88.19
233.945	92.19
234.179	74.19
234.413	73.19
234.647	89.19
234.881	93.19
235.115	95.19
235.349	72.19
235.583	78.19
235.817	84.19
236.051	91.19
236.285	80.19
236.519	66.19
236.753	100.19
236.987	85.19
237.221	89.19
237.455	78.19
237.689	75.19
237.922	83.19
238.156	79.19
238.39	85.19
238.624	67.19
238.858	77.19
239.091	86.19
239.325	80.19
239.559	89.19
239.793	79.19
240.027	82.19
240.26	65.19
240.494	67.19
240.728	75.19
240.961	67.19
241.195	77.19
241.429	86.19
241.662	88.19
241.896	82.19
242.13	90.19
242.363	80.19
242.597	75.19
242.83	79.19
243.064	85.19
243.298	75.19
243.531	88.19
243.765	85.19
243.998	80.19
244.232	83.19
244.465	98.19
244.699	76.19
244.932	85.19
245.166	71.19
245.399	80.19
245.633	80.19
245.866	80.19
246.099	77.19
246.333	80.19
246.566	72.19
246.8	81.19
247.033	80.19
247.266	80.19
247.5	73.19
247.733	87.19
247.966	94.19
248.2	85.19
248.433	80.19
248.666	73.19
248.899	81.19
249.133	100.19
249.366	89.19
249.599	92.19
249.832	95.19
250.066	75.19
250.299	73.19
250.532	66.19
250.765	78.19
250.998	92.19
251.231	83.19
251.465	76.19
251.698	80.19
251.931	68.19
252.164	79.19
252.397	77.19
252.63	88.19
252.863	88.19
253.096	73.19
253.329	97.19
253.562	76.19
253.795	78.19
254.028	82.19
254.261	80.19
254.494	73.19
254.727	83.19
254.96	84.19
255.193	88.19
255.426	78.19
255.659	85.19
255.892	84.19
256.124	77.19
256.357	74.19
256.59	88.19
256.823	77.19
257.056	84.19
257.289	80.19
257.521	78.19
257.754	79.19
257.987	78.19
258.22	96.19
258.452	81.19
258.685	79.19
258.918	84.19
259.151	91.19
259.383	77.19
259.616	73.19
259.849	83.19
260.081	81.19
260.314	87.19
260.547	78.19
260.779	89.19
261.012	84.19
261.244	84.19
261.477	78.19
261.71	96.19
261.942	101.19
262.175	100.19
262.407	99.19
262.64	86.19
262.872	85.19
263.105	83.19
263.337	76.19
263.57	94.19
263.802	79.19
264.035	90.19
264.267	88.19
264.499	76.19
264.732	88.19
264.964	87.19
265.197	74.19
265.429	85.19
265.661	96.19
265.894	89.19
266.126	82.19
266.358	82.19
266.591	83.19
266.823	73.19
267.055	78.19
267.287	91.19
267.52	79.19
267.752	92.19
267.984	71.19
268.216	83.19
268.448	97.19
268.681	83.19
268.913	79.19
269.145	85.19
269.377	95.19
269.609	87.19
269.841	84.19
270.073	90.19
270.306	92.19
270.538	97.19
270.77	97.19
271.002	82.19
271.234	86.19
271.466	75.19
271.698	73.19
271.93	88.19
272.162	82.19
272.394	79.19
272.626	96.19
272.858	86.19
273.09	94.19
273.322	85.19
273.553	87.19
273.785	77.19
274.017	92.19
274.249	86.19
274.481	73.19
274.713	87.19
274.945	84.19
275.176	92.19
275.408	84.19
275.64	88.19
275.872	81.19
276.104	91.19
276.335	96.19
276.567	102.19
276.799	104.19
277.031	111.19
277.262	93.19
277.494	94.19
277.726	94.19
277.957	84.19
278.189	85.19
278.421	89.19
278.652	99.19
278.884	100.19
279.115	91.19
279.347	83.19
279.579	88.19
279.81	88.19
280.042	103.19
280.273	98.19
280.505	99.19
280.736	92.19
280.968	85.19
281.199	94.19
281.431	89.19
281.662	71.19
281.894	95.19
282.125	100.19
282.356	143.19
282.588	157.19
282.819	134.19
283.051	91.19
283.282	86.19
283.513	79.19
283.745	86.19
283.976	87.19
284.207	89.19
284.439	68.19
284.67	77.19
284.901	73.19
285.132	83.19
285.364	105.19
285.595	78.19
285.826	75.19
286.057	79.19
286.288	91.19
286.52	87.19
286.751	91.19
286.982	83.19
287.213	73.19
287.444	91.19
287.675	95.19
287.906	88.19
288.138	91.19
288.369	86.19
288.6	94.19
288.831	84.19
289.062	97.19
289.293	96.19
289.524	103.19
289.755	90.19
289.986	92.19
290.217	82.19
290.448	88.19
290.679	96.19
290.91	82.19
291.141	79.19
291.371	97.19
291.602	88.19
291.833	84.19
292.064	81.19
292.295	70.19
292.526	80.19
292.757	91.19
292.987	93.19
293.218	94.19
293.449	72.19
293.68	95.19
293.91	93.19
294.141	79.19
294.372	76.19
294.603	95.19
294.833	88.19
295.064	79.19
295.295	106.19
295.525	107.19
295.756	96.19
295.987	115.19
296.217	153.19
296.448	127.19
296.679	103.19
296.909	79.19
297.14	101.19
297.37	81.19
297.601	94.19
297.831	83.19
298.062	94.19
298.292	91.19
298.523	98.19
298.753	105.19
298.984	95.19
299.214	88.19
299.445	80.19
299.675	97.19
299.905	112.19
300.136	97.19
300.366	93.19
300.597	103.19
300.827	95.19
301.057	94.19
301.288	85.19
301.518	91.19
301.748	94.19
301.979	93.19
302.209	99.19
302.439	96.19
302.669	91.19
302.9	87.19
303.13	89.19
303.36	92.19
303.59	82.19
303.82	126.19
304.051	98.19
304.281	80.19
304.511	91.19
304.741	100.19
304.971	97.19
305.201	98.19
305.431	86.19
305.661	84.19
305.891	79.19
306.121	104.19
306.352	90.19
306.582	107.19
306.812	110.19
307.042	98.19
307.272	99.19
307.502	108.19
307.731	92.19
307.961	95.19
308.191	101.19
308.421	92.19
308.651	90.19
308.881	92.19
309.111	89.19
309.341	97.19
309.571	97.19
309.8	101.19
310.03	100.19
310.26	103.19
310.49	89.19
310.72	101.19
310.949	104.19
311.179	99.19
311.409	95.19
311.639	111.19
311.868	100.19
312.098	91.19
312.328	96.19
312.557	112.19
312.787	109.19
313.017	105.19
313.246	97.19
313.476	105.19
313.706	99.19
313.935	96.19
314.165	98.19
314.394	97.19
314.624	96.19
314.853	95.19
315.083	95.19
315.312	98.19
315.542	93.19
315.771	87.19
316.001	94.19
316.23	101.19
316.46	94.19
316.689	80.19
316.919	92.19
317.148	87.19
317.377	94.19
317.607	96.19
317.836	91.19
318.065	94.19
318.295	92.19
318.524	77.19
318.753	84.19
318.983	105.19
319.212	104.19
319.441	116.19
319.67	106.19
319.9	105.19
320.129	95.19
320.358	101.19
320.587	103.19
320.816	89.19
321.046	100.19
321.275	106.19
321.504	92.19
321.733	108.19
321.962	108.19
322.191	98.19
322.42	84.19
322.649	106.19
322.878	111.19
323.108	119.19
323.337	112.19
323.566	134.19
323.795	159.19
324.024	199.19
324.253	380.19
324.482	747.19
324.71	1530.19
324.939	2003.19
325.168	783.19
325.397	228.19
325.626	145.19
325.855	114.19
326.084	115.19
326.313	120.19
326.542	161.19
326.77	211.19
326.999	420.19
327.228	812.19
327.457	1490.19
327.686	1191.19
327.914	345.19
328.143	217.19
328.372	193.19
328.6	152.19
328.829	142.19
329.058	119.19
329.287	125.19
329.515	112.19
329.744	108.19
329.972	127.19
330.201	179.19
330.43	224.19
330.658	172.19
330.887	161.19
331.115	122.19
331.344	109.19
331.572	96.19
331.801	107.19
332.03	118.19
332.258	100.19
332.486	88.19
332.715	106.19
332.943	112.19
333.172	91.19
333.4	105.19
333.629	111.19
333.857	117.19
334.085	143.19
334.314	181.19
334.542	275.19
334.771	269.19
334.999	133.19
335.227	98.19
335.455	100.19
335.684	112.19
335.912	90.19
336.14	94.19
336.369	97.19
336.597	113.19
336.825	103.19
337.053	96.19
337.281	101.19
337.51	89.19
337.738	87.19
337.966	109.19
338.194	103.19
338.422	104.19
338.65	99.19
338.878	83.19
339.106	79.19
339.334	90.19
339.562	95.19
339.79	95.19
340.018	78.19
340.246	97.19
340.474	102.19
340.702	91.19
340.93	88.19
341.158	96.19
341.386	103.19
341.614	109.19
341.842	85.19
342.07	88.19
342.298	99.19
342.526	95.19
342.754	98.19
342.981	98.19
343.209	98.19
343.437	99.19
343.665	93.19
343.893	90.19
344.12	83.19
344.348	100.19
344.576	81.19
344.804	91.19
345.031	92.19
345.259	99.19
345.487	80.19
345.714	109.19
345.942	110.19
346.17	87.19
346.397	101.19
346.625	92.19
346.853	92.19
347.08	88.19
347.308	89.19
347.535	88.19
347.763	104.19
347.99	95.19
348.218	112.19
348.445	95.19
348.673	107.19
348.9	111.19
349.128	81.19
349.355	79.19
349.583	99.19
349.81	90.19
350.037	98.19
350.265	102.19
350.492	83.19
350.72	115.19
350.947	100.19
351.174	106.19
351.402	125.19
351.629	93.19
351.856	97.19
352.083	95.19
352.311	103.19
352.538	112.19
352.765	100.19
352.992	125.19
353.22	114.19
353.447	99.19
353.674	86.19
353.901	83.19
354.128	97.19
354.355	89.19
354.583	116.19
354.81	101.19
355.037	96.19
355.264	88.19
355.491	93.19
355.718	95.19
355.945	92.19
356.172	77.19
356.399	83.19
356.626	84.19
356.853	99.19
357.08	99.19
357.307	87.19
357.534	71.19
357.761	89.19
357.988	96.19
358.215	92.19
358.441	110.19
358.668	93.19
358.895	91.19
359.122	101.19
359.349	97.19
359.576	90.19
359.802	101.19
360.029	125.19
360.256	119.19
360.483	104.19
360.709	93.19
360.936	100.19
361.163	98.19
361.39	97.19
361.616	83.19
361.843	89.19
362.07	87.19
362.296	99.19
362.523	96.19
362.749	96.19
362.976	97.19
363.203	86.19
363.429	83.19
363.656	84.19
363.882	99.19
364.109	84.19
364.335	87.19
364.562	91.19
364.788	104.19
365.015	102.19
365.241	94.19
365.468	105.19
365.694	100.19
365.92	94.19
366.147	92.19
366.373	83.19
366.599	99.19
366.826	97.19
367.052	92.19
367.278	90.19
367.505	90.19
367.731	85.19
367.957	92.19
368.184	96.19
368.41	99.19
368.636	112.19
368.862	109.19
369.089	110.19
369.315	91.19
369.541	84.19
369.767	96.19
369.993	100.19
370.219	103.19
370.445	93.19
370.672	89.19
370.898	83.19
371.124	79.19
371.35	74.19
371.576	88.19
371.802	91.19
372.028	82.19
372.254	84.19
372.48	83.19
372.706	77.19
372.932	84.19
373.158	84.19
373.384	84.19
373.61	87.19
373.835	90.19
374.061	90.19
374.287	89.19
374.513	95.19
374.739	100.19
374.965	85.19
375.191	88.19
375.416	81.19
375.642	85.19
375.868	92.19
376.094	93.19
376.319	95.19
376.545	83.19
376.771	83.19
376.997	64.19
377.222	84.19
377.448	107.19
377.674	83.19
377.899	90.19
378.125	96.19
378.35	93.19
378.576	90.19
378.802	104.19
379.027	86.19
379.253	84.19
379.478	95.19
379.704	94.19
379.929	100.19
380.155	95.19
380.38	91.19
380.606	78.19
380.831	106.19
381.057	99.19
381.282	111.19
381.507	93.19
381.733	93.19
381.958	87.19
382.184	109.19
382.409	99.19
382.634	109.19
382.86	94.19
383.085	106.19
383.31	88.19
383.535	94.19
383.761	103.19
383.986	97.19
384.211	106.19
384.436	99.19
384.662	96.19
384.887	102.19
385.112	100.19
385.337	109.19
385.562	105.19
385.787	99.19
386.013	103.19
386.238	107.19
386.463	100.19
386.688	104.19
386.913	100.19
387.138	106.19
387.363	100.19
387.588	106.19
387.813	101.19
388.038	109.19
388.263	103.19
388.488	114.19
388.713	104.19
388.938	108.19
389.163	110.19
389.387	108.19
389.612	94.19
389.837	89.19
390.062	96.19
390.287	112.19
390.512	85.19
390.736	88.19
390.961	88.19
391.186	92.19
391.411	103.19
391.636	86.19
391.86	85.19
392.085	97.19
392.31	80.19
392.534	87.19
392.759	95.19
392.984	82.19
393.208	95.19
393.433	97.19
393.658	93.19
393.882	101.19
394.107	88.19
394.331	88.19
394.556	88.19
394.78	89.19
395.005	80.19
395.229	90.19
395.454	89.19
395.678	97.19
395.903	86.19
396.127	101.19
396.352	83.19
396.576	92.19
396.801	94.19
397.025	88.19
397.249	72.19
397.474	89.19
397.698	90.19
397.922	91.19
398.147	77.19
398.371	73.19
398.595	89.19
398.82	82.19
399.044	80.19
399.268	96.19
399.492	93.19
399.717	88.19
399.941	98.19
400.165	89.19
400.389	85.19
400.613	109.19
400.837	85.19
401.062	91.19
401.286	92.19
401.51	84.19
401.734	87.19
401.958	86.19
402.182	117.19
402.406	168.19
402.63	128.19
402.854	99.19
403.078	91.19
403.302	89.19
403.526	107.19
403.75	81.19
403.974	84.19
404.198	97.19
404.422	98.19
404.645	98.19
404.869	103.19
405.093	95.19
405.317	108.19
405.541	110.19
405.765	106.19
405.988	103.19
406.212	176.19
406.436	249.19
406.66	144.19
406.883	109.19
407.107	76.19
407.331	79.19
407.555	96.19
407.778	113.19
408.002	88.19
408.226	85.19
408.449	90.19
408.673	99.19
408.896	97.19
409.12	114.19
409.344	96.19
409.567	85.19
409.791	93.19
410.014	88.19
410.238	90.19
410.461	89.19
410.685	89.19
410.908	87.19
411.132	114.19
411.355	88.19
411.578	82.19
411.802	88.19
412.025	84.19
412.249	87.19
412.472	88.19
412.695	103.19
412.919	87.19
413.142	84.19
413.365	72.19
413.589	95.19
413.812	91.19
414.035	94.19
414.258	93.19
414.482	92.19
414.705	92.19
414.928	83.19
415.151	87.19
415.374	99.19
415.597	95.19
415.821	92.19
416.044	85.19
416.267	89.19
416.49	95.19
416.713	95.19
416.936	79.19
417.159	96.19
417.382	91.19
417.605	85.19
417.828	98.19
418.051	89.19
418.274	92.19
418.497	84.19
418.72	89.19
418.943	94.19
419.166	97.19
419.389	96.19
419.611	83.19
419.834	94.19
420.057	84.19
420.28	76.19
420.503	89.19
420.726	91.19
420.948	83.19
421.171	82.19
421.394	96.19
421.617	82.19
421.839	98.19
422.062	94.19
422.285	91.19
422.507	105.19
422.73	96.19
422.953	87.19
423.175	76.19
423.398	94.19
423.621	92.19
423.843	91.19
424.066	93.19
424.288	84.19
424.511	93.19
424.733	100.19
424.956	107.19
425.178	92.19
425.401	95.19
425.623	97.19
425.846	105.19
426.068	80.19
426.291	80.19
426.513	96.19
426.735	83.19
426.958	97.19
427.18	94.19
427.402	133.19
427.625	177.19
427.847	131.19
428.069	125.19
428.292	92.19
428.514	111.19
428.736	74.19
428.958	77.19
429.181	83.19
429.403	93.19
429.625	87.19
429.847	103.19
430.069	84.19
430.292	102.19
430.514	83.19
430.736	91.19
430.958	97.19
431.18	86.19
431.402	95.19
431.624	88.19
431.846	83.19
432.068	84.19
432.29	91.19
432.512	91.19
432.734	80.19
432.956	85.19
433.178	78.19
433.4	91.19
433.622	86.19
433.844	93.19
434.066	99.19
434.287	107.19
434.509	88.19
434.731	72.19
434.953	89.19
435.175	88.19
435.397	93.19
435.618	90.19
435.84	103.19
436.062	111.19
436.284	95.19
436.505	88.19
436.727	93.19
436.949	91.19
437.17	95.19
437.392	80.19
437.614	93.19
437.835	112.19
438.057	116.19
438.278	103.19
438.5	104.19
438.721	112.19
438.943	97.19
439.165	93.19
439.386	83.19
439.608	105.19
439.829	102.19
440.05	127.19
440.272	119.19
440.493	103.19
440.715	91.19
440.936	76.19
441.158	84.19
441.379	92.19
441.6	100.19
441.822	90.19
442.043	86.19
442.264	107.19
442.486	108.19
442.707	92.19
442.928	106.19
443.149	138.19
443.371	145.19
443.592	101.19
443.813	113.19
444.034	105.19
444.255	94.19
444.476	85.19
444.698	91.19
444.919	93.19
445.14	143.19
445.361	129.19
445.582	108.19
445.803	137.19
446.024	142.19
446.245	125.19
446.466	112.19
446.687	85.19
446.908	87.19
447.129	99.19
447.35	93.19
447.571	83.19
447.792	88.19
448.013	87.19
448.234	101.19
448.455	103.19
448.675	123.19
448.896	120.19
449.117	108.19
449.338	108.19
449.559	119.19
449.779	120.19
450	97.19
450.221	80.19
450.442	77.19
450.662	92.19
450.883	106.19
451.104	94.19
451.324	105.19
451.545	103.19
451.766	94.19
451.986	96.19
452.207	92.19
452.428	80.19
452.648	90.19
452.869	92.19
453.089	126.19
453.31	122.19
453.53	80.19
453.751	88.19
453.971	107.19
454.192	113.19
454.412	94.19
454.633	90.19
454.853	96.19
455.073	83.19
455.294	72.19
455.514	92.19
455.734	78.19
455.955	83.19
456.175	88.19
456.395	84.19
456.616	87.19
456.836	91.19
457.056	76.19
457.276	78.19
457.497	92.19
457.717	91.19
457.937	94.19
458.157	85.19
458.377	94.19
458.598	114.19
458.818	165.19
459.038	161.19
459.258	110.19
459.478	91.19
459.698	94.19
459.918	84.19
460.138	78.19
460.358	82.19
460.578	91.19
460.798	84.19
461.018	94.19
461.238	81.19
461.458	84.19
461.678	82.19
461.898	85.19
462.118	89.19
462.338	88.19
462.558	74.19
462.777	91.19
462.997	95.19
463.217	85.19
463.437	94.19
463.657	80.19
463.876	95.19
464.096	91.19
464.316	96.19
464.536	99.19
464.755	95.19
464.975	99.19
465.195	176.19
465.414	160.19
465.634	98.19
465.854	87.19
466.073	67.19
466.293	93.19
466.512	81.19
466.732	87.19
466.951	92.19
467.171	91.19
467.391	91.19
467.61	111.19
467.829	98.19
468.049	135.19
468.268	165.19
468.488	104.19
468.707	101.19
468.927	94.19
469.146	80.19
469.365	79.19
469.585	81.19
469.804	93.19
470.023	102.19
470.243	100.19
470.462	108.19
470.681	116.19
470.901	96.19
471.12	101.19
471.339	93.19
471.558	94.19
471.777	106.19
471.997	115.19
472.216	204.19
472.435	359.19
472.654	122.19
472.873	77.19
473.092	83.19
473.311	79.19
473.53	80.19
473.749	83.19
473.968	86.19
474.187	91.19
474.406	88.19
474.625	74.19
474.844	92.19
475.063	86.19
475.282	90.19
475.501	83.19
475.72	95.19
475.939	94.19
476.158	89.19
476.377	76.19
476.596	84.19
476.814	81.19
477.033	97.19
477.252	74.19
477.471	81.19
477.69	91.19
477.908	79.19
478.127	88.19
478.346	92.19
478.564	85.19
478.783	97.19
479.002	102.19
479.22	108.19
479.439	94.19
479.658	97.19
479.876	83.19
480.095	87.19
480.313	87.19
480.532	93.19
480.751	114.19
480.969	196.19
481.188	515.19
481.406	346.19
481.624	124.19
481.843	98.19
482.061	85.19
482.28	78.19
482.498	85.19
482.717	91.19
482.935	88.19
483.153	88.19
483.372	73.19
483.59	90.19
483.808	82.19
484.027	79.19
484.245	105.19
484.463	96.19
484.681	96.19
484.9	76.19
485.118	93.19
485.336	91.19
485.554	109.19
485.772	100.19
485.99	95.19
486.209	100.19
486.427	89.19
486.645	99.19
486.863	103.19
487.081	100.19
487.299	89.19
487.517	98.19
487.735	94.19
487.953	95.19
488.171	95.19
488.389	96.19
488.607	107.19
488.825	97.19
489.043	100.19
489.261	98.19
489.479	95.19
489.696	79.19
489.914	97.19
490.132	91.19
490.35	90.19
490.568	96.19
490.786	95.19
491.003	99.19
491.221	90.19
491.439	90.19
491.657	102.19
491.874	79.19
492.092	86.19
492.31	88.19
492.527	89.19
492.745	77.19
492.963	102.19
493.18	93.19
493.398	84.19
493.615	95.19
493.833	95.19
494.05	88.19
494.268	80.19
494.485	89.19
494.703	94.19
494.92	88.19
495.138	95.19
495.355	85.19
495.573	99.19
495.79	83.19
496.008	94.19
496.225	95.19
496.442	97.19
496.66	93.19
496.877	91.19
497.094	92.19
497.312	98.19
497.529	81.19
497.746	102.19
497.963	95.19
498.181	92.19
498.398	114.19
498.615	123.19
498.832	101.19
499.049	80.19
499.267	88.19
499.484	84.19
499.701	88.19
499.918	104.19
500.135	88.19
500.352	102.19
500.569	72.19
500.786	98.19
501.003	100.19
501.22	88.19
501.437	81.19
501.654	93.19
501.871	111.19
502.088	85.19
502.305	95.19
502.522	80.19
502.739	88.19
502.956	95.19
503.172	105.19
503.389	93.19
503.606	105.19
503.823	96.19
504.04	93.19
504.256	103.19
504.473	88.19
504.69	72.19
504.907	78.19
505.123	87.19
505.34	93.19
505.557	96.19
505.773	79.19
505.99	106.19
506.207	74.19
506.423	84.19
506.64	81.19
506.856	80.19
507.073	99.19
507.289	106.19
507.506	105.19
507.722	123.19
507.939	111.19
508.155	97.19
508.372	87.19
508.588	95.19
508.805	79.19
509.021	85.19
509.238	108.19
509.454	105.19
509.67	100.19
509.887	106.19
510.103	130.19
510.319	230.19
510.536	876.19
510.752	2978.19
510.968	831.19
511.184	178.19
511.401	133.19
511.617	101.19
511.833	106.19
512.049	87.19
512.265	84.19
512.481	100.19
512.698	82.19
512.914	118.19
513.13	100.19
513.346	94.19
513.562	106.19
513.778	100.19
513.994	91.19
514.21	95.19
514.426	132.19
514.642	139.19
514.858	123.19
515.074	181.19
515.29	513.19
