Data from Circ_2008_H10_HRD10591_00089.txt Node
Date: Wed Jan 03 10:17:14 EST 2024
User: Yrep
Spectrometer: HR+D1059
Trigger mode: 1
Integration Time (sec): 1.000000E-1
Scans to average: 1
Electric dark correction enabled: true
Nonlinearity correction enabled: false
Boxcar width: 0
XAxis mode: Wavelengths
Number of Pixels in Spectrum: 2048
>>>>>Begin Spectral Data<<<<<
223.165	-25.06
223.4	-25.06
223.635	-25.06
223.869	-13.06
224.104	-28.06
224.338	-18.06
224.573	-13.06
224.808	-6.06
225.042	0.94
225.277	-18.06
225.511	0.94
225.746	10.94
225.98	-3.06
226.215	14.94
226.449	19.94
226.683	24.94
226.918	30.94
227.152	20.94
227.387	34.94
227.621	41.94
227.856	41.94
228.09	47.94
228.324	46.94
228.559	67.94
228.793	67.94
229.027	62.94
229.262	79.94
229.496	77.94
229.73	100.94
229.964	89.94
230.199	78.94
230.433	87.94
230.667	79.94
230.901	84.94
231.136	98.94
231.37	86.94
231.604	77.94
231.838	92.94
232.072	86.94
232.306	83.94
232.541	92.94
232.775	83.94
233.009	89.94
233.243	79.94
233.477	86.94
233.711	76.94
233.945	95.94
234.179	86.94
234.413	70.94
234.647	84.94
234.881	87.94
235.115	90.94
235.349	77.94
235.583	80.94
235.817	75.94
236.051	81.94
236.285	85.94
236.519	92.94
236.753	85.94
236.987	83.94
237.221	86.94
237.455	87.94
237.689	79.94
237.922	80.94
238.156	51.94
238.39	73.94
238.624	80.94
238.858	85.94
239.091	103.94
239.325	81.94
239.559	73.94
239.793	77.94
240.027	86.94
240.26	79.94
240.494	84.94
240.728	84.94
240.961	74.94
241.195	74.94
241.429	84.94
241.662	83.94
241.896	81.94
242.13	84.94
242.363	93.94
242.597	75.94
242.83	94.94
243.064	73.94
243.298	71.94
243.531	71.94
243.765	77.94
243.998	63.94
244.232	102.94
244.465	84.94
244.699	93.94
244.932	77.94
245.166	77.94
245.399	82.94
245.633	77.94
245.866	84.94
246.099	80.94
246.333	69.94
246.566	81.94
246.8	79.94
247.033	89.94
247.266	76.94
247.5	107.94
247.733	77.94
247.966	79.94
248.2	90.94
248.433	87.94
248.666	81.94
248.899	73.94
249.133	90.94
249.366	99.94
249.599	107.94
249.832	100.94
250.066	81.94
250.299	94.94
250.532	86.94
250.765	101.94
250.998	82.94
251.231	89.94
251.465	86.94
251.698	90.94
251.931	82.94
252.164	77.94
252.397	81.94
252.63	74.94
252.863	79.94
253.096	78.94
253.329	77.94
253.562	84.94
253.795	84.94
254.028	80.94
254.261	71.94
254.494	87.94
254.727	95.94
254.96	86.94
255.193	85.94
255.426	84.94
255.659	79.94
255.892	90.94
256.124	79.94
256.357	90.94
256.59	85.94
256.823	84.94
257.056	103.94
257.289	79.94
257.521	87.94
257.754	68.94
257.987	79.94
258.22	86.94
258.452	93.94
258.685	83.94
258.918	85.94
259.151	91.94
259.383	93.94
259.616	87.94
259.849	95.94
260.081	82.94
260.314	65.94
260.547	95.94
260.779	88.94
261.012	86.94
261.244	87.94
261.477	91.94
261.71	96.94
261.942	123.94
262.175	130.94
262.407	89.94
262.64	100.94
262.872	76.94
263.105	86.94
263.337	98.94
263.57	85.94
263.802	77.94
264.035	84.94
264.267	79.94
264.499	65.94
264.732	98.94
264.964	87.94
265.197	78.94
265.429	89.94
265.661	85.94
265.894	89.94
266.126	88.94
266.358	85.94
266.591	77.94
266.823	79.94
267.055	94.94
267.287	86.94
267.52	92.94
267.752	73.94
267.984	85.94
268.216	78.94
268.448	76.94
268.681	83.94
268.913	93.94
269.145	95.94
269.377	85.94
269.609	79.94
269.841	92.94
270.073	93.94
270.306	84.94
270.538	84.94
270.77	83.94
271.002	81.94
271.234	80.94
271.466	84.94
271.698	89.94
271.93	74.94
272.162	87.94
272.394	93.94
272.626	90.94
272.858	95.94
273.09	90.94
273.322	89.94
273.553	92.94
273.785	95.94
274.017	80.94
274.249	78.94
274.481	80.94
274.713	86.94
274.945	98.94
275.176	91.94
275.408	89.94
275.64	83.94
275.872	109.94
276.104	92.94
276.335	93.94
276.567	106.94
276.799	122.94
277.031	125.94
277.262	102.94
277.494	104.94
277.726	101.94
277.957	101.94
278.189	90.94
278.421	69.94
278.652	86.94
278.884	95.94
279.115	100.94
279.347	95.94
279.579	87.94
279.81	102.94
280.042	89.94
280.273	110.94
280.505	103.94
280.736	85.94
280.968	78.94
281.199	76.94
281.431	96.94
281.662	87.94
281.894	80.94
282.125	102.94
282.356	119.94
282.588	148.94
282.819	118.94
283.051	80.94
283.282	92.94
283.513	95.94
283.745	80.94
283.976	87.94
284.207	95.94
284.439	86.94
284.67	94.94
284.901	87.94
285.132	84.94
285.364	87.94
285.595	80.94
285.826	92.94
286.057	84.94
286.288	83.94
286.52	93.94
286.751	97.94
286.982	91.94
287.213	86.94
287.444	87.94
287.675	107.94
287.906	102.94
288.138	87.94
288.369	91.94
288.6	82.94
288.831	88.94
289.062	88.94
289.293	83.94
289.524	85.94
289.755	104.94
289.986	89.94
290.217	110.94
290.448	89.94
290.679	74.94
290.91	89.94
291.141	93.94
291.371	100.94
291.602	92.94
291.833	96.94
292.064	89.94
292.295	104.94
292.526	81.94
292.757	79.94
292.987	83.94
293.218	93.94
293.449	86.94
293.68	93.94
293.91	94.94
294.141	100.94
294.372	92.94
294.603	98.94
294.833	89.94
295.064	92.94
295.295	86.94
295.525	106.94
295.756	100.94
295.987	124.94
296.217	151.94
296.448	141.94
296.679	88.94
296.909	104.94
297.14	89.94
297.37	97.94
297.601	75.94
297.831	97.94
298.062	86.94
298.292	99.94
298.523	75.94
298.753	82.94
298.984	86.94
299.214	87.94
299.445	102.94
299.675	100.94
299.905	91.94
300.136	84.94
300.366	89.94
300.597	103.94
300.827	93.94
301.057	106.94
301.288	127.94
301.518	111.94
301.748	94.94
301.979	109.94
302.209	86.94
302.439	93.94
302.669	76.94
302.9	89.94
303.13	103.94
303.36	108.94
303.59	101.94
303.82	106.94
304.051	110.94
304.281	97.94
304.511	95.94
304.741	90.94
304.971	83.94
305.201	87.94
305.431	87.94
305.661	96.94
305.891	85.94
306.121	97.94
306.352	113.94
306.582	115.94
306.812	91.94
307.042	110.94
307.272	102.94
307.502	111.94
307.731	108.94
307.961	90.94
308.191	83.94
308.421	97.94
308.651	98.94
308.881	96.94
309.111	95.94
309.341	87.94
309.571	94.94
309.8	100.94
310.03	93.94
310.26	110.94
310.49	91.94
310.72	98.94
310.949	110.94
311.179	97.94
311.409	91.94
311.639	95.94
311.868	103.94
312.098	94.94
312.328	103.94
312.557	98.94
312.787	118.94
313.017	111.94
313.246	107.94
313.476	93.94
313.706	100.94
313.935	92.94
314.165	97.94
314.394	98.94
314.624	103.94
314.853	102.94
315.083	98.94
315.312	97.94
315.542	87.94
315.771	92.94
316.001	89.94
316.23	93.94
316.46	104.94
316.689	87.94
316.919	116.94
317.148	113.94
317.377	101.94
317.607	102.94
317.836	98.94
318.065	106.94
318.295	92.94
318.524	91.94
318.753	94.94
318.983	103.94
319.212	115.94
319.441	112.94
319.67	117.94
319.9	108.94
320.129	83.94
320.358	85.94
320.587	79.94
320.816	106.94
321.046	99.94
321.275	122.94
321.504	96.94
321.733	102.94
321.962	86.94
322.191	90.94
322.42	108.94
322.649	102.94
322.878	106.94
323.108	132.94
323.337	126.94
323.566	142.94
323.795	159.94
324.024	222.94
324.253	430.94
324.482	904.94
324.71	1859.94
324.939	2506.94
325.168	911.94
325.397	256.94
325.626	157.94
325.855	137.94
326.084	129.94
326.313	144.94
326.542	157.94
326.77	255.94
326.999	473.94
327.228	1001.94
327.457	1836.94
327.686	1462.94
327.914	404.94
328.143	267.94
328.372	241.94
328.6	171.94
328.829	139.94
329.058	158.94
329.287	152.94
329.515	137.94
329.744	108.94
329.972	162.94
330.201	258.94
330.43	326.94
330.658	218.94
330.887	187.94
331.115	127.94
331.344	110.94
331.572	110.94
331.801	120.94
332.03	125.94
332.258	104.94
332.486	93.94
332.715	102.94
332.943	106.94
333.172	111.94
333.4	93.94
333.629	126.94
333.857	141.94
334.085	171.94
334.314	257.94
334.542	399.94
334.771	366.94
334.999	160.94
335.227	110.94
335.455	96.94
335.684	84.94
335.912	110.94
336.14	92.94
336.369	105.94
336.597	107.94
336.825	115.94
337.053	89.94
337.281	90.94
337.51	100.94
337.738	100.94
337.966	95.94
338.194	115.94
338.422	119.94
338.65	101.94
338.878	102.94
339.106	87.94
339.334	101.94
339.562	90.94
339.79	105.94
340.018	88.94
340.246	93.94
340.474	97.94
340.702	86.94
340.93	90.94
341.158	99.94
341.386	85.94
341.614	78.94
341.842	96.94
342.07	93.94
342.298	103.94
342.526	95.94
342.754	89.94
342.981	80.94
343.209	86.94
343.437	99.94
343.665	103.94
343.893	96.94
344.12	90.94
344.348	111.94
344.576	91.94
344.804	93.94
345.031	94.94
345.259	111.94
345.487	105.94
345.714	82.94
345.942	99.94
346.17	84.94
346.397	101.94
346.625	97.94
346.853	89.94
347.08	98.94
347.308	86.94
347.535	90.94
347.763	111.94
347.99	109.94
348.218	116.94
348.445	107.94
348.673	115.94
348.9	84.94
349.128	96.94
349.355	110.94
349.583	103.94
349.81	87.94
350.037	97.94
350.265	96.94
350.492	101.94
350.72	101.94
350.947	106.94
351.174	119.94
351.402	102.94
351.629	108.94
351.856	100.94
352.083	117.94
352.311	108.94
352.538	117.94
352.765	122.94
352.992	130.94
353.22	108.94
353.447	102.94
353.674	95.94
353.901	100.94
354.128	107.94
354.355	93.94
354.583	93.94
354.81	101.94
355.037	84.94
355.264	97.94
355.491	78.94
355.718	101.94
355.945	93.94
356.172	95.94
356.399	79.94
356.626	86.94
356.853	85.94
357.08	92.94
357.307	97.94
357.534	95.94
357.761	98.94
357.988	95.94
358.215	103.94
358.441	106.94
358.668	105.94
358.895	102.94
359.122	87.94
359.349	91.94
359.576	96.94
359.802	99.94
360.029	138.94
360.256	119.94
360.483	111.94
360.709	95.94
360.936	93.94
361.163	89.94
361.39	106.94
361.616	112.94
361.843	97.94
362.07	101.94
362.296	108.94
362.523	97.94
362.749	94.94
362.976	98.94
363.203	82.94
363.429	87.94
363.656	97.94
363.882	90.94
364.109	89.94
364.335	94.94
364.562	98.94
364.788	94.94
365.015	87.94
365.241	94.94
365.468	115.94
365.694	122.94
365.92	101.94
366.147	107.94
366.373	95.94
366.599	85.94
366.826	92.94
367.052	94.94
367.278	82.94
367.505	94.94
367.731	108.94
367.957	97.94
368.184	101.94
368.41	100.94
368.636	122.94
368.862	131.94
369.089	109.94
369.315	101.94
369.541	94.94
369.767	90.94
369.993	97.94
370.219	90.94
370.445	97.94
370.672	89.94
370.898	93.94
371.124	95.94
371.35	105.94
371.576	91.94
371.802	92.94
372.028	92.94
372.254	93.94
372.48	87.94
372.706	98.94
372.932	92.94
373.158	79.94
373.384	97.94
373.61	91.94
373.835	85.94
374.061	95.94
374.287	102.94
374.513	90.94
374.739	85.94
374.965	94.94
375.191	89.94
375.416	91.94
375.642	77.94
375.868	105.94
376.094	97.94
376.319	86.94
376.545	79.94
376.771	85.94
376.997	87.94
377.222	99.94
377.448	102.94
377.674	95.94
377.899	93.94
378.125	100.94
378.35	100.94
378.576	95.94
378.802	85.94
379.027	78.94
379.253	89.94
379.478	92.94
379.704	94.94
379.929	106.94
380.155	106.94
380.38	100.94
380.606	100.94
380.831	101.94
381.057	95.94
381.282	103.94
381.507	94.94
381.733	95.94
381.958	88.94
382.184	89.94
382.409	108.94
382.634	107.94
382.86	104.94
383.085	112.94
383.31	91.94
383.535	91.94
383.761	82.94
383.986	87.94
384.211	102.94
384.436	99.94
384.662	89.94
384.887	101.94
385.112	102.94
385.337	109.94
385.562	101.94
385.787	111.94
386.013	103.94
386.238	107.94
386.463	105.94
386.688	117.94
386.913	86.94
387.138	109.94
387.363	96.94
387.588	95.94
387.813	89.94
388.038	100.94
388.263	108.94
388.488	117.94
388.713	93.94
388.938	103.94
389.163	91.94
389.387	103.94
389.612	106.94
389.837	91.94
390.062	92.94
390.287	87.94
390.512	95.94
390.736	98.94
390.961	90.94
391.186	84.94
391.411	93.94
391.636	85.94
391.86	97.94
392.085	85.94
392.31	90.94
392.534	81.94
392.759	97.94
392.984	91.94
393.208	82.94
393.433	89.94
393.658	102.94
393.882	93.94
394.107	94.94
394.331	99.94
394.556	90.94
394.78	86.94
395.005	91.94
395.229	85.94
395.454	98.94
395.678	92.94
395.903	102.94
396.127	84.94
396.352	91.94
396.576	83.94
396.801	88.94
397.025	99.94
397.249	93.94
397.474	94.94
397.698	98.94
397.922	86.94
398.147	88.94
398.371	80.94
398.595	91.94
398.82	93.94
399.044	86.94
399.268	93.94
399.492	94.94
399.717	93.94
399.941	89.94
400.165	98.94
400.389	95.94
400.613	92.94
400.837	98.94
401.062	88.94
401.286	87.94
401.51	99.94
401.734	108.94
401.958	108.94
402.182	133.94
402.406	184.94
402.63	150.94
402.854	100.94
403.078	92.94
403.302	94.94
403.526	86.94
403.75	98.94
403.974	78.94
404.198	83.94
404.422	86.94
404.645	90.94
404.869	93.94
405.093	100.94
405.317	114.94
405.541	100.94
405.765	104.94
405.988	133.94
406.212	201.94
406.436	272.94
406.66	181.94
406.883	108.94
407.107	99.94
407.331	98.94
407.555	114.94
407.778	95.94
408.002	91.94
408.226	92.94
408.449	95.94
408.673	96.94
408.896	84.94
409.12	99.94
409.344	92.94
409.567	82.94
409.791	94.94
410.014	84.94
410.238	92.94
410.461	92.94
410.685	98.94
410.908	104.94
411.132	109.94
411.355	113.94
411.578	86.94
411.802	89.94
412.025	90.94
412.249	87.94
412.472	99.94
412.695	112.94
412.919	99.94
413.142	82.94
413.365	77.94
413.589	84.94
413.812	89.94
414.035	92.94
414.258	93.94
414.482	95.94
414.705	107.94
414.928	82.94
415.151	85.94
415.374	95.94
415.597	93.94
415.821	96.94
416.044	90.94
416.267	87.94
416.49	89.94
416.713	89.94
416.936	85.94
417.159	94.94
417.382	84.94
417.605	81.94
417.828	104.94
418.051	93.94
418.274	91.94
418.497	97.94
418.72	87.94
418.943	94.94
419.166	83.94
419.389	78.94
419.611	83.94
419.834	87.94
420.057	112.94
420.28	90.94
420.503	105.94
420.726	87.94
420.948	82.94
421.171	99.94
421.394	98.94
421.617	86.94
421.839	91.94
422.062	112.94
422.285	103.94
422.507	121.94
422.73	100.94
422.953	89.94
423.175	84.94
423.398	105.94
423.621	102.94
423.843	89.94
424.066	99.94
424.288	83.94
424.511	95.94
424.733	111.94
424.956	116.94
425.178	86.94
425.401	110.94
425.623	113.94
425.846	89.94
426.068	103.94
426.291	106.94
426.513	99.94
426.735	91.94
426.958	102.94
427.18	115.94
427.402	141.94
427.625	192.94
427.847	166.94
428.069	138.94
428.292	94.94
428.514	92.94
428.736	111.94
428.958	80.94
429.181	85.94
429.403	92.94
429.625	78.94
429.847	107.94
430.069	96.94
430.292	99.94
430.514	81.94
430.736	75.94
430.958	99.94
431.18	84.94
431.402	92.94
431.624	84.94
431.846	95.94
432.068	85.94
432.29	98.94
432.512	95.94
432.734	94.94
432.956	86.94
433.178	94.94
433.4	100.94
433.622	95.94
433.844	98.94
434.066	95.94
434.287	97.94
434.509	97.94
434.731	86.94
434.953	94.94
435.175	93.94
435.397	103.94
435.618	95.94
435.84	110.94
436.062	131.94
436.284	114.94
436.505	95.94
436.727	95.94
436.949	93.94
437.17	89.94
437.392	91.94
437.614	109.94
437.835	121.94
438.057	138.94
438.278	120.94
438.5	110.94
438.721	129.94
438.943	107.94
439.165	93.94
439.386	85.94
439.608	92.94
439.829	116.94
440.05	147.94
440.272	167.94
440.493	112.94
440.715	89.94
440.936	89.94
441.158	83.94
441.379	82.94
441.6	99.94
441.822	94.94
442.043	99.94
442.264	97.94
442.486	98.94
442.707	105.94
442.928	120.94
443.149	141.94
443.371	147.94
443.592	126.94
443.813	118.94
444.034	119.94
444.255	99.94
444.476	97.94
444.698	92.94
444.919	93.94
445.14	132.94
445.361	137.94
445.582	117.94
445.803	154.94
446.024	165.94
446.245	159.94
446.466	105.94
446.687	99.94
446.908	104.94
447.129	100.94
447.35	98.94
447.571	98.94
447.792	95.94
448.013	117.94
448.234	106.94
448.455	102.94
448.675	126.94
448.896	130.94
449.117	99.94
449.338	127.94
449.559	139.94
449.779	131.94
450	104.94
450.221	95.94
450.442	102.94
450.662	108.94
450.883	98.94
451.104	131.94
451.324	91.94
451.545	103.94
451.766	87.94
451.986	92.94
452.207	90.94
452.428	92.94
452.648	113.94
452.869	130.94
453.089	114.94
453.31	131.94
453.53	104.94
453.751	86.94
453.971	116.94
454.192	132.94
454.412	109.94
454.633	73.94
454.853	88.94
455.073	78.94
455.294	83.94
455.514	114.94
455.734	83.94
455.955	84.94
456.175	84.94
456.395	93.94
456.616	106.94
456.836	97.94
457.056	93.94
457.276	85.94
457.497	78.94
457.717	81.94
457.937	87.94
458.157	92.94
458.377	97.94
458.598	114.94
458.818	177.94
459.038	188.94
459.258	143.94
459.478	100.94
459.698	94.94
459.918	89.94
460.138	91.94
460.358	96.94
460.578	90.94
460.798	84.94
461.018	88.94
461.238	93.94
461.458	85.94
461.678	75.94
461.898	95.94
462.118	91.94
462.338	85.94
462.558	91.94
462.777	80.94
462.997	90.94
463.217	90.94
463.437	84.94
463.657	91.94
463.876	82.94
464.096	100.94
464.316	94.94
464.536	112.94
464.755	101.94
464.975	112.94
465.195	176.94
465.414	195.94
465.634	102.94
465.854	86.94
466.073	98.94
466.293	85.94
466.512	93.94
466.732	92.94
466.951	94.94
467.171	86.94
467.391	95.94
467.61	121.94
467.829	119.94
468.049	174.94
468.268	215.94
468.488	109.94
468.707	102.94
468.927	77.94
469.146	89.94
469.365	88.94
469.585	94.94
469.804	96.94
470.023	98.94
470.243	115.94
470.462	113.94
470.681	117.94
470.901	100.94
471.12	80.94
471.339	96.94
471.558	80.94
471.777	92.94
471.997	125.94
472.216	265.94
472.435	501.94
472.654	189.94
472.873	114.94
473.092	94.94
473.311	87.94
473.53	96.94
473.749	87.94
473.968	89.94
474.187	93.94
474.406	104.94
474.625	87.94
474.844	99.94
475.063	81.94
475.282	88.94
475.501	93.94
475.72	102.94
475.939	83.94
476.158	81.94
476.377	87.94
476.596	95.94
476.814	94.94
477.033	102.94
477.252	98.94
477.471	90.94
477.69	92.94
477.908	90.94
478.127	82.94
478.346	91.94
478.564	99.94
478.783	95.94
479.002	97.94
479.22	90.94
479.439	99.94
479.658	105.94
479.876	111.94
480.095	101.94
480.313	86.94
480.532	86.94
480.751	128.94
480.969	260.94
481.188	828.94
481.406	530.94
481.624	151.94
481.843	86.94
482.061	86.94
482.28	80.94
482.498	83.94
482.717	94.94
482.935	79.94
483.153	93.94
483.372	86.94
483.59	93.94
483.808	91.94
484.027	83.94
484.245	83.94
484.463	95.94
484.681	101.94
484.9	95.94
485.118	88.94
485.336	90.94
485.554	106.94
485.772	106.94
485.99	115.94
486.209	101.94
486.427	113.94
486.645	102.94
486.863	114.94
487.081	103.94
487.299	110.94
487.517	104.94
487.735	95.94
487.953	91.94
488.171	96.94
488.389	97.94
488.607	116.94
488.825	108.94
489.043	97.94
489.261	100.94
489.479	98.94
489.696	86.94
489.914	86.94
490.132	103.94
490.35	91.94
490.568	97.94
490.786	86.94
491.003	84.94
491.221	95.94
491.439	97.94
491.657	92.94
491.874	79.94
492.092	96.94
492.31	100.94
492.527	87.94
492.745	95.94
492.963	98.94
493.18	98.94
493.398	73.94
493.615	99.94
493.833	99.94
494.05	108.94
494.268	86.94
494.485	101.94
494.703	88.94
494.92	105.94
495.138	97.94
495.355	93.94
495.573	87.94
495.79	99.94
496.008	99.94
496.225	89.94
496.442	91.94
496.66	96.94
496.877	91.94
497.094	96.94
497.312	82.94
497.529	86.94
497.746	100.94
497.963	99.94
498.181	99.94
498.398	110.94
498.615	107.94
498.832	115.94
499.049	89.94
499.267	85.94
499.484	89.94
499.701	97.94
499.918	110.94
500.135	96.94
500.352	92.94
500.569	92.94
500.786	91.94
501.003	94.94
501.22	93.94
501.437	102.94
501.654	100.94
501.871	122.94
502.088	101.94
502.305	100.94
502.522	94.94
502.739	79.94
502.956	101.94
503.172	89.94
503.389	99.94
503.606	119.94
503.823	113.94
504.04	86.94
504.256	98.94
504.473	92.94
504.69	114.94
504.907	93.94
505.123	87.94
505.34	90.94
505.557	89.94
505.773	99.94
505.99	87.94
506.207	95.94
506.423	86.94
506.64	90.94
506.856	98.94
507.073	98.94
507.289	109.94
507.506	112.94
507.722	114.94
507.939	123.94
508.155	101.94
508.372	109.94
508.588	91.94
508.805	94.94
509.021	105.94
509.238	106.94
509.454	99.94
509.67	106.94
509.887	123.94
510.103	141.94
510.319	255.94
510.536	931.94
510.752	3107.94
510.968	856.94
511.184	199.94
511.401	136.94
511.617	106.94
511.833	105.94
512.049	107.94
512.265	92.94
512.481	94.94
512.698	85.94
512.914	87.94
513.13	102.94
513.346	80.94
513.562	99.94
513.778	97.94
513.994	110.94
