Data from Circ_2008_H10_HRD10591_00085.txt Node
Date: Wed Jan 03 10:17:13 EST 2024
User: Yrep
Spectrometer: HR+D1059
Trigger mode: 1
Integration Time (sec): 1.000000E-1
Scans to average: 1
Electric dark correction enabled: true
Nonlinearity correction enabled: false
Boxcar width: 0
XAxis mode: Wavelengths
Number of Pixels in Spectrum: 2048
>>>>>Begin Spectral Data<<<<<
223.165	-15.44
223.4	-15.44
223.635	-15.44
223.869	-22.44
224.104	-14.44
224.338	-18.44
224.573	-22.44
224.808	-12.44
225.042	3.56
225.277	-13.44
225.511	2.56
225.746	-4.44
225.98	7.56
226.215	19.56
226.449	20.56
226.683	15.56
226.918	29.56
227.152	24.56
227.387	36.56
227.621	56.56
227.856	45.56
228.09	40.56
228.324	35.56
228.559	61.56
228.793	60.56
229.027	65.56
229.262	61.56
229.496	71.56
229.73	88.56
229.964	98.56
230.199	88.56
230.433	76.56
230.667	83.56
230.901	88.56
231.136	86.56
231.37	85.56
231.604	79.56
231.838	83.56
232.072	88.56
232.306	83.56
232.541	84.56
232.775	82.56
233.009	80.56
233.243	77.56
233.477	76.56
233.711	89.56
233.945	81.56
234.179	90.56
234.413	78.56
234.647	67.56
234.881	71.56
235.115	65.56
235.349	70.56
235.583	89.56
235.817	79.56
236.051	73.56
236.285	85.56
236.519	94.56
236.753	76.56
236.987	92.56
237.221	72.56
237.455	68.56
237.689	78.56
237.922	67.56
238.156	65.56
238.39	93.56
238.624	73.56
238.858	80.56
239.091	81.56
239.325	93.56
239.559	68.56
239.793	85.56
240.027	84.56
240.26	82.56
240.494	90.56
240.728	70.56
240.961	88.56
241.195	84.56
241.429	74.56
241.662	66.56
241.896	82.56
242.13	73.56
242.363	71.56
242.597	73.56
242.83	91.56
243.064	76.56
243.298	83.56
243.531	77.56
243.765	81.56
243.998	64.56
244.232	83.56
244.465	97.56
244.699	81.56
244.932	71.56
245.166	74.56
245.399	67.56
245.633	85.56
245.866	68.56
246.099	73.56
246.333	81.56
246.566	93.56
246.8	83.56
247.033	84.56
247.266	76.56
247.5	95.56
247.733	79.56
247.966	83.56
248.2	64.56
248.433	85.56
248.666	84.56
248.899	82.56
249.133	82.56
249.366	97.56
249.599	112.56
249.832	74.56
250.066	76.56
250.299	85.56
250.532	101.56
250.765	86.56
250.998	71.56
251.231	87.56
251.465	85.56
251.698	61.56
251.931	66.56
252.164	78.56
252.397	76.56
252.63	82.56
252.863	80.56
253.096	88.56
253.329	76.56
253.562	94.56
253.795	93.56
254.028	88.56
254.261	81.56
254.494	95.56
254.727	92.56
254.96	95.56
255.193	88.56
255.426	100.56
255.659	82.56
255.892	93.56
256.124	88.56
256.357	76.56
256.59	81.56
256.823	86.56
257.056	84.56
257.289	84.56
257.521	88.56
257.754	78.56
257.987	82.56
258.22	88.56
258.452	86.56
258.685	87.56
258.918	82.56
259.151	88.56
259.383	76.56
259.616	80.56
259.849	84.56
260.081	96.56
260.314	91.56
260.547	93.56
260.779	92.56
261.012	89.56
261.244	80.56
261.477	103.56
261.71	93.56
261.942	128.56
262.175	123.56
262.407	91.56
262.64	98.56
262.872	95.56
263.105	80.56
263.337	84.56
263.57	76.56
263.802	82.56
264.035	79.56
264.267	98.56
264.499	85.56
264.732	79.56
264.964	80.56
265.197	81.56
265.429	95.56
265.661	81.56
265.894	88.56
266.126	84.56
266.358	85.56
266.591	97.56
266.823	80.56
267.055	84.56
267.287	80.56
267.52	88.56
267.752	84.56
267.984	88.56
268.216	75.56
268.448	85.56
268.681	80.56
268.913	88.56
269.145	93.56
269.377	78.56
269.609	70.56
269.841	81.56
270.073	87.56
270.306	83.56
270.538	104.56
270.77	82.56
271.002	91.56
271.234	85.56
271.466	80.56
271.698	105.56
271.93	105.56
272.162	89.56
272.394	83.56
272.626	96.56
272.858	85.56
273.09	84.56
273.322	97.56
273.553	83.56
273.785	68.56
274.017	80.56
274.249	94.56
274.481	92.56
274.713	84.56
274.945	97.56
275.176	103.56
275.408	81.56
275.64	88.56
275.872	85.56
276.104	99.56
276.335	91.56
276.567	98.56
276.799	130.56
277.031	124.56
277.262	108.56
277.494	96.56
277.726	89.56
277.957	92.56
278.189	80.56
278.421	96.56
278.652	84.56
278.884	86.56
279.115	103.56
279.347	90.56
279.579	85.56
279.81	97.56
280.042	124.56
280.273	127.56
280.505	124.56
280.736	84.56
280.968	88.56
281.199	85.56
281.431	96.56
281.662	112.56
281.894	89.56
282.125	100.56
282.356	139.56
282.588	172.56
282.819	125.56
283.051	86.56
283.282	95.56
283.513	95.56
283.745	92.56
283.976	89.56
284.207	88.56
284.439	89.56
284.67	76.56
284.901	88.56
285.132	77.56
285.364	89.56
285.595	95.56
285.826	81.56
286.057	97.56
286.288	96.56
286.52	97.56
286.751	91.56
286.982	91.56
287.213	87.56
287.444	98.56
287.675	72.56
287.906	92.56
288.138	102.56
288.369	95.56
288.6	108.56
288.831	91.56
289.062	97.56
289.293	89.56
289.524	85.56
289.755	88.56
289.986	88.56
290.217	94.56
290.448	86.56
290.679	84.56
290.91	92.56
291.141	92.56
291.371	98.56
291.602	73.56
291.833	85.56
292.064	92.56
292.295	79.56
292.526	91.56
292.757	86.56
292.987	80.56
293.218	97.56
293.449	83.56
293.68	92.56
293.91	69.56
294.141	88.56
294.372	85.56
294.603	96.56
294.833	79.56
295.064	100.56
295.295	88.56
295.525	96.56
295.756	94.56
295.987	129.56
296.217	160.56
296.448	138.56
296.679	108.56
296.909	109.56
297.14	97.56
297.37	88.56
297.601	84.56
297.831	90.56
298.062	97.56
298.292	94.56
298.523	94.56
298.753	86.56
298.984	90.56
299.214	83.56
299.445	101.56
299.675	88.56
299.905	95.56
300.136	80.56
300.366	85.56
300.597	88.56
300.827	103.56
301.057	118.56
301.288	100.56
301.518	101.56
301.748	91.56
301.979	96.56
302.209	94.56
302.439	103.56
302.669	96.56
302.9	98.56
303.13	96.56
303.36	99.56
303.59	122.56
303.82	130.56
304.051	98.56
304.281	81.56
304.511	95.56
304.741	84.56
304.971	93.56
305.201	91.56
305.431	96.56
305.661	89.56
305.891	82.56
306.121	96.56
306.352	104.56
306.582	102.56
306.812	97.56
307.042	94.56
307.272	102.56
307.502	107.56
307.731	106.56
307.961	91.56
308.191	87.56
308.421	86.56
308.651	93.56
308.881	95.56
309.111	94.56
309.341	107.56
309.571	108.56
309.8	95.56
310.03	98.56
310.26	110.56
310.49	110.56
310.72	112.56
310.949	116.56
311.179	98.56
311.409	100.56
311.639	95.56
311.868	97.56
312.098	94.56
312.328	99.56
312.557	122.56
312.787	119.56
313.017	106.56
313.246	99.56
313.476	103.56
313.706	96.56
313.935	108.56
314.165	117.56
314.394	110.56
314.624	98.56
314.853	105.56
315.083	85.56
315.312	84.56
315.542	84.56
315.771	90.56
316.001	88.56
316.23	96.56
316.46	67.56
316.689	83.56
316.919	88.56
317.148	119.56
317.377	107.56
317.607	94.56
317.836	104.56
318.065	97.56
318.295	94.56
318.524	86.56
318.753	100.56
318.983	104.56
319.212	115.56
319.441	121.56
319.67	109.56
319.9	94.56
320.129	89.56
320.358	98.56
320.587	100.56
320.816	116.56
321.046	116.56
321.275	106.56
321.504	97.56
321.733	105.56
321.962	106.56
322.191	99.56
322.42	113.56
322.649	113.56
322.878	111.56
323.108	125.56
323.337	129.56
323.566	166.56
323.795	162.56
324.024	219.56
324.253	453.56
324.482	951.56
324.71	1985.56
324.939	2646.56
325.168	962.56
325.397	269.56
325.626	173.56
325.855	136.56
326.084	129.56
326.313	157.56
326.542	173.56
326.77	252.56
326.999	515.56
327.228	1028.56
327.457	1921.56
327.686	1561.56
327.914	447.56
328.143	290.56
328.372	268.56
328.6	197.56
328.829	129.56
329.058	153.56
329.287	160.56
329.515	139.56
329.744	148.56
329.972	199.56
330.201	337.56
330.43	468.56
330.658	286.56
330.887	218.56
331.115	155.56
331.344	105.56
331.572	117.56
331.801	121.56
332.03	120.56
332.258	109.56
332.486	95.56
332.715	102.56
332.943	104.56
333.172	100.56
333.4	112.56
333.629	125.56
333.857	163.56
334.085	205.56
334.314	338.56
334.542	570.56
334.771	569.56
334.999	203.56
335.227	100.56
335.455	99.56
335.684	111.56
335.912	103.56
336.14	114.56
336.369	121.56
336.597	121.56
336.825	101.56
337.053	97.56
337.281	98.56
337.51	85.56
337.738	106.56
337.966	110.56
338.194	115.56
338.422	99.56
338.65	108.56
338.878	99.56
339.106	87.56
339.334	104.56
339.562	91.56
339.79	83.56
340.018	105.56
340.246	102.56
340.474	84.56
340.702	91.56
340.93	89.56
341.158	92.56
341.386	96.56
341.614	89.56
341.842	102.56
342.07	105.56
342.298	92.56
342.526	91.56
342.754	83.56
342.981	78.56
343.209	98.56
343.437	101.56
343.665	95.56
343.893	109.56
344.12	103.56
344.348	89.56
344.576	91.56
344.804	82.56
345.031	90.56
345.259	106.56
345.487	93.56
345.714	97.56
345.942	104.56
346.17	104.56
346.397	83.56
346.625	93.56
346.853	106.56
347.08	80.56
347.308	95.56
347.535	94.56
347.763	112.56
347.99	111.56
348.218	102.56
348.445	105.56
348.673	106.56
348.9	107.56
349.128	107.56
349.355	92.56
349.583	111.56
349.81	101.56
350.037	101.56
350.265	112.56
350.492	100.56
350.72	94.56
350.947	117.56
351.174	125.56
351.402	133.56
351.629	105.56
351.856	103.56
352.083	94.56
352.311	111.56
352.538	111.56
352.765	115.56
352.992	108.56
353.22	112.56
353.447	99.56
353.674	98.56
353.901	85.56
354.128	103.56
354.355	91.56
354.583	101.56
354.81	83.56
355.037	93.56
355.264	95.56
355.491	77.56
355.718	96.56
355.945	102.56
356.172	83.56
356.399	103.56
356.626	95.56
356.853	93.56
357.08	84.56
357.307	76.56
357.534	96.56
357.761	82.56
357.988	100.56
358.215	97.56
358.441	85.56
358.668	92.56
358.895	85.56
359.122	98.56
359.349	92.56
359.576	107.56
359.802	107.56
360.029	129.56
360.256	139.56
360.483	121.56
360.709	89.56
360.936	95.56
361.163	92.56
361.39	100.56
361.616	114.56
361.843	100.56
362.07	96.56
362.296	105.56
362.523	94.56
362.749	112.56
362.976	92.56
363.203	96.56
363.429	87.56
363.656	97.56
363.882	95.56
364.109	99.56
364.335	84.56
364.562	95.56
364.788	100.56
365.015	106.56
365.241	116.56
365.468	117.56
365.694	112.56
365.92	108.56
366.147	100.56
366.373	102.56
366.599	78.56
366.826	80.56
367.052	89.56
367.278	98.56
367.505	68.56
367.731	96.56
367.957	80.56
368.184	115.56
368.41	108.56
368.636	123.56
368.862	118.56
369.089	112.56
369.315	102.56
369.541	99.56
369.767	80.56
369.993	84.56
370.219	97.56
370.445	94.56
370.672	88.56
370.898	102.56
371.124	90.56
371.35	95.56
371.576	88.56
371.802	83.56
372.028	99.56
372.254	90.56
372.48	96.56
372.706	93.56
372.932	74.56
373.158	92.56
373.384	93.56
373.61	93.56
373.835	89.56
374.061	89.56
374.287	82.56
374.513	105.56
374.739	82.56
374.965	95.56
375.191	95.56
375.416	91.56
375.642	77.56
375.868	107.56
376.094	78.56
376.319	84.56
376.545	92.56
376.771	88.56
376.997	80.56
377.222	78.56
377.448	91.56
377.674	86.56
377.899	84.56
378.125	84.56
378.35	95.56
378.576	93.56
378.802	79.56
379.027	88.56
379.253	101.56
379.478	108.56
379.704	98.56
379.929	92.56
380.155	92.56
380.38	80.56
380.606	91.56
380.831	92.56
381.057	91.56
381.282	96.56
381.507	85.56
381.733	103.56
381.958	104.56
382.184	104.56
382.409	104.56
382.634	105.56
382.86	91.56
383.085	101.56
383.31	94.56
383.535	104.56
383.761	103.56
383.986	101.56
384.211	88.56
384.436	83.56
384.662	99.56
384.887	98.56
385.112	100.56
385.337	93.56
385.562	102.56
385.787	100.56
386.013	105.56
386.238	114.56
386.463	107.56
386.688	101.56
386.913	111.56
387.138	97.56
387.363	104.56
387.588	99.56
387.813	94.56
388.038	93.56
388.263	106.56
388.488	93.56
388.713	100.56
388.938	108.56
389.163	103.56
389.387	94.56
389.612	91.56
389.837	92.56
390.062	98.56
390.287	86.56
390.512	84.56
390.736	91.56
390.961	100.56
391.186	102.56
391.411	94.56
391.636	93.56
391.86	92.56
392.085	93.56
392.31	85.56
392.534	81.56
392.759	91.56
392.984	92.56
393.208	88.56
393.433	94.56
393.658	81.56
393.882	83.56
394.107	90.56
394.331	83.56
394.556	87.56
394.78	85.56
395.005	97.56
395.229	97.56
395.454	91.56
395.678	84.56
395.903	91.56
396.127	108.56
396.352	90.56
396.576	85.56
396.801	93.56
397.025	98.56
397.249	85.56
397.474	102.56
397.698	80.56
397.922	86.56
398.147	101.56
398.371	89.56
398.595	90.56
398.82	94.56
399.044	90.56
399.268	83.56
399.492	89.56
399.717	75.56
399.941	96.56
400.165	100.56
400.389	107.56
400.613	105.56
400.837	92.56
401.062	95.56
401.286	87.56
401.51	101.56
401.734	96.56
401.958	97.56
402.182	143.56
402.406	204.56
402.63	152.56
402.854	99.56
403.078	83.56
403.302	88.56
403.526	90.56
403.75	98.56
403.974	84.56
404.198	95.56
404.422	95.56
404.645	98.56
404.869	107.56
405.093	122.56
405.317	110.56
405.541	115.56
405.765	108.56
405.988	136.56
406.212	199.56
406.436	287.56
406.66	195.56
406.883	111.56
407.107	107.56
407.331	98.56
407.555	103.56
407.778	104.56
408.002	91.56
408.226	85.56
408.449	99.56
408.673	86.56
408.896	88.56
409.12	98.56
409.344	86.56
409.567	87.56
409.791	84.56
410.014	97.56
410.238	100.56
410.461	95.56
410.685	85.56
410.908	91.56
411.132	106.56
411.355	100.56
411.578	87.56
411.802	77.56
412.025	109.56
412.249	92.56
412.472	109.56
412.695	114.56
412.919	91.56
413.142	91.56
413.365	82.56
413.589	81.56
413.812	93.56
414.035	95.56
414.258	94.56
414.482	94.56
414.705	72.56
414.928	90.56
415.151	83.56
415.374	100.56
415.597	94.56
415.821	91.56
416.044	92.56
416.267	97.56
416.49	93.56
416.713	95.56
416.936	80.56
417.159	89.56
417.382	96.56
417.605	96.56
417.828	95.56
418.051	96.56
418.274	87.56
418.497	82.56
418.72	93.56
418.943	93.56
419.166	81.56
419.389	90.56
419.611	89.56
419.834	104.56
420.057	78.56
420.28	89.56
420.503	86.56
420.726	96.56
420.948	110.56
421.171	105.56
421.394	102.56
421.617	99.56
421.839	96.56
422.062	93.56
422.285	91.56
422.507	91.56
422.73	113.56
422.953	101.56
423.175	91.56
423.398	97.56
423.621	79.56
423.843	83.56
424.066	86.56
424.288	103.56
424.511	85.56
424.733	116.56
424.956	125.56
425.178	103.56
425.401	115.56
425.623	125.56
425.846	103.56
426.068	103.56
426.291	88.56
426.513	84.56
426.735	103.56
426.958	86.56
427.18	116.56
427.402	176.56
427.625	224.56
427.847	183.56
428.069	176.56
428.292	103.56
428.514	99.56
428.736	83.56
428.958	84.56
429.181	92.56
429.403	85.56
429.625	79.56
429.847	94.56
430.069	112.56
430.292	104.56
430.514	113.56
430.736	88.56
430.958	80.56
431.18	72.56
431.402	90.56
431.624	90.56
431.846	91.56
432.068	78.56
432.29	88.56
432.512	88.56
432.734	98.56
432.956	87.56
433.178	113.56
433.4	104.56
433.622	92.56
433.844	92.56
434.066	92.56
434.287	99.56
434.509	81.56
434.731	82.56
434.953	99.56
435.175	99.56
435.397	85.56
435.618	103.56
435.84	98.56
436.062	125.56
436.284	131.56
436.505	88.56
436.727	103.56
436.949	94.56
437.17	88.56
437.392	85.56
437.614	105.56
437.835	130.56
438.057	135.56
438.278	137.56
438.5	106.56
438.721	135.56
438.943	101.56
439.165	104.56
439.386	92.56
439.608	105.56
439.829	96.56
440.05	130.56
440.272	181.56
440.493	106.56
440.715	89.56
440.936	89.56
441.158	95.56
441.379	81.56
441.6	101.56
441.822	103.56
442.043	95.56
442.264	107.56
442.486	106.56
442.707	113.56
442.928	121.56
443.149	162.56
443.371	161.56
443.592	127.56
443.813	125.56
444.034	106.56
444.255	103.56
444.476	97.56
444.698	92.56
444.919	89.56
445.14	133.56
445.361	131.56
445.582	132.56
445.803	175.56
446.024	160.56
446.245	163.56
446.466	127.56
446.687	88.56
446.908	86.56
447.129	82.56
447.35	97.56
447.571	95.56
447.792	98.56
448.013	105.56
448.234	110.56
448.455	115.56
448.675	121.56
448.896	125.56
449.117	105.56
449.338	101.56
449.559	129.56
449.779	151.56
450	85.56
450.221	81.56
450.442	94.56
450.662	93.56
450.883	127.56
451.104	123.56
451.324	100.56
451.545	98.56
451.766	88.56
451.986	92.56
452.207	84.56
452.428	99.56
452.648	114.56
452.869	113.56
453.089	122.56
453.31	139.56
453.53	94.56
453.751	88.56
453.971	130.56
454.192	113.56
454.412	92.56
454.633	100.56
454.853	80.56
455.073	97.56
455.294	98.56
455.514	114.56
455.734	90.56
455.955	83.56
456.175	78.56
456.395	93.56
456.616	90.56
456.836	82.56
457.056	71.56
457.276	80.56
457.497	92.56
457.717	94.56
457.937	87.56
458.157	84.56
458.377	96.56
458.598	108.56
458.818	197.56
459.038	196.56
459.258	136.56
459.478	82.56
459.698	98.56
459.918	80.56
460.138	85.56
460.358	84.56
460.578	90.56
460.798	94.56
461.018	90.56
461.238	93.56
461.458	92.56
461.678	78.56
461.898	85.56
462.118	96.56
462.338	94.56
462.558	80.56
462.777	81.56
462.997	91.56
463.217	99.56
463.437	80.56
463.657	106.56
463.876	85.56
464.096	79.56
464.316	112.56
464.536	108.56
464.755	102.56
464.975	118.56
465.195	211.56
465.414	216.56
465.634	107.56
465.854	79.56
466.073	91.56
466.293	85.56
466.512	87.56
466.732	83.56
466.951	91.56
467.171	87.56
467.391	100.56
467.61	105.56
467.829	125.56
468.049	197.56
468.268	255.56
468.488	93.56
468.707	98.56
468.927	83.56
469.146	91.56
469.365	112.56
469.585	90.56
469.804	95.56
470.023	116.56
470.243	93.56
470.462	106.56
470.681	121.56
470.901	95.56
471.12	87.56
471.339	91.56
471.558	94.56
471.777	109.56
471.997	137.56
472.216	349.56
472.435	701.56
472.654	219.56
472.873	97.56
473.092	85.56
473.311	93.56
473.53	90.56
473.749	83.56
473.968	105.56
474.187	121.56
474.406	102.56
474.625	93.56
474.844	96.56
475.063	89.56
475.282	98.56
475.501	101.56
475.72	87.56
475.939	95.56
476.158	96.56
476.377	95.56
476.596	85.56
476.814	107.56
477.033	94.56
477.252	88.56
477.471	94.56
477.69	90.56
477.908	93.56
478.127	92.56
478.346	84.56
478.564	97.56
478.783	99.56
479.002	96.56
479.22	94.56
479.439	116.56
479.658	117.56
479.876	101.56
480.095	107.56
480.313	103.56
480.532	122.56
480.751	147.56
480.969	330.56
481.188	1149.56
481.406	773.56
481.624	171.56
481.843	101.56
482.061	81.56
482.28	82.56
482.498	100.56
482.717	93.56
482.935	89.56
483.153	74.56
483.372	78.56
483.59	97.56
483.808	79.56
484.027	97.56
484.245	90.56
484.463	95.56
484.681	98.56
484.9	95.56
485.118	91.56
485.336	91.56
485.554	84.56
485.772	84.56
485.99	99.56
486.209	111.56
486.427	93.56
486.645	120.56
486.863	109.56
487.081	96.56
487.299	85.56
487.517	89.56
487.735	84.56
487.953	98.56
488.171	94.56
488.389	87.56
488.607	105.56
488.825	84.56
489.043	101.56
489.261	87.56
489.479	85.56
489.696	77.56
489.914	106.56
490.132	82.56
490.35	106.56
490.568	91.56
490.786	96.56
491.003	83.56
491.221	90.56
491.439	97.56
491.657	85.56
491.874	87.56
492.092	98.56
492.31	98.56
492.527	96.56
492.745	69.56
492.963	80.56
493.18	90.56
493.398	86.56
493.615	98.56
493.833	94.56
494.05	76.56
494.268	96.56
494.485	95.56
494.703	85.56
494.92	95.56
495.138	82.56
495.355	88.56
495.573	95.56
495.79	94.56
496.008	108.56
496.225	89.56
496.442	86.56
496.66	73.56
496.877	91.56
497.094	96.56
497.312	81.56
497.529	93.56
497.746	105.56
497.963	99.56
498.181	87.56
498.398	113.56
498.615	107.56
498.832	110.56
499.049	100.56
499.267	86.56
499.484	81.56
499.701	98.56
499.918	83.56
500.135	82.56
500.352	100.56
500.569	96.56
500.786	87.56
501.003	81.56
501.22	83.56
501.437	93.56
501.654	97.56
501.871	121.56
502.088	98.56
502.305	82.56
502.522	83.56
502.739	92.56
502.956	102.56
503.172	94.56
503.389	97.56
503.606	108.56
503.823	98.56
504.04	97.56
504.256	92.56
504.473	76.56
504.69	81.56
504.907	98.56
505.123	87.56
505.34	96.56
505.557	104.56
505.773	94.56
505.99	86.56
506.207	93.56
506.423	98.56
506.64	103.56
506.856	100.56
507.073	91.56
507.289	86.56
507.506	104.56
507.722	125.56
507.939	116.56
508.155	90.56
508.372	85.56
508.588	97.56
508.805	93.56
509.021	88.56
509.238	94.56
509.454	104.56
509.67	119.56
509.887	110.56
510.103	125.56
510.319	245.56
510.536	932.56
510.752	3234.56
510.968	893.56
511.184	191.56
511.401	133.56
511.617	99.56
511.833	104.56
512.049	93.56
512.265	92.56
512.481	86.56
512.698	100.56
512.914	98.56
513.13	91.56
513.346	94.56
513.562	95.56
513.778	94.56
513.994	98.56
