Data from Circ_2008_H10_HRD10591_00096.txt Node
Date: Wed Jan 03 10:17:15 EST 2024
User: Yrep
Spectrometer: HR+D1059
Trigger mode: 1
Integration Time (sec): 1.000000E-1
Scans to average: 1
Electric dark correction enabled: true
Nonlinearity correction enabled: false
Boxcar width: 0
XAxis mode: Wavelengths
Number of Pixels in Spectrum: 2048
>>>>>Begin Spectral Data<<<<<
223.165	-19.44
223.4	-19.44
223.635	-19.44
223.869	-26.44
224.104	-17.44
224.338	-2.44
224.573	-10.44
224.808	-14.44
225.042	1.56
225.277	2.56
225.511	0.56
225.746	-5.44
225.98	2.56
226.215	-2.44
226.449	9.56
226.683	15.56
226.918	29.56
227.152	36.56
227.387	29.56
227.621	42.56
227.856	42.56
228.09	37.56
228.324	42.56
228.559	67.56
228.793	53.56
229.027	66.56
229.262	67.56
229.496	68.56
229.73	89.56
229.964	77.56
230.199	81.56
230.433	72.56
230.667	82.56
230.901	78.56
231.136	67.56
231.37	87.56
231.604	80.56
231.838	79.56
232.072	79.56
232.306	78.56
232.541	83.56
232.775	81.56
233.009	77.56
233.243	68.56
233.477	81.56
233.711	67.56
233.945	83.56
234.179	80.56
234.413	66.56
234.647	78.56
234.881	74.56
235.115	65.56
235.349	83.56
235.583	83.56
235.817	70.56
236.051	94.56
236.285	84.56
236.519	64.56
236.753	61.56
236.987	80.56
237.221	89.56
237.455	83.56
237.689	93.56
237.922	65.56
238.156	77.56
238.39	76.56
238.624	73.56
238.858	79.56
239.091	85.56
239.325	69.56
239.559	93.56
239.793	71.56
240.027	77.56
240.26	78.56
240.494	75.56
240.728	71.56
240.961	90.56
241.195	83.56
241.429	81.56
241.662	81.56
241.896	73.56
242.13	80.56
242.363	76.56
242.597	75.56
242.83	64.56
243.064	78.56
243.298	78.56
243.531	70.56
243.765	79.56
243.998	73.56
244.232	72.56
244.465	67.56
244.699	66.56
244.932	88.56
245.166	78.56
245.399	71.56
245.633	87.56
245.866	74.56
246.099	72.56
246.333	70.56
246.566	82.56
246.8	74.56
247.033	90.56
247.266	91.56
247.5	85.56
247.733	71.56
247.966	63.56
248.2	73.56
248.433	80.56
248.666	83.56
248.899	77.56
249.133	82.56
249.366	95.56
249.599	107.56
249.832	86.56
250.066	83.56
250.299	75.56
250.532	81.56
250.765	83.56
250.998	91.56
251.231	80.56
251.465	86.56
251.698	88.56
251.931	69.56
252.164	69.56
252.397	76.56
252.63	76.56
252.863	78.56
253.096	83.56
253.329	81.56
253.562	78.56
253.795	72.56
254.028	81.56
254.261	81.56
254.494	75.56
254.727	85.56
254.96	76.56
255.193	94.56
255.426	87.56
255.659	83.56
255.892	99.56
256.124	75.56
256.357	78.56
256.59	86.56
256.823	81.56
257.056	78.56
257.289	75.56
257.521	68.56
257.754	78.56
257.987	75.56
258.22	76.56
258.452	94.56
258.685	90.56
258.918	75.56
259.151	75.56
259.383	80.56
259.616	79.56
259.849	83.56
260.081	86.56
260.314	73.56
260.547	64.56
260.779	78.56
261.012	93.56
261.244	75.56
261.477	79.56
261.71	88.56
261.942	114.56
262.175	101.56
262.407	72.56
262.64	89.56
262.872	84.56
263.105	78.56
263.337	89.56
263.57	90.56
263.802	73.56
264.035	91.56
264.267	81.56
264.499	87.56
264.732	79.56
264.964	84.56
265.197	79.56
265.429	79.56
265.661	88.56
265.894	83.56
266.126	85.56
266.358	92.56
266.591	78.56
266.823	81.56
267.055	77.56
267.287	80.56
267.52	89.56
267.752	83.56
267.984	87.56
268.216	92.56
268.448	82.56
268.681	73.56
268.913	83.56
269.145	93.56
269.377	83.56
269.609	85.56
269.841	91.56
270.073	70.56
270.306	79.56
270.538	76.56
270.77	68.56
271.002	81.56
271.234	86.56
271.466	76.56
271.698	80.56
271.93	85.56
272.162	78.56
272.394	75.56
272.626	79.56
272.858	81.56
273.09	90.56
273.322	71.56
273.553	81.56
273.785	81.56
274.017	75.56
274.249	82.56
274.481	84.56
274.713	90.56
274.945	88.56
275.176	82.56
275.408	85.56
275.64	97.56
275.872	80.56
276.104	103.56
276.335	91.56
276.567	83.56
276.799	123.56
277.031	103.56
277.262	94.56
277.494	83.56
277.726	94.56
277.957	89.56
278.189	86.56
278.421	89.56
278.652	81.56
278.884	83.56
279.115	79.56
279.347	82.56
279.579	106.56
279.81	86.56
280.042	101.56
280.273	119.56
280.505	94.56
280.736	76.56
280.968	86.56
281.199	94.56
281.431	83.56
281.662	97.56
281.894	88.56
282.125	97.56
282.356	123.56
282.588	150.56
282.819	125.56
283.051	77.56
283.282	89.56
283.513	91.56
283.745	83.56
283.976	97.56
284.207	80.56
284.439	82.56
284.67	91.56
284.901	102.56
285.132	80.56
285.364	80.56
285.595	90.56
285.826	94.56
286.057	83.56
286.288	76.56
286.52	98.56
286.751	76.56
286.982	82.56
287.213	100.56
287.444	87.56
287.675	89.56
287.906	97.56
288.138	89.56
288.369	86.56
288.6	101.56
288.831	73.56
289.062	82.56
289.293	94.56
289.524	94.56
289.755	72.56
289.986	97.56
290.217	76.56
290.448	73.56
290.679	94.56
290.91	82.56
291.141	96.56
291.371	90.56
291.602	107.56
291.833	77.56
292.064	70.56
292.295	82.56
292.526	81.56
292.757	87.56
292.987	89.56
293.218	87.56
293.449	87.56
293.68	114.56
293.91	81.56
294.141	81.56
294.372	92.56
294.603	94.56
294.833	81.56
295.064	97.56
295.295	93.56
295.525	77.56
295.756	106.56
295.987	128.56
296.217	145.56
296.448	139.56
296.679	92.56
296.909	96.56
297.14	99.56
297.37	80.56
297.601	92.56
297.831	95.56
298.062	85.56
298.292	95.56
298.523	91.56
298.753	92.56
298.984	91.56
299.214	82.56
299.445	109.56
299.675	104.56
299.905	91.56
300.136	85.56
300.366	88.56
300.597	92.56
300.827	98.56
301.057	90.56
301.288	112.56
301.518	95.56
301.748	89.56
301.979	103.56
302.209	93.56
302.439	86.56
302.669	87.56
302.9	95.56
303.13	100.56
303.36	90.56
303.59	96.56
303.82	104.56
304.051	104.56
304.281	94.56
304.511	94.56
304.741	96.56
304.971	74.56
305.201	98.56
305.431	97.56
305.661	94.56
305.891	95.56
306.121	91.56
306.352	111.56
306.582	112.56
306.812	99.56
307.042	86.56
307.272	99.56
307.502	97.56
307.731	106.56
307.961	104.56
308.191	91.56
308.421	81.56
308.651	102.56
308.881	91.56
309.111	90.56
309.341	101.56
309.571	102.56
309.8	108.56
310.03	89.56
310.26	107.56
310.49	102.56
310.72	108.56
310.949	108.56
311.179	99.56
311.409	102.56
311.639	105.56
311.868	93.56
312.098	87.56
312.328	83.56
312.557	96.56
312.787	106.56
313.017	99.56
313.246	99.56
313.476	96.56
313.706	87.56
313.935	102.56
314.165	110.56
314.394	99.56
314.624	91.56
314.853	94.56
315.083	97.56
315.312	103.56
315.542	103.56
315.771	98.56
316.001	107.56
316.23	96.56
316.46	86.56
316.689	72.56
316.919	98.56
317.148	98.56
317.377	82.56
317.607	99.56
317.836	88.56
318.065	92.56
318.295	86.56
318.524	92.56
318.753	90.56
318.983	88.56
319.212	106.56
319.441	108.56
319.67	110.56
319.9	97.56
320.129	90.56
320.358	90.56
320.587	91.56
320.816	109.56
321.046	108.56
321.275	102.56
321.504	96.56
321.733	79.56
321.962	88.56
322.191	90.56
322.42	104.56
322.649	122.56
322.878	110.56
323.108	112.56
323.337	129.56
323.566	132.56
323.795	156.56
324.024	204.56
324.253	385.56
324.482	835.56
324.71	1675.56
324.939	2249.56
325.168	851.56
325.397	265.56
325.626	155.56
325.855	123.56
326.084	130.56
326.313	121.56
326.542	152.56
326.77	254.56
326.999	449.56
327.228	907.56
327.457	1671.56
327.686	1370.56
327.914	407.56
328.143	226.56
328.372	229.56
328.6	148.56
328.829	135.56
329.058	146.56
329.287	142.56
329.515	124.56
329.744	127.56
329.972	153.56
330.201	218.56
330.43	285.56
330.658	191.56
330.887	162.56
331.115	151.56
331.344	99.56
331.572	101.56
331.801	107.56
332.03	107.56
332.258	94.56
332.486	93.56
332.715	93.56
332.943	99.56
333.172	108.56
333.4	100.56
333.629	123.56
333.857	135.56
334.085	157.56
334.314	192.56
334.542	336.56
334.771	337.56
334.999	146.56
335.227	114.56
335.455	97.56
335.684	102.56
335.912	110.56
336.14	98.56
336.369	96.56
336.597	94.56
336.825	96.56
337.053	82.56
337.281	97.56
337.51	94.56
337.738	101.56
337.966	93.56
338.194	90.56
338.422	97.56
338.65	107.56
338.878	85.56
339.106	96.56
339.334	89.56
339.562	102.56
339.79	87.56
340.018	91.56
340.246	96.56
340.474	88.56
340.702	91.56
340.93	92.56
341.158	102.56
341.386	90.56
341.614	101.56
341.842	118.56
342.07	94.56
342.298	92.56
342.526	84.56
342.754	91.56
342.981	94.56
343.209	92.56
343.437	110.56
343.665	87.56
343.893	89.56
344.12	79.56
344.348	73.56
344.576	86.56
344.804	99.56
345.031	109.56
345.259	105.56
345.487	102.56
345.714	101.56
345.942	90.56
346.17	92.56
346.397	81.56
346.625	74.56
346.853	108.56
347.08	85.56
347.308	97.56
347.535	93.56
347.763	98.56
347.99	102.56
348.218	97.56
348.445	102.56
348.673	101.56
348.9	102.56
349.128	101.56
349.355	94.56
349.583	84.56
349.81	97.56
350.037	93.56
350.265	93.56
350.492	95.56
350.72	90.56
350.947	115.56
351.174	118.56
351.402	95.56
351.629	83.56
351.856	96.56
352.083	102.56
352.311	109.56
352.538	114.56
352.765	105.56
352.992	107.56
353.22	105.56
353.447	89.56
353.674	110.56
353.901	101.56
354.128	92.56
354.355	95.56
354.583	98.56
354.81	98.56
355.037	94.56
355.264	103.56
355.491	89.56
355.718	102.56
355.945	91.56
356.172	93.56
356.399	92.56
356.626	85.56
356.853	80.56
357.08	84.56
357.307	86.56
357.534	87.56
357.761	87.56
357.988	108.56
358.215	95.56
358.441	83.56
358.668	85.56
358.895	89.56
359.122	95.56
359.349	94.56
359.576	90.56
359.802	92.56
360.029	104.56
360.256	106.56
360.483	104.56
360.709	90.56
360.936	97.56
361.163	88.56
361.39	93.56
361.616	91.56
361.843	93.56
362.07	101.56
362.296	102.56
362.523	90.56
362.749	101.56
362.976	81.56
363.203	95.56
363.429	88.56
363.656	73.56
363.882	92.56
364.109	83.56
364.335	92.56
364.562	96.56
364.788	82.56
365.015	105.56
365.241	94.56
365.468	120.56
365.694	110.56
365.92	105.56
366.147	89.56
366.373	76.56
366.599	89.56
366.826	92.56
367.052	101.56
367.278	88.56
367.505	90.56
367.731	90.56
367.957	89.56
368.184	89.56
368.41	105.56
368.636	116.56
368.862	121.56
369.089	110.56
369.315	89.56
369.541	94.56
369.767	86.56
369.993	79.56
370.219	97.56
370.445	87.56
370.672	80.56
370.898	88.56
371.124	81.56
371.35	95.56
371.576	75.56
371.802	85.56
372.028	86.56
372.254	96.56
372.48	74.56
372.706	79.56
372.932	100.56
373.158	77.56
373.384	83.56
373.61	91.56
373.835	87.56
374.061	87.56
374.287	92.56
374.513	83.56
374.739	77.56
374.965	98.56
375.191	90.56
375.416	89.56
375.642	100.56
375.868	101.56
376.094	89.56
376.319	87.56
376.545	96.56
376.771	75.56
376.997	94.56
377.222	112.56
377.448	91.56
377.674	87.56
377.899	85.56
378.125	76.56
378.35	92.56
378.576	93.56
378.802	84.56
379.027	82.56
379.253	95.56
379.478	99.56
379.704	110.56
379.929	105.56
380.155	86.56
380.38	92.56
380.606	84.56
380.831	93.56
381.057	80.56
381.282	98.56
381.507	93.56
381.733	99.56
381.958	88.56
382.184	105.56
382.409	109.56
382.634	108.56
382.86	117.56
383.085	102.56
383.31	112.56
383.535	101.56
383.761	105.56
383.986	120.56
384.211	99.56
384.436	104.56
384.662	99.56
384.887	99.56
385.112	95.56
385.337	89.56
385.562	96.56
385.787	104.56
386.013	106.56
386.238	117.56
386.463	98.56
386.688	107.56
386.913	107.56
387.138	111.56
387.363	114.56
387.588	101.56
387.813	102.56
388.038	109.56
388.263	102.56
388.488	110.56
388.713	101.56
388.938	102.56
389.163	90.56
389.387	89.56
389.612	94.56
389.837	91.56
390.062	86.56
390.287	98.56
390.512	88.56
390.736	78.56
390.961	87.56
391.186	99.56
391.411	95.56
391.636	103.56
391.86	88.56
392.085	83.56
392.31	89.56
392.534	89.56
392.759	89.56
392.984	102.56
393.208	89.56
393.433	89.56
393.658	102.56
393.882	83.56
394.107	79.56
394.331	101.56
394.556	80.56
394.78	82.56
395.005	81.56
395.229	79.56
395.454	88.56
395.678	77.56
395.903	87.56
396.127	84.56
396.352	91.56
396.576	93.56
396.801	79.56
397.025	84.56
397.249	75.56
397.474	90.56
397.698	91.56
397.922	80.56
398.147	85.56
398.371	89.56
398.595	84.56
398.82	69.56
399.044	92.56
399.268	100.56
399.492	91.56
399.717	80.56
399.941	93.56
400.165	98.56
400.389	97.56
400.613	87.56
400.837	87.56
401.062	94.56
401.286	88.56
401.51	96.56
401.734	92.56
401.958	110.56
402.182	137.56
402.406	162.56
402.63	142.56
402.854	92.56
403.078	76.56
403.302	93.56
403.526	97.56
403.75	90.56
403.974	85.56
404.198	82.56
404.422	89.56
404.645	82.56
404.869	90.56
405.093	90.56
405.317	105.56
405.541	102.56
405.765	118.56
405.988	101.56
406.212	179.56
406.436	258.56
406.66	162.56
406.883	109.56
407.107	93.56
407.331	94.56
407.555	89.56
407.778	104.56
408.002	91.56
408.226	93.56
408.449	81.56
408.673	93.56
408.896	85.56
409.12	89.56
409.344	86.56
409.567	97.56
409.791	93.56
410.014	72.56
410.238	84.56
410.461	84.56
410.685	95.56
410.908	90.56
411.132	99.56
411.355	106.56
411.578	92.56
411.802	83.56
412.025	85.56
412.249	81.56
412.472	96.56
412.695	105.56
412.919	105.56
413.142	95.56
413.365	85.56
413.589	66.56
413.812	92.56
414.035	74.56
414.258	99.56
414.482	93.56
414.705	92.56
414.928	86.56
415.151	95.56
415.374	99.56
415.597	83.56
415.821	80.56
416.044	90.56
416.267	82.56
416.49	84.56
416.713	85.56
416.936	82.56
417.159	88.56
417.382	88.56
417.605	84.56
417.828	89.56
418.051	92.56
418.274	92.56
418.497	94.56
418.72	88.56
418.943	81.56
419.166	89.56
419.389	91.56
419.611	86.56
419.834	83.56
420.057	86.56
420.28	82.56
420.503	74.56
420.726	86.56
420.948	109.56
421.171	88.56
421.394	86.56
421.617	94.56
421.839	79.56
422.062	93.56
422.285	87.56
422.507	90.56
422.73	103.56
422.953	88.56
423.175	88.56
423.398	91.56
423.621	86.56
423.843	90.56
424.066	89.56
424.288	86.56
424.511	97.56
424.733	106.56
424.956	120.56
425.178	104.56
425.401	98.56
425.623	87.56
425.846	99.56
426.068	85.56
426.291	91.56
426.513	91.56
426.735	100.56
426.958	102.56
427.18	96.56
427.402	131.56
427.625	172.56
427.847	165.56
428.069	136.56
428.292	98.56
428.514	89.56
428.736	82.56
428.958	67.56
429.181	91.56
429.403	80.56
429.625	82.56
429.847	88.56
430.069	97.56
430.292	87.56
430.514	90.56
430.736	81.56
430.958	87.56
431.18	87.56
431.402	89.56
431.624	86.56
431.846	105.56
432.068	103.56
432.29	82.56
432.512	83.56
432.734	101.56
432.956	97.56
433.178	110.56
433.4	97.56
433.622	82.56
433.844	85.56
434.066	97.56
434.287	101.56
434.509	99.56
434.731	107.56
434.953	104.56
435.175	82.56
435.397	96.56
435.618	85.56
435.84	100.56
436.062	115.56
436.284	107.56
436.505	102.56
436.727	95.56
436.949	88.56
437.17	86.56
437.392	73.56
437.614	89.56
437.835	118.56
438.057	119.56
438.278	103.56
438.5	106.56
438.721	126.56
438.943	114.56
439.165	95.56
439.386	76.56
439.608	104.56
439.829	103.56
440.05	122.56
440.272	137.56
440.493	95.56
440.715	87.56
440.936	92.56
441.158	90.56
441.379	80.56
441.6	94.56
441.822	101.56
442.043	95.56
442.264	112.56
442.486	87.56
442.707	90.56
442.928	102.56
443.149	126.56
443.371	124.56
443.592	113.56
443.813	100.56
444.034	104.56
444.255	86.56
444.476	91.56
444.698	93.56
444.919	88.56
445.14	123.56
445.361	124.56
445.582	120.56
445.803	143.56
446.024	137.56
446.245	137.56
446.466	110.56
446.687	93.56
446.908	83.56
447.129	82.56
447.35	89.56
447.571	87.56
447.792	108.56
448.013	94.56
448.234	117.56
448.455	100.56
448.675	102.56
448.896	96.56
449.117	106.56
449.338	107.56
449.559	123.56
449.779	123.56
450	90.56
450.221	106.56
450.442	84.56
450.662	100.56
450.883	128.56
451.104	95.56
451.324	109.56
451.545	87.56
451.766	90.56
451.986	90.56
452.207	91.56
452.428	98.56
452.648	97.56
452.869	102.56
453.089	117.56
453.31	122.56
453.53	94.56
453.751	81.56
453.971	108.56
454.192	111.56
454.412	91.56
454.633	91.56
454.853	83.56
455.073	72.56
455.294	87.56
455.514	87.56
455.734	91.56
455.955	78.56
456.175	77.56
456.395	65.56
456.616	82.56
456.836	87.56
457.056	85.56
457.276	95.56
457.497	73.56
457.717	87.56
457.937	69.56
458.157	82.56
458.377	102.56
458.598	106.56
458.818	164.56
459.038	186.56
459.258	124.56
459.478	94.56
459.698	99.56
459.918	87.56
460.138	77.56
460.358	95.56
460.578	82.56
460.798	98.56
461.018	93.56
461.238	82.56
461.458	85.56
461.678	72.56
461.898	85.56
462.118	91.56
462.338	75.56
462.558	77.56
462.777	81.56
462.997	91.56
463.217	88.56
463.437	81.56
463.657	82.56
463.876	85.56
464.096	83.56
464.316	89.56
464.536	101.56
464.755	97.56
464.975	99.56
465.195	168.56
465.414	185.56
465.634	96.56
465.854	88.56
466.073	87.56
466.293	87.56
466.512	89.56
466.732	106.56
466.951	93.56
467.171	88.56
467.391	92.56
467.61	106.56
467.829	128.56
468.049	150.56
468.268	197.56
468.488	114.56
468.707	89.56
468.927	79.56
469.146	84.56
469.365	83.56
469.585	83.56
469.804	93.56
470.023	100.56
470.243	87.56
470.462	99.56
470.681	117.56
470.901	102.56
471.12	89.56
471.339	87.56
471.558	83.56
471.777	93.56
471.997	120.56
472.216	251.56
472.435	471.56
472.654	164.56
472.873	98.56
473.092	94.56
473.311	99.56
473.53	86.56
473.749	82.56
473.968	77.56
474.187	101.56
474.406	101.56
474.625	90.56
474.844	88.56
475.063	84.56
475.282	93.56
475.501	93.56
475.72	94.56
475.939	87.56
476.158	83.56
476.377	93.56
476.596	86.56
476.814	85.56
477.033	73.56
477.252	90.56
477.471	103.56
477.69	85.56
477.908	81.56
478.127	82.56
478.346	74.56
478.564	82.56
478.783	95.56
479.002	100.56
479.22	87.56
479.439	119.56
479.658	112.56
479.876	87.56
480.095	93.56
480.313	99.56
480.532	107.56
480.751	122.56
480.969	245.56
481.188	755.56
481.406	478.56
481.624	129.56
481.843	101.56
482.061	95.56
482.28	99.56
482.498	97.56
482.717	100.56
482.935	82.56
483.153	88.56
483.372	92.56
483.59	95.56
483.808	90.56
484.027	83.56
484.245	82.56
484.463	78.56
484.681	97.56
484.9	102.56
485.118	90.56
485.336	84.56
485.554	94.56
485.772	99.56
485.99	94.56
486.209	95.56
486.427	107.56
486.645	111.56
486.863	108.56
487.081	118.56
487.299	92.56
487.517	101.56
487.735	96.56
487.953	86.56
488.171	86.56
488.389	89.56
488.607	102.56
488.825	91.56
489.043	82.56
489.261	79.56
489.479	97.56
489.696	80.56
489.914	80.56
490.132	87.56
490.35	94.56
490.568	92.56
490.786	95.56
491.003	83.56
491.221	94.56
491.439	86.56
491.657	94.56
491.874	82.56
492.092	91.56
492.31	87.56
492.527	89.56
492.745	94.56
492.963	98.56
493.18	60.56
493.398	92.56
493.615	83.56
493.833	103.56
494.05	106.56
494.268	82.56
494.485	86.56
494.703	93.56
494.92	82.56
495.138	91.56
495.355	81.56
495.573	87.56
495.79	86.56
496.008	82.56
496.225	85.56
496.442	91.56
496.66	92.56
496.877	81.56
497.094	88.56
497.312	78.56
497.529	106.56
497.746	89.56
497.963	80.56
498.181	86.56
498.398	94.56
498.615	119.56
498.832	110.56
499.049	104.56
499.267	87.56
499.484	90.56
499.701	82.56
499.918	69.56
500.135	90.56
500.352	92.56
500.569	76.56
500.786	86.56
501.003	93.56
501.22	92.56
501.437	81.56
501.654	85.56
501.871	125.56
502.088	95.56
502.305	93.56
502.522	99.56
502.739	98.56
502.956	92.56
503.172	82.56
503.389	92.56
503.606	101.56
503.823	93.56
504.04	102.56
504.256	87.56
504.473	92.56
504.69	94.56
504.907	93.56
505.123	90.56
505.34	85.56
505.557	89.56
505.773	86.56
505.99	98.56
506.207	95.56
506.423	90.56
506.64	75.56
506.856	94.56
507.073	89.56
507.289	98.56
507.506	97.56
507.722	105.56
507.939	107.56
508.155	102.56
508.372	93.56
508.588	85.56
508.805	91.56
509.021	91.56
509.238	110.56
509.454	93.56
509.67	104.56
509.887	99.56
510.103	147.56
510.319	230.56
510.536	877.56
510.752	2913.56
510.968	807.56
511.184	174.56
511.401	114.56
511.617	99.56
511.833	93.56
512.049	107.56
512.265	90.56
512.481	96.56
512.698	79.56
512.914	87.56
513.13	97.56
513.346	93.56
513.562	85.56
513.778	104.56
513.994	91.56
514.21	88.56
514.426	121.56
514.642	145.56
514.858	150.56
515.074	203.56
515.29	549.56
