Data from Circ_2008_H10_HRD10591_00039.txt Node
Date: Wed Jan 03 10:17:04 EST 2024
User: Yrep
Spectrometer: HR+D1059
Trigger mode: 1
Integration Time (sec): 1.000000E-1
Scans to average: 1
Electric dark correction enabled: true
Nonlinearity correction enabled: false
Boxcar width: 0
XAxis mode: Wavelengths
Number of Pixels in Spectrum: 2048
>>>>>Begin Spectral Data<<<<<
223.165	-16
223.4	-16
223.635	-16
223.869	-9
224.104	-19
224.338	-21
224.573	-24
224.808	-14
225.042	-13
225.277	2
225.511	-8
225.746	-1
225.98	4
226.215	21
226.449	28
226.683	21
226.918	24
227.152	25
227.387	41
227.621	25
227.856	47
228.09	42
228.324	48
228.559	43
228.793	57
229.027	71
229.262	73
229.496	77
229.73	92
229.964	83
230.199	72
230.433	82
230.667	71
230.901	79
231.136	74
231.37	72
231.604	79
231.838	78
232.072	87
232.306	64
232.541	64
232.775	81
233.009	80
233.243	70
233.477	78
233.711	79
233.945	79
234.179	89
234.413	80
234.647	75
234.881	79
235.115	86
235.349	76
235.583	91
235.817	75
236.051	63
236.285	83
236.519	79
236.753	87
236.987	89
237.221	83
237.455	85
237.689	79
237.922	75
238.156	69
238.39	81
238.624	84
238.858	78
239.091	71
239.325	66
239.559	74
239.793	94
240.027	86
240.26	65
240.494	72
240.728	79
240.961	86
241.195	74
241.429	84
241.662	75
241.896	85
242.13	90
242.363	69
242.597	78
242.83	81
243.064	81
243.298	86
243.531	78
243.765	85
243.998	76
244.232	67
244.465	84
244.699	69
244.932	71
245.166	74
245.399	80
245.633	80
245.866	75
246.099	81
246.333	76
246.566	72
246.8	72
247.033	75
247.266	81
247.5	71
247.733	72
247.966	78
248.2	81
248.433	82
248.666	93
248.899	96
249.133	69
249.366	105
249.599	94
249.832	86
250.066	77
250.299	81
250.532	79
250.765	76
250.998	84
251.231	77
251.465	91
251.698	79
251.931	92
252.164	74
252.397	85
252.63	73
252.863	75
253.096	76
253.329	74
253.562	89
253.795	81
254.028	84
254.261	88
254.494	83
254.727	89
254.96	90
255.193	106
255.426	77
255.659	88
255.892	75
256.124	84
256.357	88
256.59	65
256.823	82
257.056	81
257.289	72
257.521	77
257.754	97
257.987	87
258.22	93
258.452	85
258.685	94
258.918	83
259.151	88
259.383	89
259.616	82
259.849	76
260.081	69
260.314	93
260.547	80
260.779	79
261.012	86
261.244	78
261.477	86
261.71	89
261.942	116
262.175	117
262.407	97
262.64	84
262.872	61
263.105	81
263.337	79
263.57	88
263.802	78
264.035	95
264.267	83
264.499	98
264.732	81
264.964	88
265.197	79
265.429	88
265.661	78
265.894	87
266.126	81
266.358	89
266.591	77
266.823	93
267.055	91
267.287	80
267.52	81
267.752	88
267.984	94
268.216	74
268.448	84
268.681	91
268.913	97
269.145	82
269.377	84
269.609	86
269.841	88
270.073	91
270.306	89
270.538	83
270.77	82
271.002	83
271.234	106
271.466	102
271.698	98
271.93	77
272.162	79
272.394	90
272.626	89
272.858	68
273.09	87
273.322	78
273.553	86
273.785	81
274.017	87
274.249	76
274.481	88
274.713	92
274.945	83
275.176	89
275.408	95
275.64	78
275.872	91
276.104	89
276.335	90
276.567	88
276.799	109
277.031	98
277.262	81
277.494	88
277.726	97
277.957	92
278.189	98
278.421	99
278.652	102
278.884	83
279.115	83
279.347	82
279.579	94
279.81	97
280.042	86
280.273	102
280.505	68
280.736	97
280.968	95
281.199	93
281.431	77
281.662	80
281.894	94
282.125	94
282.356	103
282.588	134
282.819	116
283.051	94
283.282	77
283.513	89
283.745	85
283.976	80
284.207	97
284.439	87
284.67	95
284.901	95
285.132	84
285.364	76
285.595	81
285.826	87
286.057	96
286.288	83
286.52	98
286.751	93
286.982	81
287.213	84
287.444	91
287.675	85
287.906	97
288.138	98
288.369	97
288.6	95
288.831	95
289.062	98
289.293	92
289.524	90
289.755	83
289.986	82
290.217	86
290.448	89
290.679	96
290.91	92
291.141	86
291.371	92
291.602	94
291.833	107
292.064	94
292.295	93
292.526	88
292.757	91
292.987	85
293.218	73
293.449	82
293.68	93
293.91	87
294.141	101
294.372	101
294.603	84
294.833	83
295.064	90
295.295	98
295.525	99
295.756	93
295.987	107
296.217	142
296.448	124
296.679	94
296.909	89
297.14	78
297.37	91
297.601	92
297.831	90
298.062	86
298.292	79
298.523	78
298.753	88
298.984	89
299.214	94
299.445	95
299.675	96
299.905	93
300.136	82
300.366	89
300.597	101
300.827	101
301.057	103
301.288	104
301.518	89
301.748	89
301.979	105
302.209	88
302.439	73
302.669	84
302.9	95
303.13	106
303.36	98
303.59	110
303.82	93
304.051	81
304.281	88
304.511	96
304.741	80
304.971	102
305.201	112
305.431	89
305.661	84
305.891	94
306.121	95
306.352	103
306.582	99
306.812	82
307.042	81
307.272	82
307.502	96
307.731	105
307.961	95
308.191	91
308.421	91
308.651	102
308.881	83
309.111	95
309.341	110
309.571	105
309.8	89
310.03	105
310.26	105
310.49	89
310.72	100
310.949	90
311.179	103
311.409	84
311.639	97
311.868	92
312.098	88
312.328	87
312.557	106
312.787	96
313.017	107
313.246	98
313.476	94
313.706	96
313.935	84
314.165	94
314.394	98
314.624	85
314.853	97
315.083	81
315.312	101
315.542	98
315.771	84
316.001	95
316.23	103
316.46	99
316.689	92
316.919	91
317.148	99
317.377	108
317.607	99
317.836	90
318.065	94
318.295	92
318.524	82
318.753	79
318.983	73
319.212	103
319.441	111
319.67	96
319.9	94
320.129	94
320.358	89
320.587	106
320.816	91
321.046	80
321.275	98
321.504	91
321.733	90
321.962	95
322.191	104
322.42	108
322.649	107
322.878	97
323.108	118
323.337	109
323.566	116
323.795	138
324.024	180
324.253	312
324.482	662
324.71	1344
324.939	1716
325.168	671
325.397	211
325.626	153
325.855	118
326.084	99
326.313	127
326.542	137
326.77	194
326.999	353
327.228	716
327.457	1311
327.686	1065
327.914	317
328.143	174
328.372	148
328.6	132
328.829	127
329.058	120
329.287	134
329.515	111
329.744	113
329.972	121
330.201	135
330.43	124
330.658	138
330.887	138
331.115	115
331.344	93
331.572	114
331.801	106
332.03	89
332.258	90
332.486	102
332.715	91
332.943	97
333.172	88
333.4	112
333.629	106
333.857	114
334.085	118
334.314	138
334.542	160
334.771	143
334.999	101
335.227	92
335.455	89
335.684	92
335.912	86
336.14	90
336.369	92
336.597	112
336.825	92
337.053	91
337.281	83
337.51	93
337.738	91
337.966	88
338.194	100
338.422	95
338.65	97
338.878	98
339.106	90
339.334	85
339.562	82
339.79	86
340.018	93
340.246	85
340.474	88
340.702	95
340.93	91
341.158	91
341.386	98
341.614	109
341.842	111
342.07	97
342.298	96
342.526	88
342.754	88
342.981	89
343.209	91
343.437	98
343.665	93
343.893	96
344.12	84
344.348	95
344.576	100
344.804	96
345.031	104
345.259	100
345.487	96
345.714	105
345.942	87
346.17	83
346.397	98
346.625	105
346.853	90
347.08	89
347.308	95
347.535	83
347.763	102
347.99	90
348.218	95
348.445	102
348.673	99
348.9	99
349.128	99
349.355	102
349.583	75
349.81	93
350.037	111
350.265	106
350.492	83
350.72	95
350.947	105
351.174	103
351.402	112
351.629	101
351.856	103
352.083	111
352.311	114
352.538	109
352.765	107
352.992	97
353.22	104
353.447	92
353.674	105
353.901	97
354.128	100
354.355	95
354.583	97
354.81	93
355.037	98
355.264	100
355.491	99
355.718	94
355.945	101
356.172	95
356.399	96
356.626	78
356.853	83
357.08	103
357.307	98
357.534	98
357.761	95
357.988	86
358.215	97
358.441	94
358.668	87
358.895	95
359.122	86
359.349	80
359.576	100
359.802	90
360.029	103
360.256	120
360.483	93
360.709	98
360.936	97
361.163	91
361.39	99
361.616	92
361.843	94
362.07	84
362.296	83
362.523	82
362.749	90
362.976	91
363.203	96
363.429	85
363.656	96
363.882	93
364.109	95
364.335	88
364.562	92
364.788	96
365.015	108
365.241	103
365.468	109
365.694	107
365.92	96
366.147	95
366.373	95
366.599	90
366.826	79
367.052	90
367.278	86
367.505	96
367.731	88
367.957	98
368.184	95
368.41	115
368.636	113
368.862	110
369.089	98
369.315	88
369.541	84
369.767	82
369.993	83
370.219	94
370.445	87
370.672	90
370.898	95
371.124	90
371.35	84
371.576	99
371.802	79
372.028	84
372.254	84
372.48	102
372.706	88
372.932	84
373.158	87
373.384	105
373.61	86
373.835	87
374.061	84
374.287	90
374.513	88
374.739	105
374.965	86
375.191	97
375.416	75
375.642	86
375.868	81
376.094	86
376.319	86
376.545	89
376.771	95
376.997	100
377.222	94
377.448	87
377.674	106
377.899	83
378.125	80
378.35	75
378.576	90
378.802	83
379.027	103
379.253	106
379.478	100
379.704	97
379.929	71
380.155	83
380.38	89
380.606	104
380.831	104
381.057	105
381.282	94
381.507	97
381.733	98
381.958	93
382.184	94
382.409	103
382.634	107
382.86	99
383.085	95
383.31	105
383.535	95
383.761	100
383.986	106
384.211	82
384.436	100
384.662	106
384.887	113
385.112	106
385.337	98
385.562	98
385.787	107
386.013	105
386.238	125
386.463	102
386.688	129
386.913	107
387.138	90
387.363	105
387.588	96
387.813	106
388.038	106
388.263	107
388.488	121
388.713	111
388.938	102
389.163	78
389.387	94
389.612	101
389.837	92
390.062	99
390.287	79
390.512	90
390.736	98
390.961	89
391.186	89
391.411	82
391.636	83
391.86	75
392.085	93
392.31	79
392.534	90
392.759	101
392.984	85
393.208	98
393.433	112
393.658	102
393.882	79
394.107	73
394.331	104
394.556	78
394.78	86
395.005	85
395.229	95
395.454	85
395.678	83
395.903	77
396.127	89
396.352	84
396.576	82
396.801	87
397.025	95
397.249	82
397.474	82
397.698	88
397.922	85
398.147	93
398.371	83
398.595	77
398.82	84
399.044	87
399.268	82
399.492	83
399.717	89
399.941	90
400.165	82
400.389	87
400.613	84
400.837	75
401.062	89
401.286	99
401.51	87
401.734	83
401.958	120
402.182	122
402.406	165
402.63	123
402.854	87
403.078	74
403.302	90
403.526	83
403.75	87
403.974	79
404.198	91
404.422	74
404.645	83
404.869	88
405.093	79
405.317	98
405.541	100
405.765	96
405.988	123
406.212	163
406.436	223
406.66	145
406.883	107
407.107	100
407.331	87
407.555	99
407.778	98
408.002	78
408.226	93
408.449	85
408.673	89
408.896	90
409.12	93
409.344	95
409.567	87
409.791	100
410.014	86
410.238	80
410.461	89
410.685	93
410.908	104
411.132	99
411.355	96
411.578	94
411.802	92
412.025	93
412.249	98
412.472	91
412.695	90
412.919	83
413.142	90
413.365	90
413.589	102
413.812	68
414.035	75
414.258	89
414.482	97
414.705	94
414.928	77
415.151	87
415.374	94
415.597	79
415.821	101
416.044	91
416.267	88
416.49	80
416.713	87
416.936	82
417.159	94
417.382	98
417.605	75
417.828	98
418.051	107
418.274	109
418.497	78
418.72	89
418.943	91
419.166	90
419.389	81
419.611	87
419.834	79
420.057	81
420.28	72
420.503	80
420.726	87
420.948	96
421.171	92
421.394	98
421.617	72
421.839	92
422.062	95
422.285	88
422.507	89
422.73	79
422.953	95
423.175	92
423.398	90
423.621	88
423.843	84
424.066	76
424.288	80
424.511	90
424.733	99
424.956	96
425.178	101
425.401	97
425.623	103
425.846	96
426.068	90
426.291	74
426.513	94
426.735	87
426.958	86
427.18	103
427.402	113
427.625	158
427.847	134
428.069	109
428.292	84
428.514	84
428.736	75
428.958	86
429.181	88
429.403	79
429.625	82
429.847	84
430.069	94
430.292	102
430.514	83
430.736	84
430.958	71
431.18	91
431.402	82
431.624	89
431.846	87
432.068	99
432.29	90
432.512	89
432.734	84
432.956	97
433.178	94
433.4	90
433.622	76
433.844	83
434.066	98
434.287	97
434.509	84
434.731	100
434.953	101
435.175	78
435.397	92
435.618	92
435.84	91
436.062	112
436.284	100
436.505	90
436.727	93
436.949	77
437.17	67
437.392	77
437.614	96
437.835	106
438.057	116
438.278	106
438.5	84
438.721	121
438.943	99
439.165	84
439.386	82
439.608	82
439.829	97
440.05	102
440.272	120
440.493	98
440.715	86
440.936	93
441.158	95
441.379	74
441.6	96
441.822	94
442.043	89
442.264	97
442.486	96
442.707	93
442.928	90
443.149	107
443.371	125
443.592	101
443.813	95
444.034	88
444.255	79
444.476	97
444.698	90
444.919	91
445.14	125
445.361	97
445.582	107
445.803	122
446.024	123
446.245	111
446.466	118
446.687	85
446.908	94
447.129	83
447.35	84
447.571	90
447.792	89
448.013	103
448.234	104
448.455	91
448.675	97
448.896	87
449.117	99
449.338	97
449.559	116
449.779	115
450	100
450.221	74
450.442	99
450.662	87
450.883	95
451.104	111
451.324	95
451.545	73
451.766	93
451.986	84
452.207	88
452.428	90
452.648	86
452.869	111
453.089	121
453.31	111
453.53	83
453.751	100
453.971	91
454.192	119
454.412	95
454.633	79
454.853	87
455.073	87
455.294	89
455.514	92
455.734	73
455.955	84
456.175	69
456.395	80
456.616	87
456.836	91
457.056	77
457.276	75
457.497	87
457.717	76
457.937	85
458.157	92
458.377	84
458.598	94
458.818	121
459.038	127
459.258	96
459.478	89
459.698	86
459.918	72
460.138	88
460.358	73
460.578	92
460.798	92
461.018	90
461.238	80
461.458	96
461.678	79
461.898	65
462.118	92
462.338	82
462.558	84
462.777	102
462.997	79
463.217	90
463.437	94
463.657	73
463.876	99
464.096	101
464.316	109
464.536	91
464.755	100
464.975	96
465.195	163
465.414	150
465.634	80
465.854	74
466.073	86
466.293	83
466.512	76
466.732	83
466.951	86
467.171	90
467.391	94
467.61	99
467.829	81
468.049	121
468.268	104
468.488	92
468.707	79
468.927	92
469.146	86
469.365	80
469.585	87
469.804	92
470.023	88
470.243	90
470.462	94
470.681	99
470.901	90
471.12	92
471.339	90
471.558	85
471.777	80
471.997	99
472.216	139
472.435	180
472.654	111
472.873	80
473.092	88
473.311	95
473.53	92
473.749	83
473.968	100
474.187	89
474.406	103
474.625	96
474.844	94
475.063	91
475.282	81
475.501	70
475.72	99
475.939	96
476.158	84
476.377	78
476.596	84
476.814	95
477.033	73
477.252	89
477.471	89
477.69	83
477.908	81
478.127	96
478.346	86
478.564	83
478.783	112
479.002	90
479.22	97
479.439	109
479.658	91
479.876	98
480.095	90
480.313	76
480.532	92
480.751	100
480.969	147
481.188	254
481.406	172
481.624	84
481.843	98
482.061	79
482.28	86
482.498	77
482.717	83
482.935	86
483.153	86
483.372	96
483.59	93
483.808	92
484.027	83
484.245	84
484.463	87
484.681	84
484.9	91
485.118	105
485.336	87
485.554	101
485.772	90
485.99	90
486.209	99
486.427	103
486.645	111
486.863	109
487.081	83
487.299	84
487.517	96
487.735	90
487.953	81
488.171	97
488.389	87
488.607	94
488.825	87
489.043	80
489.261	96
489.479	93
489.696	85
489.914	90
490.132	87
490.35	93
490.568	84
490.786	95
491.003	90
491.221	90
491.439	82
491.657	92
491.874	93
492.092	99
492.31	94
492.527	99
492.745	87
492.963	94
493.18	100
493.398	98
493.615	85
493.833	97
494.05	80
494.268	80
494.485	89
494.703	86
494.92	95
495.138	81
495.355	80
495.573	113
495.79	87
496.008	88
496.225	101
496.442	90
496.66	85
496.877	87
497.094	88
497.312	77
497.529	88
497.746	66
497.963	91
498.181	97
498.398	89
498.615	95
498.832	91
499.049	79
499.267	90
499.484	90
499.701	83
499.918	86
500.135	89
500.352	86
500.569	80
500.786	90
501.003	89
501.22	90
501.437	95
501.654	108
501.871	99
502.088	81
502.305	84
502.522	88
502.739	91
502.956	98
503.172	95
503.389	79
503.606	112
503.823	91
504.04	93
504.256	99
504.473	84
504.69	87
504.907	111
505.123	109
505.34	85
505.557	85
505.773	96
505.99	84
506.207	96
506.423	82
506.64	93
506.856	96
507.073	88
507.289	83
507.506	88
507.722	105
507.939	119
508.155	99
508.372	91
508.588	94
508.805	101
509.021	99
509.238	113
509.454	106
509.67	90
509.887	100
510.103	125
510.319	207
510.536	792
510.752	2625
510.968	730
511.184	156
511.401	122
511.617	111
511.833	99
512.049	104
512.265	92
512.481	100
512.698	99
512.914	89
513.13	90
513.346	93
513.562	95
513.778	106
513.994	115
514.21	97
514.426	114
514.642	137
514.858	135
515.074	182
515.29	459
515.506	1543
515.721	585
515.937	143
516.153	113
516.369	80
516.585	102
516.801	110
517.016	102
517.232	83
517.448	97
517.664	96
517.879	82
518.095	95
518.311	75
518.527	80
518.742	84
518.958	77
519.173	87
519.389	93
519.605	103
519.82	111
520.036	110
520.251	108
520.467	121
520.682	96
520.898	98
521.113	112
521.329	152
521.544	192
521.76	574
521.975	2541
522.19	1542
522.406	323
522.621	116
522.836	100
523.052	96
523.267	97
523.482	89
523.698	104
523.913	124
524.128	89
524.343	82
524.559	105
524.774	88
524.989	87
525.204	107
525.419	99
525.634	75
525.849	96
526.064	93
526.28	99
526.495	82
526.71	90
526.925	89
527.14	81
527.355	80
527.57	84
527.785	84
527.999	91
528.214	96
528.429	83
528.644	85
528.859	75
529.074	89
529.289	129
529.503	171
529.718	110
529.933	95
530.148	96
530.363	88
530.577	84
530.792	89
531.007	90
531.221	98
531.436	99
531.651	90
531.865	86
532.08	95
532.295	84
532.509	92
532.724	95
532.938	88
533.153	80
533.367	84
533.582	106
533.796	100
534.011	100
534.225	88
534.44	91
534.654	91
534.868	77
535.083	89
535.297	89
535.511	99
535.726	104
535.94	96
536.154	89
536.369	73
536.583	89
536.797	93
537.011	95
537.225	89
537.44	93
537.654	87
537.868	98
538.082	98
538.296	93
538.51	95
538.724	85
538.938	77
539.153	78
539.367	89
539.581	90
539.795	78
540.009	99
540.222	102
540.436	81
540.65	73
540.864	89
541.078	98
541.292	99
541.506	94
541.72	99
541.934	86
542.147	107
542.361	98
542.575	90
542.789	103
543.002	96
543.216	89
543.43	110
543.644	108
543.857	84
544.071	86
544.285	94
544.498	85
544.712	93
544.925	79
545.139	76
545.352	78
545.566	84
545.779	88
545.993	99
546.206	95
546.42	79
546.633	97
546.847	82
547.06	85
547.274	93
547.487	96
547.7	91
547.914	93
548.127	86
548.34	86
548.554	75
548.767	79
548.98	94
549.193	66
549.407	86
549.62	98
549.833	102
550.046	100
550.259	101
550.473	75
550.686	90
550.899	83
551.112	106
551.325	91
551.538	108
551.751	83
551.964	82
552.177	89
552.39	82
552.603	80
552.816	95
553.029	92
553.242	89
553.455	83
553.667	100
553.88	87
554.093	96
554.306	91
554.519	96
554.732	86
554.944	93
555.157	80
555.37	90
555.583	87
555.795	96
556.008	104
556.221	81
556.433	94
556.646	105
556.859	93
557.071	76
557.284	90
557.496	84
557.709	84
557.921	81
558.134	96
558.346	79
558.559	90
558.771	99
558.984	102
559.196	94
559.409	86
559.621	90
559.833	86
560.046	76
560.258	90
560.47	95
560.683	89
560.895	75
561.107	87
561.32	95
561.532	75
561.744	81
561.956	90
562.168	81
562.381	82
562.593	93
562.805	95
563.017	106
563.229	92
563.441	98
563.653	94
563.865	84
564.077	78
564.289	85
564.501	94
564.713	106
564.925	88
565.137	95
565.349	88
565.561	90
565.773	83
565.985	74
566.197	66
566.408	92
566.62	100
566.832	100
567.044	93
567.255	93
567.467	95
567.679	89
567.891	82
568.102	80
568.314	78
568.526	85
568.737	97
568.949	94
569.161	92
569.372	91
569.584	97
569.795	89
570.007	107
570.218	252
570.43	147
570.641	94
570.853	90
571.064	80
571.276	82
571.487	89
571.698	87
571.91	71
572.121	94
572.333	89
572.544	98
572.755	93
572.966	84
573.178	81
573.389	84
573.6	89
573.811	100
574.023	77
574.234	92
574.445	89
574.656	79
574.867	97
575.078	81
575.289	65
575.501	91
575.712	91
575.923	80
576.134	102
576.345	90
576.556	81
576.767	87
576.978	89
577.188	91
577.399	91
577.61	84
577.821	93
578.032	124
578.243	281
578.454	827
578.665	228
578.875	112
579.086	87
579.297	88
579.508	90
579.718	94
579.929	100
580.14	86
580.35	83
580.561	91
580.772	95
580.982	90
581.193	89
581.403	80
581.614	93
581.825	72
582.035	91
582.246	93
582.456	88
582.667	79
582.877	90
583.087	65
583.298	99
583.508	94
583.719	78
583.929	83
584.139	100
584.35	77
584.56	94
584.77	85
