Data from Circ_2008_H10_HRD10591_00057.txt Node
Date: Wed Jan 03 10:17:07 EST 2024
User: Yrep
Spectrometer: HR+D1059
Trigger mode: 1
Integration Time (sec): 1.000000E-1
Scans to average: 1
Electric dark correction enabled: true
Nonlinearity correction enabled: false
Boxcar width: 0
XAxis mode: Wavelengths
Number of Pixels in Spectrum: 2048
>>>>>Begin Spectral Data<<<<<
223.165	-11.69
223.4	-11.69
223.635	-11.69
223.869	-12.69
224.104	-18.69
224.338	-5.69
224.573	-20.69
224.808	-23.69
225.042	-0.69
225.277	-7.69
225.511	-9.69
225.746	18.31
225.98	15.31
226.215	6.31
226.449	14.31
226.683	8.31
226.918	28.31
227.152	20.31
227.387	23.31
227.621	52.31
227.856	48.31
228.09	43.31
228.324	35.31
228.559	68.31
228.793	71.31
229.027	64.31
229.262	60.31
229.496	73.31
229.73	75.31
229.964	79.31
230.199	84.31
230.433	75.31
230.667	81.31
230.901	84.31
231.136	74.31
231.37	93.31
231.604	84.31
231.838	86.31
232.072	86.31
232.306	76.31
232.541	82.31
232.775	90.31
233.009	84.31
233.243	73.31
233.477	91.31
233.711	99.31
233.945	80.31
234.179	84.31
234.413	70.31
234.647	79.31
234.881	78.31
235.115	85.31
235.349	77.31
235.583	101.31
235.817	80.31
236.051	100.31
236.285	82.31
236.519	88.31
236.753	64.31
236.987	85.31
237.221	82.31
237.455	83.31
237.689	85.31
237.922	82.31
238.156	78.31
238.39	75.31
238.624	82.31
238.858	73.31
239.091	69.31
239.325	74.31
239.559	77.31
239.793	94.31
240.027	83.31
240.26	76.31
240.494	84.31
240.728	77.31
240.961	85.31
241.195	92.31
241.429	80.31
241.662	79.31
241.896	90.31
242.13	82.31
242.363	77.31
242.597	83.31
242.83	77.31
243.064	89.31
243.298	72.31
243.531	68.31
243.765	79.31
243.998	91.31
244.232	76.31
244.465	86.31
244.699	73.31
244.932	80.31
245.166	73.31
245.399	83.31
245.633	80.31
245.866	89.31
246.099	82.31
246.333	86.31
246.566	84.31
246.8	80.31
247.033	78.31
247.266	79.31
247.5	81.31
247.733	83.31
247.966	91.31
248.2	88.31
248.433	85.31
248.666	94.31
248.899	73.31
249.133	89.31
249.366	108.31
249.599	100.31
249.832	88.31
250.066	87.31
250.299	86.31
250.532	89.31
250.765	90.31
250.998	88.31
251.231	69.31
251.465	85.31
251.698	86.31
251.931	80.31
252.164	85.31
252.397	82.31
252.63	88.31
252.863	84.31
253.096	87.31
253.329	86.31
253.562	87.31
253.795	86.31
254.028	75.31
254.261	85.31
254.494	83.31
254.727	79.31
254.96	92.31
255.193	78.31
255.426	84.31
255.659	78.31
255.892	90.31
256.124	86.31
256.357	74.31
256.59	91.31
256.823	71.31
257.056	86.31
257.289	97.31
257.521	79.31
257.754	101.31
257.987	95.31
258.22	82.31
258.452	79.31
258.685	90.31
258.918	90.31
259.151	83.31
259.383	78.31
259.616	88.31
259.849	89.31
260.081	100.31
260.314	82.31
260.547	81.31
260.779	89.31
261.012	74.31
261.244	82.31
261.477	95.31
261.71	93.31
261.942	115.31
262.175	127.31
262.407	96.31
262.64	82.31
262.872	80.31
263.105	77.31
263.337	85.31
263.57	92.31
263.802	83.31
264.035	79.31
264.267	89.31
264.499	92.31
264.732	83.31
264.964	88.31
265.197	91.31
265.429	80.31
265.661	82.31
265.894	97.31
266.126	87.31
266.358	88.31
266.591	81.31
266.823	71.31
267.055	76.31
267.287	94.31
267.52	72.31
267.752	80.31
267.984	85.31
268.216	74.31
268.448	90.31
268.681	95.31
268.913	79.31
269.145	97.31
269.377	84.31
269.609	88.31
269.841	85.31
270.073	97.31
270.306	96.31
270.538	92.31
270.77	85.31
271.002	82.31
271.234	76.31
271.466	78.31
271.698	92.31
271.93	85.31
272.162	96.31
272.394	79.31
272.626	86.31
272.858	77.31
273.09	88.31
273.322	90.31
273.553	100.31
273.785	76.31
274.017	94.31
274.249	98.31
274.481	80.31
274.713	94.31
274.945	97.31
275.176	81.31
275.408	101.31
275.64	95.31
275.872	93.31
276.104	97.31
276.335	83.31
276.567	81.31
276.799	114.31
277.031	109.31
277.262	92.31
277.494	76.31
277.726	80.31
277.957	74.31
278.189	73.31
278.421	72.31
278.652	83.31
278.884	85.31
279.115	86.31
279.347	82.31
279.579	95.31
279.81	86.31
280.042	92.31
280.273	100.31
280.505	86.31
280.736	93.31
280.968	81.31
281.199	100.31
281.431	87.31
281.662	93.31
281.894	86.31
282.125	95.31
282.356	117.31
282.588	131.31
282.819	98.31
283.051	78.31
283.282	93.31
283.513	83.31
283.745	78.31
283.976	74.31
284.207	101.31
284.439	102.31
284.67	99.31
284.901	93.31
285.132	85.31
285.364	92.31
285.595	80.31
285.826	92.31
286.057	84.31
286.288	94.31
286.52	85.31
286.751	97.31
286.982	84.31
287.213	76.31
287.444	82.31
287.675	81.31
287.906	89.31
288.138	88.31
288.369	88.31
288.6	97.31
288.831	95.31
289.062	89.31
289.293	72.31
289.524	90.31
289.755	90.31
289.986	93.31
290.217	98.31
290.448	85.31
290.679	96.31
290.91	96.31
291.141	78.31
291.371	85.31
291.602	90.31
291.833	77.31
292.064	98.31
292.295	77.31
292.526	82.31
292.757	80.31
292.987	77.31
293.218	89.31
293.449	95.31
293.68	86.31
293.91	89.31
294.141	101.31
294.372	85.31
294.603	91.31
294.833	101.31
295.064	79.31
295.295	101.31
295.525	92.31
295.756	105.31
295.987	106.31
296.217	140.31
296.448	112.31
296.679	107.31
296.909	92.31
297.14	81.31
297.37	84.31
297.601	85.31
297.831	76.31
298.062	98.31
298.292	91.31
298.523	94.31
298.753	90.31
298.984	80.31
299.214	84.31
299.445	86.31
299.675	83.31
299.905	81.31
300.136	100.31
300.366	94.31
300.597	86.31
300.827	90.31
301.057	107.31
301.288	87.31
301.518	78.31
301.748	101.31
301.979	85.31
302.209	92.31
302.439	83.31
302.669	79.31
302.9	96.31
303.13	88.31
303.36	91.31
303.59	95.31
303.82	116.31
304.051	92.31
304.281	88.31
304.511	87.31
304.741	89.31
304.971	98.31
305.201	85.31
305.431	84.31
305.661	81.31
305.891	86.31
306.121	98.31
306.352	106.31
306.582	103.31
306.812	98.31
307.042	78.31
307.272	104.31
307.502	97.31
307.731	93.31
307.961	89.31
308.191	94.31
308.421	104.31
308.651	97.31
308.881	88.31
309.111	82.31
309.341	103.31
309.571	87.31
309.8	93.31
310.03	95.31
310.26	98.31
310.49	100.31
310.72	82.31
310.949	97.31
311.179	93.31
311.409	90.31
311.639	96.31
311.868	93.31
312.098	105.31
312.328	114.31
312.557	88.31
312.787	107.31
313.017	100.31
313.246	97.31
313.476	102.31
313.706	100.31
313.935	97.31
314.165	94.31
314.394	94.31
314.624	100.31
314.853	90.31
315.083	95.31
315.312	97.31
315.542	97.31
315.771	81.31
316.001	89.31
316.23	82.31
316.46	91.31
316.689	84.31
316.919	99.31
317.148	90.31
317.377	96.31
317.607	97.31
317.836	97.31
318.065	108.31
318.295	90.31
318.524	90.31
318.753	91.31
318.983	97.31
319.212	91.31
319.441	103.31
319.67	112.31
319.9	95.31
320.129	89.31
320.358	91.31
320.587	103.31
320.816	102.31
321.046	95.31
321.275	89.31
321.504	104.31
321.733	87.31
321.962	97.31
322.191	92.31
322.42	102.31
322.649	99.31
322.878	93.31
323.108	115.31
323.337	107.31
323.566	133.31
323.795	148.31
324.024	194.31
324.253	364.31
324.482	691.31
324.71	1429.31
324.939	1800.31
325.168	677.31
325.397	234.31
325.626	144.31
325.855	126.31
326.084	124.31
326.313	123.31
326.542	149.31
326.77	202.31
326.999	379.31
327.228	751.31
327.457	1340.31
327.686	1106.31
327.914	314.31
328.143	187.31
328.372	150.31
328.6	122.31
328.829	105.31
329.058	117.31
329.287	139.31
329.515	125.31
329.744	117.31
329.972	128.31
330.201	134.31
330.43	164.31
330.658	139.31
330.887	139.31
331.115	115.31
331.344	95.31
331.572	107.31
331.801	101.31
332.03	95.31
332.258	90.31
332.486	98.31
332.715	93.31
332.943	89.31
333.172	95.31
333.4	110.31
333.629	102.31
333.857	125.31
334.085	125.31
334.314	155.31
334.542	186.31
334.771	189.31
334.999	109.31
335.227	87.31
335.455	97.31
335.684	109.31
335.912	104.31
336.14	93.31
336.369	94.31
336.597	104.31
336.825	98.31
337.053	97.31
337.281	100.31
337.51	101.31
337.738	98.31
337.966	95.31
338.194	101.31
338.422	94.31
338.65	109.31
338.878	96.31
339.106	101.31
339.334	98.31
339.562	107.31
339.79	105.31
340.018	94.31
340.246	86.31
340.474	87.31
340.702	101.31
340.93	90.31
341.158	99.31
341.386	94.31
341.614	105.31
341.842	108.31
342.07	88.31
342.298	80.31
342.526	82.31
342.754	102.31
342.981	81.31
343.209	102.31
343.437	105.31
343.665	98.31
343.893	94.31
344.12	95.31
344.348	92.31
344.576	90.31
344.804	90.31
345.031	99.31
345.259	92.31
345.487	116.31
345.714	86.31
345.942	101.31
346.17	81.31
346.397	92.31
346.625	80.31
346.853	96.31
347.08	98.31
347.308	89.31
347.535	94.31
347.763	106.31
347.99	97.31
348.218	104.31
348.445	102.31
348.673	100.31
348.9	111.31
349.128	99.31
349.355	97.31
349.583	92.31
349.81	96.31
350.037	85.31
350.265	99.31
350.492	104.31
350.72	110.31
350.947	96.31
351.174	86.31
351.402	110.31
351.629	91.31
351.856	89.31
352.083	99.31
352.311	96.31
352.538	104.31
352.765	112.31
352.992	116.31
353.22	112.31
353.447	107.31
353.674	102.31
353.901	97.31
354.128	82.31
354.355	94.31
354.583	91.31
354.81	108.31
355.037	116.31
355.264	106.31
355.491	88.31
355.718	95.31
355.945	94.31
356.172	81.31
356.399	91.31
356.626	94.31
356.853	95.31
357.08	97.31
357.307	94.31
357.534	94.31
357.761	88.31
357.988	96.31
358.215	105.31
358.441	96.31
358.668	103.31
358.895	88.31
359.122	94.31
359.349	91.31
359.576	82.31
359.802	96.31
360.029	106.31
360.256	109.31
360.483	96.31
360.709	94.31
360.936	98.31
361.163	88.31
361.39	84.31
361.616	91.31
361.843	90.31
362.07	84.31
362.296	92.31
362.523	86.31
362.749	79.31
362.976	96.31
363.203	94.31
363.429	76.31
363.656	87.31
363.882	76.31
364.109	90.31
364.335	81.31
364.562	109.31
364.788	94.31
365.015	95.31
365.241	104.31
365.468	103.31
365.694	96.31
365.92	103.31
366.147	100.31
366.373	91.31
366.599	81.31
366.826	81.31
367.052	85.31
367.278	104.31
367.505	79.31
367.731	85.31
367.957	93.31
368.184	81.31
368.41	104.31
368.636	115.31
368.862	117.31
369.089	101.31
369.315	101.31
369.541	97.31
369.767	85.31
369.993	102.31
370.219	81.31
370.445	92.31
370.672	89.31
370.898	88.31
371.124	112.31
371.35	96.31
371.576	101.31
371.802	88.31
372.028	96.31
372.254	89.31
372.48	92.31
372.706	84.31
372.932	95.31
373.158	94.31
373.384	89.31
373.61	85.31
373.835	82.31
374.061	85.31
374.287	105.31
374.513	108.31
374.739	90.31
374.965	86.31
375.191	91.31
375.416	115.31
375.642	85.31
375.868	90.31
376.094	99.31
376.319	85.31
376.545	100.31
376.771	87.31
376.997	79.31
377.222	86.31
377.448	106.31
377.674	85.31
377.899	81.31
378.125	98.31
378.35	100.31
378.576	96.31
378.802	94.31
379.027	85.31
379.253	89.31
379.478	93.31
379.704	87.31
379.929	100.31
380.155	85.31
380.38	102.31
380.606	93.31
380.831	104.31
381.057	104.31
381.282	86.31
381.507	91.31
381.733	81.31
381.958	92.31
382.184	98.31
382.409	105.31
382.634	95.31
382.86	96.31
383.085	109.31
383.31	104.31
383.535	104.31
383.761	105.31
383.986	92.31
384.211	107.31
384.436	101.31
384.662	80.31
384.887	105.31
385.112	89.31
385.337	104.31
385.562	121.31
385.787	98.31
386.013	119.31
386.238	106.31
386.463	110.31
386.688	100.31
386.913	107.31
387.138	112.31
387.363	105.31
387.588	99.31
387.813	112.31
388.038	115.31
388.263	105.31
388.488	108.31
388.713	112.31
388.938	100.31
389.163	94.31
389.387	94.31
389.612	104.31
389.837	102.31
390.062	95.31
390.287	90.31
390.512	110.31
390.736	98.31
390.961	95.31
391.186	111.31
391.411	86.31
391.636	94.31
391.86	79.31
392.085	87.31
392.31	88.31
392.534	94.31
392.759	77.31
392.984	81.31
393.208	89.31
393.433	101.31
393.658	90.31
393.882	98.31
394.107	89.31
394.331	83.31
394.556	91.31
394.78	94.31
395.005	86.31
395.229	94.31
395.454	91.31
395.678	82.31
395.903	84.31
396.127	100.31
396.352	77.31
396.576	88.31
396.801	87.31
397.025	94.31
397.249	98.31
397.474	93.31
397.698	85.31
397.922	91.31
398.147	83.31
398.371	77.31
398.595	95.31
398.82	67.31
399.044	90.31
399.268	87.31
399.492	88.31
399.717	95.31
399.941	101.31
400.165	96.31
400.389	93.31
400.613	85.31
400.837	88.31
401.062	92.31
401.286	85.31
401.51	87.31
401.734	94.31
401.958	108.31
402.182	128.31
402.406	158.31
402.63	98.31
402.854	106.31
403.078	86.31
403.302	87.31
403.526	92.31
403.75	90.31
403.974	83.31
404.198	79.31
404.422	96.31
404.645	89.31
404.869	90.31
405.093	107.31
405.317	109.31
405.541	96.31
405.765	107.31
405.988	121.31
406.212	176.31
406.436	230.31
406.66	143.31
406.883	101.31
407.107	100.31
407.331	98.31
407.555	99.31
407.778	102.31
408.002	102.31
408.226	86.31
408.449	85.31
408.673	83.31
408.896	103.31
409.12	88.31
409.344	85.31
409.567	81.31
409.791	105.31
410.014	100.31
410.238	105.31
410.461	99.31
410.685	96.31
410.908	106.31
411.132	102.31
411.355	96.31
411.578	78.31
411.802	85.31
412.025	101.31
412.249	86.31
412.472	92.31
412.695	108.31
412.919	90.31
413.142	103.31
413.365	86.31
413.589	86.31
413.812	100.31
414.035	86.31
414.258	102.31
414.482	87.31
414.705	94.31
414.928	98.31
415.151	96.31
415.374	89.31
415.597	82.31
415.821	120.31
416.044	98.31
416.267	71.31
416.49	80.31
416.713	110.31
416.936	78.31
417.159	93.31
417.382	81.31
417.605	85.31
417.828	89.31
418.051	83.31
418.274	85.31
418.497	97.31
418.72	93.31
418.943	83.31
419.166	75.31
419.389	82.31
419.611	105.31
419.834	95.31
420.057	112.31
420.28	90.31
420.503	81.31
420.726	96.31
420.948	98.31
421.171	90.31
421.394	84.31
421.617	92.31
421.839	82.31
422.062	97.31
422.285	97.31
422.507	96.31
422.73	93.31
422.953	90.31
423.175	91.31
423.398	94.31
423.621	90.31
423.843	92.31
424.066	75.31
424.288	92.31
424.511	89.31
424.733	95.31
424.956	102.31
425.178	105.31
425.401	100.31
425.623	108.31
425.846	83.31
426.068	95.31
426.291	80.31
426.513	89.31
426.735	93.31
426.958	98.31
427.18	99.31
427.402	117.31
427.625	151.31
427.847	133.31
428.069	117.31
428.292	106.31
428.514	94.31
428.736	86.31
428.958	95.31
429.181	101.31
429.403	95.31
429.625	87.31
429.847	83.31
430.069	98.31
430.292	109.31
430.514	101.31
430.736	91.31
430.958	92.31
431.18	85.31
431.402	93.31
431.624	80.31
431.846	79.31
432.068	102.31
432.29	98.31
432.512	83.31
432.734	89.31
432.956	93.31
433.178	105.31
433.4	98.31
433.622	98.31
433.844	80.31
434.066	84.31
434.287	98.31
434.509	80.31
434.731	92.31
434.953	98.31
435.175	90.31
435.397	90.31
435.618	86.31
435.84	98.31
436.062	99.31
436.284	108.31
436.505	107.31
436.727	99.31
436.949	105.31
437.17	83.31
437.392	84.31
437.614	94.31
437.835	99.31
438.057	109.31
438.278	97.31
438.5	98.31
438.721	104.31
438.943	83.31
439.165	90.31
439.386	87.31
439.608	103.31
439.829	108.31
440.05	108.31
440.272	125.31
440.493	113.31
440.715	82.31
440.936	92.31
441.158	93.31
441.379	91.31
441.6	86.31
441.822	92.31
442.043	89.31
442.264	93.31
442.486	114.31
442.707	77.31
442.928	97.31
443.149	106.31
443.371	138.31
443.592	97.31
443.813	114.31
444.034	91.31
444.255	102.31
444.476	80.31
444.698	97.31
444.919	87.31
445.14	136.31
445.361	111.31
445.582	97.31
445.803	143.31
446.024	125.31
446.245	115.31
446.466	102.31
446.687	90.31
446.908	85.31
447.129	89.31
447.35	90.31
447.571	101.31
447.792	100.31
448.013	103.31
448.234	105.31
448.455	86.31
448.675	111.31
448.896	122.31
449.117	101.31
449.338	103.31
449.559	118.31
449.779	123.31
450	94.31
450.221	92.31
450.442	96.31
450.662	103.31
450.883	104.31
451.104	110.31
451.324	93.31
451.545	83.31
451.766	89.31
451.986	104.31
452.207	84.31
452.428	85.31
452.648	94.31
452.869	99.31
453.089	115.31
453.31	126.31
453.53	108.31
453.751	93.31
453.971	95.31
454.192	93.31
454.412	75.31
454.633	88.31
454.853	88.31
455.073	103.31
455.294	81.31
455.514	105.31
455.734	90.31
455.955	81.31
456.175	83.31
456.395	88.31
456.616	76.31
456.836	98.31
457.056	76.31
457.276	66.31
457.497	90.31
457.717	70.31
457.937	85.31
458.157	85.31
458.377	92.31
458.598	107.31
458.818	156.31
459.038	148.31
459.258	109.31
459.478	83.31
459.698	90.31
459.918	99.31
460.138	91.31
460.358	91.31
460.578	93.31
460.798	88.31
461.018	86.31
461.238	79.31
461.458	90.31
461.678	88.31
461.898	91.31
462.118	86.31
462.338	85.31
462.558	86.31
462.777	86.31
462.997	92.31
463.217	104.31
463.437	93.31
463.657	92.31
463.876	85.31
464.096	86.31
464.316	94.31
464.536	93.31
464.755	90.31
464.975	110.31
465.195	173.31
465.414	159.31
465.634	94.31
465.854	80.31
466.073	89.31
466.293	90.31
466.512	93.31
466.732	89.31
466.951	101.31
467.171	91.31
467.391	97.31
467.61	102.31
467.829	107.31
468.049	116.31
468.268	124.31
468.488	83.31
468.707	89.31
468.927	97.31
469.146	91.31
469.365	84.31
469.585	86.31
469.804	94.31
470.023	85.31
470.243	97.31
470.462	92.31
470.681	105.31
470.901	94.31
471.12	94.31
471.339	85.31
471.558	95.31
471.777	99.31
471.997	90.31
472.216	163.31
472.435	238.31
472.654	104.31
472.873	97.31
473.092	96.31
473.311	93.31
473.53	81.31
473.749	89.31
473.968	109.31
474.187	105.31
474.406	94.31
474.625	82.31
474.844	96.31
475.063	96.31
475.282	92.31
475.501	91.31
475.72	92.31
475.939	90.31
476.158	85.31
476.377	92.31
476.596	85.31
476.814	100.31
477.033	97.31
477.252	90.31
477.471	85.31
477.69	97.31
477.908	95.31
478.127	93.31
478.346	92.31
478.564	96.31
478.783	90.31
479.002	88.31
479.22	80.31
479.439	90.31
479.658	101.31
479.876	99.31
480.095	86.31
480.313	107.31
480.532	80.31
480.751	91.31
480.969	142.31
481.188	356.31
481.406	262.31
481.624	117.31
481.843	104.31
482.061	96.31
482.28	97.31
482.498	83.31
482.717	81.31
482.935	83.31
483.153	73.31
483.372	85.31
483.59	99.31
483.808	86.31
484.027	85.31
484.245	85.31
484.463	83.31
484.681	102.31
484.9	98.31
485.118	99.31
485.336	88.31
485.554	100.31
485.772	100.31
485.99	104.31
486.209	81.31
486.427	122.31
486.645	123.31
486.863	106.31
487.081	111.31
487.299	102.31
487.517	94.31
487.735	92.31
487.953	93.31
488.171	79.31
488.389	94.31
488.607	112.31
488.825	86.31
489.043	82.31
489.261	96.31
489.479	89.31
489.696	96.31
489.914	94.31
490.132	96.31
490.35	88.31
490.568	86.31
490.786	88.31
491.003	94.31
491.221	88.31
491.439	97.31
491.657	81.31
491.874	92.31
492.092	94.31
492.31	94.31
492.527	96.31
492.745	99.31
492.963	93.31
493.18	84.31
493.398	71.31
493.615	110.31
493.833	88.31
494.05	94.31
494.268	98.31
494.485	85.31
494.703	80.31
494.92	88.31
495.138	85.31
495.355	94.31
495.573	88.31
495.79	81.31
496.008	83.31
496.225	97.31
496.442	82.31
496.66	77.31
496.877	88.31
497.094	85.31
497.312	83.31
497.529	80.31
497.746	104.31
497.963	80.31
498.181	86.31
498.398	96.31
498.615	106.31
498.832	109.31
499.049	100.31
499.267	92.31
499.484	97.31
499.701	91.31
499.918	103.31
500.135	104.31
500.352	94.31
500.569	96.31
500.786	101.31
501.003	86.31
501.22	104.31
501.437	92.31
501.654	91.31
501.871	110.31
502.088	98.31
502.305	90.31
502.522	93.31
502.739	98.31
502.956	88.31
503.172	89.31
503.389	118.31
503.606	101.31
503.823	98.31
504.04	97.31
504.256	89.31
504.473	88.31
504.69	80.31
504.907	91.31
505.123	85.31
505.34	98.31
505.557	80.31
505.773	91.31
505.99	95.31
506.207	98.31
506.423	96.31
506.64	88.31
506.856	104.31
507.073	92.31
507.289	89.31
507.506	103.31
507.722	121.31
507.939	115.31
508.155	101.31
508.372	101.31
508.588	88.31
508.805	98.31
509.021	101.31
509.238	106.31
509.454	108.31
509.67	105.31
509.887	114.31
510.103	137.31
510.319	219.31
510.536	803.31
510.752	2634.31
510.968	740.31
511.184	168.31
511.401	135.31
511.617	94.31
511.833	96.31
512.049	91.31
512.265	89.31
512.481	97.31
512.698	99.31
512.914	83.31
513.13	102.31
513.346	104.31
513.562	85.31
513.778	96.31
513.994	99.31
514.21	99.31
514.426	124.31
514.642	135.31
514.858	121.31
515.074	161.31
