Data from Circ_2008_H10_HRD10591_00024.txt Node
Date: Wed Jan 03 10:17:01 EST 2024
User: Yrep
Spectrometer: HR+D1059
Trigger mode: 1
Integration Time (sec): 1.000000E-1
Scans to average: 1
Electric dark correction enabled: true
Nonlinearity correction enabled: false
Boxcar width: 0
XAxis mode: Wavelengths
Number of Pixels in Spectrum: 2048
>>>>>Begin Spectral Data<<<<<
223.165	-19.94
223.4	-19.94
223.635	-19.94
223.869	-23.94
224.104	-15.94
224.338	-10.94
224.573	-19.94
224.808	-8.94
225.042	-8.94
225.277	-21.94
225.511	1.06
225.746	13.06
225.98	-4.94
226.215	2.06
226.449	22.06
226.683	28.06
226.918	35.06
227.152	34.06
227.387	36.06
227.621	21.06
227.856	23.06
228.09	38.06
228.324	47.06
228.559	46.06
228.793	69.06
229.027	55.06
229.262	54.06
229.496	68.06
229.73	83.06
229.964	67.06
230.199	69.06
230.433	76.06
230.667	76.06
230.901	78.06
231.136	80.06
231.37	88.06
231.604	76.06
231.838	83.06
232.072	94.06
232.306	84.06
232.541	79.06
232.775	82.06
233.009	74.06
233.243	85.06
233.477	77.06
233.711	88.06
233.945	67.06
234.179	80.06
234.413	80.06
234.647	69.06
234.881	75.06
235.115	82.06
235.349	86.06
235.583	98.06
235.817	92.06
236.051	76.06
236.285	71.06
236.519	76.06
236.753	81.06
236.987	85.06
237.221	83.06
237.455	83.06
237.689	73.06
237.922	71.06
238.156	83.06
238.39	74.06
238.624	79.06
238.858	71.06
239.091	69.06
239.325	83.06
239.559	78.06
239.793	64.06
240.027	72.06
240.26	73.06
240.494	89.06
240.728	87.06
240.961	85.06
241.195	88.06
241.429	83.06
241.662	73.06
241.896	70.06
242.13	70.06
242.363	61.06
242.597	75.06
242.83	78.06
243.064	75.06
243.298	81.06
243.531	64.06
243.765	97.06
243.998	84.06
244.232	84.06
244.465	96.06
244.699	79.06
244.932	70.06
245.166	81.06
245.399	73.06
245.633	82.06
245.866	88.06
246.099	78.06
246.333	80.06
246.566	66.06
246.8	88.06
247.033	80.06
247.266	80.06
247.5	83.06
247.733	73.06
247.966	84.06
248.2	80.06
248.433	92.06
248.666	87.06
248.899	76.06
249.133	100.06
249.366	110.06
249.599	98.06
249.832	79.06
250.066	83.06
250.299	67.06
250.532	90.06
250.765	83.06
250.998	84.06
251.231	80.06
251.465	80.06
251.698	79.06
251.931	65.06
252.164	81.06
252.397	84.06
252.63	77.06
252.863	80.06
253.096	81.06
253.329	84.06
253.562	90.06
253.795	92.06
254.028	75.06
254.261	75.06
254.494	94.06
254.727	79.06
254.96	85.06
255.193	78.06
255.426	84.06
255.659	79.06
255.892	84.06
256.124	80.06
256.357	90.06
256.59	75.06
256.823	82.06
257.056	89.06
257.289	69.06
257.521	72.06
257.754	79.06
257.987	82.06
258.22	81.06
258.452	86.06
258.685	80.06
258.918	80.06
259.151	91.06
259.383	96.06
259.616	100.06
259.849	91.06
260.081	72.06
260.314	76.06
260.547	63.06
260.779	87.06
261.012	87.06
261.244	80.06
261.477	91.06
261.71	89.06
261.942	107.06
262.175	112.06
262.407	79.06
262.64	91.06
262.872	71.06
263.105	91.06
263.337	78.06
263.57	84.06
263.802	93.06
264.035	92.06
264.267	86.06
264.499	90.06
264.732	85.06
264.964	73.06
265.197	97.06
265.429	73.06
265.661	98.06
265.894	91.06
266.126	91.06
266.358	84.06
266.591	85.06
266.823	65.06
267.055	84.06
267.287	80.06
267.52	89.06
267.752	96.06
267.984	75.06
268.216	76.06
268.448	93.06
268.681	84.06
268.913	82.06
269.145	79.06
269.377	73.06
269.609	69.06
269.841	82.06
270.073	94.06
270.306	89.06
270.538	85.06
270.77	77.06
271.002	76.06
271.234	73.06
271.466	91.06
271.698	89.06
271.93	85.06
272.162	93.06
272.394	89.06
272.626	83.06
272.858	92.06
273.09	78.06
273.322	85.06
273.553	89.06
273.785	96.06
274.017	82.06
274.249	82.06
274.481	79.06
274.713	87.06
274.945	97.06
275.176	85.06
275.408	88.06
275.64	97.06
275.872	88.06
276.104	68.06
276.335	86.06
276.567	94.06
276.799	111.06
277.031	89.06
277.262	102.06
277.494	82.06
277.726	87.06
277.957	91.06
278.189	89.06
278.421	87.06
278.652	80.06
278.884	81.06
279.115	91.06
279.347	93.06
279.579	101.06
279.81	77.06
280.042	96.06
280.273	81.06
280.505	91.06
280.736	73.06
280.968	77.06
281.199	102.06
281.431	98.06
281.662	88.06
281.894	81.06
282.125	98.06
282.356	120.06
282.588	137.06
282.819	111.06
283.051	96.06
283.282	90.06
283.513	92.06
283.745	92.06
283.976	72.06
284.207	91.06
284.439	78.06
284.67	96.06
284.901	95.06
285.132	93.06
285.364	89.06
285.595	91.06
285.826	81.06
286.057	78.06
286.288	93.06
286.52	88.06
286.751	97.06
286.982	97.06
287.213	93.06
287.444	84.06
287.675	90.06
287.906	94.06
288.138	82.06
288.369	103.06
288.6	94.06
288.831	93.06
289.062	87.06
289.293	85.06
289.524	87.06
289.755	79.06
289.986	92.06
290.217	92.06
290.448	95.06
290.679	76.06
290.91	96.06
291.141	80.06
291.371	98.06
291.602	81.06
291.833	87.06
292.064	91.06
292.295	86.06
292.526	90.06
292.757	81.06
292.987	91.06
293.218	82.06
293.449	90.06
293.68	89.06
293.91	81.06
294.141	87.06
294.372	82.06
294.603	78.06
294.833	82.06
295.064	98.06
295.295	96.06
295.525	95.06
295.756	114.06
295.987	127.06
296.217	152.06
296.448	102.06
296.679	96.06
296.909	92.06
297.14	88.06
297.37	85.06
297.601	81.06
297.831	89.06
298.062	97.06
298.292	92.06
298.523	84.06
298.753	80.06
298.984	90.06
299.214	106.06
299.445	100.06
299.675	95.06
299.905	97.06
300.136	91.06
300.366	96.06
300.597	87.06
300.827	73.06
301.057	114.06
301.288	102.06
301.518	103.06
301.748	99.06
301.979	102.06
302.209	75.06
302.439	90.06
302.669	97.06
302.9	89.06
303.13	99.06
303.36	95.06
303.59	102.06
303.82	108.06
304.051	100.06
304.281	91.06
304.511	95.06
304.741	78.06
304.971	91.06
305.201	96.06
305.431	89.06
305.661	86.06
305.891	85.06
306.121	101.06
306.352	109.06
306.582	115.06
306.812	101.06
307.042	98.06
307.272	88.06
307.502	87.06
307.731	90.06
307.961	90.06
308.191	94.06
308.421	92.06
308.651	85.06
308.881	93.06
309.111	95.06
309.341	89.06
309.571	104.06
309.8	93.06
310.03	88.06
310.26	92.06
310.49	108.06
310.72	84.06
310.949	100.06
311.179	90.06
311.409	89.06
311.639	104.06
311.868	96.06
312.098	86.06
312.328	104.06
312.557	98.06
312.787	108.06
313.017	101.06
313.246	99.06
313.476	98.06
313.706	84.06
313.935	94.06
314.165	103.06
314.394	95.06
314.624	92.06
314.853	97.06
315.083	97.06
315.312	100.06
315.542	77.06
315.771	93.06
316.001	88.06
316.23	93.06
316.46	91.06
316.689	99.06
316.919	94.06
317.148	92.06
317.377	100.06
317.607	85.06
317.836	93.06
318.065	89.06
318.295	104.06
318.524	95.06
318.753	95.06
318.983	109.06
319.212	106.06
319.441	108.06
319.67	104.06
319.9	89.06
320.129	106.06
320.358	83.06
320.587	89.06
320.816	92.06
321.046	112.06
321.275	98.06
321.504	107.06
321.733	98.06
321.962	91.06
322.191	100.06
322.42	101.06
322.649	110.06
322.878	100.06
323.108	104.06
323.337	139.06
323.566	131.06
323.795	154.06
324.024	205.06
324.253	380.06
324.482	830.06
324.71	1660.06
324.939	2173.06
325.168	819.06
325.397	242.06
325.626	143.06
325.855	132.06
326.084	121.06
326.313	133.06
326.542	157.06
326.77	216.06
326.999	436.06
327.228	912.06
327.457	1630.06
327.686	1321.06
327.914	357.06
328.143	189.06
328.372	157.06
328.6	133.06
328.829	123.06
329.058	135.06
329.287	120.06
329.515	121.06
329.744	94.06
329.972	108.06
330.201	136.06
330.43	135.06
330.658	133.06
330.887	153.06
331.115	124.06
331.344	96.06
331.572	108.06
331.801	106.06
332.03	97.06
332.258	97.06
332.486	96.06
332.715	97.06
332.943	103.06
333.172	100.06
333.4	99.06
333.629	113.06
333.857	130.06
334.085	104.06
334.314	109.06
334.542	127.06
334.771	134.06
334.999	109.06
335.227	106.06
335.455	97.06
335.684	109.06
335.912	108.06
336.14	101.06
336.369	100.06
336.597	99.06
336.825	104.06
337.053	80.06
337.281	104.06
337.51	91.06
337.738	81.06
337.966	99.06
338.194	95.06
338.422	91.06
338.65	96.06
338.878	91.06
339.106	84.06
339.334	90.06
339.562	91.06
339.79	79.06
340.018	93.06
340.246	108.06
340.474	99.06
340.702	91.06
340.93	108.06
341.158	100.06
341.386	96.06
341.614	91.06
341.842	91.06
342.07	97.06
342.298	85.06
342.526	103.06
342.754	96.06
342.981	79.06
343.209	89.06
343.437	94.06
343.665	89.06
343.893	108.06
344.12	84.06
344.348	93.06
344.576	107.06
344.804	106.06
345.031	93.06
345.259	99.06
345.487	91.06
345.714	97.06
345.942	89.06
346.17	99.06
346.397	95.06
346.625	88.06
346.853	98.06
347.08	78.06
347.308	103.06
347.535	93.06
347.763	100.06
347.99	100.06
348.218	115.06
348.445	121.06
348.673	105.06
348.9	95.06
349.128	98.06
349.355	77.06
349.583	77.06
349.81	82.06
350.037	98.06
350.265	99.06
350.492	100.06
350.72	116.06
350.947	106.06
351.174	108.06
351.402	116.06
351.629	95.06
351.856	108.06
352.083	102.06
352.311	96.06
352.538	117.06
352.765	105.06
352.992	98.06
353.22	103.06
353.447	108.06
353.674	107.06
353.901	105.06
354.128	109.06
354.355	99.06
354.583	113.06
354.81	95.06
355.037	85.06
355.264	94.06
355.491	96.06
355.718	84.06
355.945	96.06
356.172	100.06
356.399	97.06
356.626	93.06
356.853	91.06
357.08	104.06
357.307	84.06
357.534	84.06
357.761	86.06
357.988	97.06
358.215	83.06
358.441	88.06
358.668	97.06
358.895	79.06
359.122	89.06
359.349	108.06
359.576	94.06
359.802	108.06
360.029	125.06
360.256	108.06
360.483	113.06
360.709	107.06
360.936	103.06
361.163	98.06
361.39	96.06
361.616	105.06
361.843	92.06
362.07	87.06
362.296	100.06
362.523	101.06
362.749	96.06
362.976	103.06
363.203	109.06
363.429	105.06
363.656	109.06
363.882	107.06
364.109	92.06
364.335	97.06
364.562	86.06
364.788	99.06
365.015	95.06
365.241	110.06
365.468	107.06
365.694	106.06
365.92	100.06
366.147	96.06
366.373	98.06
366.599	93.06
366.826	93.06
367.052	93.06
367.278	95.06
367.505	100.06
367.731	108.06
367.957	89.06
368.184	90.06
368.41	101.06
368.636	123.06
368.862	109.06
369.089	119.06
369.315	97.06
369.541	89.06
369.767	97.06
369.993	90.06
370.219	97.06
370.445	105.06
370.672	81.06
370.898	85.06
371.124	76.06
371.35	80.06
371.576	82.06
371.802	95.06
372.028	84.06
372.254	92.06
372.48	96.06
372.706	82.06
372.932	82.06
373.158	100.06
373.384	87.06
373.61	99.06
373.835	85.06
374.061	97.06
374.287	87.06
374.513	97.06
374.739	84.06
374.965	80.06
375.191	110.06
375.416	98.06
375.642	89.06
375.868	95.06
376.094	104.06
376.319	94.06
376.545	82.06
376.771	93.06
376.997	99.06
377.222	86.06
377.448	95.06
377.674	84.06
377.899	100.06
378.125	98.06
378.35	106.06
378.576	91.06
378.802	95.06
379.027	83.06
379.253	95.06
379.478	103.06
379.704	104.06
379.929	83.06
380.155	89.06
380.38	89.06
380.606	106.06
380.831	98.06
381.057	111.06
381.282	108.06
381.507	103.06
381.733	97.06
381.958	107.06
382.184	105.06
382.409	108.06
382.634	104.06
382.86	105.06
383.085	105.06
383.31	112.06
383.535	124.06
383.761	102.06
383.986	100.06
384.211	93.06
384.436	107.06
384.662	110.06
384.887	115.06
385.112	98.06
385.337	105.06
385.562	111.06
385.787	107.06
386.013	101.06
386.238	128.06
386.463	115.06
386.688	123.06
386.913	121.06
387.138	112.06
387.363	105.06
387.588	94.06
387.813	119.06
388.038	125.06
388.263	96.06
388.488	108.06
388.713	99.06
388.938	103.06
389.163	96.06
389.387	103.06
389.612	90.06
389.837	90.06
390.062	92.06
390.287	100.06
390.512	103.06
390.736	84.06
390.961	98.06
391.186	99.06
391.411	92.06
391.636	105.06
391.86	86.06
392.085	92.06
392.31	89.06
392.534	83.06
392.759	82.06
392.984	93.06
393.208	103.06
393.433	129.06
393.658	115.06
393.882	77.06
394.107	83.06
394.331	82.06
394.556	105.06
394.78	79.06
395.005	82.06
395.229	83.06
395.454	84.06
395.678	96.06
395.903	109.06
396.127	99.06
396.352	89.06
396.576	83.06
396.801	84.06
397.025	96.06
397.249	97.06
397.474	83.06
397.698	88.06
397.922	83.06
398.147	81.06
398.371	95.06
398.595	97.06
398.82	78.06
399.044	95.06
399.268	81.06
399.492	100.06
399.717	94.06
399.941	93.06
400.165	93.06
400.389	92.06
400.613	84.06
400.837	82.06
401.062	85.06
401.286	85.06
401.51	86.06
401.734	80.06
401.958	99.06
402.182	121.06
402.406	175.06
402.63	129.06
402.854	87.06
403.078	102.06
403.302	81.06
403.526	79.06
403.75	95.06
403.974	86.06
404.198	84.06
404.422	83.06
404.645	96.06
404.869	91.06
405.093	98.06
405.317	97.06
405.541	93.06
405.765	82.06
405.988	113.06
406.212	170.06
406.436	255.06
406.66	147.06
406.883	97.06
407.107	95.06
407.331	85.06
407.555	103.06
407.778	100.06
408.002	84.06
408.226	96.06
408.449	103.06
408.673	89.06
408.896	84.06
409.12	100.06
409.344	91.06
409.567	82.06
409.791	88.06
410.014	104.06
410.238	103.06
410.461	92.06
410.685	110.06
410.908	85.06
411.132	102.06
411.355	95.06
411.578	100.06
411.802	79.06
412.025	85.06
412.249	105.06
412.472	95.06
412.695	104.06
412.919	84.06
413.142	88.06
413.365	78.06
413.589	78.06
413.812	92.06
414.035	91.06
414.258	94.06
414.482	85.06
414.705	95.06
414.928	89.06
415.151	87.06
415.374	100.06
415.597	100.06
415.821	96.06
416.044	85.06
416.267	98.06
416.49	80.06
416.713	97.06
416.936	89.06
417.159	84.06
417.382	85.06
417.605	74.06
417.828	106.06
418.051	98.06
418.274	97.06
418.497	95.06
418.72	82.06
418.943	95.06
419.166	87.06
419.389	102.06
419.611	92.06
419.834	103.06
420.057	91.06
420.28	100.06
420.503	95.06
420.726	87.06
420.948	100.06
421.171	103.06
421.394	106.06
421.617	101.06
421.839	90.06
422.062	84.06
422.285	107.06
422.507	92.06
422.73	111.06
422.953	103.06
423.175	94.06
423.398	104.06
423.621	94.06
423.843	84.06
424.066	89.06
424.288	96.06
424.511	100.06
424.733	88.06
424.956	109.06
425.178	105.06
425.401	114.06
425.623	102.06
425.846	103.06
426.068	96.06
426.291	83.06
426.513	79.06
426.735	80.06
426.958	90.06
427.18	112.06
427.402	126.06
427.625	161.06
427.847	142.06
428.069	108.06
428.292	96.06
428.514	98.06
428.736	104.06
428.958	90.06
429.181	90.06
429.403	72.06
429.625	92.06
429.847	84.06
430.069	89.06
430.292	100.06
430.514	78.06
430.736	54.06
430.958	83.06
431.18	79.06
431.402	87.06
431.624	91.06
431.846	83.06
432.068	85.06
432.29	82.06
432.512	88.06
432.734	92.06
432.956	80.06
433.178	101.06
433.4	101.06
433.622	83.06
433.844	104.06
434.066	85.06
434.287	80.06
434.509	92.06
434.731	96.06
434.953	102.06
435.175	82.06
435.397	88.06
435.618	106.06
435.84	98.06
436.062	107.06
436.284	112.06
436.505	105.06
436.727	87.06
436.949	92.06
437.17	100.06
437.392	90.06
437.614	118.06
437.835	125.06
438.057	138.06
438.278	98.06
438.5	95.06
438.721	104.06
438.943	100.06
439.165	88.06
439.386	97.06
439.608	91.06
439.829	102.06
440.05	127.06
440.272	133.06
440.493	99.06
440.715	68.06
440.936	76.06
441.158	88.06
441.379	88.06
441.6	99.06
441.822	96.06
442.043	93.06
442.264	89.06
442.486	97.06
442.707	93.06
442.928	113.06
443.149	125.06
443.371	135.06
443.592	118.06
443.813	96.06
444.034	100.06
444.255	98.06
444.476	89.06
444.698	95.06
444.919	83.06
445.14	117.06
445.361	131.06
445.582	108.06
445.803	123.06
446.024	137.06
446.245	136.06
446.466	107.06
446.687	103.06
446.908	73.06
447.129	88.06
447.35	94.06
447.571	95.06
447.792	90.06
448.013	106.06
448.234	115.06
448.455	101.06
448.675	110.06
448.896	102.06
449.117	111.06
449.338	104.06
449.559	119.06
449.779	127.06
450	96.06
450.221	87.06
450.442	98.06
450.662	100.06
450.883	107.06
451.104	113.06
451.324	93.06
451.545	94.06
451.766	97.06
451.986	76.06
452.207	89.06
452.428	83.06
452.648	99.06
452.869	112.06
453.089	110.06
453.31	115.06
453.53	110.06
453.751	86.06
453.971	92.06
454.192	112.06
454.412	98.06
454.633	87.06
454.853	92.06
455.073	84.06
455.294	103.06
455.514	100.06
455.734	89.06
455.955	91.06
456.175	97.06
456.395	79.06
456.616	75.06
456.836	85.06
457.056	85.06
457.276	68.06
457.497	72.06
457.717	83.06
457.937	80.06
458.157	90.06
458.377	78.06
458.598	109.06
458.818	150.06
459.038	175.06
459.258	103.06
459.478	79.06
459.698	90.06
459.918	87.06
460.138	85.06
460.358	91.06
460.578	79.06
460.798	93.06
461.018	85.06
461.238	97.06
461.458	92.06
461.678	88.06
461.898	83.06
462.118	85.06
462.338	78.06
462.558	80.06
462.777	89.06
462.997	83.06
463.217	65.06
463.437	83.06
463.657	79.06
463.876	85.06
464.096	80.06
464.316	88.06
464.536	87.06
464.755	82.06
464.975	91.06
465.195	172.06
465.414	173.06
465.634	90.06
465.854	91.06
466.073	86.06
466.293	87.06
466.512	76.06
466.732	84.06
466.951	89.06
467.171	77.06
467.391	101.06
467.61	107.06
467.829	77.06
468.049	94.06
468.268	90.06
468.488	87.06
468.707	78.06
468.927	90.06
469.146	78.06
469.365	86.06
469.585	93.06
469.804	98.06
470.023	95.06
470.243	93.06
470.462	99.06
470.681	92.06
470.901	90.06
471.12	88.06
471.339	88.06
471.558	98.06
471.777	91.06
471.997	93.06
472.216	108.06
472.435	131.06
472.654	87.06
472.873	81.06
473.092	91.06
473.311	66.06
473.53	103.06
473.749	96.06
473.968	97.06
474.187	104.06
474.406	97.06
474.625	72.06
474.844	96.06
475.063	88.06
475.282	88.06
475.501	76.06
475.72	93.06
475.939	94.06
476.158	82.06
476.377	77.06
476.596	95.06
476.814	99.06
477.033	104.06
477.252	93.06
477.471	90.06
477.69	100.06
477.908	96.06
478.127	84.06
478.346	68.06
478.564	104.06
478.783	104.06
479.002	101.06
479.22	74.06
479.439	86.06
479.658	126.06
479.876	101.06
480.095	85.06
480.313	85.06
480.532	112.06
480.751	86.06
480.969	111.06
481.188	183.06
481.406	155.06
481.624	112.06
481.843	98.06
482.061	77.06
482.28	81.06
482.498	87.06
482.717	83.06
482.935	100.06
483.153	90.06
483.372	87.06
483.59	92.06
483.808	73.06
484.027	98.06
484.245	93.06
484.463	88.06
484.681	92.06
484.9	96.06
485.118	93.06
485.336	92.06
485.554	108.06
485.772	103.06
485.99	91.06
486.209	109.06
486.427	96.06
486.645	95.06
486.863	113.06
487.081	113.06
487.299	91.06
487.517	85.06
487.735	91.06
487.953	97.06
488.171	90.06
488.389	93.06
488.607	101.06
488.825	102.06
489.043	87.06
489.261	108.06
489.479	86.06
489.696	85.06
489.914	78.06
490.132	93.06
490.35	71.06
490.568	96.06
490.786	92.06
491.003	87.06
491.221	93.06
491.439	84.06
491.657	82.06
491.874	98.06
492.092	90.06
492.31	94.06
492.527	88.06
492.745	92.06
492.963	91.06
493.18	82.06
493.398	91.06
493.615	99.06
493.833	97.06
494.05	96.06
494.268	95.06
494.485	94.06
494.703	95.06
494.92	99.06
495.138	98.06
495.355	81.06
495.573	95.06
495.79	90.06
496.008	104.06
496.225	104.06
496.442	112.06
496.66	86.06
496.877	89.06
497.094	91.06
497.312	81.06
497.529	86.06
497.746	97.06
497.963	93.06
498.181	82.06
498.398	111.06
498.615	105.06
498.832	110.06
499.049	103.06
499.267	84.06
499.484	98.06
499.701	106.06
499.918	82.06
500.135	85.06
500.352	88.06
500.569	90.06
500.786	97.06
501.003	95.06
501.22	85.06
501.437	91.06
501.654	92.06
501.871	104.06
502.088	98.06
502.305	83.06
502.522	91.06
502.739	92.06
502.956	93.06
503.172	108.06
503.389	86.06
503.606	105.06
503.823	95.06
504.04	94.06
504.256	91.06
504.473	87.06
504.69	93.06
504.907	84.06
505.123	85.06
505.34	96.06
505.557	87.06
505.773	88.06
505.99	91.06
506.207	81.06
506.423	92.06
506.64	87.06
506.856	90.06
507.073	76.06
507.289	99.06
507.506	91.06
507.722	129.06
507.939	112.06
508.155	106.06
508.372	84.06
508.588	80.06
508.805	92.06
509.021	105.06
509.238	108.06
509.454	98.06
509.67	109.06
509.887	114.06
510.103	152.06
510.319	228.06
510.536	843.06
510.752	2837.06
510.968	777.06
511.184	185.06
511.401	108.06
511.617	78.06
511.833	92.06
512.049	95.06
512.265	96.06
512.481	112.06
512.698	97.06
512.914	97.06
513.13	89.06
513.346	85.06
513.562	96.06
513.778	96.06
513.994	99.06
514.21	103.06
514.426	137.06
514.642	144.06
514.858	129.06
