Data from Circ_2008_H10_HRD10591_00086.txt Node
Date: Wed Jan 03 10:17:13 EST 2024
User: Yrep
Spectrometer: HR+D1059
Trigger mode: 1
Integration Time (sec): 1.000000E-1
Scans to average: 1
Electric dark correction enabled: true
Nonlinearity correction enabled: false
Boxcar width: 0
XAxis mode: Wavelengths
Number of Pixels in Spectrum: 2048
>>>>>Begin Spectral Data<<<<<
223.165	-20.88
223.4	-20.88
223.635	-20.88
223.869	-18.88
224.104	-12.88
224.338	-12.88
224.573	-18.88
224.808	-7.88
225.042	-15.88
225.277	4.12
225.511	-5.88
225.746	13.12
225.98	16.12
226.215	14.12
226.449	14.12
226.683	5.12
226.918	21.12
227.152	26.12
227.387	56.12
227.621	46.12
227.856	53.12
228.09	46.12
228.324	42.12
228.559	53.12
228.793	40.12
229.027	59.12
229.262	67.12
229.496	67.12
229.73	74.12
229.964	89.12
230.199	80.12
230.433	76.12
230.667	85.12
230.901	79.12
231.136	72.12
231.37	74.12
231.604	81.12
231.838	83.12
232.072	84.12
232.306	85.12
232.541	82.12
232.775	81.12
233.009	70.12
233.243	87.12
233.477	90.12
233.711	85.12
233.945	79.12
234.179	83.12
234.413	82.12
234.647	84.12
234.881	78.12
235.115	89.12
235.349	80.12
235.583	89.12
235.817	84.12
236.051	86.12
236.285	79.12
236.519	69.12
236.753	86.12
236.987	89.12
237.221	90.12
237.455	81.12
237.689	92.12
237.922	70.12
238.156	80.12
238.39	73.12
238.624	77.12
238.858	77.12
239.091	80.12
239.325	85.12
239.559	82.12
239.793	92.12
240.027	96.12
240.26	89.12
240.494	90.12
240.728	73.12
240.961	70.12
241.195	58.12
241.429	69.12
241.662	74.12
241.896	78.12
242.13	87.12
242.363	77.12
242.597	78.12
242.83	74.12
243.064	72.12
243.298	80.12
243.531	76.12
243.765	81.12
243.998	92.12
244.232	80.12
244.465	80.12
244.699	97.12
244.932	82.12
245.166	83.12
245.399	80.12
245.633	63.12
245.866	72.12
246.099	98.12
246.333	77.12
246.566	91.12
246.8	86.12
247.033	76.12
247.266	85.12
247.5	70.12
247.733	82.12
247.966	91.12
248.2	76.12
248.433	76.12
248.666	80.12
248.899	84.12
249.133	78.12
249.366	106.12
249.599	97.12
249.832	88.12
250.066	84.12
250.299	95.12
250.532	93.12
250.765	88.12
250.998	86.12
251.231	73.12
251.465	86.12
251.698	84.12
251.931	73.12
252.164	66.12
252.397	73.12
252.63	78.12
252.863	86.12
253.096	81.12
253.329	83.12
253.562	70.12
253.795	68.12
254.028	93.12
254.261	74.12
254.494	99.12
254.727	76.12
254.96	72.12
255.193	67.12
255.426	87.12
255.659	77.12
255.892	73.12
256.124	80.12
256.357	87.12
256.59	87.12
256.823	74.12
257.056	79.12
257.289	87.12
257.521	84.12
257.754	90.12
257.987	81.12
258.22	73.12
258.452	92.12
258.685	91.12
258.918	85.12
259.151	90.12
259.383	79.12
259.616	85.12
259.849	97.12
260.081	76.12
260.314	85.12
260.547	84.12
260.779	92.12
261.012	89.12
261.244	74.12
261.477	91.12
261.71	101.12
261.942	122.12
262.175	128.12
262.407	95.12
262.64	93.12
262.872	92.12
263.105	91.12
263.337	91.12
263.57	83.12
263.802	77.12
264.035	83.12
264.267	96.12
264.499	86.12
264.732	83.12
264.964	80.12
265.197	77.12
265.429	77.12
265.661	76.12
265.894	86.12
266.126	94.12
266.358	85.12
266.591	83.12
266.823	86.12
267.055	91.12
267.287	92.12
267.52	94.12
267.752	85.12
267.984	84.12
268.216	101.12
268.448	85.12
268.681	95.12
268.913	85.12
269.145	78.12
269.377	81.12
269.609	98.12
269.841	86.12
270.073	79.12
270.306	83.12
270.538	81.12
270.77	101.12
271.002	80.12
271.234	86.12
271.466	92.12
271.698	85.12
271.93	85.12
272.162	82.12
272.394	88.12
272.626	81.12
272.858	93.12
273.09	88.12
273.322	96.12
273.553	103.12
273.785	88.12
274.017	81.12
274.249	81.12
274.481	77.12
274.713	100.12
274.945	99.12
275.176	76.12
275.408	94.12
275.64	91.12
275.872	95.12
276.104	95.12
276.335	99.12
276.567	102.12
276.799	114.12
277.031	100.12
277.262	94.12
277.494	96.12
277.726	80.12
277.957	102.12
278.189	94.12
278.421	91.12
278.652	94.12
278.884	87.12
279.115	109.12
279.347	86.12
279.579	96.12
279.81	88.12
280.042	84.12
280.273	104.12
280.505	100.12
280.736	78.12
280.968	91.12
281.199	104.12
281.431	94.12
281.662	91.12
281.894	98.12
282.125	98.12
282.356	111.12
282.588	148.12
282.819	105.12
283.051	95.12
283.282	98.12
283.513	84.12
283.745	89.12
283.976	90.12
284.207	100.12
284.439	81.12
284.67	76.12
284.901	92.12
285.132	81.12
285.364	98.12
285.595	81.12
285.826	82.12
286.057	86.12
286.288	90.12
286.52	85.12
286.751	88.12
286.982	95.12
287.213	101.12
287.444	93.12
287.675	102.12
287.906	89.12
288.138	94.12
288.369	83.12
288.6	102.12
288.831	102.12
289.062	83.12
289.293	82.12
289.524	84.12
289.755	89.12
289.986	81.12
290.217	81.12
290.448	90.12
290.679	89.12
290.91	99.12
291.141	80.12
291.371	93.12
291.602	79.12
291.833	102.12
292.064	98.12
292.295	95.12
292.526	89.12
292.757	96.12
292.987	89.12
293.218	96.12
293.449	90.12
293.68	85.12
293.91	85.12
294.141	94.12
294.372	90.12
294.603	89.12
294.833	86.12
295.064	92.12
295.295	90.12
295.525	104.12
295.756	97.12
295.987	124.12
296.217	146.12
296.448	132.12
296.679	110.12
296.909	90.12
297.14	97.12
297.37	102.12
297.601	91.12
297.831	83.12
298.062	90.12
298.292	80.12
298.523	80.12
298.753	88.12
298.984	77.12
299.214	82.12
299.445	102.12
299.675	88.12
299.905	105.12
300.136	95.12
300.366	88.12
300.597	92.12
300.827	96.12
301.057	100.12
301.288	105.12
301.518	92.12
301.748	88.12
301.979	104.12
302.209	90.12
302.439	91.12
302.669	102.12
302.9	97.12
303.13	97.12
303.36	91.12
303.59	99.12
303.82	104.12
304.051	101.12
304.281	103.12
304.511	101.12
304.741	86.12
304.971	77.12
305.201	88.12
305.431	84.12
305.661	84.12
305.891	94.12
306.121	91.12
306.352	117.12
306.582	96.12
306.812	100.12
307.042	92.12
307.272	93.12
307.502	107.12
307.731	107.12
307.961	107.12
308.191	101.12
308.421	97.12
308.651	102.12
308.881	95.12
309.111	86.12
309.341	113.12
309.571	83.12
309.8	93.12
310.03	106.12
310.26	105.12
310.49	109.12
310.72	108.12
310.949	100.12
311.179	93.12
311.409	112.12
311.639	88.12
311.868	96.12
312.098	93.12
312.328	96.12
312.557	115.12
312.787	116.12
313.017	105.12
313.246	98.12
313.476	94.12
313.706	82.12
313.935	109.12
314.165	95.12
314.394	104.12
314.624	115.12
314.853	110.12
315.083	100.12
315.312	94.12
315.542	106.12
315.771	98.12
316.001	89.12
316.23	87.12
316.46	92.12
316.689	86.12
316.919	84.12
317.148	109.12
317.377	111.12
317.607	77.12
317.836	92.12
318.065	107.12
318.295	96.12
318.524	94.12
318.753	97.12
318.983	104.12
319.212	107.12
319.441	107.12
319.67	119.12
319.9	98.12
320.129	110.12
320.358	107.12
320.587	103.12
320.816	111.12
321.046	98.12
321.275	105.12
321.504	113.12
321.733	101.12
321.962	81.12
322.191	109.12
322.42	106.12
322.649	96.12
322.878	118.12
323.108	132.12
323.337	128.12
323.566	120.12
323.795	165.12
324.024	201.12
324.253	375.12
324.482	770.12
324.71	1566.12
324.939	2035.12
325.168	768.12
325.397	244.12
325.626	156.12
325.855	122.12
326.084	117.12
326.313	136.12
326.542	158.12
326.77	208.12
326.999	429.12
327.228	842.12
327.457	1513.12
327.686	1225.12
327.914	361.12
328.143	218.12
328.372	192.12
328.6	150.12
328.829	107.12
329.058	115.12
329.287	130.12
329.515	115.12
329.744	125.12
329.972	144.12
330.201	194.12
330.43	257.12
330.658	169.12
330.887	167.12
331.115	138.12
331.344	108.12
331.572	100.12
331.801	111.12
332.03	111.12
332.258	99.12
332.486	105.12
332.715	96.12
332.943	100.12
333.172	99.12
333.4	101.12
333.629	107.12
333.857	131.12
334.085	151.12
334.314	196.12
334.542	290.12
334.771	280.12
334.999	136.12
335.227	112.12
335.455	110.12
335.684	92.12
335.912	75.12
336.14	101.12
336.369	100.12
336.597	122.12
336.825	113.12
337.053	87.12
337.281	86.12
337.51	97.12
337.738	97.12
337.966	97.12
338.194	101.12
338.422	92.12
338.65	89.12
338.878	92.12
339.106	91.12
339.334	92.12
339.562	105.12
339.79	83.12
340.018	92.12
340.246	91.12
340.474	86.12
340.702	106.12
340.93	111.12
341.158	104.12
341.386	92.12
341.614	96.12
341.842	105.12
342.07	87.12
342.298	89.12
342.526	95.12
342.754	87.12
342.981	90.12
343.209	85.12
343.437	100.12
343.665	93.12
343.893	92.12
344.12	97.12
344.348	97.12
344.576	78.12
344.804	107.12
345.031	94.12
345.259	103.12
345.487	90.12
345.714	81.12
345.942	102.12
346.17	91.12
346.397	99.12
346.625	89.12
346.853	84.12
347.08	98.12
347.308	113.12
347.535	102.12
347.763	108.12
347.99	88.12
348.218	96.12
348.445	89.12
348.673	109.12
348.9	96.12
349.128	92.12
349.355	90.12
349.583	106.12
349.81	83.12
350.037	108.12
350.265	100.12
350.492	108.12
350.72	106.12
350.947	115.12
351.174	123.12
351.402	125.12
351.629	113.12
351.856	106.12
352.083	106.12
352.311	102.12
352.538	102.12
352.765	107.12
352.992	105.12
353.22	120.12
353.447	117.12
353.674	113.12
353.901	89.12
354.128	107.12
354.355	106.12
354.583	104.12
354.81	84.12
355.037	88.12
355.264	78.12
355.491	98.12
355.718	92.12
355.945	105.12
356.172	95.12
356.399	92.12
356.626	105.12
356.853	73.12
357.08	98.12
357.307	85.12
357.534	82.12
357.761	93.12
357.988	87.12
358.215	77.12
358.441	89.12
358.668	80.12
358.895	98.12
359.122	90.12
359.349	84.12
359.576	79.12
359.802	110.12
360.029	126.12
360.256	114.12
360.483	107.12
360.709	105.12
360.936	106.12
361.163	93.12
361.39	101.12
361.616	86.12
361.843	90.12
362.07	85.12
362.296	90.12
362.523	110.12
362.749	105.12
362.976	90.12
363.203	106.12
363.429	98.12
363.656	81.12
363.882	105.12
364.109	85.12
364.335	111.12
364.562	84.12
364.788	105.12
365.015	96.12
365.241	108.12
365.468	113.12
365.694	104.12
365.92	97.12
366.147	94.12
366.373	97.12
366.599	89.12
366.826	81.12
367.052	100.12
367.278	83.12
367.505	102.12
367.731	105.12
367.957	84.12
368.184	101.12
368.41	98.12
368.636	110.12
368.862	123.12
369.089	107.12
369.315	86.12
369.541	99.12
369.767	92.12
369.993	96.12
370.219	101.12
370.445	93.12
370.672	90.12
370.898	91.12
371.124	88.12
371.35	88.12
371.576	90.12
371.802	90.12
372.028	89.12
372.254	92.12
372.48	85.12
372.706	110.12
372.932	93.12
373.158	99.12
373.384	99.12
373.61	99.12
373.835	88.12
374.061	92.12
374.287	88.12
374.513	95.12
374.739	102.12
374.965	99.12
375.191	89.12
375.416	76.12
375.642	98.12
375.868	97.12
376.094	92.12
376.319	92.12
376.545	94.12
376.771	106.12
376.997	97.12
377.222	101.12
377.448	94.12
377.674	105.12
377.899	83.12
378.125	88.12
378.35	87.12
378.576	84.12
378.802	76.12
379.027	85.12
379.253	86.12
379.478	99.12
379.704	96.12
379.929	98.12
380.155	94.12
380.38	98.12
380.606	101.12
380.831	98.12
381.057	93.12
381.282	91.12
381.507	96.12
381.733	97.12
381.958	101.12
382.184	107.12
382.409	108.12
382.634	101.12
382.86	94.12
383.085	109.12
383.31	91.12
383.535	117.12
383.761	103.12
383.986	103.12
384.211	103.12
384.436	109.12
384.662	99.12
384.887	104.12
385.112	100.12
385.337	97.12
385.562	116.12
385.787	115.12
386.013	98.12
386.238	110.12
386.463	115.12
386.688	109.12
386.913	102.12
387.138	106.12
387.363	106.12
387.588	105.12
387.813	111.12
388.038	108.12
388.263	109.12
388.488	114.12
388.713	102.12
388.938	103.12
389.163	94.12
389.387	96.12
389.612	109.12
389.837	94.12
390.062	92.12
390.287	100.12
390.512	100.12
390.736	89.12
390.961	93.12
391.186	93.12
391.411	99.12
391.636	99.12
391.86	62.12
392.085	89.12
392.31	90.12
392.534	79.12
392.759	76.12
392.984	89.12
393.208	95.12
393.433	95.12
393.658	92.12
393.882	106.12
394.107	97.12
394.331	93.12
394.556	88.12
394.78	97.12
395.005	84.12
395.229	80.12
395.454	98.12
395.678	76.12
395.903	82.12
396.127	84.12
396.352	98.12
396.576	86.12
396.801	82.12
397.025	86.12
397.249	94.12
397.474	88.12
397.698	91.12
397.922	105.12
398.147	94.12
398.371	102.12
398.595	95.12
398.82	97.12
399.044	96.12
399.268	93.12
399.492	88.12
399.717	89.12
399.941	96.12
400.165	97.12
400.389	99.12
400.613	83.12
400.837	94.12
401.062	64.12
401.286	92.12
401.51	98.12
401.734	86.12
401.958	115.12
402.182	138.12
402.406	164.12
402.63	125.12
402.854	101.12
403.078	104.12
403.302	100.12
403.526	99.12
403.75	84.12
403.974	82.12
404.198	87.12
404.422	81.12
404.645	87.12
404.869	90.12
405.093	94.12
405.317	114.12
405.541	101.12
405.765	96.12
405.988	122.12
406.212	175.12
406.436	255.12
406.66	156.12
406.883	110.12
407.107	94.12
407.331	100.12
407.555	106.12
407.778	98.12
408.002	91.12
408.226	83.12
408.449	90.12
408.673	93.12
408.896	84.12
409.12	106.12
409.344	101.12
409.567	77.12
409.791	104.12
410.014	102.12
410.238	87.12
410.461	81.12
410.685	82.12
410.908	101.12
411.132	106.12
411.355	96.12
411.578	88.12
411.802	92.12
412.025	81.12
412.249	84.12
412.472	83.12
412.695	91.12
412.919	84.12
413.142	87.12
413.365	75.12
413.589	83.12
413.812	89.12
414.035	80.12
414.258	70.12
414.482	79.12
414.705	89.12
414.928	85.12
415.151	82.12
415.374	98.12
415.597	85.12
415.821	89.12
416.044	88.12
416.267	79.12
416.49	86.12
416.713	82.12
416.936	87.12
417.159	98.12
417.382	83.12
417.605	106.12
417.828	94.12
418.051	96.12
418.274	89.12
418.497	99.12
418.72	82.12
418.943	96.12
419.166	98.12
419.389	92.12
419.611	98.12
419.834	88.12
420.057	96.12
420.28	70.12
420.503	100.12
420.726	82.12
420.948	78.12
421.171	104.12
421.394	90.12
421.617	82.12
421.839	89.12
422.062	101.12
422.285	92.12
422.507	101.12
422.73	99.12
422.953	99.12
423.175	92.12
423.398	104.12
423.621	102.12
423.843	87.12
424.066	82.12
424.288	90.12
424.511	88.12
424.733	110.12
424.956	109.12
425.178	112.12
425.401	117.12
425.623	103.12
425.846	89.12
426.068	100.12
426.291	81.12
426.513	87.12
426.735	88.12
426.958	99.12
427.18	116.12
427.402	133.12
427.625	175.12
427.847	144.12
428.069	131.12
428.292	101.12
428.514	92.12
428.736	98.12
428.958	97.12
429.181	83.12
429.403	92.12
429.625	84.12
429.847	80.12
430.069	111.12
430.292	93.12
430.514	86.12
430.736	101.12
430.958	85.12
431.18	98.12
431.402	91.12
431.624	89.12
431.846	88.12
432.068	87.12
432.29	84.12
432.512	104.12
432.734	99.12
432.956	87.12
433.178	92.12
433.4	106.12
433.622	102.12
433.844	109.12
434.066	100.12
434.287	99.12
434.509	109.12
434.731	89.12
434.953	90.12
435.175	86.12
435.397	92.12
435.618	90.12
435.84	97.12
436.062	113.12
436.284	120.12
436.505	100.12
436.727	95.12
436.949	86.12
437.17	83.12
437.392	84.12
437.614	88.12
437.835	97.12
438.057	114.12
438.278	113.12
438.5	86.12
438.721	113.12
438.943	109.12
439.165	99.12
439.386	74.12
439.608	101.12
439.829	102.12
440.05	125.12
440.272	149.12
440.493	105.12
440.715	89.12
440.936	84.12
441.158	85.12
441.379	78.12
441.6	88.12
441.822	102.12
442.043	88.12
442.264	96.12
442.486	112.12
442.707	89.12
442.928	94.12
443.149	120.12
443.371	133.12
443.592	106.12
443.813	110.12
444.034	111.12
444.255	104.12
444.476	101.12
444.698	92.12
444.919	97.12
445.14	124.12
445.361	113.12
445.582	115.12
445.803	134.12
446.024	139.12
446.245	131.12
446.466	110.12
446.687	97.12
446.908	88.12
447.129	109.12
447.35	89.12
447.571	97.12
447.792	101.12
448.013	95.12
448.234	112.12
448.455	110.12
448.675	101.12
448.896	107.12
449.117	107.12
449.338	105.12
449.559	123.12
449.779	132.12
450	111.12
450.221	85.12
450.442	99.12
450.662	90.12
450.883	117.12
451.104	115.12
451.324	103.12
451.545	83.12
451.766	88.12
451.986	97.12
452.207	102.12
452.428	86.12
452.648	93.12
452.869	109.12
453.089	117.12
453.31	128.12
453.53	94.12
453.751	92.12
453.971	117.12
454.192	97.12
454.412	93.12
454.633	90.12
454.853	77.12
455.073	92.12
455.294	88.12
455.514	93.12
455.734	84.12
455.955	83.12
456.175	91.12
456.395	90.12
456.616	90.12
456.836	79.12
457.056	90.12
457.276	91.12
457.497	73.12
457.717	96.12
457.937	97.12
458.157	99.12
458.377	104.12
458.598	123.12
458.818	144.12
459.038	152.12
459.258	123.12
459.478	91.12
459.698	91.12
459.918	91.12
460.138	94.12
460.358	90.12
460.578	93.12
460.798	83.12
461.018	91.12
461.238	92.12
461.458	80.12
461.678	86.12
461.898	70.12
462.118	95.12
462.338	91.12
462.558	73.12
462.777	93.12
462.997	77.12
463.217	73.12
463.437	80.12
463.657	102.12
463.876	86.12
464.096	83.12
464.316	109.12
464.536	101.12
464.755	83.12
464.975	112.12
465.195	177.12
465.414	179.12
465.634	96.12
465.854	106.12
466.073	83.12
466.293	90.12
466.512	86.12
466.732	96.12
466.951	85.12
467.171	88.12
467.391	98.12
467.61	106.12
467.829	89.12
468.049	158.12
468.268	186.12
468.488	104.12
468.707	83.12
468.927	86.12
469.146	75.12
469.365	98.12
469.585	92.12
469.804	94.12
470.023	109.12
470.243	99.12
470.462	104.12
470.681	116.12
470.901	89.12
471.12	93.12
471.339	87.12
471.558	101.12
471.777	97.12
471.997	120.12
472.216	244.12
472.435	388.12
472.654	148.12
472.873	84.12
473.092	88.12
473.311	91.12
473.53	90.12
473.749	85.12
473.968	97.12
474.187	112.12
474.406	93.12
474.625	81.12
474.844	105.12
475.063	99.12
475.282	91.12
475.501	95.12
475.72	87.12
475.939	86.12
476.158	92.12
476.377	86.12
476.596	101.12
476.814	97.12
477.033	99.12
477.252	99.12
477.471	84.12
477.69	73.12
477.908	89.12
478.127	90.12
478.346	92.12
478.564	80.12
478.783	90.12
479.002	98.12
479.22	92.12
479.439	120.12
479.658	126.12
479.876	99.12
480.095	80.12
480.313	96.12
480.532	93.12
480.751	106.12
480.969	234.12
481.188	616.12
481.406	423.12
481.624	141.12
481.843	94.12
482.061	107.12
482.28	91.12
482.498	89.12
482.717	82.12
482.935	88.12
483.153	82.12
483.372	97.12
483.59	89.12
483.808	100.12
484.027	94.12
484.245	99.12
484.463	99.12
484.681	85.12
484.9	102.12
485.118	98.12
485.336	82.12
485.554	96.12
485.772	98.12
485.99	96.12
486.209	94.12
486.427	104.12
486.645	111.12
486.863	107.12
487.081	90.12
487.299	92.12
487.517	88.12
487.735	81.12
487.953	95.12
488.171	103.12
488.389	106.12
488.607	104.12
488.825	91.12
489.043	99.12
489.261	89.12
489.479	92.12
489.696	92.12
489.914	85.12
490.132	94.12
490.35	81.12
490.568	89.12
490.786	93.12
491.003	96.12
491.221	94.12
491.439	91.12
491.657	105.12
491.874	84.12
492.092	98.12
492.31	84.12
492.527	101.12
492.745	90.12
492.963	93.12
493.18	78.12
493.398	87.12
493.615	87.12
493.833	94.12
494.05	81.12
494.268	89.12
494.485	80.12
494.703	100.12
494.92	94.12
495.138	97.12
495.355	75.12
495.573	98.12
495.79	99.12
496.008	103.12
496.225	91.12
496.442	90.12
496.66	91.12
496.877	90.12
497.094	94.12
497.312	91.12
497.529	88.12
497.746	89.12
497.963	103.12
498.181	111.12
498.398	97.12
498.615	106.12
498.832	105.12
499.049	95.12
499.267	93.12
499.484	96.12
499.701	114.12
499.918	91.12
500.135	94.12
500.352	81.12
500.569	73.12
500.786	94.12
501.003	92.12
501.22	79.12
501.437	100.12
501.654	100.12
501.871	105.12
502.088	93.12
502.305	98.12
502.522	92.12
502.739	85.12
502.956	104.12
503.172	84.12
503.389	100.12
503.606	117.12
503.823	105.12
504.04	105.12
504.256	87.12
504.473	90.12
504.69	74.12
504.907	101.12
505.123	90.12
505.34	87.12
505.557	94.12
505.773	91.12
505.99	103.12
506.207	92.12
506.423	86.12
506.64	89.12
506.856	107.12
507.073	93.12
507.289	89.12
507.506	104.12
507.722	112.12
507.939	101.12
508.155	98.12
508.372	98.12
508.588	98.12
508.805	99.12
509.021	91.12
509.238	98.12
509.454	106.12
509.67	85.12
509.887	108.12
510.103	157.12
510.319	237.12
510.536	875.12
510.752	2853.12
510.968	787.12
511.184	174.12
511.401	122.12
511.617	99.12
511.833	91.12
512.049	91.12
512.265	99.12
512.481	96.12
512.698	101.12
512.914	96.12
513.13	93.12
513.346	102.12
513.562	101.12
513.778	101.12
513.994	109.12
514.21	105.12
