Data from Circ_2008_H10_HRD10591_00091.txt Node
Date: Wed Jan 03 10:17:14 EST 2024
User: Yrep
Spectrometer: HR+D1059
Trigger mode: 1
Integration Time (sec): 1.000000E-1
Scans to average: 1
Electric dark correction enabled: true
Nonlinearity correction enabled: false
Boxcar width: 0
XAxis mode: Wavelengths
Number of Pixels in Spectrum: 2048
>>>>>Begin Spectral Data<<<<<
223.165	-21.12
223.4	-21.12
223.635	-21.12
223.869	-9.12
224.104	-18.12
224.338	-19.12
224.573	-16.12
224.808	-15.12
225.042	-4.12
225.277	-12.12
225.511	1.88
225.746	-8.12
225.98	22.88
226.215	12.88
226.449	28.88
226.683	15.88
226.918	13.88
227.152	26.88
227.387	41.88
227.621	32.88
227.856	44.88
228.09	36.88
228.324	52.88
228.559	59.88
228.793	168.88
229.027	438.88
229.262	517.88
229.496	583.88
229.73	807.88
229.964	811.88
230.199	538.88
230.433	476.88
230.667	482.88
230.901	451.88
231.136	438.88
231.37	444.88
231.604	436.88
231.838	449.88
232.072	449.88
232.306	457.88
232.541	467.88
232.775	468.88
233.009	466.88
233.243	454.88
233.477	481.88
233.711	492.88
233.945	495.88
234.179	514.88
234.413	524.88
234.647	520.88
234.881	496.88
235.115	510.88
235.349	568.88
235.583	568.88
235.817	586.88
236.051	618.88
236.285	603.88
236.519	623.88
236.753	688.88
236.987	906.88
237.221	1380.88
237.455	1496.88
237.689	870.88
237.922	702.88
238.156	727.88
238.39	670.88
238.624	650.88
238.858	653.88
239.091	660.88
239.325	641.88
239.559	685.88
239.793	701.88
240.027	784.88
240.26	889.88
240.494	949.88
240.728	951.88
240.961	880.88
241.195	854.88
241.429	774.88
241.662	772.88
241.896	763.88
242.13	791.88
242.363	784.88
242.597	794.88
242.83	820.88
243.064	814.88
243.298	796.88
243.531	822.88
243.765	844.88
243.998	885.88
244.232	891.88
244.465	927.88
244.699	900.88
244.932	916.88
245.166	911.88
245.399	931.88
245.633	909.88
245.866	912.88
246.099	922.88
246.333	960.88
246.566	966.88
246.8	983.88
247.033	1028.88
247.266	1059.88
247.5	1095.88
247.733	1169.88
247.966	1137.88
248.2	1177.88
248.433	1162.88
248.666	1230.88
248.899	1328.88
249.133	1478.88
249.366	1471.88
249.599	1368.88
249.832	1320.88
250.066	1371.88
250.299	1604.88
250.532	1965.88
250.765	2037.88
250.998	1988.88
251.231	1775.88
251.465	1551.88
251.698	1452.88
251.931	1412.88
252.164	1432.88
252.397	1434.88
252.63	1453.88
252.863	1573.88
253.096	1709.88
253.329	1729.88
253.562	1626.88
253.795	1570.88
254.028	1576.88
254.261	1624.88
254.494	1817.88
254.727	2175.88
254.96	2234.88
255.193	2020.88
255.426	1944.88
255.659	2056.88
255.892	2562.88
256.124	3089.88
256.357	2740.88
256.59	2127.88
256.823	1860.88
257.056	1745.88
257.289	1696.88
257.521	1689.88
257.754	1607.88
257.987	1610.88
258.22	1590.88
258.452	1583.88
258.685	1597.88
258.918	1614.88
259.151	1660.88
259.383	1714.88
259.616	1725.88
259.849	1788.88
260.081	1952.88
260.314	2054.88
260.547	1980.88
260.779	1833.88
261.012	1757.88
261.244	1758.88
261.477	1721.88
261.71	1708.88
261.942	1822.88
262.175	1828.88
262.407	1727.88
262.64	1674.88
262.872	1682.88
263.105	1704.88
263.337	1672.88
263.57	1705.88
263.802	1702.88
264.035	1654.88
264.267	1711.88
264.499	1673.88
264.732	1743.88
264.964	1718.88
265.197	1733.88
265.429	1740.88
265.661	1740.88
265.894	1720.88
266.126	1763.88
266.358	1763.88
266.591	1813.88
266.823	1882.88
267.055	1899.88
267.287	1871.88
267.52	1806.88
267.752	1868.88
267.984	1873.88
268.216	1940.88
268.448	1947.88
268.681	2022.88
268.913	2130.88
269.145	2298.88
269.377	2366.88
269.609	2273.88
269.841	2273.88
270.073	2341.88
270.306	2637.88
270.538	2742.88
270.77	2639.88
271.002	2522.88
271.234	2449.88
271.466	2539.88
271.698	2738.88
271.93	2736.88
272.162	2708.88
272.394	2607.88
272.626	2521.88
272.858	2333.88
273.09	2278.88
273.322	2272.88
273.553	2267.88
273.785	2261.88
274.017	2288.88
274.249	2286.88
274.481	2302.88
274.713	2310.88
274.945	2352.88
275.176	2367.88
275.408	2336.88
275.64	2315.88
275.872	2370.88
276.104	2412.88
276.335	2358.88
276.567	2516.88
276.799	2712.88
277.031	2989.88
277.262	3072.88
277.494	2884.88
277.726	2708.88
277.957	2604.88
278.189	2505.88
278.421	2462.88
278.652	2464.88
278.884	2461.88
279.115	2459.88
279.347	2502.88
279.579	2474.88
279.81	2499.88
280.042	2534.88
280.273	2607.88
280.505	2621.88
280.736	2554.88
280.968	2504.88
281.199	2543.88
281.431	2490.88
281.662	2535.88
281.894	2532.88
282.125	2628.88
282.356	2812.88
282.588	2970.88
282.819	2814.88
283.051	2648.88
283.282	2583.88
283.513	2609.88
283.745	2672.88
283.976	2723.88
284.207	2716.88
284.439	2717.88
284.67	2664.88
284.901	2692.88
285.132	2695.88
285.364	2655.88
285.595	2631.88
285.826	2644.88
286.057	2735.88
286.288	2694.88
286.52	2734.88
286.751	2726.88
286.982	2732.88
287.213	2740.88
287.444	2810.88
287.675	2874.88
287.906	2900.88
288.138	2979.88
288.369	2900.88
288.6	2979.88
288.831	2888.88
289.062	2939.88
289.293	2878.88
289.524	2826.88
289.755	2818.88
289.986	2864.88
290.217	2887.88
290.448	2808.88
290.679	2887.88
290.91	2862.88
291.141	2855.88
291.371	2873.88
291.602	2856.88
291.833	2818.88
292.064	2849.88
292.295	2874.88
292.526	2893.88
292.757	2860.88
292.987	2864.88
293.218	2866.88
293.449	2938.88
293.68	2902.88
293.91	2841.88
294.141	2875.88
294.372	2870.88
294.603	2875.88
294.833	2885.88
295.064	2910.88
295.295	2956.88
295.525	2949.88
295.756	3001.88
295.987	3086.88
296.217	3272.88
296.448	3219.88
296.679	3022.88
296.909	3021.88
297.14	3038.88
297.37	3080.88
297.601	3132.88
297.831	3073.88
298.062	3084.88
298.292	3161.88
298.523	3123.88
298.753	3170.88
298.984	3148.88
299.214	3165.88
299.445	3146.88
299.675	3181.88
299.905	3197.88
300.136	3208.88
300.366	3198.88
300.597	3259.88
300.827	3333.88
301.057	3390.88
301.288	3423.88
301.518	3391.88
301.748	3400.88
301.979	3496.88
302.209	3425.88
302.439	3496.88
302.669	3407.88
302.9	3394.88
303.13	3398.88
303.36	3392.88
303.59	3442.88
303.82	3465.88
304.051	3453.88
304.281	3358.88
304.511	3370.88
304.741	3344.88
304.971	3308.88
305.201	3302.88
305.431	3288.88
305.661	3363.88
305.891	3330.88
306.121	3341.88
306.352	3400.88
306.582	3353.88
306.812	3252.88
307.042	3400.88
307.272	3370.88
307.502	3387.88
307.731	3466.88
307.961	3369.88
308.191	3336.88
308.421	3341.88
308.651	3326.88
308.881	3400.88
309.111	3421.88
309.341	3456.88
309.571	3550.88
309.8	3604.88
310.03	3680.88
310.26	3676.88
310.49	3699.88
310.72	3854.88
310.949	3896.88
311.179	3875.88
311.409	3763.88
311.639	3713.88
311.868	3809.88
312.098	3754.88
312.328	3847.88
312.557	3986.88
312.787	4074.88
313.017	4003.88
313.246	3903.88
313.476	3811.88
313.706	3863.88
313.935	3942.88
314.165	4030.88
314.394	4092.88
314.624	4012.88
314.853	3932.88
315.083	3894.88
315.312	3868.88
315.542	3781.88
315.771	3791.88
316.001	3792.88
316.23	3774.88
316.46	3740.88
316.689	3823.88
316.919	3787.88
317.148	3894.88
317.377	3868.88
317.607	3852.88
317.836	3822.88
318.065	3778.88
318.295	3793.88
318.524	3731.88
318.753	3809.88
318.983	3766.88
319.212	3730.88
319.441	3862.88
319.67	3842.88
319.9	3785.88
320.129	3832.88
320.358	3848.88
320.587	3879.88
320.816	3956.88
321.046	4024.88
321.275	3940.88
321.504	3935.88
321.733	3959.88
321.962	4059.88
322.191	4151.88
322.42	4273.88
322.649	4376.88
322.878	4443.88
323.108	4479.88
323.337	4703.88
323.566	4973.88
323.795	5272.88
324.024	5873.88
324.253	7718.88
324.482	11699.88
324.71	15604.88
324.939	15604.88
325.168	13728.88
325.397	6938.88
325.626	5628.88
325.855	5129.88
326.084	5045.88
326.313	5014.88
326.542	5226.88
326.77	5946.88
326.999	7514.88
327.228	11105.88
327.457	14974.88
327.686	14480.88
327.914	8282.88
328.143	7047.88
328.372	6922.88
328.6	6272.88
328.829	5894.88
329.058	6085.88
329.287	6092.88
329.515	5849.88
329.744	5983.88
329.972	6684.88
330.201	7889.88
330.43	8694.88
330.658	7418.88
330.887	6858.88
331.115	6134.88
331.344	5538.88
331.572	5390.88
331.801	5520.88
332.03	5452.88
332.258	5386.88
332.486	5330.88
332.715	5471.88
332.943	5725.88
333.172	5978.88
333.4	6229.88
333.629	6506.88
333.857	6958.88
334.085	7693.88
334.314	8974.88
334.542	10555.88
334.771	10006.88
334.999	7125.88
335.227	6210.88
335.455	5841.88
335.684	5625.88
335.912	5448.88
336.14	5298.88
336.369	5245.88
336.597	5313.88
336.825	5206.88
337.053	5104.88
337.281	4934.88
337.51	4941.88
337.738	4934.88
337.966	4875.88
338.194	4899.88
338.422	4820.88
338.65	4709.88
338.878	4695.88
339.106	4665.88
339.334	4634.88
339.562	4645.88
339.79	4537.88
340.018	4502.88
340.246	4593.88
340.474	4549.88
340.702	4562.88
340.93	4524.88
341.158	4512.88
341.386	4515.88
341.614	4562.88
341.842	4486.88
342.07	4472.88
342.298	4490.88
342.526	4390.88
342.754	4373.88
342.981	4435.88
343.209	4521.88
343.437	4769.88
343.665	5025.88
343.893	5290.88
344.12	5282.88
344.348	5061.88
344.576	4958.88
344.804	4815.88
345.031	4787.88
345.259	4782.88
345.487	4583.88
345.714	4478.88
345.942	4326.88
346.17	4362.88
346.397	4271.88
346.625	4288.88
346.853	4289.88
347.08	4271.88
347.308	4304.88
347.535	4401.88
347.763	4399.88
347.99	4409.88
348.218	4417.88
348.445	4513.88
348.673	4387.88
348.9	4266.88
349.128	4174.88
349.355	4175.88
349.583	4177.88
349.81	4151.88
350.037	4180.88
350.265	4129.88
350.492	4105.88
350.72	4169.88
350.947	4175.88
351.174	4364.88
351.402	4333.88
351.629	4216.88
351.856	4345.88
352.083	4355.88
352.311	4406.88
352.538	4320.88
352.765	4388.88
352.992	4286.88
353.22	4257.88
353.447	4186.88
353.674	4141.88
353.901	4112.88
354.128	4079.88
354.355	4078.88
354.583	4099.88
354.81	4031.88
355.037	4066.88
355.264	4017.88
355.491	4045.88
355.718	4062.88
355.945	3990.88
356.172	4025.88
356.399	3988.88
356.626	4071.88
356.853	4032.88
357.08	3985.88
357.307	4028.88
357.534	4022.88
357.761	4022.88
357.988	4110.88
358.215	4066.88
358.441	4054.88
358.668	4061.88
358.895	4115.88
359.122	4152.88
359.349	4254.88
359.576	4367.88
359.802	4504.88
360.029	4801.88
360.256	4796.88
360.483	4615.88
360.709	4344.88
360.936	4329.88
361.163	4270.88
361.39	4337.88
361.616	4373.88
361.843	4288.88
362.07	4310.88
362.296	4364.88
362.523	4275.88
362.749	4291.88
362.976	4242.88
363.203	4211.88
363.429	4160.88
363.656	4237.88
363.882	4128.88
364.109	4162.88
364.335	4109.88
364.562	4144.88
364.788	4114.88
365.015	4120.88
365.241	4127.88
365.468	4225.88
365.694	4175.88
365.92	4223.88
366.147	4156.88
366.373	4217.88
366.599	4166.88
366.826	4078.88
367.052	4098.88
367.278	4183.88
367.505	4178.88
367.731	4231.88
367.957	4236.88
368.184	4211.88
368.41	4245.88
368.636	4354.88
368.862	4340.88
369.089	4307.88
369.315	4199.88
369.541	4199.88
369.767	4267.88
369.993	4255.88
370.219	4298.88
370.445	4310.88
370.672	4364.88
370.898	4356.88
371.124	4363.88
371.35	4473.88
371.576	4454.88
371.802	4362.88
372.028	4320.88
372.254	4344.88
372.48	4426.88
372.706	4435.88
372.932	4579.88
373.158	4483.88
373.384	4510.88
373.61	4442.88
373.835	4538.88
374.061	4426.88
374.287	4509.88
374.513	4620.88
374.739	4794.88
374.965	4798.88
375.191	4782.88
375.416	4728.88
375.642	4603.88
375.868	4572.88
376.094	4559.88
376.319	4459.88
376.545	4433.88
376.771	4445.88
376.997	4385.88
377.222	4408.88
377.448	4310.88
377.674	4406.88
377.899	4332.88
378.125	4337.88
378.35	4325.88
378.576	4306.88
378.802	4322.88
379.027	4378.88
379.253	4334.88
379.478	4273.88
379.704	4357.88
379.929	4414.88
380.155	4385.88
380.38	4368.88
380.606	4353.88
380.831	4421.88
381.057	4403.88
381.282	4384.88
381.507	4395.88
381.733	4473.88
381.958	4502.88
382.184	4581.88
382.409	4582.88
382.634	4620.88
382.86	4711.88
383.085	4649.88
383.31	4770.88
383.535	4816.88
383.761	4892.88
383.986	4904.88
384.211	5083.88
384.436	5134.88
384.662	5147.88
384.887	5303.88
385.112	5187.88
385.337	5290.88
385.562	5282.88
385.787	5375.88
386.013	5395.88
386.238	5455.88
386.463	5337.88
386.688	5313.88
386.913	5251.88
387.138	5240.88
387.363	5202.88
387.588	5128.88
387.813	5266.88
388.038	5198.88
388.263	5235.88
388.488	5254.88
388.713	5277.88
388.938	5196.88
389.163	5216.88
389.387	5139.88
389.612	5110.88
389.837	5132.88
390.062	5190.88
390.287	5125.88
390.512	5155.88
390.736	5252.88
390.961	5416.88
391.186	5377.88
391.411	5581.88
391.636	5677.88
391.86	5816.88
392.085	5903.88
392.31	5754.88
392.534	5691.88
392.759	5678.88
392.984	5545.88
393.208	5477.88
393.433	5458.88
393.658	5350.88
393.882	5446.88
394.107	5514.88
394.331	5502.88
394.556	5509.88
394.78	5586.88
395.005	5632.88
395.229	5643.88
395.454	5770.88
395.678	5886.88
395.903	5999.88
396.127	6002.88
396.352	5758.88
396.576	5646.88
396.801	5522.88
397.025	5781.88
397.249	5792.88
397.474	5885.88
397.698	5888.88
397.922	6108.88
398.147	6223.88
398.371	6323.88
398.595	6439.88
398.82	6672.88
399.044	7269.88
399.268	8070.88
399.492	9185.88
399.717	9852.88
399.941	9570.88
400.165	8898.88
400.389	8231.88
400.613	7387.88
400.837	6877.88
401.062	6766.88
401.286	6776.88
401.51	6670.88
401.734	6665.88
401.958	6712.88
402.182	6927.88
402.406	7079.88
402.63	7113.88
402.854	7239.88
403.078	7283.88
403.302	7354.88
403.526	7613.88
403.75	7580.88
403.974	7616.88
404.198	7695.88
404.422	7778.88
404.645	7866.88
404.869	7979.88
405.093	8416.88
405.317	8886.88
405.541	8769.88
405.765	7931.88
405.988	7631.88
406.212	7879.88
406.436	7907.88
406.66	8006.88
406.883	7994.88
407.107	8694.88
407.331	9082.88
407.555	9605.88
407.778	9203.88
408.002	8600.88
408.226	8155.88
408.449	8001.88
408.673	7798.88
408.896	8108.88
409.12	8113.88
409.344	7650.88
409.567	7341.88
409.791	7334.88
410.014	7224.88
410.238	7107.88
410.461	7191.88
410.685	7228.88
410.908	7313.88
411.132	7512.88
411.355	7626.88
411.578	7185.88
411.802	7010.88
412.025	7109.88
412.249	7544.88
412.472	8019.88
412.695	8496.88
412.919	7763.88
413.142	7322.88
413.365	7116.88
413.589	6949.88
413.812	6787.88
414.035	6630.88
414.258	6640.88
414.482	6683.88
414.705	6697.88
414.928	6678.88
415.151	6623.88
415.374	6633.88
415.597	6610.88
415.821	6434.88
416.044	6546.88
416.267	6485.88
416.49	6342.88
416.713	6358.88
416.936	6436.88
417.159	6508.88
417.382	6630.88
417.605	6584.88
417.828	6770.88
418.051	6804.88
418.274	6698.88
418.497	6606.88
418.72	6746.88
418.943	6698.88
419.166	7125.88
419.389	7545.88
419.611	7432.88
419.834	7367.88
420.057	7360.88
420.28	7478.88
420.503	7316.88
420.726	7130.88
420.948	7120.88
421.171	7447.88
421.394	7290.88
421.617	6803.88
421.839	6759.88
422.062	6783.88
422.285	6926.88
422.507	7640.88
422.73	8182.88
422.953	7519.88
423.175	7121.88
423.398	7057.88
423.621	7243.88
423.843	7413.88
424.066	7375.88
424.288	7358.88
424.511	7424.88
424.733	8020.88
424.956	8448.88
425.178	7923.88
425.401	8075.88
425.623	7932.88
425.846	6974.88
426.068	6814.88
426.291	6714.88
426.513	6794.88
426.735	6818.88
426.958	7267.88
427.18	8072.88
427.402	9360.88
427.625	9680.88
427.847	8578.88
428.069	8095.88
428.292	7065.88
428.514	6444.88
428.736	6200.88
428.958	6158.88
429.181	5922.88
429.403	5995.88
429.625	6172.88
429.847	6475.88
430.069	7060.88
430.292	6590.88
430.514	5970.88
430.736	5985.88
430.958	5905.88
431.18	5778.88
431.402	5759.88
431.624	5826.88
431.846	5842.88
432.068	5823.88
432.29	6015.88
432.512	5848.88
432.734	5952.88
432.956	5844.88
433.178	5974.88
433.4	5904.88
433.622	5811.88
433.844	5865.88
434.066	5927.88
434.287	5907.88
434.509	6251.88
434.731	6404.88
434.953	6619.88
435.175	6760.88
435.397	6898.88
435.618	6709.88
435.84	7084.88
436.062	8043.88
436.284	7911.88
436.505	6655.88
436.727	6374.88
436.949	6035.88
437.17	6011.88
437.392	5942.88
437.614	6121.88
437.835	6475.88
438.057	7462.88
438.278	8173.88
438.5	7998.88
438.721	8881.88
438.943	7697.88
439.165	6546.88
439.386	6385.88
439.608	6410.88
439.829	6532.88
440.05	6900.88
440.272	7402.88
440.493	6723.88
440.715	6371.88
440.936	6278.88
441.158	6289.88
441.379	6426.88
441.6	6731.88
441.822	7040.88
442.043	7466.88
442.264	8164.88
442.486	7854.88
442.707	7044.88
442.928	6883.88
443.149	7180.88
443.371	7385.88
443.592	7862.88
443.813	8926.88
444.034	8818.88
444.255	7667.88
444.476	7578.88
444.698	7738.88
444.919	7826.88
445.14	7565.88
445.361	7464.88
445.582	7689.88
445.803	8342.88
446.024	8959.88
446.245	8622.88
446.466	7692.88
446.687	6699.88
446.908	6302.88
447.129	5893.88
447.35	5836.88
447.571	5777.88
447.792	5731.88
448.013	5833.88
448.234	5908.88
448.455	6640.88
448.675	7906.88
448.896	8468.88
449.117	6912.88
449.338	7034.88
449.559	8502.88
449.779	8569.88
450	6618.88
450.221	5819.88
450.442	5687.88
450.662	5645.88
450.883	5714.88
451.104	5835.88
451.324	5729.88
451.545	5437.88
451.766	5357.88
451.986	5217.88
452.207	5180.88
452.428	5256.88
452.648	5193.88
452.869	5312.88
453.089	5316.88
453.31	5385.88
453.53	5174.88
453.751	5148.88
453.971	5168.88
454.192	5347.88
454.412	5138.88
454.633	5034.88
454.853	5030.88
455.073	5067.88
455.294	5506.88
455.514	5968.88
455.734	5505.88
455.955	4865.88
456.175	4810.88
456.395	4785.88
456.616	4746.88
456.836	4843.88
457.056	4834.88
457.276	4684.88
457.497	4812.88
457.717	4818.88
457.937	4974.88
458.157	5043.88
458.377	5146.88
458.598	5435.88
458.818	6256.88
459.038	7056.88
459.258	6877.88
459.478	6127.88
459.698	5982.88
459.918	6078.88
460.138	6263.88
460.358	6523.88
460.578	6447.88
460.798	6630.88
461.018	6519.88
461.238	6430.88
461.458	6428.88
461.678	6384.88
461.898	6521.88
462.118	6560.88
462.338	6926.88
462.558	7011.88
462.777	7399.88
462.997	7975.88
463.217	8322.88
463.437	8147.88
463.657	7621.88
463.876	7328.88
464.096	7438.88
464.316	7404.88
464.536	7454.88
464.755	7200.88
464.975	7090.88
465.195	7425.88
465.414	7471.88
465.634	6446.88
465.854	6011.88
466.073	5860.88
466.293	5644.88
466.512	5475.88
466.732	5423.88
466.951	5437.88
467.171	5393.88
467.391	5520.88
467.61	5649.88
467.829	5665.88
468.049	5902.88
468.268	6072.88
468.488	5465.88
468.707	5337.88
468.927	5253.88
469.146	5201.88
469.365	5252.88
469.585	5306.88
469.804	5500.88
470.023	5665.88
470.243	5718.88
470.462	5810.88
470.681	5883.88
470.901	5731.88
471.12	5586.88
471.339	5495.88
471.558	5483.88
471.777	5462.88
471.997	5495.88
472.216	6404.88
472.435	8098.88
472.654	6727.88
472.873	5809.88
473.092	5520.88
473.311	5435.88
473.53	5389.88
473.749	5454.88
473.968	6032.88
474.187	7020.88
474.406	6505.88
474.625	5511.88
474.844	5316.88
475.063	5198.88
475.282	5269.88
475.501	5279.88
475.72	5365.88
475.939	5326.88
476.158	5425.88
476.377	5434.88
476.596	5361.88
476.814	5544.88
477.033	5602.88
477.252	5688.88
477.471	5829.88
477.69	5960.88
477.908	6019.88
478.127	6146.88
478.346	6143.88
478.564	6288.88
478.783	6460.88
479.002	6576.88
479.22	6678.88
479.439	6760.88
479.658	6875.88
479.876	6893.88
480.095	7190.88
480.313	7660.88
480.532	7571.88
480.751	7583.88
480.969	8385.88
481.188	11591.88
481.406	11649.88
481.624	8527.88
481.843	7513.88
482.061	7097.88
482.28	6743.88
482.498	6462.88
482.717	6366.88
482.935	6346.88
483.153	6306.88
483.372	6206.88
483.59	6249.88
483.808	6238.88
484.027	6256.88
484.245	6335.88
484.463	6318.88
484.681	6398.88
484.9	6406.88
485.118	6437.88
485.336	6504.88
485.554	6566.88
485.772	6601.88
485.99	6512.88
486.209	6564.88
486.427	6696.88
486.645	6716.88
486.863	6767.88
487.081	6727.88
487.299	6708.88
487.517	6579.88
487.735	6604.88
