Data from Circ_2008_H10_HRD10591_00054.txt Node
Date: Wed Jan 03 10:17:07 EST 2024
User: Yrep
Spectrometer: HR+D1059
Trigger mode: 1
Integration Time (sec): 1.000000E-1
Scans to average: 1
Electric dark correction enabled: true
Nonlinearity correction enabled: false
Boxcar width: 0
XAxis mode: Wavelengths
Number of Pixels in Spectrum: 2048
>>>>>Begin Spectral Data<<<<<
223.165	-9
223.4	-9
223.635	-9
223.869	-10
224.104	-17
224.338	-28
224.573	-26
224.808	-13
225.042	-1
225.277	-7
225.511	-3
225.746	8
225.98	9
226.215	7
226.449	17
226.683	12
226.918	24
227.152	37
227.387	41
227.621	31
227.856	42
228.09	54
228.324	63
228.559	72
228.793	67
229.027	73
229.262	78
229.496	72
229.73	89
229.964	78
230.199	73
230.433	73
230.667	89
230.901	80
231.136	85
231.37	67
231.604	76
231.838	95
232.072	85
232.306	81
232.541	91
232.775	90
233.009	82
233.243	95
233.477	79
233.711	89
233.945	85
234.179	74
234.413	85
234.647	88
234.881	70
235.115	71
235.349	89
235.583	80
235.817	62
236.051	72
236.285	70
236.519	70
236.753	83
236.987	80
237.221	87
237.455	85
237.689	91
237.922	77
238.156	84
238.39	87
238.624	86
238.858	67
239.091	74
239.325	78
239.559	79
239.793	78
240.027	84
240.26	74
240.494	80
240.728	101
240.961	94
241.195	78
241.429	80
241.662	75
241.896	69
242.13	70
242.363	80
242.597	86
242.83	94
243.064	71
243.298	74
243.531	78
243.765	78
243.998	80
244.232	77
244.465	75
244.699	85
244.932	80
245.166	79
245.399	78
245.633	79
245.866	71
246.099	90
246.333	84
246.566	87
246.8	78
247.033	79
247.266	80
247.5	71
247.733	83
247.966	83
248.2	85
248.433	76
248.666	82
248.899	77
249.133	87
249.366	96
249.599	107
249.832	82
250.066	93
250.299	80
250.532	92
250.765	79
250.998	74
251.231	86
251.465	72
251.698	81
251.931	90
252.164	81
252.397	77
252.63	95
252.863	90
253.096	73
253.329	83
253.562	90
253.795	82
254.028	92
254.261	83
254.494	78
254.727	71
254.96	71
255.193	85
255.426	72
255.659	89
255.892	74
256.124	78
256.357	102
256.59	83
256.823	91
257.056	93
257.289	71
257.521	90
257.754	87
257.987	104
258.22	86
258.452	91
258.685	91
258.918	70
259.151	86
259.383	93
259.616	87
259.849	75
260.081	104
260.314	82
260.547	85
260.779	76
261.012	94
261.244	98
261.477	86
261.71	94
261.942	115
262.175	120
262.407	79
262.64	101
262.872	77
263.105	73
263.337	84
263.57	90
263.802	79
264.035	83
264.267	103
264.499	86
264.732	103
264.964	80
265.197	75
265.429	95
265.661	90
265.894	71
266.126	88
266.358	79
266.591	79
266.823	87
267.055	90
267.287	85
267.52	87
267.752	89
267.984	90
268.216	82
268.448	84
268.681	91
268.913	66
269.145	87
269.377	80
269.609	76
269.841	81
270.073	72
270.306	93
270.538	86
270.77	92
271.002	101
271.234	83
271.466	77
271.698	70
271.93	87
272.162	89
272.394	88
272.626	85
272.858	89
273.09	79
273.322	93
273.553	82
273.785	85
274.017	98
274.249	84
274.481	96
274.713	96
274.945	98
275.176	91
275.408	74
275.64	76
275.872	90
276.104	89
276.335	86
276.567	102
276.799	130
277.031	116
277.262	92
277.494	93
277.726	96
277.957	72
278.189	75
278.421	82
278.652	85
278.884	89
279.115	95
279.347	78
279.579	97
279.81	88
280.042	71
280.273	99
280.505	82
280.736	91
280.968	86
281.199	113
281.431	90
281.662	72
281.894	93
282.125	103
282.356	112
282.588	142
282.819	118
283.051	91
283.282	90
283.513	95
283.745	85
283.976	84
284.207	92
284.439	96
284.67	107
284.901	97
285.132	88
285.364	98
285.595	99
285.826	84
286.057	87
286.288	86
286.52	100
286.751	73
286.982	93
287.213	83
287.444	85
287.675	103
287.906	97
288.138	85
288.369	98
288.6	87
288.831	100
289.062	83
289.293	93
289.524	94
289.755	93
289.986	85
290.217	82
290.448	101
290.679	83
290.91	70
291.141	90
291.371	94
291.602	87
291.833	89
292.064	92
292.295	82
292.526	90
292.757	102
292.987	86
293.218	89
293.449	89
293.68	88
293.91	99
294.141	101
294.372	96
294.603	96
294.833	93
295.064	96
295.295	90
295.525	90
295.756	108
295.987	115
296.217	137
296.448	126
296.679	103
296.909	96
297.14	85
297.37	78
297.601	106
297.831	95
298.062	95
298.292	96
298.523	75
298.753	106
298.984	96
299.214	101
299.445	87
299.675	94
299.905	106
300.136	93
300.366	91
300.597	102
300.827	95
301.057	100
301.288	114
301.518	87
301.748	94
301.979	105
302.209	84
302.439	82
302.669	91
302.9	82
303.13	85
303.36	84
303.59	103
303.82	106
304.051	82
304.281	89
304.511	107
304.741	98
304.971	86
305.201	105
305.431	97
305.661	92
305.891	96
306.121	97
306.352	108
306.582	110
306.812	95
307.042	95
307.272	95
307.502	103
307.731	103
307.961	105
308.191	97
308.421	103
308.651	87
308.881	93
309.111	99
309.341	93
309.571	105
309.8	76
310.03	95
310.26	106
310.49	93
310.72	86
310.949	91
311.179	99
311.409	106
311.639	85
311.868	96
312.098	99
312.328	96
312.557	91
312.787	112
313.017	112
313.246	97
313.476	94
313.706	97
313.935	84
314.165	98
314.394	98
314.624	106
314.853	97
315.083	96
315.312	86
315.542	103
315.771	110
316.001	92
316.23	102
316.46	98
316.689	103
316.919	98
317.148	86
317.377	104
317.607	95
317.836	86
318.065	92
318.295	103
318.524	86
318.753	93
318.983	96
319.212	100
319.441	124
319.67	102
319.9	100
320.129	95
320.358	104
320.587	87
320.816	106
321.046	121
321.275	84
321.504	96
321.733	109
321.962	91
322.191	114
322.42	108
322.649	107
322.878	111
323.108	108
323.337	124
323.566	120
323.795	143
324.024	195
324.253	343
324.482	707
324.71	1375
324.939	1817
325.168	734
325.397	228
325.626	147
325.855	121
326.084	127
326.313	125
326.542	144
326.77	205
326.999	389
327.228	752
327.457	1363
327.686	1107
327.914	329
328.143	198
328.372	164
328.6	119
328.829	114
329.058	119
329.287	116
329.515	107
329.744	112
329.972	142
330.201	170
330.43	186
330.658	147
330.887	145
331.115	117
331.344	104
331.572	93
331.801	110
332.03	109
332.258	95
332.486	97
332.715	115
332.943	98
333.172	88
333.4	104
333.629	115
333.857	131
334.085	119
334.314	121
334.542	205
334.771	195
334.999	118
335.227	94
335.455	91
335.684	94
335.912	106
336.14	105
336.369	107
336.597	100
336.825	98
337.053	92
337.281	107
337.51	90
337.738	102
337.966	96
338.194	87
338.422	111
338.65	101
338.878	93
339.106	76
339.334	89
339.562	91
339.79	98
340.018	96
340.246	94
340.474	99
340.702	86
340.93	95
341.158	99
341.386	87
341.614	111
341.842	101
342.07	98
342.298	95
342.526	84
342.754	88
342.981	87
343.209	103
343.437	104
343.665	79
343.893	86
344.12	87
344.348	94
344.576	104
344.804	101
345.031	97
345.259	103
345.487	108
345.714	91
345.942	110
346.17	104
346.397	106
346.625	94
346.853	96
347.08	95
347.308	105
347.535	99
347.763	99
347.99	103
348.218	111
348.445	108
348.673	99
348.9	99
349.128	80
349.355	93
349.583	96
349.81	85
350.037	90
350.265	99
350.492	91
350.72	115
350.947	99
351.174	116
351.402	114
351.629	116
351.856	112
352.083	101
352.311	114
352.538	103
352.765	117
352.992	124
353.22	105
353.447	104
353.674	109
353.901	103
354.128	108
354.355	96
354.583	92
354.81	95
355.037	102
355.264	97
355.491	88
355.718	96
355.945	92
356.172	92
356.399	102
356.626	101
356.853	98
357.08	94
357.307	109
357.534	106
357.761	97
357.988	111
358.215	91
358.441	100
358.668	97
358.895	87
359.122	83
359.349	106
359.576	88
359.802	109
360.029	114
360.256	105
360.483	102
360.709	91
360.936	87
361.163	92
361.39	109
361.616	103
361.843	90
362.07	107
362.296	90
362.523	85
362.749	89
362.976	86
363.203	93
363.429	83
363.656	94
363.882	90
364.109	87
364.335	86
364.562	88
364.788	98
365.015	100
365.241	106
365.468	104
365.694	110
365.92	108
366.147	99
366.373	92
366.599	101
366.826	89
367.052	86
367.278	101
367.505	101
367.731	98
367.957	96
368.184	91
368.41	107
368.636	102
368.862	127
369.089	103
369.315	98
369.541	114
369.767	97
369.993	95
370.219	91
370.445	85
370.672	85
370.898	86
371.124	98
371.35	86
371.576	97
371.802	103
372.028	101
372.254	89
372.48	98
372.706	92
372.932	90
373.158	92
373.384	86
373.61	103
373.835	98
374.061	90
374.287	97
374.513	87
374.739	97
374.965	86
375.191	88
375.416	104
375.642	90
375.868	82
376.094	88
376.319	83
376.545	110
376.771	95
376.997	96
377.222	91
377.448	92
377.674	90
377.899	89
378.125	99
378.35	94
378.576	106
378.802	95
379.027	102
379.253	100
379.478	95
379.704	103
379.929	98
380.155	101
380.38	111
380.606	104
380.831	110
381.057	90
381.282	101
381.507	113
381.733	92
381.958	111
382.184	97
382.409	87
382.634	94
382.86	86
383.085	114
383.31	98
383.535	105
383.761	111
383.986	104
384.211	107
384.436	105
384.662	103
384.887	111
385.112	108
385.337	113
385.562	119
385.787	103
386.013	108
386.238	126
386.463	114
386.688	108
386.913	93
387.138	98
387.363	100
387.588	107
387.813	115
388.038	114
388.263	122
388.488	102
388.713	96
388.938	111
389.163	103
389.387	98
389.612	98
389.837	101
390.062	107
390.287	93
390.512	98
390.736	89
390.961	103
391.186	92
391.411	110
391.636	107
391.86	81
392.085	89
392.31	77
392.534	96
392.759	86
392.984	90
393.208	87
393.433	91
393.658	93
393.882	81
394.107	93
394.331	100
394.556	90
394.78	89
395.005	86
395.229	71
395.454	91
395.678	90
395.903	92
396.127	92
396.352	93
396.576	83
396.801	82
397.025	103
397.249	100
397.474	104
397.698	97
397.922	86
398.147	93
398.371	89
398.595	90
398.82	89
399.044	75
399.268	101
399.492	97
399.717	78
399.941	97
400.165	93
400.389	92
400.613	92
400.837	91
401.062	96
401.286	86
401.51	80
401.734	95
401.958	106
402.182	121
402.406	164
402.63	112
402.854	99
403.078	93
403.302	96
403.526	98
403.75	88
403.974	96
404.198	91
404.422	91
404.645	88
404.869	108
405.093	100
405.317	116
405.541	106
405.765	107
405.988	118
406.212	155
406.436	238
406.66	139
406.883	94
407.107	93
407.331	91
407.555	109
407.778	107
408.002	91
408.226	92
408.449	78
408.673	98
408.896	101
409.12	93
409.344	85
409.567	107
409.791	93
410.014	111
410.238	101
410.461	99
410.685	92
410.908	94
411.132	106
411.355	94
411.578	86
411.802	92
412.025	95
412.249	102
412.472	97
412.695	95
412.919	100
413.142	87
413.365	80
413.589	93
413.812	88
414.035	95
414.258	83
414.482	97
414.705	95
414.928	95
415.151	92
415.374	88
415.597	85
415.821	81
416.044	90
416.267	100
416.49	98
416.713	81
416.936	83
417.159	81
417.382	93
417.605	92
417.828	90
418.051	88
418.274	85
418.497	87
418.72	88
418.943	82
419.166	89
419.389	82
419.611	93
419.834	94
420.057	86
420.28	94
420.503	103
420.726	102
420.948	78
421.171	95
421.394	90
421.617	106
421.839	86
422.062	91
422.285	95
422.507	90
422.73	105
422.953	98
423.175	86
423.398	97
423.621	101
423.843	95
424.066	86
424.288	85
424.511	97
424.733	96
424.956	95
425.178	94
425.401	95
425.623	94
425.846	93
426.068	102
426.291	105
426.513	92
426.735	95
426.958	102
427.18	86
427.402	139
427.625	143
427.847	135
428.069	117
428.292	94
428.514	87
428.736	89
428.958	73
429.181	74
429.403	99
429.625	97
429.847	98
430.069	96
430.292	95
430.514	85
430.736	95
430.958	96
431.18	86
431.402	105
431.624	102
431.846	94
432.068	91
432.29	76
432.512	87
432.734	98
432.956	97
433.178	102
433.4	107
433.622	87
433.844	94
434.066	100
434.287	90
434.509	82
434.731	96
434.953	91
435.175	89
435.397	105
435.618	95
435.84	105
436.062	103
436.284	102
436.505	97
436.727	102
436.949	91
437.17	93
437.392	99
437.614	104
437.835	96
438.057	116
438.278	91
438.5	86
438.721	114
438.943	96
439.165	92
439.386	101
439.608	91
439.829	95
440.05	106
440.272	120
440.493	90
440.715	88
440.936	98
441.158	91
441.379	78
441.6	90
441.822	100
442.043	87
442.264	104
442.486	86
442.707	89
442.928	91
443.149	123
443.371	126
443.592	92
443.813	109
444.034	95
444.255	80
444.476	86
444.698	98
444.919	78
445.14	133
445.361	112
445.582	113
445.803	130
446.024	123
446.245	127
446.466	110
446.687	79
446.908	81
447.129	87
447.35	96
447.571	95
447.792	98
448.013	87
448.234	106
448.455	101
448.675	115
448.896	111
449.117	107
449.338	92
449.559	116
449.779	112
450	100
450.221	85
450.442	95
450.662	90
450.883	100
451.104	106
451.324	82
451.545	84
451.766	94
451.986	87
452.207	105
452.428	95
452.648	103
452.869	111
453.089	113
453.31	113
453.53	87
453.751	97
453.971	97
454.192	112
454.412	101
454.633	90
454.853	94
455.073	87
455.294	95
455.514	96
455.734	104
455.955	86
456.175	81
456.395	83
456.616	80
456.836	80
457.056	92
457.276	86
457.497	84
457.717	90
457.937	80
458.157	79
458.377	97
458.598	110
458.818	144
459.038	149
459.258	106
459.478	86
459.698	94
459.918	102
460.138	94
460.358	83
460.578	92
460.798	73
461.018	89
461.238	107
461.458	97
461.678	90
461.898	98
462.118	79
462.338	99
462.558	84
462.777	91
462.997	67
463.217	100
463.437	100
463.657	100
463.876	87
464.096	93
464.316	102
464.536	83
464.755	95
464.975	99
465.195	142
465.414	159
465.634	88
465.854	77
466.073	93
466.293	93
466.512	99
466.732	93
466.951	96
467.171	95
467.391	105
467.61	100
467.829	101
468.049	115
468.268	128
468.488	99
468.707	92
468.927	81
469.146	83
469.365	94
469.585	102
469.804	93
470.023	95
470.243	85
470.462	96
470.681	108
470.901	81
471.12	99
471.339	89
471.558	83
471.777	93
471.997	114
472.216	142
472.435	205
472.654	121
472.873	99
473.092	93
473.311	104
473.53	96
473.749	97
473.968	109
474.187	103
474.406	83
474.625	81
474.844	92
475.063	75
475.282	86
475.501	93
475.72	98
475.939	96
476.158	87
476.377	98
476.596	82
476.814	92
477.033	97
477.252	91
477.471	93
477.69	89
477.908	77
478.127	92
478.346	92
478.564	95
478.783	91
479.002	87
479.22	95
479.439	109
479.658	111
479.876	95
480.095	97
480.313	86
480.532	99
480.751	106
480.969	153
481.188	347
481.406	235
481.624	115
481.843	89
482.061	85
482.28	96
482.498	102
482.717	90
482.935	90
483.153	93
483.372	86
483.59	97
483.808	91
484.027	92
484.245	96
484.463	99
484.681	108
484.9	112
485.118	98
485.336	87
485.554	82
485.772	93
485.99	103
486.209	104
486.427	111
486.645	117
486.863	117
487.081	106
487.299	102
487.517	100
487.735	95
487.953	102
488.171	96
488.389	91
488.607	86
488.825	84
489.043	86
489.261	87
489.479	93
489.696	87
489.914	94
490.132	99
490.35	97
490.568	87
490.786	82
491.003	90
491.221	82
491.439	89
491.657	100
491.874	98
492.092	94
492.31	96
492.527	93
492.745	81
492.963	90
493.18	76
493.398	98
493.615	90
493.833	103
494.05	106
494.268	90
494.485	93
494.703	93
494.92	87
495.138	89
495.355	95
495.573	107
495.79	102
496.008	96
496.225	100
496.442	95
496.66	105
496.877	97
497.094	97
497.312	96
497.529	112
497.746	94
497.963	95
498.181	101
498.398	90
498.615	109
498.832	95
499.049	101
499.267	87
499.484	99
499.701	96
499.918	88
500.135	89
500.352	90
500.569	84
500.786	93
501.003	107
501.22	99
501.437	93
501.654	90
501.871	114
502.088	104
502.305	91
502.522	90
502.739	91
502.956	79
503.172	83
503.389	87
503.606	94
503.823	106
504.04	103
504.256	89
504.473	83
504.69	94
504.907	99
505.123	90
505.34	94
505.557	93
505.773	90
505.99	91
506.207	80
506.423	93
506.64	84
506.856	96
507.073	87
507.289	97
507.506	94
507.722	118
507.939	106
508.155	97
508.372	99
508.588	95
508.805	99
509.021	105
509.238	105
509.454	118
509.67	101
509.887	110
510.103	132
510.319	221
510.536	765
510.752	2569
510.968	752
511.184	173
511.401	124
511.617	100
511.833	110
512.049	98
512.265	83
512.481	92
512.698	92
512.914	103
513.13	83
513.346	85
513.562	105
513.778	107
513.994	99
514.21	99
514.426	138
514.642	140
514.858	139
515.074	168
515.29	461
515.506	1578
515.721	593
515.937	151
516.153	121
516.369	108
516.585	92
516.801	110
517.016	94
517.232	107
517.448	91
517.664	96
517.879	104
518.095	109
518.311	100
518.527	106
518.742	90
518.958	99
519.173	105
519.389	94
519.605	95
519.82	109
520.036	110
520.251	129
520.467	113
520.682	110
520.898	125
521.113	125
521.329	134
521.544	205
521.76	561
521.975	2518
522.19	1573
522.406	315
522.621	130
522.836	83
523.052	86
523.267	103
523.482	79
523.698	93
523.913	125
524.128	103
524.343	85
524.559	104
524.774	104
524.989	97
525.204	109
525.419	102
525.634	93
525.849	100
526.064	100
526.28	94
526.495	87
526.71	98
526.925	92
527.14	87
527.355	104
527.57	89
527.785	100
527.999	95
528.214	93
528.429	86
528.644	97
528.859	77
529.074	80
529.289	112
529.503	180
529.718	103
529.933	99
530.148	83
530.363	100
530.577	91
530.792	90
531.007	93
531.221	108
531.436	92
531.651	93
531.865	89
532.08	84
532.295	90
532.509	89
532.724	82
532.938	87
533.153	98
533.367	94
533.582	86
533.796	94
534.011	87
534.225	95
534.44	92
534.654	97
534.868	93
535.083	97
535.297	108
535.511	103
535.726	101
535.94	92
536.154	94
536.369	92
536.583	107
536.797	92
537.011	116
537.225	98
537.44	99
537.654	94
537.868	92
538.082	102
538.296	88
538.51	80
538.724	74
538.938	89
539.153	95
539.367	106
539.581	87
539.795	98
540.009	94
540.222	97
540.436	90
540.65	86
540.864	87
541.078	100
541.292	96
541.506	82
541.72	84
541.934	97
542.147	93
542.361	79
542.575	83
542.789	100
543.002	101
543.216	89
543.43	98
543.644	104
543.857	92
544.071	96
544.285	90
544.498	103
544.712	92
544.925	99
545.139	94
545.352	103
545.566	95
545.779	98
545.993	110
546.206	103
546.42	102
546.633	93
546.847	91
547.06	92
547.274	81
547.487	83
547.7	92
547.914	95
548.127	82
548.34	101
548.554	102
548.767	81
548.98	86
549.193	93
549.407	93
549.62	84
549.833	99
550.046	93
550.259	82
550.473	90
550.686	110
550.899	89
551.112	83
551.325	97
551.538	93
551.751	93
551.964	97
552.177	97
552.39	107
552.603	99
552.816	100
553.029	86
553.242	99
553.455	83
553.667	106
553.88	109
554.093	92
554.306	107
554.519	103
554.732	103
554.944	94
555.157	86
555.37	75
555.583	91
555.795	97
556.008	87
556.221	81
556.433	90
556.646	83
556.859	88
557.071	92
557.284	98
557.496	96
557.709	91
557.921	97
558.134	85
558.346	86
558.559	82
558.771	108
558.984	83
559.196	88
559.409	86
559.621	92
559.833	87
560.046	91
560.258	93
560.47	89
560.683	91
560.895	91
561.107	82
561.32	93
561.532	104
561.744	94
561.956	95
562.168	84
562.381	91
562.593	87
562.805	103
563.017	94
563.229	93
563.441	97
563.653	86
563.865	90
564.077	99
564.289	91
564.501	97
564.713	81
564.925	92
565.137	105
565.349	96
565.561	89
565.773	81
565.985	109
566.197	77
566.408	85
566.62	77
566.832	92
567.044	84
567.255	87
567.467	102
567.679	79
567.891	95
568.102	84
568.314	113
568.526	92
568.737	81
568.949	85
569.161	84
569.372	79
569.584	86
569.795	105
570.007	116
570.218	268
570.43	145
570.641	91
570.853	88
571.064	100
571.276	96
571.487	97
571.698	85
571.91	86
572.121	85
572.333	93
572.544	90
572.755	84
572.966	72
573.178	90
573.389	108
573.6	88
573.811	90
574.023	90
574.234	96
574.445	89
574.656	83
574.867	88
575.078	86
575.289	98
575.501	84
575.712	94
575.923	82
576.134	81
576.345	85
576.556	85
576.767	85
576.978	78
577.188	100
577.399	87
577.61	90
577.821	114
578.032	130
578.243	274
578.454	849
578.665	221
578.875	110
579.086	105
579.297	89
579.508	105
579.718	75
579.929	73
580.14	90
580.35	97
580.561	89
580.772	91
580.982	84
581.193	94
581.403	89
581.614	94
581.825	83
582.035	87
582.246	90
