Data from Circ_2008_H10_HRD10591_00049.txt Node
Date: Wed Jan 03 10:17:06 EST 2024
User: Yrep
Spectrometer: HR+D1059
Trigger mode: 1
Integration Time (sec): 1.000000E-1
Scans to average: 1
Electric dark correction enabled: true
Nonlinearity correction enabled: false
Boxcar width: 0
XAxis mode: Wavelengths
Number of Pixels in Spectrum: 2048
>>>>>Begin Spectral Data<<<<<
223.165	-16.88
223.4	-16.88
223.635	-16.88
223.869	-21.88
224.104	-16.88
224.338	-23.88
224.573	-14.88
224.808	-9.88
225.042	-4.88
225.277	-5.88
225.511	1.12
225.746	10.12
225.98	2.12
226.215	11.12
226.449	7.12
226.683	14.12
226.918	31.12
227.152	38.12
227.387	42.12
227.621	41.12
227.856	49.12
228.09	62.12
228.324	55.12
228.559	53.12
228.793	55.12
229.027	65.12
229.262	69.12
229.496	66.12
229.73	79.12
229.964	60.12
230.199	72.12
230.433	77.12
230.667	69.12
230.901	90.12
231.136	82.12
231.37	87.12
231.604	80.12
231.838	80.12
232.072	71.12
232.306	85.12
232.541	84.12
232.775	84.12
233.009	90.12
233.243	74.12
233.477	80.12
233.711	89.12
233.945	71.12
234.179	91.12
234.413	69.12
234.647	85.12
234.881	88.12
235.115	78.12
235.349	68.12
235.583	74.12
235.817	79.12
236.051	78.12
236.285	77.12
236.519	74.12
236.753	76.12
236.987	71.12
237.221	81.12
237.455	70.12
237.689	70.12
237.922	65.12
238.156	79.12
238.39	75.12
238.624	79.12
238.858	72.12
239.091	73.12
239.325	80.12
239.559	75.12
239.793	78.12
240.027	73.12
240.26	79.12
240.494	72.12
240.728	83.12
240.961	78.12
241.195	89.12
241.429	72.12
241.662	65.12
241.896	63.12
242.13	73.12
242.363	85.12
242.597	87.12
242.83	81.12
243.064	81.12
243.298	62.12
243.531	85.12
243.765	92.12
243.998	68.12
244.232	86.12
244.465	69.12
244.699	79.12
244.932	78.12
245.166	65.12
245.399	84.12
245.633	73.12
245.866	85.12
246.099	71.12
246.333	91.12
246.566	76.12
246.8	97.12
247.033	75.12
247.266	74.12
247.5	77.12
247.733	80.12
247.966	63.12
248.2	83.12
248.433	71.12
248.666	72.12
248.899	83.12
249.133	96.12
249.366	111.12
249.599	93.12
249.832	81.12
250.066	77.12
250.299	71.12
250.532	83.12
250.765	78.12
250.998	77.12
251.231	67.12
251.465	82.12
251.698	86.12
251.931	71.12
252.164	91.12
252.397	80.12
252.63	91.12
252.863	82.12
253.096	74.12
253.329	79.12
253.562	83.12
253.795	83.12
254.028	88.12
254.261	82.12
254.494	75.12
254.727	78.12
254.96	74.12
255.193	75.12
255.426	76.12
255.659	74.12
255.892	76.12
256.124	81.12
256.357	72.12
256.59	82.12
256.823	76.12
257.056	82.12
257.289	87.12
257.521	63.12
257.754	85.12
257.987	89.12
258.22	81.12
258.452	82.12
258.685	81.12
258.918	78.12
259.151	79.12
259.383	81.12
259.616	77.12
259.849	74.12
260.081	77.12
260.314	88.12
260.547	73.12
260.779	80.12
261.012	80.12
261.244	71.12
261.477	99.12
261.71	95.12
261.942	118.12
262.175	121.12
262.407	86.12
262.64	89.12
262.872	71.12
263.105	63.12
263.337	85.12
263.57	85.12
263.802	79.12
264.035	74.12
264.267	78.12
264.499	90.12
264.732	81.12
264.964	73.12
265.197	75.12
265.429	91.12
265.661	75.12
265.894	78.12
266.126	88.12
266.358	90.12
266.591	82.12
266.823	63.12
267.055	88.12
267.287	98.12
267.52	71.12
267.752	90.12
267.984	75.12
268.216	78.12
268.448	73.12
268.681	68.12
268.913	75.12
269.145	77.12
269.377	87.12
269.609	83.12
269.841	79.12
270.073	81.12
270.306	81.12
270.538	84.12
270.77	92.12
271.002	87.12
271.234	86.12
271.466	95.12
271.698	81.12
271.93	87.12
272.162	91.12
272.394	95.12
272.626	88.12
272.858	96.12
273.09	102.12
273.322	82.12
273.553	91.12
273.785	75.12
274.017	80.12
274.249	73.12
274.481	72.12
274.713	90.12
274.945	84.12
275.176	81.12
275.408	78.12
275.64	70.12
275.872	81.12
276.104	78.12
276.335	90.12
276.567	85.12
276.799	99.12
277.031	92.12
277.262	90.12
277.494	104.12
277.726	78.12
277.957	78.12
278.189	69.12
278.421	86.12
278.652	85.12
278.884	92.12
279.115	87.12
279.347	79.12
279.579	102.12
279.81	87.12
280.042	84.12
280.273	99.12
280.505	100.12
280.736	69.12
280.968	90.12
281.199	79.12
281.431	80.12
281.662	83.12
281.894	97.12
282.125	84.12
282.356	109.12
282.588	135.12
282.819	111.12
283.051	95.12
283.282	69.12
283.513	91.12
283.745	93.12
283.976	80.12
284.207	81.12
284.439	86.12
284.67	101.12
284.901	88.12
285.132	98.12
285.364	84.12
285.595	92.12
285.826	99.12
286.057	81.12
286.288	82.12
286.52	80.12
286.751	80.12
286.982	90.12
287.213	84.12
287.444	90.12
287.675	73.12
287.906	91.12
288.138	81.12
288.369	87.12
288.6	89.12
288.831	83.12
289.062	89.12
289.293	67.12
289.524	87.12
289.755	82.12
289.986	92.12
290.217	81.12
290.448	85.12
290.679	79.12
290.91	66.12
291.141	69.12
291.371	82.12
291.602	83.12
291.833	93.12
292.064	96.12
292.295	93.12
292.526	90.12
292.757	97.12
292.987	75.12
293.218	93.12
293.449	87.12
293.68	91.12
293.91	88.12
294.141	91.12
294.372	90.12
294.603	92.12
294.833	101.12
295.064	86.12
295.295	97.12
295.525	90.12
295.756	102.12
295.987	104.12
296.217	136.12
296.448	117.12
296.679	92.12
296.909	85.12
297.14	90.12
297.37	94.12
297.601	80.12
297.831	75.12
298.062	90.12
298.292	87.12
298.523	82.12
298.753	86.12
298.984	96.12
299.214	86.12
299.445	97.12
299.675	105.12
299.905	100.12
300.136	102.12
300.366	80.12
300.597	85.12
300.827	76.12
301.057	83.12
301.288	119.12
301.518	103.12
301.748	77.12
301.979	96.12
302.209	100.12
302.439	94.12
302.669	77.12
302.9	92.12
303.13	101.12
303.36	99.12
303.59	96.12
303.82	90.12
304.051	94.12
304.281	89.12
304.511	92.12
304.741	90.12
304.971	87.12
305.201	85.12
305.431	95.12
305.661	98.12
305.891	66.12
306.121	81.12
306.352	100.12
306.582	97.12
306.812	78.12
307.042	90.12
307.272	96.12
307.502	96.12
307.731	94.12
307.961	67.12
308.191	76.12
308.421	77.12
308.651	102.12
308.881	89.12
309.111	91.12
309.341	96.12
309.571	116.12
309.8	97.12
310.03	78.12
310.26	105.12
310.49	81.12
310.72	99.12
310.949	107.12
311.179	105.12
311.409	101.12
311.639	101.12
311.868	89.12
312.098	110.12
312.328	103.12
312.557	105.12
312.787	113.12
313.017	96.12
313.246	89.12
313.476	74.12
313.706	83.12
313.935	86.12
314.165	79.12
314.394	93.12
314.624	90.12
314.853	90.12
315.083	92.12
315.312	100.12
315.542	90.12
315.771	98.12
316.001	94.12
316.23	80.12
316.46	84.12
316.689	89.12
316.919	97.12
317.148	90.12
317.377	90.12
317.607	95.12
317.836	75.12
318.065	98.12
318.295	81.12
318.524	81.12
318.753	92.12
318.983	91.12
319.212	89.12
319.441	100.12
319.67	103.12
319.9	81.12
320.129	108.12
320.358	93.12
320.587	88.12
320.816	82.12
321.046	85.12
321.275	101.12
321.504	83.12
321.733	74.12
321.962	97.12
322.191	89.12
322.42	100.12
322.649	111.12
322.878	94.12
323.108	111.12
323.337	114.12
323.566	118.12
323.795	141.12
324.024	184.12
324.253	344.12
324.482	665.12
324.71	1379.12
324.939	1803.12
325.168	681.12
325.397	217.12
325.626	152.12
325.855	123.12
326.084	125.12
326.313	114.12
326.542	144.12
326.77	208.12
326.999	382.12
327.228	746.12
327.457	1329.12
327.686	1070.12
327.914	328.12
328.143	177.12
328.372	151.12
328.6	126.12
328.829	111.12
329.058	125.12
329.287	146.12
329.515	109.12
329.744	94.12
329.972	112.12
330.201	141.12
330.43	167.12
330.658	144.12
330.887	141.12
331.115	120.12
331.344	94.12
331.572	97.12
331.801	78.12
332.03	105.12
332.258	88.12
332.486	92.12
332.715	95.12
332.943	96.12
333.172	89.12
333.4	94.12
333.629	112.12
333.857	114.12
334.085	119.12
334.314	121.12
334.542	177.12
334.771	160.12
334.999	125.12
335.227	94.12
335.455	100.12
335.684	91.12
335.912	104.12
336.14	95.12
336.369	102.12
336.597	96.12
336.825	87.12
337.053	103.12
337.281	89.12
337.51	82.12
337.738	87.12
337.966	79.12
338.194	96.12
338.422	98.12
338.65	96.12
338.878	93.12
339.106	88.12
339.334	101.12
339.562	86.12
339.79	90.12
340.018	84.12
340.246	89.12
340.474	94.12
340.702	77.12
340.93	83.12
341.158	82.12
341.386	90.12
341.614	93.12
341.842	97.12
342.07	77.12
342.298	90.12
342.526	90.12
342.754	91.12
342.981	98.12
343.209	90.12
343.437	89.12
343.665	83.12
343.893	87.12
344.12	88.12
344.348	86.12
344.576	92.12
344.804	106.12
345.031	90.12
345.259	96.12
345.487	95.12
345.714	103.12
345.942	88.12
346.17	84.12
346.397	87.12
346.625	83.12
346.853	96.12
347.08	98.12
347.308	95.12
347.535	98.12
347.763	101.12
347.99	88.12
348.218	103.12
348.445	102.12
348.673	93.12
348.9	101.12
349.128	93.12
349.355	76.12
349.583	92.12
349.81	97.12
350.037	95.12
350.265	96.12
350.492	97.12
350.72	97.12
350.947	97.12
351.174	106.12
351.402	104.12
351.629	109.12
351.856	105.12
352.083	102.12
352.311	113.12
352.538	103.12
352.765	109.12
352.992	103.12
353.22	112.12
353.447	99.12
353.674	89.12
353.901	104.12
354.128	93.12
354.355	91.12
354.583	95.12
354.81	101.12
355.037	95.12
355.264	95.12
355.491	83.12
355.718	92.12
355.945	77.12
356.172	101.12
356.399	86.12
356.626	85.12
356.853	99.12
357.08	93.12
357.307	97.12
357.534	83.12
357.761	97.12
357.988	97.12
358.215	96.12
358.441	84.12
358.668	93.12
358.895	83.12
359.122	91.12
359.349	90.12
359.576	95.12
359.802	99.12
360.029	101.12
360.256	104.12
360.483	94.12
360.709	82.12
360.936	101.12
361.163	88.12
361.39	93.12
361.616	71.12
361.843	87.12
362.07	95.12
362.296	89.12
362.523	85.12
362.749	81.12
362.976	88.12
363.203	105.12
363.429	82.12
363.656	104.12
363.882	95.12
364.109	88.12
364.335	90.12
364.562	82.12
364.788	81.12
365.015	107.12
365.241	104.12
365.468	93.12
365.694	119.12
365.92	97.12
366.147	78.12
366.373	97.12
366.599	90.12
366.826	81.12
367.052	93.12
367.278	92.12
367.505	90.12
367.731	92.12
367.957	105.12
368.184	90.12
368.41	97.12
368.636	120.12
368.862	105.12
369.089	104.12
369.315	92.12
369.541	109.12
369.767	84.12
369.993	76.12
370.219	90.12
370.445	79.12
370.672	79.12
370.898	68.12
371.124	72.12
371.35	83.12
371.576	74.12
371.802	88.12
372.028	89.12
372.254	83.12
372.48	89.12
372.706	87.12
372.932	90.12
373.158	76.12
373.384	87.12
373.61	80.12
373.835	90.12
374.061	75.12
374.287	82.12
374.513	86.12
374.739	90.12
374.965	83.12
375.191	91.12
375.416	86.12
375.642	91.12
375.868	97.12
376.094	99.12
376.319	88.12
376.545	92.12
376.771	93.12
376.997	82.12
377.222	90.12
377.448	96.12
377.674	80.12
377.899	98.12
378.125	87.12
378.35	82.12
378.576	89.12
378.802	89.12
379.027	101.12
379.253	89.12
379.478	95.12
379.704	92.12
379.929	86.12
380.155	111.12
380.38	91.12
380.606	76.12
380.831	92.12
381.057	94.12
381.282	92.12
381.507	96.12
381.733	101.12
381.958	86.12
382.184	81.12
382.409	88.12
382.634	93.12
382.86	91.12
383.085	116.12
383.31	96.12
383.535	82.12
383.761	102.12
383.986	90.12
384.211	89.12
384.436	92.12
384.662	112.12
384.887	95.12
385.112	98.12
385.337	105.12
385.562	96.12
385.787	106.12
386.013	104.12
386.238	115.12
386.463	101.12
386.688	101.12
386.913	111.12
387.138	110.12
387.363	97.12
387.588	87.12
387.813	95.12
388.038	111.12
388.263	119.12
388.488	102.12
388.713	110.12
388.938	88.12
389.163	94.12
389.387	95.12
389.612	97.12
389.837	91.12
390.062	85.12
390.287	86.12
390.512	91.12
390.736	99.12
390.961	104.12
391.186	93.12
391.411	121.12
391.636	93.12
391.86	89.12
392.085	102.12
392.31	71.12
392.534	82.12
392.759	69.12
392.984	80.12
393.208	96.12
393.433	85.12
393.658	94.12
393.882	79.12
394.107	82.12
394.331	85.12
394.556	92.12
394.78	80.12
395.005	81.12
395.229	75.12
395.454	81.12
395.678	79.12
395.903	90.12
396.127	93.12
396.352	75.12
396.576	86.12
396.801	79.12
397.025	81.12
397.249	74.12
397.474	80.12
397.698	78.12
397.922	94.12
398.147	84.12
398.371	87.12
398.595	98.12
398.82	90.12
399.044	79.12
399.268	90.12
399.492	88.12
399.717	95.12
399.941	86.12
400.165	102.12
400.389	108.12
400.613	80.12
400.837	94.12
401.062	86.12
401.286	83.12
401.51	92.12
401.734	85.12
401.958	105.12
402.182	125.12
402.406	157.12
402.63	117.12
402.854	93.12
403.078	77.12
403.302	83.12
403.526	94.12
403.75	81.12
403.974	89.12
404.198	91.12
404.422	89.12
404.645	87.12
404.869	91.12
405.093	102.12
405.317	98.12
405.541	95.12
405.765	104.12
405.988	121.12
406.212	168.12
406.436	226.12
406.66	140.12
406.883	97.12
407.107	97.12
407.331	99.12
407.555	80.12
407.778	84.12
408.002	91.12
408.226	87.12
408.449	83.12
408.673	93.12
408.896	99.12
409.12	98.12
409.344	82.12
409.567	86.12
409.791	83.12
410.014	96.12
410.238	95.12
410.461	98.12
410.685	98.12
410.908	89.12
411.132	102.12
411.355	92.12
411.578	95.12
411.802	99.12
412.025	96.12
412.249	106.12
412.472	75.12
412.695	95.12
412.919	80.12
413.142	94.12
413.365	106.12
413.589	97.12
413.812	93.12
414.035	82.12
414.258	82.12
414.482	86.12
414.705	90.12
414.928	98.12
415.151	77.12
415.374	99.12
415.597	86.12
415.821	91.12
416.044	92.12
416.267	86.12
416.49	91.12
416.713	89.12
416.936	92.12
417.159	79.12
417.382	109.12
417.605	80.12
417.828	87.12
418.051	95.12
418.274	79.12
418.497	104.12
418.72	98.12
418.943	79.12
419.166	87.12
419.389	92.12
419.611	93.12
419.834	93.12
420.057	72.12
420.28	89.12
420.503	84.12
420.726	84.12
420.948	82.12
421.171	93.12
421.394	91.12
421.617	87.12
421.839	104.12
422.062	87.12
422.285	95.12
422.507	86.12
422.73	98.12
422.953	103.12
423.175	86.12
423.398	96.12
423.621	102.12
423.843	98.12
424.066	94.12
424.288	97.12
424.511	93.12
424.733	83.12
424.956	103.12
425.178	103.12
425.401	99.12
425.623	90.12
425.846	88.12
426.068	94.12
426.291	92.12
426.513	81.12
426.735	78.12
426.958	81.12
427.18	91.12
427.402	114.12
427.625	157.12
427.847	125.12
428.069	122.12
428.292	87.12
428.514	78.12
428.736	77.12
428.958	71.12
429.181	83.12
429.403	80.12
429.625	95.12
429.847	75.12
430.069	95.12
430.292	100.12
430.514	102.12
430.736	83.12
430.958	80.12
431.18	74.12
431.402	91.12
431.624	93.12
431.846	78.12
432.068	91.12
432.29	95.12
432.512	93.12
432.734	66.12
432.956	101.12
433.178	93.12
433.4	94.12
433.622	87.12
433.844	99.12
434.066	99.12
434.287	90.12
434.509	82.12
434.731	79.12
434.953	88.12
435.175	83.12
435.397	83.12
435.618	80.12
435.84	98.12
436.062	108.12
436.284	106.12
436.505	96.12
436.727	104.12
436.949	68.12
437.17	78.12
437.392	83.12
437.614	96.12
437.835	99.12
438.057	105.12
438.278	99.12
438.5	87.12
438.721	107.12
438.943	89.12
439.165	85.12
439.386	84.12
439.608	90.12
439.829	81.12
440.05	97.12
440.272	129.12
440.493	93.12
440.715	75.12
440.936	80.12
441.158	81.12
441.379	80.12
441.6	81.12
441.822	103.12
442.043	85.12
442.264	79.12
442.486	72.12
442.707	88.12
442.928	97.12
443.149	115.12
443.371	114.12
443.592	102.12
443.813	94.12
444.034	95.12
444.255	95.12
444.476	87.12
444.698	87.12
444.919	87.12
445.14	121.12
445.361	115.12
445.582	108.12
445.803	135.12
446.024	120.12
446.245	103.12
446.466	90.12
446.687	77.12
446.908	77.12
447.129	78.12
447.35	86.12
447.571	102.12
447.792	98.12
448.013	95.12
448.234	99.12
448.455	94.12
448.675	101.12
448.896	117.12
449.117	101.12
449.338	95.12
449.559	115.12
449.779	122.12
450	87.12
450.221	86.12
450.442	80.12
450.662	110.12
450.883	114.12
451.104	110.12
451.324	100.12
451.545	95.12
451.766	64.12
451.986	98.12
452.207	80.12
452.428	84.12
452.648	94.12
452.869	101.12
453.089	111.12
453.31	109.12
453.53	76.12
453.751	93.12
453.971	110.12
454.192	119.12
454.412	98.12
454.633	84.12
454.853	98.12
455.073	96.12
455.294	73.12
455.514	97.12
455.734	88.12
455.955	78.12
456.175	76.12
456.395	90.12
456.616	94.12
456.836	87.12
457.056	83.12
457.276	71.12
457.497	80.12
457.717	90.12
457.937	94.12
458.157	80.12
458.377	86.12
458.598	100.12
458.818	118.12
459.038	147.12
459.258	114.12
459.478	94.12
459.698	89.12
459.918	85.12
460.138	85.12
460.358	86.12
460.578	93.12
460.798	90.12
461.018	80.12
461.238	83.12
461.458	91.12
461.678	81.12
461.898	88.12
462.118	82.12
462.338	90.12
462.558	85.12
462.777	74.12
462.997	89.12
463.217	82.12
463.437	88.12
463.657	89.12
463.876	80.12
464.096	85.12
464.316	98.12
464.536	98.12
464.755	83.12
464.975	97.12
465.195	146.12
465.414	163.12
465.634	106.12
465.854	76.12
466.073	87.12
466.293	80.12
466.512	82.12
466.732	82.12
466.951	87.12
467.171	89.12
467.391	99.12
467.61	96.12
467.829	97.12
468.049	117.12
468.268	109.12
468.488	99.12
468.707	77.12
468.927	88.12
469.146	82.12
469.365	83.12
469.585	92.12
469.804	85.12
470.023	88.12
470.243	95.12
470.462	104.12
470.681	88.12
470.901	86.12
471.12	87.12
471.339	88.12
471.558	77.12
471.777	88.12
471.997	99.12
472.216	157.12
472.435	221.12
472.654	105.12
472.873	101.12
473.092	94.12
473.311	84.12
473.53	87.12
473.749	83.12
473.968	102.12
474.187	94.12
474.406	95.12
474.625	72.12
474.844	85.12
475.063	84.12
475.282	106.12
475.501	93.12
475.72	81.12
475.939	90.12
476.158	96.12
476.377	86.12
476.596	84.12
476.814	92.12
477.033	91.12
477.252	84.12
477.471	94.12
477.69	92.12
477.908	92.12
478.127	78.12
478.346	90.12
478.564	75.12
478.783	91.12
479.002	98.12
479.22	98.12
479.439	87.12
479.658	101.12
479.876	99.12
480.095	84.12
480.313	107.12
480.532	95.12
480.751	105.12
480.969	154.12
481.188	319.12
481.406	229.12
481.624	97.12
481.843	87.12
482.061	97.12
482.28	89.12
482.498	85.12
482.717	87.12
482.935	84.12
483.153	94.12
483.372	90.12
483.59	78.12
483.808	92.12
484.027	82.12
484.245	87.12
484.463	75.12
484.681	103.12
484.9	94.12
485.118	100.12
485.336	83.12
485.554	85.12
485.772	104.12
485.99	103.12
486.209	87.12
486.427	82.12
486.645	114.12
486.863	117.12
487.081	93.12
487.299	95.12
487.517	88.12
487.735	93.12
487.953	90.12
488.171	89.12
488.389	112.12
488.607	106.12
488.825	102.12
489.043	108.12
489.261	93.12
489.479	93.12
489.696	106.12
489.914	105.12
490.132	82.12
490.35	95.12
490.568	97.12
490.786	84.12
491.003	80.12
491.221	97.12
491.439	89.12
491.657	86.12
491.874	90.12
492.092	76.12
492.31	86.12
492.527	80.12
492.745	80.12
492.963	86.12
493.18	97.12
493.398	83.12
493.615	95.12
493.833	101.12
494.05	82.12
494.268	91.12
494.485	96.12
494.703	83.12
494.92	73.12
495.138	96.12
495.355	95.12
495.573	88.12
495.79	98.12
496.008	81.12
496.225	105.12
496.442	85.12
496.66	79.12
496.877	91.12
497.094	90.12
497.312	82.12
497.529	82.12
497.746	103.12
497.963	101.12
498.181	88.12
498.398	104.12
498.615	113.12
498.832	93.12
499.049	85.12
499.267	83.12
499.484	103.12
499.701	87.12
499.918	82.12
500.135	78.12
500.352	81.12
500.569	83.12
500.786	82.12
501.003	99.12
501.22	91.12
501.437	86.12
501.654	98.12
501.871	104.12
502.088	93.12
502.305	87.12
502.522	83.12
502.739	69.12
502.956	99.12
503.172	108.12
503.389	89.12
503.606	96.12
503.823	101.12
504.04	96.12
504.256	82.12
504.473	82.12
504.69	78.12
504.907	98.12
505.123	88.12
505.34	73.12
505.557	95.12
505.773	98.12
505.99	85.12
506.207	92.12
506.423	82.12
506.64	88.12
506.856	94.12
507.073	90.12
507.289	97.12
507.506	86.12
507.722	111.12
507.939	114.12
508.155	93.12
508.372	98.12
508.588	100.12
508.805	100.12
509.021	94.12
509.238	98.12
509.454	95.12
509.67	106.12
509.887	108.12
510.103	127.12
510.319	213.12
510.536	824.12
510.752	2594.12
510.968	736.12
511.184	153.12
511.401	111.12
511.617	100.12
511.833	95.12
512.049	82.12
512.265	88.12
512.481	101.12
512.698	96.12
512.914	99.12
513.13	96.12
513.346	79.12
513.562	89.12
513.778	95.12
513.994	93.12
514.21	113.12
514.426	116.12
514.642	115.12
514.858	133.12
515.074	149.12
515.29	466.12
515.506	1559.12
515.721	583.12
515.937	156.12
516.153	104.12
