Data from Circ_2008_H10_HRD10591_00034.txt Node
Date: Wed Jan 03 10:17:03 EST 2024
User: Yrep
Spectrometer: HR+D1059
Trigger mode: 1
Integration Time (sec): 1.000000E-1
Scans to average: 1
Electric dark correction enabled: true
Nonlinearity correction enabled: false
Boxcar width: 0
XAxis mode: Wavelengths
Number of Pixels in Spectrum: 2048
>>>>>Begin Spectral Data<<<<<
223.165	-21.44
223.4	-21.44
223.635	-21.44
223.869	-14.44
224.104	-18.44
224.338	-15.44
224.573	-21.44
224.808	-13.44
225.042	-3.44
225.277	0.56
225.511	2.56
225.746	10.56
225.98	10.56
226.215	4.56
226.449	12.56
226.683	13.56
226.918	28.56
227.152	24.56
227.387	46.56
227.621	30.56
227.856	31.56
228.09	43.56
228.324	49.56
228.559	61.56
228.793	68.56
229.027	65.56
229.262	70.56
229.496	69.56
229.73	79.56
229.964	93.56
230.199	69.56
230.433	79.56
230.667	87.56
230.901	73.56
231.136	71.56
231.37	70.56
231.604	81.56
231.838	80.56
232.072	83.56
232.306	91.56
232.541	81.56
232.775	73.56
233.009	78.56
233.243	89.56
233.477	61.56
233.711	77.56
233.945	89.56
234.179	80.56
234.413	67.56
234.647	81.56
234.881	70.56
235.115	82.56
235.349	72.56
235.583	80.56
235.817	80.56
236.051	81.56
236.285	83.56
236.519	91.56
236.753	87.56
236.987	89.56
237.221	76.56
237.455	81.56
237.689	81.56
237.922	76.56
238.156	68.56
238.39	84.56
238.624	84.56
238.858	83.56
239.091	86.56
239.325	81.56
239.559	99.56
239.793	81.56
240.027	90.56
240.26	67.56
240.494	86.56
240.728	85.56
240.961	74.56
241.195	85.56
241.429	86.56
241.662	76.56
241.896	71.56
242.13	69.56
242.363	83.56
242.597	79.56
242.83	90.56
243.064	85.56
243.298	77.56
243.531	80.56
243.765	84.56
243.998	77.56
244.232	94.56
244.465	80.56
244.699	86.56
244.932	75.56
245.166	80.56
245.399	77.56
245.633	84.56
245.866	78.56
246.099	87.56
246.333	77.56
246.566	65.56
246.8	82.56
247.033	78.56
247.266	88.56
247.5	73.56
247.733	73.56
247.966	85.56
248.2	90.56
248.433	90.56
248.666	84.56
248.899	94.56
249.133	84.56
249.366	80.56
249.599	76.56
249.832	78.56
250.066	84.56
250.299	76.56
250.532	80.56
250.765	81.56
250.998	85.56
251.231	72.56
251.465	72.56
251.698	83.56
251.931	88.56
252.164	67.56
252.397	86.56
252.63	82.56
252.863	89.56
253.096	74.56
253.329	82.56
253.562	86.56
253.795	89.56
254.028	85.56
254.261	78.56
254.494	76.56
254.727	93.56
254.96	79.56
255.193	74.56
255.426	78.56
255.659	87.56
255.892	74.56
256.124	78.56
256.357	79.56
256.59	85.56
256.823	76.56
257.056	76.56
257.289	70.56
257.521	75.56
257.754	75.56
257.987	83.56
258.22	95.56
258.452	94.56
258.685	81.56
258.918	72.56
259.151	82.56
259.383	88.56
259.616	92.56
259.849	78.56
260.081	74.56
260.314	89.56
260.547	72.56
260.779	75.56
261.012	93.56
261.244	85.56
261.477	77.56
261.71	90.56
261.942	104.56
262.175	117.56
262.407	96.56
262.64	76.56
262.872	82.56
263.105	75.56
263.337	87.56
263.57	84.56
263.802	89.56
264.035	75.56
264.267	76.56
264.499	101.56
264.732	89.56
264.964	77.56
265.197	85.56
265.429	75.56
265.661	87.56
265.894	80.56
266.126	89.56
266.358	84.56
266.591	82.56
266.823	84.56
267.055	83.56
267.287	70.56
267.52	76.56
267.752	86.56
267.984	98.56
268.216	86.56
268.448	81.56
268.681	97.56
268.913	92.56
269.145	81.56
269.377	88.56
269.609	86.56
269.841	91.56
270.073	84.56
270.306	81.56
270.538	86.56
270.77	74.56
271.002	82.56
271.234	93.56
271.466	85.56
271.698	88.56
271.93	93.56
272.162	100.56
272.394	97.56
272.626	86.56
272.858	101.56
273.09	92.56
273.322	82.56
273.553	80.56
273.785	89.56
274.017	77.56
274.249	86.56
274.481	91.56
274.713	89.56
274.945	73.56
275.176	96.56
275.408	89.56
275.64	93.56
275.872	90.56
276.104	79.56
276.335	100.56
276.567	108.56
276.799	114.56
277.031	107.56
277.262	88.56
277.494	77.56
277.726	86.56
277.957	88.56
278.189	81.56
278.421	92.56
278.652	94.56
278.884	97.56
279.115	94.56
279.347	92.56
279.579	92.56
279.81	94.56
280.042	85.56
280.273	97.56
280.505	81.56
280.736	80.56
280.968	89.56
281.199	91.56
281.431	91.56
281.662	81.56
281.894	95.56
282.125	95.56
282.356	137.56
282.588	142.56
282.819	120.56
283.051	81.56
283.282	86.56
283.513	70.56
283.745	82.56
283.976	87.56
284.207	93.56
284.439	85.56
284.67	78.56
284.901	81.56
285.132	81.56
285.364	86.56
285.595	85.56
285.826	85.56
286.057	96.56
286.288	96.56
286.52	85.56
286.751	83.56
286.982	78.56
287.213	84.56
287.444	82.56
287.675	88.56
287.906	100.56
288.138	101.56
288.369	106.56
288.6	86.56
288.831	81.56
289.062	86.56
289.293	105.56
289.524	84.56
289.755	89.56
289.986	88.56
290.217	87.56
290.448	87.56
290.679	78.56
290.91	97.56
291.141	85.56
291.371	79.56
291.602	81.56
291.833	79.56
292.064	80.56
292.295	84.56
292.526	83.56
292.757	89.56
292.987	97.56
293.218	91.56
293.449	84.56
293.68	81.56
293.91	75.56
294.141	92.56
294.372	91.56
294.603	91.56
294.833	91.56
295.064	86.56
295.295	82.56
295.525	96.56
295.756	110.56
295.987	106.56
296.217	140.56
296.448	130.56
296.679	111.56
296.909	79.56
297.14	88.56
297.37	90.56
297.601	91.56
297.831	86.56
298.062	96.56
298.292	89.56
298.523	94.56
298.753	87.56
298.984	90.56
299.214	101.56
299.445	98.56
299.675	101.56
299.905	91.56
300.136	96.56
300.366	85.56
300.597	93.56
300.827	89.56
301.057	100.56
301.288	105.56
301.518	86.56
301.748	89.56
301.979	98.56
302.209	88.56
302.439	98.56
302.669	95.56
302.9	89.56
303.13	89.56
303.36	93.56
303.59	89.56
303.82	108.56
304.051	96.56
304.281	98.56
304.511	81.56
304.741	93.56
304.971	97.56
305.201	98.56
305.431	98.56
305.661	96.56
305.891	91.56
306.121	101.56
306.352	83.56
306.582	94.56
306.812	86.56
307.042	91.56
307.272	92.56
307.502	90.56
307.731	108.56
307.961	102.56
308.191	92.56
308.421	79.56
308.651	103.56
308.881	95.56
309.111	85.56
309.341	101.56
309.571	92.56
309.8	97.56
310.03	90.56
310.26	90.56
310.49	90.56
310.72	105.56
310.949	102.56
311.179	108.56
311.409	98.56
311.639	89.56
311.868	102.56
312.098	93.56
312.328	106.56
312.557	107.56
312.787	101.56
313.017	101.56
313.246	92.56
313.476	102.56
313.706	88.56
313.935	91.56
314.165	93.56
314.394	93.56
314.624	104.56
314.853	94.56
315.083	97.56
315.312	94.56
315.542	90.56
315.771	90.56
316.001	90.56
316.23	84.56
316.46	94.56
316.689	100.56
316.919	82.56
317.148	90.56
317.377	92.56
317.607	98.56
317.836	95.56
318.065	88.56
318.295	86.56
318.524	83.56
318.753	97.56
318.983	99.56
319.212	108.56
319.441	104.56
319.67	122.56
319.9	96.56
320.129	79.56
320.358	88.56
320.587	99.56
320.816	100.56
321.046	101.56
321.275	104.56
321.504	108.56
321.733	88.56
321.962	102.56
322.191	104.56
322.42	84.56
322.649	111.56
322.878	110.56
323.108	108.56
323.337	131.56
323.566	124.56
323.795	145.56
324.024	201.56
324.253	382.56
324.482	744.56
324.71	1522.56
324.939	1994.56
325.168	761.56
325.397	252.56
325.626	149.56
325.855	138.56
326.084	124.56
326.313	131.56
326.542	131.56
326.77	233.56
326.999	416.56
327.228	813.56
327.457	1507.56
327.686	1192.56
327.914	342.56
328.143	209.56
328.372	150.56
328.6	142.56
328.829	122.56
329.058	144.56
329.287	126.56
329.515	112.56
329.744	122.56
329.972	117.56
330.201	132.56
330.43	154.56
330.658	138.56
330.887	142.56
331.115	130.56
331.344	99.56
331.572	108.56
331.801	101.56
332.03	97.56
332.258	95.56
332.486	96.56
332.715	84.56
332.943	94.56
333.172	92.56
333.4	96.56
333.629	110.56
333.857	114.56
334.085	119.56
334.314	112.56
334.542	140.56
334.771	150.56
334.999	105.56
335.227	97.56
335.455	99.56
335.684	91.56
335.912	106.56
336.14	106.56
336.369	92.56
336.597	90.56
336.825	93.56
337.053	81.56
337.281	81.56
337.51	97.56
337.738	99.56
337.966	97.56
338.194	99.56
338.422	90.56
338.65	100.56
338.878	94.56
339.106	90.56
339.334	87.56
339.562	94.56
339.79	97.56
340.018	92.56
340.246	87.56
340.474	92.56
340.702	81.56
340.93	90.56
341.158	105.56
341.386	97.56
341.614	97.56
341.842	105.56
342.07	97.56
342.298	78.56
342.526	97.56
342.754	90.56
342.981	94.56
343.209	80.56
343.437	117.56
343.665	96.56
343.893	105.56
344.12	91.56
344.348	106.56
344.576	104.56
344.804	83.56
345.031	99.56
345.259	97.56
345.487	86.56
345.714	110.56
345.942	95.56
346.17	97.56
346.397	103.56
346.625	86.56
346.853	76.56
347.08	104.56
347.308	90.56
347.535	104.56
347.763	102.56
347.99	102.56
348.218	109.56
348.445	105.56
348.673	109.56
348.9	80.56
349.128	105.56
349.355	94.56
349.583	98.56
349.81	97.56
350.037	108.56
350.265	92.56
350.492	91.56
350.72	89.56
350.947	112.56
351.174	90.56
351.402	105.56
351.629	100.56
351.856	100.56
352.083	115.56
352.311	105.56
352.538	113.56
352.765	113.56
352.992	115.56
353.22	123.56
353.447	97.56
353.674	115.56
353.901	88.56
354.128	104.56
354.355	86.56
354.583	96.56
354.81	105.56
355.037	112.56
355.264	100.56
355.491	96.56
355.718	97.56
355.945	106.56
356.172	90.56
356.399	110.56
356.626	82.56
356.853	89.56
357.08	92.56
357.307	88.56
357.534	87.56
357.761	97.56
357.988	86.56
358.215	101.56
358.441	91.56
358.668	94.56
358.895	97.56
359.122	93.56
359.349	86.56
359.576	99.56
359.802	95.56
360.029	104.56
360.256	103.56
360.483	84.56
360.709	86.56
360.936	96.56
361.163	97.56
361.39	97.56
361.616	96.56
361.843	102.56
362.07	91.56
362.296	80.56
362.523	86.56
362.749	108.56
362.976	93.56
363.203	95.56
363.429	99.56
363.656	91.56
363.882	98.56
364.109	95.56
364.335	96.56
364.562	92.56
364.788	100.56
365.015	98.56
365.241	93.56
365.468	115.56
365.694	111.56
365.92	102.56
366.147	88.56
366.373	91.56
366.599	69.56
366.826	89.56
367.052	90.56
367.278	92.56
367.505	95.56
367.731	84.56
367.957	100.56
368.184	101.56
368.41	103.56
368.636	122.56
368.862	125.56
369.089	120.56
369.315	90.56
369.541	105.56
369.767	101.56
369.993	101.56
370.219	96.56
370.445	89.56
370.672	93.56
370.898	85.56
371.124	93.56
371.35	98.56
371.576	91.56
371.802	70.56
372.028	90.56
372.254	85.56
372.48	91.56
372.706	100.56
372.932	88.56
373.158	86.56
373.384	78.56
373.61	94.56
373.835	94.56
374.061	90.56
374.287	98.56
374.513	91.56
374.739	72.56
374.965	87.56
375.191	91.56
375.416	88.56
375.642	92.56
375.868	92.56
376.094	81.56
376.319	76.56
376.545	94.56
376.771	97.56
376.997	88.56
377.222	98.56
377.448	93.56
377.674	98.56
377.899	91.56
378.125	91.56
378.35	92.56
378.576	80.56
378.802	89.56
379.027	99.56
379.253	89.56
379.478	103.56
379.704	94.56
379.929	90.56
380.155	84.56
380.38	79.56
380.606	102.56
380.831	91.56
381.057	94.56
381.282	89.56
381.507	76.56
381.733	103.56
381.958	94.56
382.184	102.56
382.409	99.56
382.634	104.56
382.86	102.56
383.085	100.56
383.31	98.56
383.535	112.56
383.761	108.56
383.986	100.56
384.211	92.56
384.436	93.56
384.662	101.56
384.887	96.56
385.112	116.56
385.337	108.56
385.562	114.56
385.787	107.56
386.013	111.56
386.238	122.56
386.463	109.56
386.688	114.56
386.913	110.56
387.138	103.56
387.363	92.56
387.588	94.56
387.813	104.56
388.038	116.56
388.263	133.56
388.488	106.56
388.713	97.56
388.938	103.56
389.163	80.56
389.387	99.56
389.612	99.56
389.837	93.56
390.062	96.56
390.287	87.56
390.512	85.56
390.736	104.56
390.961	113.56
391.186	87.56
391.411	96.56
391.636	83.56
391.86	81.56
392.085	85.56
392.31	90.56
392.534	83.56
392.759	80.56
392.984	91.56
393.208	95.56
393.433	104.56
393.658	96.56
393.882	99.56
394.107	91.56
394.331	80.56
394.556	93.56
394.78	90.56
395.005	98.56
395.229	99.56
395.454	87.56
395.678	86.56
395.903	87.56
396.127	85.56
396.352	85.56
396.576	91.56
396.801	88.56
397.025	95.56
397.249	96.56
397.474	92.56
397.698	96.56
397.922	88.56
398.147	92.56
398.371	74.56
398.595	97.56
398.82	103.56
399.044	84.56
399.268	102.56
399.492	83.56
399.717	81.56
399.941	104.56
400.165	91.56
400.389	101.56
400.613	98.56
400.837	83.56
401.062	90.56
401.286	92.56
401.51	92.56
401.734	89.56
401.958	106.56
402.182	133.56
402.406	154.56
402.63	132.56
402.854	112.56
403.078	92.56
403.302	89.56
403.526	93.56
403.75	90.56
403.974	92.56
404.198	92.56
404.422	90.56
404.645	98.56
404.869	82.56
405.093	91.56
405.317	109.56
405.541	102.56
405.765	109.56
405.988	124.56
406.212	168.56
406.436	248.56
406.66	158.56
406.883	102.56
407.107	111.56
407.331	101.56
407.555	111.56
407.778	92.56
408.002	97.56
408.226	86.56
408.449	81.56
408.673	86.56
408.896	97.56
409.12	83.56
409.344	98.56
409.567	73.56
409.791	92.56
410.014	93.56
410.238	89.56
410.461	92.56
410.685	81.56
410.908	96.56
411.132	98.56
411.355	96.56
411.578	108.56
411.802	93.56
412.025	90.56
412.249	105.56
412.472	93.56
412.695	106.56
412.919	83.56
413.142	92.56
413.365	96.56
413.589	86.56
413.812	85.56
414.035	103.56
414.258	112.56
414.482	98.56
414.705	79.56
414.928	96.56
415.151	90.56
415.374	81.56
415.597	88.56
415.821	98.56
416.044	94.56
416.267	92.56
416.49	80.56
416.713	84.56
416.936	83.56
417.159	94.56
417.382	89.56
417.605	93.56
417.828	106.56
418.051	108.56
418.274	82.56
418.497	86.56
418.72	87.56
418.943	99.56
419.166	88.56
419.389	84.56
419.611	97.56
419.834	88.56
420.057	100.56
420.28	93.56
420.503	86.56
420.726	86.56
420.948	87.56
421.171	91.56
421.394	93.56
421.617	93.56
421.839	103.56
422.062	93.56
422.285	89.56
422.507	89.56
422.73	94.56
422.953	97.56
423.175	72.56
423.398	84.56
423.621	96.56
423.843	104.56
424.066	92.56
424.288	92.56
424.511	89.56
424.733	109.56
424.956	118.56
425.178	89.56
425.401	103.56
425.623	107.56
425.846	92.56
426.068	98.56
426.291	101.56
426.513	105.56
426.735	90.56
426.958	95.56
427.18	100.56
427.402	121.56
427.625	150.56
427.847	136.56
428.069	121.56
428.292	96.56
428.514	84.56
428.736	86.56
428.958	96.56
429.181	91.56
429.403	84.56
429.625	100.56
429.847	85.56
430.069	101.56
430.292	92.56
430.514	106.56
430.736	78.56
430.958	98.56
431.18	82.56
431.402	91.56
431.624	94.56
431.846	75.56
432.068	94.56
432.29	82.56
432.512	78.56
432.734	85.56
432.956	91.56
433.178	90.56
433.4	107.56
433.622	80.56
433.844	102.56
434.066	103.56
434.287	90.56
434.509	80.56
434.731	93.56
434.953	99.56
435.175	90.56
435.397	89.56
435.618	99.56
435.84	110.56
436.062	117.56
436.284	102.56
436.505	92.56
436.727	107.56
436.949	95.56
437.17	88.56
437.392	90.56
437.614	104.56
437.835	92.56
438.057	122.56
438.278	113.56
438.5	109.56
438.721	106.56
438.943	96.56
439.165	83.56
439.386	100.56
439.608	90.56
439.829	106.56
440.05	100.56
440.272	132.56
440.493	96.56
440.715	85.56
440.936	96.56
441.158	85.56
441.379	92.56
441.6	98.56
441.822	96.56
442.043	98.56
442.264	108.56
442.486	106.56
442.707	91.56
442.928	103.56
443.149	128.56
443.371	116.56
443.592	114.56
443.813	99.56
444.034	106.56
444.255	92.56
444.476	92.56
444.698	94.56
444.919	94.56
445.14	142.56
445.361	123.56
445.582	112.56
445.803	124.56
446.024	143.56
446.245	134.56
446.466	101.56
446.687	81.56
446.908	85.56
447.129	75.56
447.35	80.56
447.571	94.56
447.792	81.56
448.013	102.56
448.234	103.56
448.455	104.56
448.675	115.56
448.896	114.56
449.117	101.56
449.338	107.56
449.559	126.56
449.779	131.56
450	96.56
450.221	88.56
450.442	85.56
450.662	93.56
450.883	98.56
451.104	112.56
451.324	91.56
451.545	78.56
451.766	96.56
451.986	79.56
452.207	92.56
452.428	105.56
452.648	83.56
452.869	114.56
453.089	127.56
453.31	123.56
453.53	99.56
453.751	94.56
453.971	91.56
454.192	105.56
454.412	89.56
454.633	81.56
454.853	91.56
455.073	79.56
455.294	96.56
455.514	96.56
455.734	73.56
455.955	86.56
456.175	80.56
456.395	94.56
456.616	91.56
456.836	70.56
457.056	79.56
457.276	86.56
457.497	93.56
457.717	94.56
457.937	81.56
458.157	90.56
458.377	91.56
458.598	107.56
458.818	154.56
459.038	152.56
459.258	111.56
459.478	78.56
459.698	91.56
459.918	85.56
460.138	86.56
460.358	82.56
460.578	88.56
460.798	83.56
461.018	100.56
461.238	92.56
461.458	104.56
461.678	96.56
461.898	71.56
462.118	102.56
462.338	88.56
462.558	89.56
462.777	71.56
462.997	92.56
463.217	111.56
463.437	91.56
463.657	84.56
463.876	85.56
464.096	96.56
464.316	92.56
464.536	84.56
464.755	98.56
464.975	100.56
465.195	155.56
465.414	160.56
465.634	114.56
465.854	94.56
466.073	96.56
466.293	85.56
466.512	79.56
466.732	86.56
466.951	80.56
467.171	97.56
467.391	92.56
467.61	99.56
467.829	107.56
468.049	103.56
468.268	104.56
468.488	98.56
468.707	82.56
468.927	87.56
469.146	81.56
469.365	85.56
469.585	94.56
469.804	78.56
470.023	96.56
470.243	82.56
470.462	89.56
470.681	109.56
470.901	100.56
471.12	78.56
471.339	84.56
471.558	81.56
471.777	99.56
471.997	106.56
472.216	130.56
472.435	171.56
472.654	102.56
472.873	100.56
473.092	95.56
473.311	91.56
473.53	84.56
473.749	87.56
473.968	94.56
474.187	102.56
474.406	99.56
474.625	82.56
474.844	97.56
475.063	97.56
475.282	90.56
475.501	77.56
475.72	90.56
475.939	79.56
476.158	104.56
476.377	99.56
476.596	102.56
476.814	94.56
477.033	105.56
477.252	102.56
477.471	89.56
477.69	89.56
477.908	91.56
478.127	95.56
478.346	88.56
478.564	90.56
478.783	102.56
479.002	97.56
479.22	88.56
479.439	104.56
479.658	97.56
479.876	101.56
480.095	101.56
480.313	93.56
480.532	83.56
480.751	97.56
480.969	127.56
481.188	252.56
481.406	192.56
481.624	113.56
481.843	96.56
482.061	97.56
482.28	87.56
482.498	92.56
482.717	86.56
482.935	92.56
483.153	99.56
483.372	92.56
483.59	91.56
483.808	110.56
484.027	84.56
484.245	94.56
484.463	97.56
484.681	84.56
484.9	94.56
485.118	90.56
485.336	78.56
485.554	92.56
485.772	97.56
485.99	114.56
486.209	122.56
486.427	106.56
486.645	97.56
486.863	111.56
487.081	104.56
487.299	79.56
487.517	86.56
487.735	95.56
487.953	93.56
488.171	100.56
488.389	105.56
488.607	109.56
488.825	91.56
489.043	78.56
489.261	78.56
489.479	78.56
489.696	94.56
489.914	84.56
490.132	91.56
490.35	90.56
490.568	98.56
490.786	93.56
491.003	98.56
491.221	99.56
491.439	96.56
491.657	92.56
491.874	97.56
492.092	91.56
492.31	97.56
492.527	91.56
492.745	84.56
492.963	84.56
493.18	90.56
493.398	96.56
493.615	84.56
493.833	90.56
494.05	92.56
494.268	79.56
494.485	95.56
494.703	87.56
494.92	85.56
495.138	84.56
495.355	96.56
495.573	94.56
495.79	92.56
496.008	92.56
496.225	88.56
496.442	91.56
496.66	115.56
496.877	95.56
497.094	86.56
497.312	97.56
497.529	101.56
497.746	91.56
497.963	92.56
498.181	101.56
498.398	97.56
498.615	108.56
498.832	108.56
499.049	90.56
499.267	106.56
499.484	90.56
499.701	89.56
499.918	88.56
500.135	85.56
500.352	91.56
500.569	93.56
500.786	99.56
501.003	84.56
501.22	83.56
501.437	88.56
501.654	101.56
501.871	107.56
502.088	102.56
502.305	80.56
502.522	85.56
502.739	83.56
502.956	98.56
503.172	111.56
503.389	103.56
503.606	109.56
503.823	96.56
504.04	92.56
504.256	96.56
504.473	89.56
504.69	110.56
504.907	94.56
505.123	99.56
505.34	89.56
505.557	86.56
505.773	97.56
505.99	91.56
506.207	92.56
506.423	83.56
506.64	102.56
506.856	96.56
507.073	108.56
507.289	96.56
507.506	112.56
507.722	100.56
507.939	103.56
508.155	96.56
508.372	96.56
508.588	94.56
508.805	89.56
509.021	100.56
509.238	93.56
509.454	93.56
509.67	112.56
509.887	107.56
510.103	144.56
510.319	229.56
510.536	854.56
510.752	2809.56
510.968	795.56
511.184	170.56
511.401	113.56
511.617	102.56
511.833	91.56
512.049	94.56
512.265	88.56
512.481	98.56
512.698	83.56
512.914	85.56
513.13	73.56
513.346	117.56
513.562	105.56
513.778	101.56
513.994	102.56
514.21	90.56
514.426	134.56
514.642	142.56
514.858	121.56
515.074	164.56
