Data from Circ_2008_H10_HRD10591_00068.txt Node
Date: Wed Jan 03 10:17:09 EST 2024
User: Yrep
Spectrometer: HR+D1059
Trigger mode: 1
Integration Time (sec): 1.000000E-1
Scans to average: 1
Electric dark correction enabled: true
Nonlinearity correction enabled: false
Boxcar width: 0
XAxis mode: Wavelengths
Number of Pixels in Spectrum: 2048
>>>>>Begin Spectral Data<<<<<
223.165	-28.5
223.4	-28.5
223.635	-28.5
223.869	-15.5
224.104	-16.5
224.338	-9.5
224.573	-20.5
224.808	-12.5
225.042	-7.5
225.277	0.5
225.511	-2.5
225.746	3.5
225.98	8.5
226.215	2.5
226.449	21.5
226.683	14.5
226.918	35.5
227.152	26.5
227.387	27.5
227.621	29.5
227.856	26.5
228.09	25.5
228.324	46.5
228.559	61.5
228.793	48.5
229.027	60.5
229.262	60.5
229.496	69.5
229.73	72.5
229.964	86.5
230.199	73.5
230.433	72.5
230.667	89.5
230.901	73.5
231.136	73.5
231.37	97.5
231.604	67.5
231.838	71.5
232.072	88.5
232.306	72.5
232.541	78.5
232.775	74.5
233.009	69.5
233.243	72.5
233.477	76.5
233.711	78.5
233.945	76.5
234.179	68.5
234.413	83.5
234.647	80.5
234.881	58.5
235.115	69.5
235.349	68.5
235.583	71.5
235.817	82.5
236.051	82.5
236.285	84.5
236.519	74.5
236.753	77.5
236.987	80.5
237.221	72.5
237.455	85.5
237.689	76.5
237.922	80.5
238.156	80.5
238.39	68.5
238.624	73.5
238.858	79.5
239.091	75.5
239.325	69.5
239.559	73.5
239.793	77.5
240.027	91.5
240.26	72.5
240.494	72.5
240.728	70.5
240.961	75.5
241.195	77.5
241.429	76.5
241.662	84.5
241.896	87.5
242.13	92.5
242.363	69.5
242.597	62.5
242.83	73.5
243.064	77.5
243.298	71.5
243.531	74.5
243.765	72.5
243.998	77.5
244.232	78.5
244.465	81.5
244.699	81.5
244.932	87.5
245.166	88.5
245.399	72.5
245.633	79.5
245.866	68.5
246.099	73.5
246.333	70.5
246.566	73.5
246.8	67.5
247.033	61.5
247.266	86.5
247.5	75.5
247.733	80.5
247.966	81.5
248.2	73.5
248.433	90.5
248.666	78.5
248.899	95.5
249.133	80.5
249.366	94.5
249.599	85.5
249.832	82.5
250.066	84.5
250.299	77.5
250.532	72.5
250.765	68.5
250.998	80.5
251.231	70.5
251.465	81.5
251.698	79.5
251.931	92.5
252.164	76.5
252.397	81.5
252.63	72.5
252.863	79.5
253.096	91.5
253.329	95.5
253.562	83.5
253.795	77.5
254.028	94.5
254.261	66.5
254.494	79.5
254.727	81.5
254.96	60.5
255.193	68.5
255.426	73.5
255.659	77.5
255.892	75.5
256.124	89.5
256.357	74.5
256.59	82.5
256.823	79.5
257.056	87.5
257.289	76.5
257.521	84.5
257.754	77.5
257.987	72.5
258.22	76.5
258.452	84.5
258.685	81.5
258.918	70.5
259.151	73.5
259.383	77.5
259.616	77.5
259.849	80.5
260.081	90.5
260.314	73.5
260.547	82.5
260.779	94.5
261.012	93.5
261.244	78.5
261.477	77.5
261.71	94.5
261.942	109.5
262.175	101.5
262.407	90.5
262.64	76.5
262.872	85.5
263.105	84.5
263.337	84.5
263.57	79.5
263.802	79.5
264.035	84.5
264.267	81.5
264.499	81.5
264.732	82.5
264.964	73.5
265.197	99.5
265.429	75.5
265.661	80.5
265.894	90.5
266.126	81.5
266.358	66.5
266.591	81.5
266.823	74.5
267.055	84.5
267.287	91.5
267.52	97.5
267.752	97.5
267.984	82.5
268.216	95.5
268.448	80.5
268.681	82.5
268.913	92.5
269.145	78.5
269.377	97.5
269.609	85.5
269.841	84.5
270.073	84.5
270.306	94.5
270.538	89.5
270.77	87.5
271.002	86.5
271.234	75.5
271.466	74.5
271.698	85.5
271.93	86.5
272.162	76.5
272.394	82.5
272.626	76.5
272.858	81.5
273.09	92.5
273.322	77.5
273.553	66.5
273.785	86.5
274.017	80.5
274.249	69.5
274.481	87.5
274.713	78.5
274.945	74.5
275.176	88.5
275.408	81.5
275.64	86.5
275.872	69.5
276.104	84.5
276.335	77.5
276.567	92.5
276.799	120.5
277.031	101.5
277.262	81.5
277.494	99.5
277.726	87.5
277.957	65.5
278.189	81.5
278.421	82.5
278.652	88.5
278.884	88.5
279.115	64.5
279.347	82.5
279.579	83.5
279.81	80.5
280.042	98.5
280.273	94.5
280.505	86.5
280.736	83.5
280.968	87.5
281.199	76.5
281.431	86.5
281.662	80.5
281.894	74.5
282.125	96.5
282.356	119.5
282.588	144.5
282.819	113.5
283.051	90.5
283.282	91.5
283.513	90.5
283.745	71.5
283.976	98.5
284.207	82.5
284.439	86.5
284.67	85.5
284.901	89.5
285.132	79.5
285.364	88.5
285.595	90.5
285.826	90.5
286.057	83.5
286.288	81.5
286.52	85.5
286.751	82.5
286.982	96.5
287.213	95.5
287.444	97.5
287.675	86.5
287.906	85.5
288.138	80.5
288.369	84.5
288.6	85.5
288.831	96.5
289.062	87.5
289.293	96.5
289.524	97.5
289.755	80.5
289.986	78.5
290.217	89.5
290.448	93.5
290.679	93.5
290.91	88.5
291.141	93.5
291.371	101.5
291.602	109.5
291.833	79.5
292.064	81.5
292.295	89.5
292.526	92.5
292.757	101.5
292.987	101.5
293.218	82.5
293.449	77.5
293.68	87.5
293.91	89.5
294.141	90.5
294.372	80.5
294.603	89.5
294.833	81.5
295.064	97.5
295.295	84.5
295.525	96.5
295.756	98.5
295.987	120.5
296.217	137.5
296.448	128.5
296.679	89.5
296.909	86.5
297.14	97.5
297.37	85.5
297.601	79.5
297.831	78.5
298.062	96.5
298.292	92.5
298.523	84.5
298.753	94.5
298.984	76.5
299.214	90.5
299.445	78.5
299.675	112.5
299.905	84.5
300.136	96.5
300.366	78.5
300.597	85.5
300.827	92.5
301.057	89.5
301.288	97.5
301.518	93.5
301.748	90.5
301.979	95.5
302.209	95.5
302.439	92.5
302.669	79.5
302.9	87.5
303.13	94.5
303.36	97.5
303.59	104.5
303.82	114.5
304.051	93.5
304.281	89.5
304.511	83.5
304.741	82.5
304.971	86.5
305.201	88.5
305.431	92.5
305.661	85.5
305.891	88.5
306.121	81.5
306.352	95.5
306.582	109.5
306.812	88.5
307.042	101.5
307.272	97.5
307.502	107.5
307.731	101.5
307.961	83.5
308.191	78.5
308.421	94.5
308.651	91.5
308.881	80.5
309.111	90.5
309.341	81.5
309.571	92.5
309.8	95.5
310.03	101.5
310.26	90.5
310.49	113.5
310.72	88.5
310.949	109.5
311.179	101.5
311.409	89.5
311.639	107.5
311.868	88.5
312.098	103.5
312.328	93.5
312.557	94.5
312.787	110.5
313.017	93.5
313.246	93.5
313.476	88.5
313.706	98.5
313.935	87.5
314.165	110.5
314.394	95.5
314.624	100.5
314.853	109.5
315.083	79.5
315.312	92.5
315.542	86.5
315.771	96.5
316.001	102.5
316.23	91.5
316.46	110.5
316.689	90.5
316.919	85.5
317.148	90.5
317.377	90.5
317.607	94.5
317.836	92.5
318.065	86.5
318.295	90.5
318.524	103.5
318.753	90.5
318.983	66.5
319.212	103.5
319.441	112.5
319.67	108.5
319.9	90.5
320.129	99.5
320.358	96.5
320.587	90.5
320.816	98.5
321.046	110.5
321.275	97.5
321.504	98.5
321.733	89.5
321.962	87.5
322.191	93.5
322.42	98.5
322.649	119.5
322.878	101.5
323.108	116.5
323.337	133.5
323.566	126.5
323.795	149.5
324.024	189.5
324.253	363.5
324.482	745.5
324.71	1480.5
324.939	1932.5
325.168	741.5
325.397	238.5
325.626	155.5
325.855	109.5
326.084	107.5
326.313	126.5
326.542	141.5
326.77	214.5
326.999	402.5
327.228	793.5
327.457	1430.5
327.686	1176.5
327.914	348.5
328.143	206.5
328.372	174.5
328.6	146.5
328.829	112.5
329.058	126.5
329.287	132.5
329.515	104.5
329.744	113.5
329.972	129.5
330.201	171.5
330.43	226.5
330.658	149.5
330.887	134.5
331.115	133.5
331.344	104.5
331.572	101.5
331.801	104.5
332.03	98.5
332.258	96.5
332.486	84.5
332.715	93.5
332.943	90.5
333.172	90.5
333.4	109.5
333.629	95.5
333.857	113.5
334.085	140.5
334.314	160.5
334.542	244.5
334.771	234.5
334.999	118.5
335.227	111.5
335.455	100.5
335.684	80.5
335.912	119.5
336.14	96.5
336.369	90.5
336.597	106.5
336.825	109.5
337.053	95.5
337.281	102.5
337.51	102.5
337.738	104.5
337.966	102.5
338.194	93.5
338.422	86.5
338.65	101.5
338.878	77.5
339.106	87.5
339.334	84.5
339.562	94.5
339.79	80.5
340.018	81.5
340.246	94.5
340.474	93.5
340.702	94.5
340.93	101.5
341.158	96.5
341.386	93.5
341.614	96.5
341.842	96.5
342.07	94.5
342.298	103.5
342.526	90.5
342.754	100.5
342.981	84.5
343.209	95.5
343.437	94.5
343.665	85.5
343.893	77.5
344.12	95.5
344.348	96.5
344.576	83.5
344.804	89.5
345.031	96.5
345.259	108.5
345.487	93.5
345.714	100.5
345.942	102.5
346.17	87.5
346.397	95.5
346.625	102.5
346.853	82.5
347.08	79.5
347.308	96.5
347.535	96.5
347.763	89.5
347.99	89.5
348.218	109.5
348.445	105.5
348.673	101.5
348.9	96.5
349.128	107.5
349.355	104.5
349.583	79.5
349.81	88.5
350.037	94.5
350.265	93.5
350.492	108.5
350.72	90.5
350.947	86.5
351.174	111.5
351.402	108.5
351.629	106.5
351.856	97.5
352.083	104.5
352.311	83.5
352.538	114.5
352.765	110.5
352.992	100.5
353.22	104.5
353.447	107.5
353.674	79.5
353.901	82.5
354.128	90.5
354.355	94.5
354.583	101.5
354.81	90.5
355.037	93.5
355.264	82.5
355.491	93.5
355.718	97.5
355.945	82.5
356.172	101.5
356.399	115.5
356.626	94.5
356.853	97.5
357.08	89.5
357.307	104.5
357.534	95.5
357.761	92.5
357.988	95.5
358.215	80.5
358.441	94.5
358.668	92.5
358.895	85.5
359.122	91.5
359.349	87.5
359.576	97.5
359.802	98.5
360.029	101.5
360.256	97.5
360.483	94.5
360.709	89.5
360.936	95.5
361.163	94.5
361.39	86.5
361.616	91.5
361.843	84.5
362.07	79.5
362.296	114.5
362.523	82.5
362.749	79.5
362.976	100.5
363.203	86.5
363.429	90.5
363.656	82.5
363.882	101.5
364.109	98.5
364.335	91.5
364.562	88.5
364.788	87.5
365.015	97.5
365.241	89.5
365.468	105.5
365.694	104.5
365.92	81.5
366.147	83.5
366.373	90.5
366.599	99.5
366.826	85.5
367.052	87.5
367.278	93.5
367.505	83.5
367.731	95.5
367.957	99.5
368.184	82.5
368.41	94.5
368.636	113.5
368.862	126.5
369.089	119.5
369.315	102.5
369.541	97.5
369.767	79.5
369.993	90.5
370.219	103.5
370.445	103.5
370.672	97.5
370.898	92.5
371.124	85.5
371.35	90.5
371.576	92.5
371.802	89.5
372.028	91.5
372.254	85.5
372.48	97.5
372.706	87.5
372.932	88.5
373.158	78.5
373.384	88.5
373.61	97.5
373.835	93.5
374.061	81.5
374.287	96.5
374.513	82.5
374.739	92.5
374.965	81.5
375.191	92.5
375.416	98.5
375.642	84.5
375.868	97.5
376.094	94.5
376.319	80.5
376.545	89.5
376.771	80.5
376.997	95.5
377.222	81.5
377.448	104.5
377.674	74.5
377.899	88.5
378.125	85.5
378.35	102.5
378.576	82.5
378.802	80.5
379.027	90.5
379.253	90.5
379.478	92.5
379.704	91.5
379.929	90.5
380.155	87.5
380.38	105.5
380.606	82.5
380.831	86.5
381.057	97.5
381.282	89.5
381.507	83.5
381.733	81.5
381.958	86.5
382.184	90.5
382.409	107.5
382.634	104.5
382.86	102.5
383.085	102.5
383.31	91.5
383.535	98.5
383.761	99.5
383.986	91.5
384.211	99.5
384.436	96.5
384.662	95.5
384.887	90.5
385.112	102.5
385.337	103.5
385.562	97.5
385.787	109.5
386.013	110.5
386.238	110.5
386.463	100.5
386.688	104.5
386.913	99.5
387.138	94.5
387.363	106.5
387.588	101.5
387.813	102.5
388.038	108.5
388.263	107.5
388.488	93.5
388.713	93.5
388.938	81.5
389.163	90.5
389.387	89.5
389.612	92.5
389.837	97.5
390.062	85.5
390.287	86.5
390.512	105.5
390.736	95.5
390.961	100.5
391.186	95.5
391.411	90.5
391.636	89.5
391.86	95.5
392.085	76.5
392.31	83.5
392.534	71.5
392.759	80.5
392.984	83.5
393.208	82.5
393.433	103.5
393.658	102.5
393.882	80.5
394.107	87.5
394.331	85.5
394.556	101.5
394.78	85.5
395.005	68.5
395.229	94.5
395.454	103.5
395.678	105.5
395.903	86.5
396.127	88.5
396.352	98.5
396.576	89.5
396.801	100.5
397.025	109.5
397.249	88.5
397.474	93.5
397.698	83.5
397.922	74.5
398.147	80.5
398.371	90.5
398.595	73.5
398.82	87.5
399.044	80.5
399.268	88.5
399.492	90.5
399.717	68.5
399.941	77.5
400.165	93.5
400.389	99.5
400.613	89.5
400.837	90.5
401.062	76.5
401.286	79.5
401.51	80.5
401.734	82.5
401.958	112.5
402.182	118.5
402.406	172.5
402.63	119.5
402.854	90.5
403.078	88.5
403.302	88.5
403.526	75.5
403.75	84.5
403.974	92.5
404.198	97.5
404.422	89.5
404.645	93.5
404.869	80.5
405.093	98.5
405.317	94.5
405.541	103.5
405.765	105.5
405.988	124.5
406.212	164.5
406.436	247.5
406.66	157.5
406.883	113.5
407.107	90.5
407.331	94.5
407.555	98.5
407.778	87.5
408.002	81.5
408.226	80.5
408.449	78.5
408.673	95.5
408.896	96.5
409.12	88.5
409.344	87.5
409.567	87.5
409.791	98.5
410.014	91.5
410.238	95.5
410.461	83.5
410.685	94.5
410.908	78.5
411.132	90.5
411.355	90.5
411.578	82.5
411.802	75.5
412.025	82.5
412.249	90.5
412.472	92.5
412.695	107.5
412.919	93.5
413.142	88.5
413.365	97.5
413.589	84.5
413.812	89.5
414.035	96.5
414.258	86.5
414.482	81.5
414.705	88.5
414.928	80.5
415.151	64.5
415.374	82.5
415.597	85.5
415.821	76.5
416.044	90.5
416.267	94.5
416.49	83.5
416.713	76.5
416.936	85.5
417.159	90.5
417.382	73.5
417.605	82.5
417.828	94.5
418.051	83.5
418.274	97.5
418.497	80.5
418.72	80.5
418.943	75.5
419.166	89.5
419.389	92.5
419.611	75.5
419.834	77.5
420.057	71.5
420.28	73.5
420.503	74.5
420.726	91.5
420.948	75.5
421.171	91.5
421.394	85.5
421.617	102.5
421.839	89.5
422.062	78.5
422.285	89.5
422.507	92.5
422.73	99.5
422.953	89.5
423.175	101.5
423.398	96.5
423.621	92.5
423.843	91.5
424.066	85.5
424.288	100.5
424.511	94.5
424.733	91.5
424.956	94.5
425.178	94.5
425.401	98.5
425.623	103.5
425.846	97.5
426.068	97.5
426.291	96.5
426.513	79.5
426.735	89.5
426.958	85.5
427.18	105.5
427.402	137.5
427.625	175.5
427.847	149.5
428.069	122.5
428.292	94.5
428.514	88.5
428.736	98.5
428.958	78.5
429.181	101.5
429.403	77.5
429.625	86.5
429.847	93.5
430.069	87.5
430.292	90.5
430.514	88.5
430.736	69.5
430.958	78.5
431.18	72.5
431.402	88.5
431.624	88.5
431.846	92.5
432.068	80.5
432.29	83.5
432.512	75.5
432.734	75.5
432.956	86.5
433.178	95.5
433.4	87.5
433.622	81.5
433.844	79.5
434.066	89.5
434.287	89.5
434.509	94.5
434.731	92.5
434.953	72.5
435.175	81.5
435.397	88.5
435.618	100.5
435.84	95.5
436.062	117.5
436.284	106.5
436.505	88.5
436.727	80.5
436.949	99.5
437.17	87.5
437.392	100.5
437.614	89.5
437.835	106.5
438.057	110.5
438.278	103.5
438.5	103.5
438.721	101.5
438.943	96.5
439.165	88.5
439.386	87.5
439.608	88.5
439.829	82.5
440.05	109.5
440.272	122.5
440.493	91.5
440.715	70.5
440.936	88.5
441.158	77.5
441.379	82.5
441.6	106.5
441.822	108.5
442.043	102.5
442.264	109.5
442.486	101.5
442.707	92.5
442.928	92.5
443.149	104.5
443.371	125.5
443.592	114.5
443.813	121.5
444.034	100.5
444.255	98.5
444.476	87.5
444.698	82.5
444.919	86.5
445.14	106.5
445.361	116.5
445.582	121.5
445.803	143.5
446.024	144.5
446.245	145.5
446.466	107.5
446.687	91.5
446.908	88.5
447.129	90.5
447.35	78.5
447.571	93.5
447.792	94.5
448.013	96.5
448.234	112.5
448.455	84.5
448.675	92.5
448.896	93.5
449.117	83.5
449.338	101.5
449.559	123.5
449.779	117.5
450	85.5
450.221	92.5
450.442	92.5
450.662	97.5
450.883	94.5
451.104	81.5
451.324	89.5
451.545	89.5
451.766	75.5
451.986	90.5
452.207	92.5
452.428	82.5
452.648	103.5
452.869	97.5
453.089	124.5
453.31	116.5
453.53	85.5
453.751	80.5
453.971	108.5
454.192	111.5
454.412	97.5
454.633	98.5
454.853	79.5
455.073	85.5
455.294	89.5
455.514	97.5
455.734	89.5
455.955	81.5
456.175	73.5
456.395	72.5
456.616	86.5
456.836	85.5
457.056	85.5
457.276	92.5
457.497	81.5
457.717	85.5
457.937	92.5
458.157	84.5
458.377	93.5
458.598	103.5
458.818	152.5
459.038	153.5
459.258	127.5
459.478	89.5
459.698	90.5
459.918	85.5
460.138	88.5
460.358	91.5
460.578	92.5
460.798	87.5
461.018	90.5
461.238	77.5
461.458	81.5
461.678	66.5
461.898	80.5
462.118	78.5
462.338	76.5
462.558	71.5
462.777	97.5
462.997	89.5
463.217	101.5
463.437	85.5
463.657	79.5
463.876	86.5
464.096	84.5
464.316	92.5
464.536	85.5
464.755	99.5
464.975	87.5
465.195	164.5
465.414	162.5
465.634	90.5
465.854	74.5
466.073	88.5
466.293	68.5
466.512	92.5
466.732	68.5
466.951	76.5
467.171	87.5
467.391	77.5
467.61	109.5
467.829	95.5
468.049	129.5
468.268	141.5
468.488	94.5
468.707	86.5
468.927	86.5
469.146	83.5
469.365	87.5
469.585	82.5
469.804	101.5
470.023	98.5
470.243	94.5
470.462	85.5
470.681	111.5
470.901	102.5
471.12	91.5
471.339	95.5
471.558	90.5
471.777	91.5
471.997	97.5
472.216	191.5
472.435	313.5
472.654	132.5
472.873	81.5
473.092	81.5
473.311	69.5
473.53	72.5
473.749	85.5
473.968	90.5
474.187	96.5
474.406	95.5
474.625	87.5
474.844	78.5
475.063	83.5
475.282	98.5
475.501	62.5
475.72	85.5
475.939	91.5
476.158	91.5
476.377	82.5
476.596	86.5
476.814	101.5
477.033	76.5
477.252	85.5
477.471	78.5
477.69	80.5
477.908	89.5
478.127	84.5
478.346	90.5
478.564	108.5
478.783	108.5
479.002	90.5
479.22	87.5
479.439	91.5
479.658	94.5
479.876	90.5
480.095	100.5
480.313	81.5
480.532	99.5
480.751	119.5
480.969	183.5
481.188	489.5
481.406	320.5
481.624	119.5
481.843	88.5
482.061	98.5
482.28	95.5
482.498	81.5
482.717	98.5
482.935	76.5
483.153	91.5
483.372	89.5
483.59	89.5
483.808	81.5
484.027	80.5
484.245	75.5
484.463	68.5
484.681	91.5
484.9	72.5
485.118	86.5
485.336	80.5
485.554	92.5
485.772	95.5
485.99	100.5
486.209	101.5
486.427	95.5
486.645	101.5
486.863	104.5
487.081	104.5
487.299	88.5
487.517	75.5
487.735	74.5
487.953	86.5
488.171	80.5
488.389	90.5
488.607	99.5
488.825	86.5
489.043	86.5
489.261	84.5
489.479	93.5
489.696	90.5
489.914	100.5
490.132	77.5
490.35	85.5
490.568	93.5
490.786	78.5
491.003	77.5
491.221	79.5
491.439	103.5
491.657	90.5
491.874	81.5
492.092	101.5
492.31	81.5
492.527	95.5
492.745	97.5
492.963	89.5
493.18	83.5
493.398	99.5
493.615	88.5
493.833	88.5
494.05	101.5
494.268	81.5
494.485	88.5
494.703	88.5
494.92	88.5
495.138	98.5
495.355	80.5
495.573	88.5
495.79	78.5
496.008	95.5
496.225	82.5
496.442	85.5
496.66	96.5
496.877	89.5
497.094	87.5
497.312	102.5
497.529	105.5
497.746	86.5
497.963	98.5
498.181	79.5
498.398	88.5
498.615	91.5
498.832	93.5
499.049	92.5
499.267	95.5
499.484	82.5
499.701	97.5
499.918	71.5
500.135	103.5
500.352	93.5
500.569	77.5
500.786	82.5
501.003	87.5
501.22	95.5
501.437	89.5
501.654	92.5
501.871	109.5
502.088	82.5
502.305	84.5
502.522	79.5
502.739	90.5
502.956	89.5
503.172	84.5
503.389	88.5
503.606	97.5
503.823	99.5
504.04	100.5
504.256	94.5
504.473	93.5
504.69	90.5
504.907	91.5
505.123	82.5
505.34	74.5
505.557	85.5
505.773	86.5
505.99	86.5
506.207	87.5
506.423	88.5
506.64	78.5
506.856	85.5
507.073	95.5
507.289	82.5
507.506	97.5
507.722	114.5
507.939	104.5
508.155	104.5
508.372	95.5
508.588	89.5
508.805	93.5
509.021	79.5
509.238	112.5
509.454	85.5
509.67	101.5
509.887	105.5
510.103	127.5
510.319	226.5
510.536	792.5
510.752	2665.5
510.968	777.5
511.184	165.5
511.401	113.5
511.617	89.5
511.833	81.5
512.049	95.5
512.265	88.5
512.481	99.5
512.698	80.5
512.914	79.5
513.13	97.5
513.346	84.5
513.562	94.5
513.778	90.5
513.994	104.5
514.21	99.5
514.426	121.5
514.642	145.5
514.858	126.5
515.074	163.5
515.29	479.5
515.506	1687.5
515.721	620.5
515.937	152.5
516.153	122.5
516.369	114.5
516.585	97.5
516.801	88.5
517.016	93.5
517.232	82.5
517.448	76.5
517.664	94.5
517.879	75.5
518.095	95.5
518.311	84.5
518.527	97.5
518.742	97.5
518.958	95.5
519.173	90.5
519.389	83.5
519.605	78.5
519.82	98.5
520.036	120.5
520.251	117.5
520.467	108.5
520.682	92.5
520.898	113.5
521.113	130.5
521.329	141.5
521.544	209.5
521.76	572.5
521.975	2740.5
522.19	1671.5
522.406	345.5
522.621	118.5
522.836	86.5
523.052	97.5
523.267	90.5
523.482	97.5
523.698	103.5
523.913	136.5
524.128	102.5
524.343	94.5
524.559	102.5
524.774	86.5
524.989	85.5
525.204	112.5
525.419	108.5
525.634	89.5
525.849	88.5
526.064	88.5
526.28	85.5
526.495	82.5
526.71	96.5
526.925	94.5
527.14	79.5
527.355	89.5
527.57	80.5
527.785	84.5
527.999	73.5
528.214	88.5
528.429	87.5
528.644	92.5
528.859	96.5
529.074	94.5
529.289	122.5
529.503	200.5
529.718	110.5
529.933	96.5
530.148	86.5
530.363	92.5
530.577	74.5
530.792	88.5
531.007	99.5
531.221	84.5
531.436	74.5
531.651	95.5
531.865	83.5
532.08	95.5
532.295	104.5
532.509	81.5
532.724	100.5
532.938	104.5
533.153	82.5
533.367	86.5
533.582	90.5
533.796	87.5
534.011	95.5
534.225	83.5
534.44	93.5
534.654	95.5
534.868	90.5
535.083	94.5
535.297	78.5
535.511	109.5
535.726	112.5
