Data from Circ_2008_H10_HRD10591_00032.txt Node
Date: Wed Jan 03 10:17:02 EST 2024
User: Yrep
Spectrometer: HR+D1059
Trigger mode: 1
Integration Time (sec): 1.000000E-1
Scans to average: 1
Electric dark correction enabled: true
Nonlinearity correction enabled: false
Boxcar width: 0
XAxis mode: Wavelengths
Number of Pixels in Spectrum: 2048
>>>>>Begin Spectral Data<<<<<
223.165	-4.19
223.4	-4.19
223.635	-4.19
223.869	-32.19
224.104	-39.19
224.338	-16.19
224.573	-15.19
224.808	-20.19
225.042	-0.19
225.277	-16.19
225.511	-13.19
225.746	20.81
225.98	24.81
226.215	28.81
226.449	11.81
226.683	11.81
226.918	23.81
227.152	34.81
227.387	42.81
227.621	38.81
227.856	49.81
228.09	46.81
228.324	29.81
228.559	64.81
228.793	40.81
229.027	59.81
229.262	64.81
229.496	64.81
229.73	71.81
229.964	69.81
230.199	66.81
230.433	75.81
230.667	65.81
230.901	63.81
231.136	77.81
231.37	63.81
231.604	66.81
231.838	86.81
232.072	69.81
232.306	65.81
232.541	73.81
232.775	76.81
233.009	76.81
233.243	75.81
233.477	72.81
233.711	83.81
233.945	77.81
234.179	63.81
234.413	67.81
234.647	68.81
234.881	83.81
235.115	76.81
235.349	90.81
235.583	64.81
235.817	79.81
236.051	80.81
236.285	72.81
236.519	69.81
236.753	69.81
236.987	71.81
237.221	79.81
237.455	90.81
237.689	72.81
237.922	65.81
238.156	74.81
238.39	68.81
238.624	66.81
238.858	69.81
239.091	75.81
239.325	93.81
239.559	73.81
239.793	72.81
240.027	81.81
240.26	82.81
240.494	72.81
240.728	78.81
240.961	66.81
241.195	74.81
241.429	69.81
241.662	72.81
241.896	77.81
242.13	65.81
242.363	68.81
242.597	67.81
242.83	79.81
243.064	80.81
243.298	74.81
243.531	80.81
243.765	64.81
243.998	85.81
244.232	69.81
244.465	85.81
244.699	86.81
244.932	76.81
245.166	81.81
245.399	75.81
245.633	82.81
245.866	77.81
246.099	76.81
246.333	71.81
246.566	68.81
246.8	83.81
247.033	75.81
247.266	88.81
247.5	75.81
247.733	70.81
247.966	77.81
248.2	94.81
248.433	68.81
248.666	66.81
248.899	73.81
249.133	78.81
249.366	86.81
249.599	88.81
249.832	73.81
250.066	66.81
250.299	70.81
250.532	76.81
250.765	73.81
250.998	66.81
251.231	73.81
251.465	69.81
251.698	73.81
251.931	59.81
252.164	78.81
252.397	75.81
252.63	75.81
252.863	63.81
253.096	76.81
253.329	87.81
253.562	72.81
253.795	85.81
254.028	79.81
254.261	55.81
254.494	80.81
254.727	80.81
254.96	70.81
255.193	79.81
255.426	84.81
255.659	84.81
255.892	76.81
256.124	77.81
256.357	66.81
256.59	77.81
256.823	67.81
257.056	79.81
257.289	88.81
257.521	60.81
257.754	84.81
257.987	78.81
258.22	81.81
258.452	69.81
258.685	77.81
258.918	77.81
259.151	61.81
259.383	77.81
259.616	76.81
259.849	71.81
260.081	71.81
260.314	84.81
260.547	75.81
260.779	77.81
261.012	88.81
261.244	73.81
261.477	80.81
261.71	95.81
261.942	112.81
262.175	107.81
262.407	75.81
262.64	91.81
262.872	89.81
263.105	78.81
263.337	82.81
263.57	80.81
263.802	62.81
264.035	72.81
264.267	81.81
264.499	75.81
264.732	85.81
264.964	79.81
265.197	80.81
265.429	90.81
265.661	76.81
265.894	76.81
266.126	84.81
266.358	72.81
266.591	85.81
266.823	83.81
267.055	81.81
267.287	88.81
267.52	91.81
267.752	80.81
267.984	77.81
268.216	85.81
268.448	85.81
268.681	84.81
268.913	73.81
269.145	90.81
269.377	91.81
269.609	81.81
269.841	77.81
270.073	66.81
270.306	66.81
270.538	83.81
270.77	81.81
271.002	83.81
271.234	81.81
271.466	86.81
271.698	97.81
271.93	80.81
272.162	63.81
272.394	71.81
272.626	71.81
272.858	67.81
273.09	70.81
273.322	78.81
273.553	79.81
273.785	62.81
274.017	83.81
274.249	90.81
274.481	88.81
274.713	76.81
274.945	88.81
275.176	79.81
275.408	81.81
275.64	80.81
275.872	78.81
276.104	87.81
276.335	89.81
276.567	93.81
276.799	93.81
277.031	93.81
277.262	92.81
277.494	76.81
277.726	87.81
277.957	89.81
278.189	87.81
278.421	79.81
278.652	88.81
278.884	87.81
279.115	60.81
279.347	76.81
279.579	95.81
279.81	82.81
280.042	84.81
280.273	90.81
280.505	76.81
280.736	87.81
280.968	74.81
281.199	98.81
281.431	78.81
281.662	85.81
281.894	87.81
282.125	93.81
282.356	115.81
282.588	124.81
282.819	103.81
283.051	95.81
283.282	79.81
283.513	84.81
283.745	92.81
283.976	84.81
284.207	77.81
284.439	95.81
284.67	83.81
284.901	85.81
285.132	88.81
285.364	67.81
285.595	95.81
285.826	81.81
286.057	96.81
286.288	83.81
286.52	80.81
286.751	77.81
286.982	85.81
287.213	73.81
287.444	79.81
287.675	80.81
287.906	102.81
288.138	80.81
288.369	94.81
288.6	86.81
288.831	79.81
289.062	85.81
289.293	92.81
289.524	75.81
289.755	77.81
289.986	69.81
290.217	95.81
290.448	69.81
290.679	81.81
290.91	78.81
291.141	76.81
291.371	81.81
291.602	68.81
291.833	75.81
292.064	69.81
292.295	78.81
292.526	78.81
292.757	87.81
292.987	70.81
293.218	67.81
293.449	85.81
293.68	98.81
293.91	77.81
294.141	92.81
294.372	79.81
294.603	83.81
294.833	92.81
295.064	90.81
295.295	90.81
295.525	83.81
295.756	87.81
295.987	119.81
296.217	136.81
296.448	106.81
296.679	88.81
296.909	83.81
297.14	80.81
297.37	87.81
297.601	94.81
297.831	85.81
298.062	73.81
298.292	80.81
298.523	78.81
298.753	79.81
298.984	73.81
299.214	77.81
299.445	86.81
299.675	98.81
299.905	94.81
300.136	87.81
300.366	81.81
300.597	72.81
300.827	85.81
301.057	93.81
301.288	95.81
301.518	101.81
301.748	84.81
301.979	93.81
302.209	97.81
302.439	67.81
302.669	84.81
302.9	87.81
303.13	82.81
303.36	103.81
303.59	98.81
303.82	95.81
304.051	88.81
304.281	83.81
304.511	88.81
304.741	64.81
304.971	88.81
305.201	94.81
305.431	91.81
305.661	86.81
305.891	84.81
306.121	92.81
306.352	110.81
306.582	103.81
306.812	75.81
307.042	85.81
307.272	96.81
307.502	101.81
307.731	88.81
307.961	91.81
308.191	80.81
308.421	96.81
308.651	89.81
308.881	102.81
309.111	87.81
309.341	101.81
309.571	95.81
309.8	96.81
310.03	89.81
310.26	99.81
310.49	98.81
310.72	89.81
310.949	105.81
311.179	88.81
311.409	92.81
311.639	94.81
311.868	93.81
312.098	84.81
312.328	78.81
312.557	94.81
312.787	98.81
313.017	89.81
313.246	93.81
313.476	92.81
313.706	90.81
313.935	90.81
314.165	106.81
314.394	95.81
314.624	109.81
314.853	98.81
315.083	85.81
315.312	86.81
315.542	86.81
315.771	92.81
316.001	82.81
316.23	99.81
316.46	84.81
316.689	80.81
316.919	80.81
317.148	88.81
317.377	97.81
317.607	83.81
317.836	82.81
318.065	73.81
318.295	76.81
318.524	93.81
318.753	90.81
318.983	92.81
319.212	107.81
319.441	94.81
319.67	102.81
319.9	91.81
320.129	89.81
320.358	88.81
320.587	96.81
320.816	86.81
321.046	107.81
321.275	82.81
321.504	92.81
321.733	100.81
321.962	92.81
322.191	97.81
322.42	96.81
322.649	92.81
322.878	114.81
323.108	104.81
323.337	124.81
323.566	121.81
323.795	155.81
324.024	186.81
324.253	348.81
324.482	754.81
324.71	1511.81
324.939	1950.81
325.168	744.81
325.397	221.81
325.626	141.81
325.855	112.81
326.084	105.81
326.313	128.81
326.542	162.81
326.77	198.81
326.999	401.81
327.228	838.81
327.457	1485.81
327.686	1155.81
327.914	326.81
328.143	181.81
328.372	139.81
328.6	108.81
328.829	125.81
329.058	116.81
329.287	129.81
329.515	114.81
329.744	102.81
329.972	110.81
330.201	123.81
330.43	137.81
330.658	117.81
330.887	152.81
331.115	112.81
331.344	106.81
331.572	87.81
331.801	106.81
332.03	97.81
332.258	78.81
332.486	94.81
332.715	79.81
332.943	82.81
333.172	109.81
333.4	110.81
333.629	82.81
333.857	110.81
334.085	108.81
334.314	116.81
334.542	154.81
334.771	132.81
334.999	98.81
335.227	78.81
335.455	84.81
335.684	106.81
335.912	83.81
336.14	82.81
336.369	101.81
336.597	88.81
336.825	89.81
337.053	90.81
337.281	91.81
337.51	84.81
337.738	88.81
337.966	95.81
338.194	88.81
338.422	103.81
338.65	92.81
338.878	84.81
339.106	75.81
339.334	90.81
339.562	92.81
339.79	77.81
340.018	98.81
340.246	104.81
340.474	75.81
340.702	77.81
340.93	76.81
341.158	87.81
341.386	99.81
341.614	79.81
341.842	73.81
342.07	89.81
342.298	80.81
342.526	82.81
342.754	98.81
342.981	101.81
343.209	84.81
343.437	96.81
343.665	89.81
343.893	90.81
344.12	89.81
344.348	88.81
344.576	80.81
344.804	95.81
345.031	90.81
345.259	94.81
345.487	89.81
345.714	100.81
345.942	79.81
346.17	89.81
346.397	69.81
346.625	82.81
346.853	85.81
347.08	85.81
347.308	92.81
347.535	88.81
347.763	105.81
347.99	83.81
348.218	88.81
348.445	104.81
348.673	78.81
348.9	85.81
349.128	88.81
349.355	97.81
349.583	92.81
349.81	84.81
350.037	90.81
350.265	83.81
350.492	92.81
350.72	95.81
350.947	106.81
351.174	128.81
351.402	93.81
351.629	94.81
351.856	85.81
352.083	101.81
352.311	91.81
352.538	93.81
352.765	108.81
352.992	111.81
353.22	103.81
353.447	94.81
353.674	100.81
353.901	85.81
354.128	96.81
354.355	101.81
354.583	86.81
354.81	98.81
355.037	79.81
355.264	80.81
355.491	83.81
355.718	91.81
355.945	81.81
356.172	79.81
356.399	94.81
356.626	79.81
356.853	91.81
357.08	95.81
357.307	90.81
357.534	100.81
357.761	76.81
357.988	85.81
358.215	91.81
358.441	81.81
358.668	75.81
358.895	91.81
359.122	85.81
359.349	86.81
359.576	96.81
359.802	93.81
360.029	115.81
360.256	105.81
360.483	93.81
360.709	82.81
360.936	88.81
361.163	92.81
361.39	95.81
361.616	83.81
361.843	94.81
362.07	85.81
362.296	88.81
362.523	78.81
362.749	85.81
362.976	80.81
363.203	97.81
363.429	77.81
363.656	91.81
363.882	97.81
364.109	83.81
364.335	90.81
364.562	81.81
364.788	77.81
365.015	84.81
365.241	81.81
365.468	99.81
365.694	95.81
365.92	93.81
366.147	72.81
366.373	85.81
366.599	83.81
366.826	95.81
367.052	89.81
367.278	78.81
367.505	81.81
367.731	86.81
367.957	88.81
368.184	80.81
368.41	102.81
368.636	90.81
368.862	118.81
369.089	90.81
369.315	95.81
369.541	92.81
369.767	81.81
369.993	79.81
370.219	101.81
370.445	82.81
370.672	83.81
370.898	95.81
371.124	80.81
371.35	80.81
371.576	87.81
371.802	86.81
372.028	95.81
372.254	79.81
372.48	90.81
372.706	91.81
372.932	86.81
373.158	80.81
373.384	90.81
373.61	84.81
373.835	82.81
374.061	87.81
374.287	86.81
374.513	86.81
374.739	92.81
374.965	84.81
375.191	87.81
375.416	79.81
375.642	64.81
375.868	94.81
376.094	80.81
376.319	76.81
376.545	77.81
376.771	82.81
376.997	86.81
377.222	71.81
377.448	85.81
377.674	82.81
377.899	96.81
378.125	90.81
378.35	73.81
378.576	83.81
378.802	94.81
379.027	88.81
379.253	91.81
379.478	88.81
379.704	91.81
379.929	103.81
380.155	80.81
380.38	94.81
380.606	95.81
380.831	77.81
381.057	99.81
381.282	87.81
381.507	90.81
381.733	93.81
381.958	88.81
382.184	89.81
382.409	97.81
382.634	115.81
382.86	100.81
383.085	103.81
383.31	108.81
383.535	86.81
383.761	100.81
383.986	88.81
384.211	99.81
384.436	87.81
384.662	98.81
384.887	86.81
385.112	107.81
385.337	83.81
385.562	102.81
385.787	94.81
386.013	94.81
386.238	104.81
386.463	108.81
386.688	109.81
386.913	114.81
387.138	94.81
387.363	99.81
387.588	96.81
387.813	87.81
388.038	104.81
388.263	118.81
388.488	114.81
388.713	86.81
388.938	88.81
389.163	82.81
389.387	98.81
389.612	105.81
389.837	93.81
390.062	87.81
390.287	85.81
390.512	95.81
390.736	82.81
390.961	86.81
391.186	89.81
391.411	83.81
391.636	87.81
391.86	78.81
392.085	84.81
392.31	70.81
392.534	79.81
392.759	77.81
392.984	101.81
393.208	106.81
393.433	106.81
393.658	96.81
393.882	95.81
394.107	84.81
394.331	80.81
394.556	79.81
394.78	87.81
395.005	84.81
395.229	77.81
395.454	86.81
395.678	79.81
395.903	83.81
396.127	82.81
396.352	93.81
396.576	83.81
396.801	78.81
397.025	90.81
397.249	90.81
397.474	90.81
397.698	84.81
397.922	96.81
398.147	87.81
398.371	95.81
398.595	86.81
398.82	79.81
399.044	74.81
399.268	83.81
399.492	84.81
399.717	84.81
399.941	77.81
400.165	78.81
400.389	80.81
400.613	79.81
400.837	84.81
401.062	83.81
401.286	85.81
401.51	89.81
401.734	88.81
401.958	99.81
402.182	125.81
402.406	154.81
402.63	106.81
402.854	80.81
403.078	94.81
403.302	87.81
403.526	83.81
403.75	85.81
403.974	75.81
404.198	79.81
404.422	78.81
404.645	70.81
404.869	75.81
405.093	72.81
405.317	98.81
405.541	86.81
405.765	92.81
405.988	122.81
406.212	162.81
406.436	240.81
406.66	143.81
406.883	100.81
407.107	90.81
407.331	94.81
407.555	99.81
407.778	94.81
408.002	90.81
408.226	90.81
408.449	73.81
408.673	84.81
408.896	82.81
409.12	91.81
409.344	87.81
409.567	78.81
409.791	90.81
410.014	95.81
410.238	97.81
410.461	84.81
410.685	78.81
410.908	84.81
411.132	107.81
411.355	93.81
411.578	98.81
411.802	80.81
412.025	79.81
412.249	91.81
412.472	84.81
412.695	88.81
412.919	95.81
413.142	79.81
413.365	77.81
413.589	62.81
413.812	76.81
414.035	74.81
414.258	87.81
414.482	87.81
414.705	71.81
414.928	90.81
415.151	82.81
415.374	84.81
415.597	79.81
415.821	84.81
416.044	84.81
416.267	82.81
416.49	81.81
416.713	80.81
416.936	75.81
417.159	78.81
417.382	76.81
417.605	91.81
417.828	93.81
418.051	96.81
418.274	91.81
418.497	68.81
418.72	70.81
418.943	80.81
419.166	80.81
419.389	81.81
419.611	77.81
419.834	70.81
420.057	86.81
420.28	70.81
420.503	76.81
420.726	88.81
420.948	100.81
421.171	87.81
421.394	68.81
421.617	84.81
421.839	78.81
422.062	84.81
422.285	90.81
422.507	94.81
422.73	101.81
422.953	98.81
423.175	78.81
423.398	82.81
423.621	79.81
423.843	90.81
424.066	89.81
424.288	91.81
424.511	90.81
424.733	79.81
424.956	109.81
425.178	87.81
425.401	91.81
425.623	97.81
425.846	84.81
426.068	88.81
426.291	88.81
426.513	84.81
426.735	89.81
426.958	81.81
427.18	105.81
427.402	118.81
427.625	154.81
427.847	123.81
428.069	106.81
428.292	92.81
428.514	102.81
428.736	83.81
428.958	85.81
429.181	70.81
429.403	81.81
429.625	79.81
429.847	96.81
430.069	98.81
430.292	96.81
430.514	88.81
430.736	77.81
430.958	82.81
431.18	86.81
431.402	80.81
431.624	78.81
431.846	81.81
432.068	86.81
432.29	88.81
432.512	93.81
432.734	96.81
432.956	82.81
433.178	100.81
433.4	92.81
433.622	69.81
433.844	98.81
434.066	85.81
434.287	82.81
434.509	81.81
434.731	77.81
434.953	88.81
435.175	79.81
435.397	75.81
435.618	95.81
435.84	95.81
436.062	95.81
436.284	103.81
436.505	95.81
436.727	69.81
436.949	70.81
437.17	78.81
437.392	83.81
437.614	78.81
437.835	102.81
438.057	117.81
438.278	106.81
438.5	91.81
438.721	122.81
438.943	89.81
439.165	98.81
439.386	90.81
439.608	97.81
439.829	90.81
440.05	104.81
440.272	124.81
440.493	91.81
440.715	75.81
440.936	83.81
441.158	80.81
441.379	91.81
441.6	79.81
441.822	88.81
442.043	102.81
442.264	90.81
442.486	97.81
442.707	94.81
442.928	90.81
443.149	104.81
443.371	119.81
443.592	111.81
443.813	89.81
444.034	79.81
444.255	85.81
444.476	90.81
444.698	77.81
444.919	86.81
445.14	118.81
445.361	123.81
445.582	97.81
445.803	128.81
446.024	111.81
446.245	122.81
446.466	104.81
446.687	81.81
446.908	91.81
447.129	73.81
447.35	90.81
447.571	88.81
447.792	93.81
448.013	94.81
448.234	106.81
448.455	87.81
448.675	105.81
448.896	96.81
449.117	86.81
449.338	99.81
449.559	110.81
449.779	132.81
450	91.81
450.221	80.81
450.442	72.81
450.662	102.81
450.883	108.81
451.104	109.81
451.324	74.81
451.545	93.81
451.766	84.81
451.986	84.81
452.207	89.81
452.428	79.81
452.648	84.81
452.869	112.81
453.089	114.81
453.31	109.81
453.53	85.81
453.751	95.81
453.971	116.81
454.192	89.81
454.412	81.81
454.633	81.81
454.853	77.81
455.073	88.81
455.294	85.81
455.514	89.81
455.734	98.81
455.955	85.81
456.175	84.81
456.395	83.81
456.616	71.81
456.836	89.81
457.056	75.81
457.276	82.81
457.497	78.81
457.717	76.81
457.937	67.81
458.157	86.81
458.377	72.81
458.598	102.81
458.818	127.81
459.038	129.81
459.258	110.81
459.478	86.81
459.698	80.81
459.918	77.81
460.138	72.81
460.358	82.81
460.578	79.81
460.798	82.81
461.018	83.81
461.238	93.81
461.458	79.81
461.678	70.81
461.898	85.81
462.118	87.81
462.338	83.81
462.558	89.81
462.777	69.81
462.997	79.81
463.217	82.81
463.437	87.81
463.657	84.81
463.876	80.81
464.096	93.81
464.316	98.81
464.536	89.81
464.755	78.81
464.975	106.81
465.195	158.81
465.414	142.81
465.634	85.81
465.854	76.81
466.073	83.81
466.293	102.81
466.512	84.81
466.732	84.81
466.951	79.81
467.171	84.81
467.391	90.81
467.61	103.81
467.829	95.81
468.049	90.81
468.268	95.81
468.488	88.81
468.707	89.81
468.927	90.81
469.146	74.81
469.365	91.81
469.585	88.81
469.804	103.81
470.023	96.81
470.243	89.81
470.462	90.81
470.681	98.81
470.901	82.81
471.12	74.81
471.339	89.81
471.558	109.81
471.777	92.81
471.997	90.81
472.216	106.81
472.435	152.81
472.654	88.81
472.873	80.81
473.092	71.81
473.311	82.81
473.53	82.81
473.749	85.81
473.968	102.81
474.187	105.81
474.406	82.81
474.625	85.81
474.844	83.81
475.063	80.81
475.282	78.81
475.501	83.81
475.72	90.81
475.939	77.81
476.158	82.81
476.377	93.81
476.596	90.81
476.814	82.81
477.033	109.81
477.252	85.81
477.471	95.81
477.69	90.81
477.908	79.81
478.127	77.81
478.346	68.81
478.564	73.81
478.783	103.81
479.002	97.81
479.22	87.81
479.439	96.81
479.658	106.81
479.876	99.81
480.095	93.81
480.313	88.81
480.532	91.81
480.751	80.81
480.969	101.81
481.188	232.81
481.406	171.81
481.624	90.81
481.843	84.81
482.061	91.81
482.28	85.81
482.498	87.81
482.717	90.81
482.935	80.81
483.153	92.81
483.372	79.81
483.59	91.81
483.808	95.81
484.027	87.81
484.245	83.81
484.463	85.81
484.681	86.81
484.9	81.81
485.118	98.81
485.336	91.81
485.554	87.81
485.772	84.81
485.99	101.81
486.209	93.81
486.427	88.81
486.645	98.81
486.863	88.81
487.081	98.81
487.299	94.81
487.517	88.81
487.735	94.81
487.953	76.81
488.171	71.81
488.389	91.81
488.607	93.81
488.825	85.81
489.043	88.81
489.261	83.81
489.479	89.81
489.696	67.81
489.914	78.81
490.132	91.81
490.35	74.81
490.568	80.81
490.786	75.81
491.003	72.81
491.221	72.81
491.439	86.81
491.657	72.81
491.874	87.81
492.092	79.81
492.31	85.81
492.527	73.81
492.745	85.81
492.963	72.81
493.18	85.81
493.398	88.81
493.615	90.81
493.833	94.81
494.05	84.81
494.268	88.81
494.485	79.81
494.703	88.81
494.92	91.81
495.138	86.81
495.355	71.81
495.573	69.81
495.79	71.81
496.008	101.81
496.225	92.81
496.442	82.81
496.66	102.81
496.877	94.81
497.094	94.81
497.312	90.81
497.529	83.81
497.746	94.81
497.963	79.81
498.181	78.81
498.398	113.81
498.615	103.81
498.832	88.81
499.049	98.81
499.267	76.81
499.484	85.81
499.701	92.81
499.918	80.81
500.135	87.81
500.352	75.81
500.569	82.81
500.786	91.81
501.003	100.81
501.22	77.81
501.437	95.81
501.654	84.81
501.871	95.81
502.088	86.81
502.305	87.81
502.522	88.81
502.739	83.81
502.956	94.81
503.172	91.81
503.389	96.81
503.606	96.81
503.823	90.81
504.04	85.81
504.256	93.81
504.473	93.81
504.69	87.81
504.907	75.81
505.123	95.81
505.34	86.81
505.557	102.81
505.773	87.81
505.99	95.81
506.207	83.81
506.423	92.81
506.64	76.81
506.856	86.81
507.073	82.81
507.289	88.81
507.506	90.81
507.722	101.81
507.939	101.81
508.155	93.81
508.372	90.81
508.588	91.81
508.805	85.81
509.021	88.81
509.238	101.81
509.454	95.81
509.67	96.81
509.887	108.81
510.103	125.81
510.319	226.81
510.536	841.81
510.752	2664.81
510.968	745.81
511.184	158.81
511.401	117.81
511.617	89.81
511.833	84.81
512.049	97.81
512.265	91.81
512.481	88.81
512.698	83.81
512.914	90.81
513.13	92.81
513.346	95.81
513.562	81.81
513.778	79.81
513.994	83.81
514.21	103.81
514.426	119.81
514.642	136.81
514.858	133.81
515.074	165.81
515.29	483.81
515.506	1628.81
515.721	611.81
515.937	152.81
516.153	98.81
516.369	102.81
516.585	90.81
516.801	79.81
517.016	88.81
517.232	91.81
