Data from Circ_2008_H10_HRD10591_00003.txt Node
Date: Wed Jan 03 10:16:56 EST 2024
User: Yrep
Spectrometer: HR+D1059
Trigger mode: 1
Integration Time (sec): 1.000000E-1
Scans to average: 1
Electric dark correction enabled: true
Nonlinearity correction enabled: false
Boxcar width: 0
XAxis mode: Wavelengths
Number of Pixels in Spectrum: 2048
>>>>>Begin Spectral Data<<<<<
223.165	-30.69
223.4	-30.69
223.635	-30.69
223.869	-29.69
224.104	-9.69
224.338	-7.69
224.573	-44.69
224.808	-2.69
225.042	-10.69
225.277	-1.69
225.511	-4.69
225.746	6.31
225.98	15.31
226.215	5.31
226.449	22.31
226.683	28.31
226.918	35.31
227.152	29.31
227.387	44.31
227.621	32.31
227.856	44.31
228.09	41.31
228.324	40.31
228.559	49.31
228.793	56.31
229.027	54.31
229.262	60.31
229.496	68.31
229.73	65.31
229.964	78.31
230.199	70.31
230.433	68.31
230.667	82.31
230.901	77.31
231.136	76.31
231.37	67.31
231.604	71.31
231.838	72.31
232.072	84.31
232.306	89.31
232.541	79.31
232.775	78.31
233.009	80.31
233.243	80.31
233.477	78.31
233.711	82.31
233.945	81.31
234.179	78.31
234.413	80.31
234.647	76.31
234.881	68.31
235.115	79.31
235.349	66.31
235.583	68.31
235.817	71.31
236.051	81.31
236.285	68.31
236.519	94.31
236.753	81.31
236.987	85.31
237.221	95.31
237.455	77.31
237.689	83.31
237.922	79.31
238.156	75.31
238.39	98.31
238.624	81.31
238.858	68.31
239.091	64.31
239.325	56.31
239.559	82.31
239.793	70.31
240.027	53.31
240.26	72.31
240.494	77.31
240.728	84.31
240.961	73.31
241.195	70.31
241.429	73.31
241.662	61.31
241.896	82.31
242.13	72.31
242.363	62.31
242.597	72.31
242.83	78.31
243.064	72.31
243.298	67.31
243.531	74.31
243.765	67.31
243.998	78.31
244.232	67.31
244.465	73.31
244.699	72.31
244.932	63.31
245.166	79.31
245.399	76.31
245.633	81.31
245.866	69.31
246.099	59.31
246.333	77.31
246.566	73.31
246.8	95.31
247.033	84.31
247.266	79.31
247.5	73.31
247.733	76.31
247.966	77.31
248.2	72.31
248.433	82.31
248.666	88.31
248.899	74.31
249.133	69.31
249.366	100.31
249.599	92.31
249.832	77.31
250.066	86.31
250.299	88.31
250.532	63.31
250.765	78.31
250.998	67.31
251.231	74.31
251.465	86.31
251.698	69.31
251.931	67.31
252.164	73.31
252.397	69.31
252.63	84.31
252.863	81.31
253.096	76.31
253.329	72.31
253.562	69.31
253.795	70.31
254.028	98.31
254.261	80.31
254.494	68.31
254.727	89.31
254.96	70.31
255.193	80.31
255.426	78.31
255.659	71.31
255.892	79.31
256.124	82.31
256.357	65.31
256.59	78.31
256.823	89.31
257.056	75.31
257.289	76.31
257.521	72.31
257.754	80.31
257.987	79.31
258.22	72.31
258.452	78.31
258.685	80.31
258.918	75.31
259.151	74.31
259.383	78.31
259.616	82.31
259.849	76.31
260.081	81.31
260.314	81.31
260.547	83.31
260.779	95.31
261.012	89.31
261.244	78.31
261.477	87.31
261.71	85.31
261.942	95.31
262.175	110.31
262.407	87.31
262.64	84.31
262.872	72.31
263.105	71.31
263.337	76.31
263.57	74.31
263.802	80.31
264.035	81.31
264.267	78.31
264.499	77.31
264.732	82.31
264.964	97.31
265.197	82.31
265.429	86.31
265.661	85.31
265.894	78.31
266.126	72.31
266.358	80.31
266.591	72.31
266.823	84.31
267.055	79.31
267.287	79.31
267.52	78.31
267.752	86.31
267.984	79.31
268.216	82.31
268.448	84.31
268.681	87.31
268.913	70.31
269.145	99.31
269.377	81.31
269.609	77.31
269.841	80.31
270.073	85.31
270.306	73.31
270.538	76.31
270.77	79.31
271.002	89.31
271.234	104.31
271.466	82.31
271.698	93.31
271.93	78.31
272.162	70.31
272.394	79.31
272.626	86.31
272.858	82.31
273.09	73.31
273.322	76.31
273.553	77.31
273.785	80.31
274.017	80.31
274.249	95.31
274.481	85.31
274.713	77.31
274.945	81.31
275.176	88.31
275.408	76.31
275.64	86.31
275.872	87.31
276.104	82.31
276.335	78.31
276.567	94.31
276.799	109.31
277.031	86.31
277.262	77.31
277.494	79.31
277.726	91.31
277.957	83.31
278.189	79.31
278.421	74.31
278.652	85.31
278.884	88.31
279.115	70.31
279.347	83.31
279.579	84.31
279.81	85.31
280.042	98.31
280.273	95.31
280.505	95.31
280.736	74.31
280.968	89.31
281.199	85.31
281.431	83.31
281.662	88.31
281.894	79.31
282.125	92.31
282.356	102.31
282.588	143.31
282.819	105.31
283.051	93.31
283.282	77.31
283.513	90.31
283.745	82.31
283.976	93.31
284.207	68.31
284.439	101.31
284.67	88.31
284.901	79.31
285.132	86.31
285.364	91.31
285.595	94.31
285.826	101.31
286.057	88.31
286.288	84.31
286.52	88.31
286.751	78.31
286.982	95.31
287.213	79.31
287.444	82.31
287.675	80.31
287.906	85.31
288.138	90.31
288.369	92.31
288.6	87.31
288.831	84.31
289.062	80.31
289.293	85.31
289.524	71.31
289.755	85.31
289.986	103.31
290.217	94.31
290.448	88.31
290.679	90.31
290.91	90.31
291.141	77.31
291.371	88.31
291.602	95.31
291.833	89.31
292.064	80.31
292.295	63.31
292.526	86.31
292.757	93.31
292.987	70.31
293.218	84.31
293.449	86.31
293.68	79.31
293.91	88.31
294.141	91.31
294.372	86.31
294.603	82.31
294.833	91.31
295.064	85.31
295.295	95.31
295.525	87.31
295.756	103.31
295.987	103.31
296.217	136.31
296.448	102.31
296.679	85.31
296.909	77.31
297.14	94.31
297.37	78.31
297.601	85.31
297.831	97.31
298.062	85.31
298.292	74.31
298.523	86.31
298.753	71.31
298.984	87.31
299.214	91.31
299.445	84.31
299.675	91.31
299.905	108.31
300.136	91.31
300.366	88.31
300.597	90.31
300.827	99.31
301.057	96.31
301.288	92.31
301.518	85.31
301.748	100.31
301.979	98.31
302.209	77.31
302.439	88.31
302.669	86.31
302.9	92.31
303.13	81.31
303.36	84.31
303.59	111.31
303.82	95.31
304.051	85.31
304.281	74.31
304.511	97.31
304.741	93.31
304.971	81.31
305.201	84.31
305.431	76.31
305.661	90.31
305.891	74.31
306.121	92.31
306.352	93.31
306.582	99.31
306.812	90.31
307.042	87.31
307.272	90.31
307.502	104.31
307.731	90.31
307.961	84.31
308.191	81.31
308.421	80.31
308.651	101.31
308.881	85.31
309.111	92.31
309.341	98.31
309.571	93.31
309.8	81.31
310.03	86.31
310.26	88.31
310.49	97.31
310.72	109.31
310.949	105.31
311.179	105.31
311.409	87.31
311.639	86.31
311.868	91.31
312.098	100.31
312.328	85.31
312.557	106.31
312.787	88.31
313.017	94.31
313.246	84.31
313.476	89.31
313.706	92.31
313.935	86.31
314.165	98.31
314.394	98.31
314.624	111.31
314.853	102.31
315.083	99.31
315.312	104.31
315.542	100.31
315.771	85.31
316.001	82.31
316.23	89.31
316.46	89.31
316.689	90.31
316.919	90.31
317.148	93.31
317.377	81.31
317.607	90.31
317.836	88.31
318.065	82.31
318.295	93.31
318.524	95.31
318.753	82.31
318.983	88.31
319.212	96.31
319.441	94.31
319.67	111.31
319.9	91.31
320.129	94.31
320.358	95.31
320.587	94.31
320.816	94.31
321.046	97.31
321.275	86.31
321.504	82.31
321.733	86.31
321.962	93.31
322.191	85.31
322.42	93.31
322.649	105.31
322.878	103.31
323.108	96.31
323.337	116.31
323.566	129.31
323.795	138.31
324.024	188.31
324.253	331.31
324.482	720.31
324.71	1398.31
324.939	1869.31
325.168	703.31
325.397	213.31
325.626	115.31
325.855	132.31
326.084	122.31
326.313	134.31
326.542	153.31
326.77	216.31
326.999	384.31
327.228	798.31
327.457	1418.31
327.686	1135.31
327.914	322.31
328.143	177.31
328.372	137.31
328.6	124.31
328.829	108.31
329.058	109.31
329.287	111.31
329.515	113.31
329.744	103.31
329.972	88.31
330.201	106.31
330.43	110.31
330.658	111.31
330.887	134.31
331.115	121.31
331.344	96.31
331.572	92.31
331.801	103.31
332.03	103.31
332.258	88.31
332.486	94.31
332.715	93.31
332.943	93.31
333.172	103.31
333.4	100.31
333.629	101.31
333.857	110.31
334.085	122.31
334.314	90.31
334.542	96.31
334.771	96.31
334.999	101.31
335.227	87.31
335.455	90.31
335.684	78.31
335.912	89.31
336.14	96.31
336.369	95.31
336.597	90.31
336.825	90.31
337.053	97.31
337.281	106.31
337.51	69.31
337.738	89.31
337.966	90.31
338.194	92.31
338.422	105.31
338.65	94.31
338.878	100.31
339.106	96.31
339.334	95.31
339.562	77.31
339.79	86.31
340.018	100.31
340.246	98.31
340.474	92.31
340.702	98.31
340.93	86.31
341.158	97.31
341.386	81.31
341.614	89.31
341.842	90.31
342.07	83.31
342.298	94.31
342.526	92.31
342.754	92.31
342.981	82.31
343.209	85.31
343.437	108.31
343.665	86.31
343.893	101.31
344.12	93.31
344.348	85.31
344.576	88.31
344.804	89.31
345.031	100.31
345.259	81.31
345.487	99.31
345.714	88.31
345.942	92.31
346.17	107.31
346.397	82.31
346.625	84.31
346.853	87.31
347.08	86.31
347.308	100.31
347.535	81.31
347.763	86.31
347.99	100.31
348.218	90.31
348.445	102.31
348.673	89.31
348.9	97.31
349.128	73.31
349.355	85.31
349.583	87.31
349.81	90.31
350.037	94.31
350.265	95.31
350.492	96.31
350.72	88.31
350.947	88.31
351.174	90.31
351.402	103.31
351.629	95.31
351.856	94.31
352.083	92.31
352.311	105.31
352.538	93.31
352.765	102.31
352.992	102.31
353.22	109.31
353.447	104.31
353.674	102.31
353.901	90.31
354.128	95.31
354.355	97.31
354.583	97.31
354.81	103.31
355.037	93.31
355.264	92.31
355.491	80.31
355.718	103.31
355.945	88.31
356.172	88.31
356.399	96.31
356.626	96.31
356.853	83.31
357.08	93.31
357.307	84.31
357.534	81.31
357.761	109.31
357.988	105.31
358.215	93.31
358.441	92.31
358.668	104.31
358.895	96.31
359.122	78.31
359.349	92.31
359.576	92.31
359.802	105.31
360.029	106.31
360.256	109.31
360.483	96.31
360.709	78.31
360.936	95.31
361.163	94.31
361.39	100.31
361.616	90.31
361.843	93.31
362.07	90.31
362.296	93.31
362.523	73.31
362.749	94.31
362.976	66.31
363.203	82.31
363.429	90.31
363.656	89.31
363.882	82.31
364.109	91.31
364.335	86.31
364.562	91.31
364.788	81.31
365.015	73.31
365.241	100.31
365.468	102.31
365.694	94.31
365.92	85.31
366.147	87.31
366.373	96.31
366.599	88.31
366.826	97.31
367.052	79.31
367.278	86.31
367.505	85.31
367.731	92.31
367.957	95.31
368.184	93.31
368.41	94.31
368.636	109.31
368.862	106.31
369.089	90.31
369.315	94.31
369.541	90.31
369.767	93.31
369.993	85.31
370.219	78.31
370.445	85.31
370.672	97.31
370.898	97.31
371.124	94.31
371.35	85.31
371.576	75.31
371.802	89.31
372.028	84.31
372.254	89.31
372.48	86.31
372.706	96.31
372.932	68.31
373.158	80.31
373.384	81.31
373.61	95.31
373.835	84.31
374.061	102.31
374.287	92.31
374.513	92.31
374.739	86.31
374.965	98.31
375.191	93.31
375.416	94.31
375.642	93.31
375.868	90.31
376.094	80.31
376.319	82.31
376.545	85.31
376.771	86.31
376.997	88.31
377.222	93.31
377.448	90.31
377.674	92.31
377.899	83.31
378.125	100.31
378.35	87.31
378.576	90.31
378.802	78.31
379.027	92.31
379.253	90.31
379.478	88.31
379.704	92.31
379.929	99.31
380.155	102.31
380.38	83.31
380.606	95.31
380.831	108.31
381.057	98.31
381.282	107.31
381.507	95.31
381.733	100.31
381.958	98.31
382.184	105.31
382.409	104.31
382.634	99.31
382.86	89.31
383.085	106.31
383.31	114.31
383.535	117.31
383.761	122.31
383.986	112.31
384.211	104.31
384.436	113.31
384.662	103.31
384.887	119.31
385.112	130.31
385.337	111.31
385.562	112.31
385.787	112.31
386.013	127.31
386.238	150.31
386.463	116.31
386.688	104.31
386.913	114.31
387.138	125.31
387.363	107.31
387.588	110.31
387.813	107.31
388.038	125.31
388.263	133.31
388.488	131.31
388.713	99.31
388.938	93.31
389.163	99.31
389.387	107.31
389.612	98.31
389.837	90.31
390.062	85.31
390.287	81.31
390.512	101.31
390.736	89.31
390.961	89.31
391.186	79.31
391.411	101.31
391.636	84.31
391.86	78.31
392.085	90.31
392.31	72.31
392.534	73.31
392.759	88.31
392.984	82.31
393.208	91.31
393.433	105.31
393.658	86.31
393.882	88.31
394.107	89.31
394.331	80.31
394.556	94.31
394.78	93.31
395.005	84.31
395.229	85.31
395.454	80.31
395.678	93.31
395.903	92.31
396.127	78.31
396.352	69.31
396.576	79.31
396.801	106.31
397.025	95.31
397.249	82.31
397.474	89.31
397.698	74.31
397.922	82.31
398.147	90.31
398.371	91.31
398.595	74.31
398.82	84.31
399.044	79.31
399.268	72.31
399.492	83.31
399.717	94.31
399.941	90.31
400.165	76.31
400.389	86.31
400.613	97.31
400.837	82.31
401.062	82.31
401.286	91.31
401.51	75.31
401.734	98.31
401.958	87.31
402.182	124.31
402.406	142.31
402.63	108.31
402.854	78.31
403.078	87.31
403.302	93.31
403.526	76.31
403.75	81.31
403.974	80.31
404.198	88.31
404.422	94.31
404.645	96.31
404.869	88.31
405.093	93.31
405.317	99.31
405.541	105.31
405.765	92.31
405.988	114.31
406.212	168.31
406.436	213.31
406.66	137.31
406.883	89.31
407.107	94.31
407.331	85.31
407.555	92.31
407.778	97.31
408.002	77.31
408.226	93.31
408.449	83.31
408.673	82.31
408.896	92.31
409.12	84.31
409.344	75.31
409.567	96.31
409.791	98.31
410.014	73.31
410.238	89.31
410.461	80.31
410.685	102.31
410.908	100.31
411.132	94.31
411.355	83.31
411.578	68.31
411.802	72.31
412.025	95.31
412.249	97.31
412.472	95.31
412.695	89.31
412.919	98.31
413.142	87.31
413.365	74.31
413.589	97.31
413.812	99.31
414.035	91.31
414.258	89.31
414.482	78.31
414.705	84.31
414.928	87.31
415.151	92.31
415.374	102.31
415.597	79.31
415.821	94.31
416.044	83.31
416.267	94.31
416.49	75.31
416.713	82.31
416.936	99.31
417.159	88.31
417.382	76.31
417.605	83.31
417.828	81.31
418.051	75.31
418.274	84.31
418.497	83.31
418.72	78.31
418.943	106.31
419.166	74.31
419.389	101.31
419.611	81.31
419.834	97.31
420.057	110.31
420.28	89.31
420.503	76.31
420.726	86.31
420.948	78.31
421.171	79.31
421.394	82.31
421.617	88.31
421.839	81.31
422.062	101.31
422.285	83.31
422.507	97.31
422.73	101.31
422.953	97.31
423.175	90.31
423.398	88.31
423.621	93.31
423.843	85.31
424.066	83.31
424.288	79.31
424.511	88.31
424.733	100.31
424.956	97.31
425.178	98.31
425.401	101.31
425.623	110.31
425.846	87.31
426.068	90.31
426.291	93.31
426.513	92.31
426.735	73.31
426.958	100.31
427.18	109.31
427.402	136.31
427.625	152.31
427.847	111.31
428.069	93.31
428.292	104.31
428.514	85.31
428.736	98.31
428.958	67.31
429.181	92.31
429.403	88.31
429.625	97.31
429.847	97.31
430.069	90.31
430.292	88.31
430.514	80.31
430.736	87.31
430.958	72.31
431.18	80.31
431.402	80.31
431.624	92.31
431.846	85.31
432.068	81.31
432.29	66.31
432.512	80.31
432.734	85.31
432.956	86.31
433.178	97.31
433.4	97.31
433.622	99.31
433.844	87.31
434.066	101.31
434.287	102.31
434.509	87.31
434.731	101.31
434.953	79.31
435.175	93.31
435.397	87.31
435.618	92.31
435.84	101.31
436.062	104.31
436.284	93.31
436.505	100.31
436.727	96.31
436.949	86.31
437.17	81.31
437.392	90.31
437.614	90.31
437.835	85.31
438.057	116.31
438.278	96.31
438.5	106.31
438.721	116.31
438.943	94.31
439.165	109.31
439.386	87.31
439.608	82.31
439.829	82.31
440.05	107.31
440.272	116.31
440.493	94.31
440.715	89.31
440.936	91.31
441.158	80.31
441.379	86.31
441.6	90.31
441.822	85.31
442.043	89.31
442.264	98.31
442.486	86.31
442.707	93.31
442.928	105.31
443.149	119.31
443.371	133.31
443.592	105.31
443.813	90.31
444.034	92.31
444.255	94.31
444.476	96.31
444.698	82.31
444.919	86.31
445.14	140.31
445.361	111.31
445.582	119.31
445.803	123.31
446.024	120.31
446.245	126.31
446.466	94.31
446.687	110.31
446.908	91.31
447.129	84.31
447.35	88.31
447.571	99.31
447.792	91.31
448.013	94.31
448.234	107.31
448.455	87.31
448.675	112.31
448.896	103.31
449.117	87.31
449.338	105.31
449.559	119.31
449.779	111.31
450	79.31
450.221	81.31
450.442	87.31
450.662	96.31
450.883	110.31
451.104	104.31
451.324	89.31
451.545	76.31
451.766	94.31
451.986	88.31
452.207	82.31
452.428	87.31
452.648	105.31
452.869	100.31
453.089	103.31
453.31	114.31
453.53	89.31
453.751	82.31
453.971	111.31
454.192	108.31
454.412	90.31
454.633	82.31
454.853	79.31
455.073	87.31
455.294	89.31
455.514	95.31
455.734	85.31
455.955	80.31
456.175	84.31
456.395	92.31
456.616	91.31
456.836	84.31
457.056	78.31
457.276	87.31
457.497	80.31
457.717	80.31
457.937	86.31
458.157	77.31
458.377	89.31
458.598	118.31
458.818	135.31
459.038	152.31
459.258	116.31
459.478	81.31
459.698	66.31
459.918	91.31
460.138	84.31
460.358	82.31
460.578	88.31
460.798	84.31
461.018	87.31
461.238	91.31
461.458	87.31
461.678	77.31
461.898	70.31
462.118	71.31
462.338	89.31
462.558	85.31
462.777	88.31
462.997	72.31
463.217	66.31
463.437	74.31
463.657	79.31
463.876	100.31
464.096	88.31
464.316	88.31
464.536	92.31
464.755	81.31
464.975	94.31
465.195	154.31
465.414	143.31
465.634	90.31
465.854	81.31
466.073	78.31
466.293	83.31
466.512	84.31
466.732	92.31
466.951	91.31
467.171	88.31
467.391	90.31
467.61	97.31
467.829	89.31
468.049	84.31
468.268	84.31
468.488	77.31
468.707	68.31
468.927	73.31
469.146	81.31
469.365	85.31
469.585	101.31
469.804	90.31
470.023	81.31
470.243	95.31
470.462	84.31
470.681	93.31
470.901	86.31
471.12	82.31
471.339	89.31
471.558	77.31
471.777	80.31
471.997	92.31
472.216	91.31
472.435	97.31
472.654	77.31
472.873	80.31
473.092	72.31
473.311	89.31
473.53	78.31
473.749	79.31
473.968	87.31
474.187	96.31
474.406	82.31
474.625	85.31
474.844	76.31
475.063	68.31
475.282	73.31
475.501	77.31
475.72	90.31
475.939	78.31
476.158	86.31
476.377	100.31
476.596	79.31
476.814	88.31
477.033	77.31
477.252	76.31
477.471	93.31
477.69	100.31
477.908	86.31
478.127	79.31
478.346	76.31
478.564	88.31
478.783	86.31
479.002	87.31
479.22	85.31
479.439	105.31
479.658	105.31
479.876	91.31
480.095	84.31
480.313	81.31
480.532	83.31
480.751	100.31
480.969	93.31
481.188	119.31
481.406	108.31
481.624	94.31
481.843	81.31
482.061	60.31
482.28	80.31
482.498	87.31
482.717	85.31
482.935	82.31
483.153	81.31
483.372	85.31
483.59	84.31
483.808	92.31
484.027	82.31
484.245	92.31
484.463	96.31
484.681	94.31
484.9	86.31
485.118	89.31
485.336	104.31
485.554	89.31
485.772	105.31
485.99	110.31
486.209	109.31
486.427	96.31
486.645	103.31
486.863	108.31
487.081	99.31
487.299	86.31
487.517	89.31
487.735	92.31
487.953	77.31
488.171	87.31
488.389	92.31
488.607	88.31
488.825	84.31
489.043	93.31
489.261	82.31
489.479	84.31
489.696	98.31
489.914	79.31
490.132	81.31
490.35	98.31
490.568	77.31
490.786	102.31
491.003	72.31
491.221	66.31
491.439	71.31
491.657	90.31
491.874	100.31
492.092	82.31
492.31	92.31
492.527	96.31
492.745	80.31
492.963	92.31
493.18	85.31
493.398	86.31
493.615	77.31
493.833	90.31
494.05	87.31
494.268	74.31
494.485	80.31
494.703	95.31
494.92	94.31
495.138	90.31
495.355	93.31
495.573	79.31
495.79	89.31
496.008	92.31
496.225	89.31
496.442	86.31
496.66	82.31
496.877	78.31
497.094	88.31
497.312	84.31
497.529	93.31
497.746	85.31
497.963	90.31
498.181	78.31
498.398	92.31
498.615	102.31
498.832	108.31
499.049	88.31
499.267	92.31
499.484	83.31
499.701	95.31
499.918	90.31
500.135	79.31
500.352	80.31
500.569	82.31
500.786	93.31
501.003	85.31
501.22	70.31
501.437	74.31
501.654	78.31
501.871	99.31
502.088	98.31
502.305	92.31
502.522	99.31
502.739	97.31
502.956	92.31
503.172	79.31
503.389	89.31
503.606	86.31
503.823	101.31
504.04	90.31
504.256	80.31
504.473	78.31
504.69	81.31
504.907	89.31
505.123	81.31
505.34	101.31
505.557	86.31
505.773	91.31
505.99	75.31
506.207	84.31
506.423	79.31
506.64	76.31
506.856	76.31
507.073	89.31
507.289	82.31
507.506	97.31
507.722	116.31
507.939	96.31
508.155	88.31
508.372	90.31
508.588	80.31
508.805	100.31
509.021	107.31
509.238	112.31
509.454	99.31
509.67	97.31
509.887	110.31
510.103	126.31
510.319	196.31
510.536	717.31
510.752	2405.31
510.968	658.31
511.184	158.31
511.401	116.31
511.617	82.31
511.833	93.31
512.049	80.31
512.265	105.31
512.481	84.31
512.698	85.31
512.914	93.31
513.13	88.31
513.346	97.31
513.562	91.31
513.778	90.31
513.994	87.31
514.21	97.31
514.426	114.31
514.642	136.31
514.858	120.31
515.074	163.31
515.29	431.31
515.506	1405.31
515.721	544.31
515.937	142.31
516.153	111.31
516.369	100.31
516.585	97.31
