Data from Circ_2008_H10_HRD10591_00079.txt Node
Date: Wed Jan 03 10:17:12 EST 2024
User: Yrep
Spectrometer: HR+D1059
Trigger mode: 1
Integration Time (sec): 1.000000E-1
Scans to average: 1
Electric dark correction enabled: true
Nonlinearity correction enabled: false
Boxcar width: 0
XAxis mode: Wavelengths
Number of Pixels in Spectrum: 2048
>>>>>Begin Spectral Data<<<<<
223.165	-14.81
223.4	-14.81
223.635	-14.81
223.869	-18.81
224.104	-27.81
224.338	-12.81
224.573	-15.81
224.808	-16.81
225.042	2.19
225.277	-16.81
225.511	-2.81
225.746	18.19
225.98	18.19
226.215	13.19
226.449	1.19
226.683	21.19
226.918	33.19
227.152	19.19
227.387	28.19
227.621	40.19
227.856	24.19
228.09	63.19
228.324	63.19
228.559	46.19
228.793	62.19
229.027	57.19
229.262	73.19
229.496	76.19
229.73	94.19
229.964	95.19
230.199	63.19
230.433	80.19
230.667	83.19
230.901	68.19
231.136	82.19
231.37	80.19
231.604	74.19
231.838	79.19
232.072	77.19
232.306	80.19
232.541	85.19
232.775	88.19
233.009	72.19
233.243	90.19
233.477	94.19
233.711	88.19
233.945	87.19
234.179	82.19
234.413	85.19
234.647	84.19
234.881	96.19
235.115	77.19
235.349	84.19
235.583	69.19
235.817	76.19
236.051	66.19
236.285	73.19
236.519	75.19
236.753	74.19
236.987	83.19
237.221	84.19
237.455	83.19
237.689	82.19
237.922	61.19
238.156	81.19
238.39	81.19
238.624	82.19
238.858	78.19
239.091	82.19
239.325	81.19
239.559	80.19
239.793	81.19
240.027	87.19
240.26	88.19
240.494	79.19
240.728	79.19
240.961	83.19
241.195	81.19
241.429	69.19
241.662	73.19
241.896	72.19
242.13	87.19
242.363	72.19
242.597	87.19
242.83	71.19
243.064	73.19
243.298	95.19
243.531	75.19
243.765	74.19
243.998	86.19
244.232	79.19
244.465	83.19
244.699	84.19
244.932	96.19
245.166	72.19
245.399	76.19
245.633	80.19
245.866	84.19
246.099	82.19
246.333	74.19
246.566	81.19
246.8	80.19
247.033	72.19
247.266	74.19
247.5	82.19
247.733	73.19
247.966	76.19
248.2	74.19
248.433	84.19
248.666	83.19
248.899	83.19
249.133	82.19
249.366	99.19
249.599	99.19
249.832	89.19
250.066	98.19
250.299	73.19
250.532	82.19
250.765	72.19
250.998	72.19
251.231	65.19
251.465	83.19
251.698	60.19
251.931	92.19
252.164	79.19
252.397	71.19
252.63	87.19
252.863	88.19
253.096	68.19
253.329	76.19
253.562	85.19
253.795	79.19
254.028	98.19
254.261	66.19
254.494	82.19
254.727	95.19
254.96	87.19
255.193	74.19
255.426	81.19
255.659	83.19
255.892	85.19
256.124	84.19
256.357	86.19
256.59	98.19
256.823	90.19
257.056	90.19
257.289	79.19
257.521	78.19
257.754	75.19
257.987	80.19
258.22	93.19
258.452	88.19
258.685	68.19
258.918	76.19
259.151	73.19
259.383	81.19
259.616	89.19
259.849	86.19
260.081	84.19
260.314	82.19
260.547	80.19
260.779	88.19
261.012	99.19
261.244	99.19
261.477	85.19
261.71	85.19
261.942	108.19
262.175	115.19
262.407	98.19
262.64	85.19
262.872	89.19
263.105	90.19
263.337	88.19
263.57	77.19
263.802	85.19
264.035	89.19
264.267	93.19
264.499	82.19
264.732	81.19
264.964	89.19
265.197	93.19
265.429	92.19
265.661	82.19
265.894	88.19
266.126	88.19
266.358	74.19
266.591	89.19
266.823	80.19
267.055	85.19
267.287	85.19
267.52	68.19
267.752	88.19
267.984	88.19
268.216	72.19
268.448	99.19
268.681	78.19
268.913	76.19
269.145	93.19
269.377	69.19
269.609	83.19
269.841	70.19
270.073	80.19
270.306	82.19
270.538	72.19
270.77	92.19
271.002	93.19
271.234	81.19
271.466	82.19
271.698	83.19
271.93	84.19
272.162	100.19
272.394	98.19
272.626	80.19
272.858	92.19
273.09	88.19
273.322	70.19
273.553	102.19
273.785	93.19
274.017	76.19
274.249	81.19
274.481	87.19
274.713	87.19
274.945	89.19
275.176	92.19
275.408	99.19
275.64	80.19
275.872	83.19
276.104	90.19
276.335	98.19
276.567	106.19
276.799	112.19
277.031	114.19
277.262	94.19
277.494	89.19
277.726	86.19
277.957	89.19
278.189	85.19
278.421	87.19
278.652	83.19
278.884	93.19
279.115	80.19
279.347	87.19
279.579	76.19
279.81	85.19
280.042	89.19
280.273	113.19
280.505	101.19
280.736	88.19
280.968	81.19
281.199	75.19
281.431	76.19
281.662	89.19
281.894	97.19
282.125	97.19
282.356	127.19
282.588	143.19
282.819	123.19
283.051	85.19
283.282	85.19
283.513	81.19
283.745	84.19
283.976	84.19
284.207	80.19
284.439	93.19
284.67	84.19
284.901	82.19
285.132	96.19
285.364	95.19
285.595	90.19
285.826	88.19
286.057	90.19
286.288	73.19
286.52	81.19
286.751	91.19
286.982	98.19
287.213	89.19
287.444	67.19
287.675	98.19
287.906	80.19
288.138	88.19
288.369	111.19
288.6	96.19
288.831	86.19
289.062	84.19
289.293	83.19
289.524	97.19
289.755	95.19
289.986	92.19
290.217	80.19
290.448	87.19
290.679	96.19
290.91	94.19
291.141	78.19
291.371	82.19
291.602	102.19
291.833	85.19
292.064	97.19
292.295	88.19
292.526	103.19
292.757	84.19
292.987	79.19
293.218	105.19
293.449	99.19
293.68	89.19
293.91	71.19
294.141	103.19
294.372	81.19
294.603	94.19
294.833	91.19
295.064	84.19
295.295	87.19
295.525	88.19
295.756	90.19
295.987	120.19
296.217	135.19
296.448	112.19
296.679	87.19
296.909	97.19
297.14	101.19
297.37	116.19
297.601	91.19
297.831	78.19
298.062	93.19
298.292	83.19
298.523	88.19
298.753	95.19
298.984	73.19
299.214	85.19
299.445	72.19
299.675	103.19
299.905	102.19
300.136	80.19
300.366	84.19
300.597	90.19
300.827	89.19
301.057	104.19
301.288	97.19
301.518	98.19
301.748	88.19
301.979	96.19
302.209	80.19
302.439	88.19
302.669	100.19
302.9	83.19
303.13	87.19
303.36	99.19
303.59	107.19
303.82	108.19
304.051	96.19
304.281	90.19
304.511	90.19
304.741	83.19
304.971	96.19
305.201	88.19
305.431	92.19
305.661	81.19
305.891	97.19
306.121	98.19
306.352	104.19
306.582	116.19
306.812	102.19
307.042	86.19
307.272	97.19
307.502	103.19
307.731	102.19
307.961	107.19
308.191	85.19
308.421	97.19
308.651	83.19
308.881	104.19
309.111	91.19
309.341	89.19
309.571	99.19
309.8	83.19
310.03	95.19
310.26	101.19
310.49	79.19
310.72	88.19
310.949	91.19
311.179	99.19
311.409	85.19
311.639	92.19
311.868	91.19
312.098	85.19
312.328	103.19
312.557	100.19
312.787	114.19
313.017	116.19
313.246	89.19
313.476	92.19
313.706	96.19
313.935	90.19
314.165	99.19
314.394	99.19
314.624	109.19
314.853	107.19
315.083	97.19
315.312	79.19
315.542	79.19
315.771	98.19
316.001	74.19
316.23	82.19
316.46	84.19
316.689	84.19
316.919	93.19
317.148	95.19
317.377	98.19
317.607	89.19
317.836	86.19
318.065	91.19
318.295	77.19
318.524	94.19
318.753	88.19
318.983	90.19
319.212	97.19
319.441	120.19
319.67	98.19
319.9	105.19
320.129	107.19
320.358	89.19
320.587	90.19
320.816	110.19
321.046	98.19
321.275	89.19
321.504	108.19
321.733	73.19
321.962	97.19
322.191	101.19
322.42	103.19
322.649	121.19
322.878	114.19
323.108	123.19
323.337	121.19
323.566	147.19
323.795	153.19
324.024	223.19
324.253	405.19
324.482	863.19
324.71	1722.19
324.939	2237.19
325.168	846.19
325.397	249.19
325.626	143.19
325.855	117.19
326.084	123.19
326.313	134.19
326.542	174.19
326.77	227.19
326.999	462.19
327.228	915.19
327.457	1649.19
327.686	1327.19
327.914	421.19
328.143	260.19
328.372	256.19
328.6	154.19
328.829	131.19
329.058	133.19
329.287	138.19
329.515	141.19
329.744	127.19
329.972	175.19
330.201	286.19
330.43	347.19
330.658	228.19
330.887	169.19
331.115	146.19
331.344	106.19
331.572	97.19
331.801	113.19
332.03	109.19
332.258	88.19
332.486	89.19
332.715	96.19
332.943	92.19
333.172	85.19
333.4	109.19
333.629	119.19
333.857	137.19
334.085	189.19
334.314	272.19
334.542	459.19
334.771	441.19
334.999	171.19
335.227	104.19
335.455	107.19
335.684	101.19
335.912	91.19
336.14	97.19
336.369	106.19
336.597	105.19
336.825	95.19
337.053	95.19
337.281	89.19
337.51	84.19
337.738	94.19
337.966	89.19
338.194	95.19
338.422	112.19
338.65	99.19
338.878	87.19
339.106	78.19
339.334	85.19
339.562	84.19
339.79	93.19
340.018	95.19
340.246	95.19
340.474	114.19
340.702	110.19
340.93	88.19
341.158	93.19
341.386	102.19
341.614	98.19
341.842	102.19
342.07	92.19
342.298	77.19
342.526	98.19
342.754	79.19
342.981	94.19
343.209	86.19
343.437	105.19
343.665	98.19
343.893	96.19
344.12	82.19
344.348	95.19
344.576	96.19
344.804	114.19
345.031	84.19
345.259	110.19
345.487	90.19
345.714	95.19
345.942	91.19
346.17	79.19
346.397	98.19
346.625	94.19
346.853	83.19
347.08	101.19
347.308	97.19
347.535	97.19
347.763	96.19
347.99	94.19
348.218	102.19
348.445	118.19
348.673	103.19
348.9	98.19
349.128	107.19
349.355	89.19
349.583	95.19
349.81	91.19
350.037	89.19
350.265	100.19
350.492	102.19
350.72	105.19
350.947	97.19
351.174	102.19
351.402	105.19
351.629	98.19
351.856	105.19
352.083	117.19
352.311	108.19
352.538	109.19
352.765	120.19
352.992	126.19
353.22	116.19
353.447	106.19
353.674	122.19
353.901	97.19
354.128	97.19
354.355	77.19
354.583	101.19
354.81	97.19
355.037	102.19
355.264	91.19
355.491	93.19
355.718	100.19
355.945	102.19
356.172	85.19
356.399	77.19
356.626	94.19
356.853	89.19
357.08	97.19
357.307	91.19
357.534	85.19
357.761	77.19
357.988	96.19
358.215	101.19
358.441	95.19
358.668	88.19
358.895	91.19
359.122	90.19
359.349	83.19
359.576	87.19
359.802	103.19
360.029	133.19
360.256	113.19
360.483	92.19
360.709	84.19
360.936	86.19
361.163	103.19
361.39	102.19
361.616	93.19
361.843	87.19
362.07	106.19
362.296	87.19
362.523	101.19
362.749	80.19
362.976	97.19
363.203	97.19
363.429	104.19
363.656	88.19
363.882	89.19
364.109	100.19
364.335	87.19
364.562	97.19
364.788	100.19
365.015	97.19
365.241	110.19
365.468	107.19
365.694	118.19
365.92	104.19
366.147	96.19
366.373	81.19
366.599	83.19
366.826	93.19
367.052	92.19
367.278	93.19
367.505	80.19
367.731	83.19
367.957	79.19
368.184	86.19
368.41	114.19
368.636	124.19
368.862	120.19
369.089	105.19
369.315	101.19
369.541	93.19
369.767	86.19
369.993	75.19
370.219	95.19
370.445	93.19
370.672	93.19
370.898	90.19
371.124	85.19
371.35	83.19
371.576	100.19
371.802	104.19
372.028	89.19
372.254	89.19
372.48	78.19
372.706	91.19
372.932	93.19
373.158	94.19
373.384	95.19
373.61	91.19
373.835	94.19
374.061	91.19
374.287	86.19
374.513	101.19
374.739	81.19
374.965	96.19
375.191	105.19
375.416	95.19
375.642	87.19
375.868	99.19
376.094	96.19
376.319	87.19
376.545	92.19
376.771	87.19
376.997	96.19
377.222	80.19
377.448	92.19
377.674	95.19
377.899	105.19
378.125	100.19
378.35	94.19
378.576	97.19
378.802	95.19
379.027	93.19
379.253	91.19
379.478	94.19
379.704	88.19
379.929	91.19
380.155	84.19
380.38	101.19
380.606	100.19
380.831	98.19
381.057	88.19
381.282	101.19
381.507	95.19
381.733	106.19
381.958	110.19
382.184	103.19
382.409	105.19
382.634	97.19
382.86	97.19
383.085	99.19
383.31	94.19
383.535	89.19
383.761	105.19
383.986	102.19
384.211	87.19
384.436	85.19
384.662	101.19
384.887	93.19
385.112	107.19
385.337	86.19
385.562	112.19
385.787	107.19
386.013	109.19
386.238	116.19
386.463	116.19
386.688	114.19
386.913	97.19
387.138	109.19
387.363	113.19
387.588	111.19
387.813	106.19
388.038	97.19
388.263	110.19
388.488	104.19
388.713	93.19
388.938	96.19
389.163	104.19
389.387	91.19
389.612	95.19
389.837	85.19
390.062	103.19
390.287	87.19
390.512	95.19
390.736	93.19
390.961	91.19
391.186	83.19
391.411	101.19
391.636	88.19
391.86	83.19
392.085	78.19
392.31	90.19
392.534	95.19
392.759	101.19
392.984	100.19
393.208	91.19
393.433	86.19
393.658	91.19
393.882	95.19
394.107	90.19
394.331	73.19
394.556	82.19
394.78	94.19
395.005	87.19
395.229	79.19
395.454	93.19
395.678	82.19
395.903	93.19
396.127	68.19
396.352	77.19
396.576	77.19
396.801	85.19
397.025	84.19
397.249	84.19
397.474	105.19
397.698	87.19
397.922	84.19
398.147	94.19
398.371	83.19
398.595	90.19
398.82	83.19
399.044	98.19
399.268	84.19
399.492	91.19
399.717	80.19
399.941	91.19
400.165	99.19
400.389	100.19
400.613	88.19
400.837	108.19
401.062	91.19
401.286	82.19
401.51	93.19
401.734	102.19
401.958	111.19
402.182	139.19
402.406	192.19
402.63	141.19
402.854	99.19
403.078	97.19
403.302	87.19
403.526	95.19
403.75	83.19
403.974	93.19
404.198	76.19
404.422	92.19
404.645	102.19
404.869	100.19
405.093	105.19
405.317	116.19
405.541	135.19
405.765	114.19
405.988	123.19
406.212	174.19
406.436	255.19
406.66	168.19
406.883	110.19
407.107	95.19
407.331	96.19
407.555	111.19
407.778	105.19
408.002	83.19
408.226	103.19
408.449	83.19
408.673	92.19
408.896	93.19
409.12	90.19
409.344	87.19
409.567	94.19
409.791	92.19
410.014	98.19
410.238	100.19
410.461	83.19
410.685	94.19
410.908	97.19
411.132	102.19
411.355	102.19
411.578	82.19
411.802	76.19
412.025	95.19
412.249	100.19
412.472	108.19
412.695	119.19
412.919	112.19
413.142	90.19
413.365	89.19
413.589	75.19
413.812	86.19
414.035	86.19
414.258	84.19
414.482	97.19
414.705	87.19
414.928	79.19
415.151	91.19
415.374	90.19
415.597	80.19
415.821	83.19
416.044	99.19
416.267	88.19
416.49	84.19
416.713	85.19
416.936	87.19
417.159	82.19
417.382	97.19
417.605	99.19
417.828	106.19
418.051	84.19
418.274	74.19
418.497	82.19
418.72	88.19
418.943	83.19
419.166	105.19
419.389	95.19
419.611	87.19
419.834	88.19
420.057	91.19
420.28	110.19
420.503	91.19
420.726	74.19
420.948	102.19
421.171	97.19
421.394	83.19
421.617	100.19
421.839	100.19
422.062	81.19
422.285	92.19
422.507	90.19
422.73	108.19
422.953	92.19
423.175	89.19
423.398	113.19
423.621	82.19
423.843	94.19
424.066	92.19
424.288	91.19
424.511	93.19
424.733	95.19
424.956	112.19
425.178	103.19
425.401	95.19
425.623	102.19
425.846	94.19
426.068	97.19
426.291	98.19
426.513	73.19
426.735	79.19
426.958	98.19
427.18	115.19
427.402	154.19
427.625	199.19
427.847	180.19
428.069	149.19
428.292	110.19
428.514	89.19
428.736	91.19
428.958	82.19
429.181	92.19
429.403	93.19
429.625	89.19
429.847	85.19
430.069	105.19
430.292	106.19
430.514	69.19
430.736	79.19
430.958	90.19
431.18	90.19
431.402	88.19
431.624	97.19
431.846	96.19
432.068	94.19
432.29	81.19
432.512	75.19
432.734	83.19
432.956	95.19
433.178	92.19
433.4	93.19
433.622	80.19
433.844	94.19
434.066	90.19
434.287	84.19
434.509	92.19
434.731	102.19
434.953	87.19
435.175	91.19
435.397	97.19
435.618	112.19
435.84	104.19
436.062	112.19
436.284	130.19
436.505	109.19
436.727	97.19
436.949	104.19
437.17	97.19
437.392	74.19
437.614	104.19
437.835	118.19
438.057	133.19
438.278	116.19
438.5	93.19
438.721	137.19
438.943	119.19
439.165	101.19
439.386	73.19
439.608	93.19
439.829	129.19
440.05	129.19
440.272	150.19
440.493	100.19
440.715	111.19
440.936	87.19
441.158	87.19
441.379	102.19
441.6	96.19
441.822	102.19
442.043	85.19
442.264	128.19
442.486	123.19
442.707	117.19
442.928	121.19
443.149	164.19
443.371	153.19
443.592	117.19
443.813	126.19
444.034	123.19
444.255	81.19
444.476	97.19
444.698	99.19
444.919	83.19
445.14	122.19
445.361	118.19
445.582	137.19
445.803	170.19
446.024	162.19
446.245	157.19
446.466	100.19
446.687	95.19
446.908	86.19
447.129	90.19
447.35	85.19
447.571	78.19
447.792	89.19
448.013	104.19
448.234	112.19
448.455	115.19
448.675	120.19
448.896	151.19
449.117	94.19
449.338	87.19
449.559	151.19
449.779	152.19
450	94.19
450.221	88.19
450.442	92.19
450.662	92.19
450.883	112.19
451.104	104.19
451.324	108.19
451.545	98.19
451.766	87.19
451.986	84.19
452.207	78.19
452.428	98.19
452.648	100.19
452.869	122.19
453.089	120.19
453.31	136.19
453.53	99.19
453.751	95.19
453.971	114.19
454.192	127.19
454.412	108.19
454.633	97.19
454.853	92.19
455.073	86.19
455.294	106.19
455.514	103.19
455.734	92.19
455.955	84.19
456.175	91.19
456.395	83.19
456.616	93.19
456.836	88.19
457.056	85.19
457.276	87.19
457.497	85.19
457.717	85.19
457.937	99.19
458.157	90.19
458.377	98.19
458.598	109.19
458.818	168.19
459.038	178.19
459.258	121.19
459.478	95.19
459.698	84.19
459.918	78.19
460.138	89.19
460.358	89.19
460.578	81.19
460.798	79.19
461.018	100.19
461.238	90.19
461.458	88.19
461.678	74.19
461.898	77.19
462.118	93.19
462.338	89.19
462.558	93.19
462.777	98.19
462.997	78.19
463.217	91.19
463.437	89.19
463.657	76.19
463.876	86.19
464.096	85.19
464.316	99.19
464.536	96.19
464.755	97.19
464.975	112.19
465.195	183.19
465.414	186.19
465.634	95.19
465.854	88.19
466.073	92.19
466.293	83.19
466.512	98.19
466.732	91.19
466.951	78.19
467.171	98.19
467.391	93.19
467.61	104.19
467.829	120.19
468.049	165.19
468.268	226.19
468.488	105.19
468.707	82.19
468.927	81.19
469.146	89.19
469.365	89.19
469.585	88.19
469.804	97.19
470.023	117.19
470.243	97.19
470.462	109.19
470.681	116.19
470.901	108.19
471.12	85.19
471.339	90.19
471.558	111.19
471.777	99.19
471.997	123.19
472.216	268.19
472.435	539.19
472.654	172.19
472.873	110.19
473.092	98.19
473.311	99.19
473.53	95.19
473.749	86.19
473.968	101.19
474.187	122.19
474.406	121.19
474.625	93.19
474.844	80.19
475.063	98.19
475.282	78.19
475.501	85.19
475.72	93.19
475.939	84.19
476.158	91.19
476.377	86.19
476.596	99.19
476.814	92.19
477.033	101.19
477.252	85.19
477.471	75.19
477.69	89.19
477.908	90.19
478.127	89.19
478.346	78.19
478.564	76.19
478.783	92.19
479.002	95.19
479.22	93.19
479.439	112.19
479.658	106.19
479.876	90.19
480.095	112.19
480.313	106.19
480.532	103.19
480.751	128.19
480.969	266.19
481.188	886.19
481.406	582.19
481.624	146.19
481.843	123.19
482.061	92.19
482.28	104.19
482.498	77.19
482.717	89.19
482.935	84.19
483.153	97.19
483.372	78.19
483.59	85.19
483.808	97.19
484.027	85.19
484.245	87.19
484.463	108.19
484.681	107.19
484.9	98.19
485.118	91.19
485.336	71.19
485.554	94.19
485.772	91.19
485.99	109.19
486.209	100.19
486.427	112.19
486.645	114.19
486.863	119.19
487.081	99.19
487.299	100.19
487.517	95.19
487.735	91.19
487.953	100.19
488.171	97.19
488.389	93.19
488.607	90.19
488.825	99.19
489.043	92.19
489.261	76.19
489.479	83.19
489.696	101.19
489.914	85.19
490.132	84.19
490.35	83.19
490.568	86.19
490.786	94.19
491.003	94.19
491.221	92.19
491.439	92.19
491.657	90.19
491.874	117.19
492.092	83.19
492.31	93.19
492.527	87.19
492.745	88.19
492.963	88.19
493.18	85.19
493.398	96.19
493.615	104.19
493.833	104.19
494.05	93.19
494.268	84.19
494.485	111.19
494.703	87.19
494.92	88.19
495.138	100.19
495.355	94.19
495.573	85.19
495.79	89.19
496.008	73.19
496.225	93.19
496.442	86.19
496.66	82.19
496.877	82.19
497.094	81.19
497.312	88.19
497.529	89.19
497.746	98.19
497.963	89.19
498.181	90.19
498.398	93.19
498.615	115.19
498.832	90.19
499.049	93.19
499.267	84.19
499.484	85.19
499.701	78.19
499.918	78.19
500.135	96.19
500.352	93.19
500.569	93.19
500.786	89.19
501.003	91.19
501.22	98.19
501.437	96.19
501.654	93.19
501.871	97.19
502.088	87.19
502.305	98.19
502.522	101.19
502.739	92.19
502.956	103.19
503.172	101.19
503.389	105.19
503.606	90.19
503.823	94.19
504.04	96.19
504.256	96.19
504.473	95.19
504.69	79.19
504.907	99.19
505.123	77.19
505.34	84.19
505.557	108.19
505.773	100.19
505.99	83.19
506.207	87.19
506.423	101.19
506.64	87.19
506.856	95.19
507.073	81.19
507.289	83.19
507.506	97.19
507.722	116.19
507.939	102.19
508.155	96.19
508.372	83.19
508.588	81.19
508.805	96.19
509.021	100.19
509.238	100.19
509.454	101.19
509.67	97.19
509.887	108.19
510.103	137.19
510.319	205.19
510.536	815.19
510.752	2777.19
510.968	774.19
511.184	169.19
511.401	108.19
511.617	115.19
511.833	99.19
512.049	89.19
512.265	97.19
512.481	88.19
512.698	99.19
512.914	88.19
513.13	98.19
513.346	89.19
513.562	92.19
513.778	111.19
513.994	93.19
514.21	108.19
514.426	131.19
514.642	148.19
