Data from Circ_2008_H10_HRD10591_00001.txt Node
Date: Wed Jan 03 10:16:56 EST 2024
User: Yrep
Spectrometer: HR+D1059
Trigger mode: 1
Integration Time (sec): 1.000000E-1
Scans to average: 1
Electric dark correction enabled: true
Nonlinearity correction enabled: false
Boxcar width: 0
XAxis mode: Wavelengths
Number of Pixels in Spectrum: 2048
>>>>>Begin Spectral Data<<<<<
223.165	-23.5
223.4	-23.5
223.635	-23.5
223.869	-21.5
224.104	-23.5
224.338	-14.5
224.573	-29.5
224.808	3.5
225.042	-8.5
225.277	-5.5
225.511	-7.5
225.746	7.5
225.98	11.5
226.215	1.5
226.449	27.5
226.683	23.5
226.918	31.5
227.152	27.5
227.387	32.5
227.621	24.5
227.856	25.5
228.09	36.5
228.324	53.5
228.559	58.5
228.793	64.5
229.027	74.5
229.262	60.5
229.496	72.5
229.73	81.5
229.964	79.5
230.199	80.5
230.433	78.5
230.667	64.5
230.901	83.5
231.136	77.5
231.37	89.5
231.604	83.5
231.838	81.5
232.072	70.5
232.306	83.5
232.541	84.5
232.775	84.5
233.009	81.5
233.243	71.5
233.477	68.5
233.711	82.5
233.945	71.5
234.179	70.5
234.413	83.5
234.647	78.5
234.881	79.5
235.115	85.5
235.349	78.5
235.583	97.5
235.817	72.5
236.051	79.5
236.285	65.5
236.519	75.5
236.753	78.5
236.987	74.5
237.221	88.5
237.455	86.5
237.689	77.5
237.922	81.5
238.156	67.5
238.39	79.5
238.624	80.5
238.858	69.5
239.091	60.5
239.325	72.5
239.559	78.5
239.793	57.5
240.027	70.5
240.26	78.5
240.494	73.5
240.728	71.5
240.961	71.5
241.195	67.5
241.429	69.5
241.662	77.5
241.896	72.5
242.13	68.5
242.363	70.5
242.597	81.5
242.83	78.5
243.064	74.5
243.298	78.5
243.531	90.5
243.765	88.5
243.998	91.5
244.232	85.5
244.465	82.5
244.699	79.5
244.932	78.5
245.166	73.5
245.399	78.5
245.633	85.5
245.866	92.5
246.099	74.5
246.333	81.5
246.566	62.5
246.8	74.5
247.033	77.5
247.266	67.5
247.5	83.5
247.733	75.5
247.966	84.5
248.2	60.5
248.433	81.5
248.666	64.5
248.899	73.5
249.133	87.5
249.366	92.5
249.599	92.5
249.832	81.5
250.066	82.5
250.299	86.5
250.532	71.5
250.765	79.5
250.998	77.5
251.231	82.5
251.465	70.5
251.698	88.5
251.931	70.5
252.164	74.5
252.397	90.5
252.63	65.5
252.863	85.5
253.096	77.5
253.329	76.5
253.562	71.5
253.795	72.5
254.028	72.5
254.261	85.5
254.494	61.5
254.727	78.5
254.96	81.5
255.193	89.5
255.426	63.5
255.659	92.5
255.892	81.5
256.124	83.5
256.357	76.5
256.59	81.5
256.823	77.5
257.056	89.5
257.289	70.5
257.521	78.5
257.754	86.5
257.987	77.5
258.22	78.5
258.452	71.5
258.685	92.5
258.918	71.5
259.151	85.5
259.383	91.5
259.616	88.5
259.849	81.5
260.081	72.5
260.314	67.5
260.547	75.5
260.779	84.5
261.012	91.5
261.244	92.5
261.477	73.5
261.71	94.5
261.942	118.5
262.175	116.5
262.407	72.5
262.64	66.5
262.872	88.5
263.105	86.5
263.337	92.5
263.57	82.5
263.802	80.5
264.035	87.5
264.267	72.5
264.499	76.5
264.732	84.5
264.964	79.5
265.197	67.5
265.429	77.5
265.661	59.5
265.894	91.5
266.126	78.5
266.358	73.5
266.591	91.5
266.823	83.5
267.055	90.5
267.287	89.5
267.52	82.5
267.752	89.5
267.984	78.5
268.216	80.5
268.448	79.5
268.681	85.5
268.913	68.5
269.145	81.5
269.377	80.5
269.609	68.5
269.841	68.5
270.073	77.5
270.306	76.5
270.538	76.5
270.77	91.5
271.002	79.5
271.234	81.5
271.466	85.5
271.698	75.5
271.93	82.5
272.162	65.5
272.394	73.5
272.626	84.5
272.858	74.5
273.09	77.5
273.322	72.5
273.553	81.5
273.785	73.5
274.017	78.5
274.249	93.5
274.481	73.5
274.713	93.5
274.945	95.5
275.176	77.5
275.408	101.5
275.64	78.5
275.872	84.5
276.104	80.5
276.335	85.5
276.567	90.5
276.799	98.5
277.031	94.5
277.262	102.5
277.494	73.5
277.726	77.5
277.957	78.5
278.189	73.5
278.421	88.5
278.652	98.5
278.884	74.5
279.115	76.5
279.347	88.5
279.579	85.5
279.81	94.5
280.042	87.5
280.273	86.5
280.505	92.5
280.736	64.5
280.968	85.5
281.199	92.5
281.431	82.5
281.662	92.5
281.894	89.5
282.125	94.5
282.356	101.5
282.588	143.5
282.819	120.5
283.051	84.5
283.282	84.5
283.513	87.5
283.745	87.5
283.976	75.5
284.207	76.5
284.439	77.5
284.67	101.5
284.901	89.5
285.132	81.5
285.364	79.5
285.595	89.5
285.826	87.5
286.057	104.5
286.288	76.5
286.52	85.5
286.751	84.5
286.982	83.5
287.213	86.5
287.444	92.5
287.675	102.5
287.906	88.5
288.138	96.5
288.369	103.5
288.6	106.5
288.831	73.5
289.062	75.5
289.293	94.5
289.524	81.5
289.755	84.5
289.986	72.5
290.217	76.5
290.448	92.5
290.679	96.5
290.91	78.5
291.141	95.5
291.371	82.5
291.602	73.5
291.833	70.5
292.064	83.5
292.295	85.5
292.526	81.5
292.757	82.5
292.987	80.5
293.218	88.5
293.449	76.5
293.68	82.5
293.91	94.5
294.141	95.5
294.372	87.5
294.603	82.5
294.833	85.5
295.064	74.5
295.295	91.5
295.525	76.5
295.756	111.5
295.987	114.5
296.217	136.5
296.448	138.5
296.679	102.5
296.909	92.5
297.14	97.5
297.37	103.5
297.601	83.5
297.831	72.5
298.062	98.5
298.292	81.5
298.523	88.5
298.753	91.5
298.984	81.5
299.214	88.5
299.445	72.5
299.675	82.5
299.905	96.5
300.136	84.5
300.366	86.5
300.597	98.5
300.827	84.5
301.057	110.5
301.288	101.5
301.518	97.5
301.748	92.5
301.979	92.5
302.209	101.5
302.439	79.5
302.669	85.5
302.9	89.5
303.13	81.5
303.36	82.5
303.59	84.5
303.82	102.5
304.051	89.5
304.281	83.5
304.511	86.5
304.741	81.5
304.971	86.5
305.201	95.5
305.431	95.5
305.661	76.5
305.891	91.5
306.121	92.5
306.352	95.5
306.582	104.5
306.812	85.5
307.042	96.5
307.272	94.5
307.502	108.5
307.731	100.5
307.961	78.5
308.191	80.5
308.421	90.5
308.651	93.5
308.881	102.5
309.111	79.5
309.341	110.5
309.571	92.5
309.8	97.5
310.03	100.5
310.26	96.5
310.49	85.5
310.72	99.5
310.949	127.5
311.179	88.5
311.409	87.5
311.639	100.5
311.868	94.5
312.098	88.5
312.328	95.5
312.557	103.5
312.787	108.5
313.017	92.5
313.246	83.5
313.476	76.5
313.706	83.5
313.935	89.5
314.165	97.5
314.394	106.5
314.624	100.5
314.853	97.5
315.083	94.5
315.312	98.5
315.542	98.5
315.771	81.5
316.001	90.5
316.23	88.5
316.46	104.5
316.689	82.5
316.919	94.5
317.148	100.5
317.377	112.5
317.607	76.5
317.836	85.5
318.065	84.5
318.295	85.5
318.524	88.5
318.753	83.5
318.983	96.5
319.212	116.5
319.441	112.5
319.67	112.5
319.9	97.5
320.129	89.5
320.358	89.5
320.587	97.5
320.816	98.5
321.046	98.5
321.275	105.5
321.504	92.5
321.733	100.5
321.962	97.5
322.191	89.5
322.42	92.5
322.649	111.5
322.878	118.5
323.108	116.5
323.337	118.5
323.566	130.5
323.795	157.5
324.024	207.5
324.253	434.5
324.482	924.5
324.71	1899.5
324.939	2448.5
325.168	870.5
325.397	257.5
325.626	161.5
325.855	142.5
326.084	121.5
326.313	126.5
326.542	164.5
326.77	246.5
326.999	482.5
327.228	1028.5
327.457	1848.5
327.686	1477.5
327.914	388.5
328.143	188.5
328.372	156.5
328.6	123.5
328.829	130.5
329.058	137.5
329.287	139.5
329.515	103.5
329.744	104.5
329.972	102.5
330.201	109.5
330.43	107.5
330.658	124.5
330.887	139.5
331.115	131.5
331.344	108.5
331.572	105.5
331.801	96.5
332.03	103.5
332.258	92.5
332.486	104.5
332.715	99.5
332.943	91.5
333.172	94.5
333.4	103.5
333.629	103.5
333.857	112.5
334.085	102.5
334.314	86.5
334.542	97.5
334.771	106.5
334.999	92.5
335.227	94.5
335.455	105.5
335.684	102.5
335.912	81.5
336.14	104.5
336.369	105.5
336.597	94.5
336.825	102.5
337.053	104.5
337.281	77.5
337.51	80.5
337.738	83.5
337.966	87.5
338.194	105.5
338.422	88.5
338.65	77.5
338.878	95.5
339.106	102.5
339.334	104.5
339.562	96.5
339.79	111.5
340.018	80.5
340.246	98.5
340.474	94.5
340.702	95.5
340.93	93.5
341.158	98.5
341.386	96.5
341.614	103.5
341.842	87.5
342.07	93.5
342.298	79.5
342.526	83.5
342.754	90.5
342.981	82.5
343.209	88.5
343.437	102.5
343.665	80.5
343.893	93.5
344.12	85.5
344.348	78.5
344.576	95.5
344.804	84.5
345.031	106.5
345.259	100.5
345.487	92.5
345.714	88.5
345.942	78.5
346.17	89.5
346.397	100.5
346.625	96.5
346.853	94.5
347.08	91.5
347.308	93.5
347.535	96.5
347.763	95.5
347.99	96.5
348.218	104.5
348.445	87.5
348.673	87.5
348.9	92.5
349.128	84.5
349.355	103.5
349.583	104.5
349.81	86.5
350.037	77.5
350.265	87.5
350.492	102.5
350.72	86.5
350.947	103.5
351.174	92.5
351.402	102.5
351.629	89.5
351.856	101.5
352.083	88.5
352.311	106.5
352.538	96.5
352.765	117.5
352.992	97.5
353.22	106.5
353.447	102.5
353.674	105.5
353.901	94.5
354.128	104.5
354.355	92.5
354.583	96.5
354.81	101.5
355.037	86.5
355.264	85.5
355.491	77.5
355.718	80.5
355.945	89.5
356.172	85.5
356.399	87.5
356.626	105.5
356.853	87.5
357.08	89.5
357.307	93.5
357.534	93.5
357.761	100.5
357.988	104.5
358.215	115.5
358.441	103.5
358.668	94.5
358.895	86.5
359.122	85.5
359.349	90.5
359.576	94.5
359.802	104.5
360.029	116.5
360.256	106.5
360.483	97.5
360.709	104.5
360.936	96.5
361.163	86.5
361.39	95.5
361.616	93.5
361.843	80.5
362.07	86.5
362.296	85.5
362.523	79.5
362.749	84.5
362.976	88.5
363.203	90.5
363.429	82.5
363.656	82.5
363.882	77.5
364.109	88.5
364.335	90.5
364.562	98.5
364.788	86.5
365.015	100.5
365.241	87.5
365.468	106.5
365.694	96.5
365.92	86.5
366.147	88.5
366.373	88.5
366.599	98.5
366.826	87.5
367.052	96.5
367.278	73.5
367.505	91.5
367.731	89.5
367.957	83.5
368.184	97.5
368.41	92.5
368.636	97.5
368.862	106.5
369.089	102.5
369.315	93.5
369.541	86.5
369.767	92.5
369.993	87.5
370.219	82.5
370.445	91.5
370.672	94.5
370.898	89.5
371.124	92.5
371.35	80.5
371.576	87.5
371.802	84.5
372.028	99.5
372.254	99.5
372.48	82.5
372.706	81.5
372.932	89.5
373.158	76.5
373.384	81.5
373.61	87.5
373.835	103.5
374.061	77.5
374.287	95.5
374.513	93.5
374.739	93.5
374.965	84.5
375.191	103.5
375.416	89.5
375.642	93.5
375.868	83.5
376.094	94.5
376.319	73.5
376.545	92.5
376.771	86.5
376.997	82.5
377.222	86.5
377.448	94.5
377.674	104.5
377.899	98.5
378.125	88.5
378.35	104.5
378.576	91.5
378.802	93.5
379.027	81.5
379.253	96.5
379.478	84.5
379.704	97.5
379.929	102.5
380.155	97.5
380.38	117.5
380.606	97.5
380.831	92.5
381.057	93.5
381.282	111.5
381.507	108.5
381.733	93.5
381.958	108.5
382.184	92.5
382.409	99.5
382.634	101.5
382.86	107.5
383.085	109.5
383.31	121.5
383.535	105.5
383.761	110.5
383.986	108.5
384.211	114.5
384.436	117.5
384.662	121.5
384.887	112.5
385.112	120.5
385.337	116.5
385.562	122.5
385.787	119.5
386.013	134.5
386.238	129.5
386.463	113.5
386.688	111.5
386.913	126.5
387.138	121.5
387.363	109.5
387.588	103.5
387.813	104.5
388.038	121.5
388.263	126.5
388.488	109.5
388.713	91.5
388.938	81.5
389.163	103.5
389.387	98.5
389.612	84.5
389.837	82.5
390.062	97.5
390.287	79.5
390.512	88.5
390.736	75.5
390.961	78.5
391.186	100.5
391.411	86.5
391.636	86.5
391.86	85.5
392.085	70.5
392.31	81.5
392.534	94.5
392.759	93.5
392.984	85.5
393.208	95.5
393.433	117.5
393.658	86.5
393.882	84.5
394.107	91.5
394.331	72.5
394.556	82.5
394.78	84.5
395.005	87.5
395.229	81.5
395.454	79.5
395.678	86.5
395.903	89.5
396.127	89.5
396.352	93.5
396.576	82.5
396.801	98.5
397.025	92.5
397.249	89.5
397.474	79.5
397.698	92.5
397.922	92.5
398.147	75.5
398.371	79.5
398.595	78.5
398.82	79.5
399.044	84.5
399.268	89.5
399.492	88.5
399.717	89.5
399.941	76.5
400.165	98.5
400.389	89.5
400.613	73.5
400.837	94.5
401.062	94.5
401.286	101.5
401.51	92.5
401.734	94.5
401.958	93.5
402.182	137.5
402.406	170.5
402.63	117.5
402.854	97.5
403.078	86.5
403.302	92.5
403.526	85.5
403.75	88.5
403.974	87.5
404.198	93.5
404.422	86.5
404.645	80.5
404.869	75.5
405.093	87.5
405.317	95.5
405.541	107.5
405.765	102.5
405.988	111.5
406.212	187.5
406.436	267.5
406.66	157.5
406.883	94.5
407.107	95.5
407.331	86.5
407.555	97.5
407.778	92.5
408.002	72.5
408.226	75.5
408.449	94.5
408.673	80.5
408.896	93.5
409.12	100.5
409.344	104.5
409.567	93.5
409.791	90.5
410.014	110.5
410.238	88.5
410.461	94.5
410.685	103.5
410.908	84.5
411.132	113.5
411.355	93.5
411.578	82.5
411.802	92.5
412.025	79.5
412.249	81.5
412.472	91.5
412.695	89.5
412.919	91.5
413.142	76.5
413.365	70.5
413.589	89.5
413.812	89.5
414.035	94.5
414.258	101.5
414.482	87.5
414.705	94.5
414.928	98.5
415.151	104.5
415.374	98.5
415.597	89.5
415.821	93.5
416.044	90.5
416.267	75.5
416.49	88.5
416.713	80.5
416.936	70.5
417.159	79.5
417.382	97.5
417.605	92.5
417.828	85.5
418.051	92.5
418.274	91.5
418.497	82.5
418.72	70.5
418.943	80.5
419.166	101.5
419.389	84.5
419.611	88.5
419.834	109.5
420.057	82.5
420.28	76.5
420.503	89.5
420.726	81.5
420.948	92.5
421.171	91.5
421.394	100.5
421.617	84.5
421.839	88.5
422.062	82.5
422.285	90.5
422.507	93.5
422.73	122.5
422.953	96.5
423.175	81.5
423.398	87.5
423.621	77.5
423.843	82.5
424.066	85.5
424.288	105.5
424.511	75.5
424.733	89.5
424.956	92.5
425.178	106.5
425.401	101.5
425.623	89.5
425.846	88.5
426.068	83.5
426.291	85.5
426.513	74.5
426.735	90.5
426.958	99.5
427.18	116.5
427.402	128.5
427.625	165.5
427.847	136.5
428.069	96.5
428.292	75.5
428.514	84.5
428.736	81.5
428.958	79.5
429.181	82.5
429.403	88.5
429.625	94.5
429.847	83.5
430.069	107.5
430.292	95.5
430.514	91.5
430.736	88.5
430.958	90.5
431.18	75.5
431.402	85.5
431.624	67.5
431.846	96.5
432.068	82.5
432.29	80.5
432.512	80.5
432.734	77.5
432.956	96.5
433.178	94.5
433.4	101.5
433.622	82.5
433.844	90.5
434.066	85.5
434.287	89.5
434.509	97.5
434.731	87.5
434.953	88.5
435.175	76.5
435.397	80.5
435.618	92.5
435.84	106.5
436.062	107.5
436.284	114.5
436.505	96.5
436.727	84.5
436.949	88.5
437.17	94.5
437.392	101.5
437.614	95.5
437.835	109.5
438.057	120.5
438.278	118.5
438.5	107.5
438.721	124.5
438.943	100.5
439.165	94.5
439.386	76.5
439.608	92.5
439.829	104.5
440.05	117.5
440.272	139.5
440.493	90.5
440.715	82.5
440.936	88.5
441.158	78.5
441.379	94.5
441.6	82.5
441.822	97.5
442.043	87.5
442.264	112.5
442.486	93.5
442.707	100.5
442.928	109.5
443.149	132.5
443.371	132.5
443.592	95.5
443.813	114.5
444.034	108.5
444.255	83.5
444.476	72.5
444.698	89.5
444.919	82.5
445.14	125.5
445.361	120.5
445.582	113.5
445.803	137.5
446.024	119.5
446.245	108.5
446.466	100.5
446.687	84.5
446.908	87.5
447.129	82.5
447.35	89.5
447.571	90.5
447.792	104.5
448.013	111.5
448.234	105.5
448.455	107.5
448.675	120.5
448.896	111.5
449.117	95.5
449.338	89.5
449.559	124.5
449.779	112.5
450	98.5
450.221	72.5
450.442	93.5
450.662	78.5
450.883	110.5
451.104	108.5
451.324	94.5
451.545	90.5
451.766	92.5
451.986	88.5
452.207	81.5
452.428	95.5
452.648	91.5
452.869	112.5
453.089	110.5
453.31	127.5
453.53	88.5
453.751	108.5
453.971	103.5
454.192	118.5
454.412	92.5
454.633	94.5
454.853	87.5
455.073	92.5
455.294	87.5
455.514	94.5
455.734	93.5
455.955	94.5
456.175	79.5
456.395	75.5
456.616	73.5
456.836	89.5
457.056	100.5
457.276	78.5
457.497	89.5
457.717	64.5
457.937	90.5
458.157	78.5
458.377	98.5
458.598	113.5
458.818	153.5
459.038	170.5
459.258	110.5
459.478	84.5
459.698	89.5
459.918	87.5
460.138	81.5
460.358	86.5
460.578	82.5
460.798	106.5
461.018	80.5
461.238	85.5
461.458	83.5
461.678	82.5
461.898	88.5
462.118	97.5
462.338	81.5
462.558	75.5
462.777	84.5
462.997	77.5
463.217	80.5
463.437	74.5
463.657	99.5
463.876	76.5
464.096	97.5
464.316	95.5
464.536	90.5
464.755	103.5
464.975	107.5
465.195	173.5
465.414	171.5
465.634	106.5
465.854	87.5
466.073	88.5
466.293	75.5
466.512	95.5
466.732	83.5
466.951	81.5
467.171	74.5
467.391	87.5
467.61	117.5
467.829	96.5
468.049	86.5
468.268	86.5
468.488	79.5
468.707	72.5
468.927	92.5
469.146	82.5
469.365	88.5
469.585	81.5
469.804	80.5
470.023	97.5
470.243	103.5
470.462	100.5
470.681	107.5
470.901	86.5
471.12	98.5
471.339	73.5
471.558	85.5
471.777	100.5
471.997	94.5
472.216	96.5
472.435	102.5
472.654	82.5
472.873	83.5
473.092	87.5
473.311	79.5
473.53	89.5
473.749	80.5
473.968	103.5
474.187	103.5
474.406	97.5
474.625	68.5
474.844	84.5
475.063	92.5
475.282	93.5
475.501	89.5
475.72	86.5
475.939	89.5
476.158	88.5
476.377	78.5
476.596	90.5
476.814	77.5
477.033	83.5
477.252	82.5
477.471	83.5
477.69	81.5
477.908	96.5
478.127	82.5
478.346	88.5
478.564	98.5
478.783	110.5
479.002	87.5
479.22	84.5
479.439	101.5
479.658	109.5
479.876	89.5
480.095	89.5
480.313	96.5
480.532	88.5
480.751	81.5
480.969	93.5
481.188	126.5
481.406	113.5
481.624	103.5
481.843	85.5
482.061	91.5
482.28	97.5
482.498	89.5
482.717	90.5
482.935	104.5
483.153	85.5
483.372	98.5
483.59	89.5
483.808	85.5
484.027	82.5
484.245	97.5
484.463	87.5
484.681	95.5
484.9	87.5
485.118	84.5
485.336	99.5
485.554	89.5
485.772	105.5
485.99	108.5
486.209	97.5
486.427	107.5
486.645	109.5
486.863	113.5
487.081	102.5
487.299	107.5
487.517	90.5
487.735	89.5
487.953	87.5
488.171	94.5
488.389	94.5
488.607	108.5
488.825	95.5
489.043	78.5
489.261	82.5
489.479	78.5
489.696	91.5
489.914	94.5
490.132	101.5
490.35	89.5
490.568	90.5
490.786	94.5
491.003	93.5
491.221	105.5
491.439	94.5
491.657	98.5
491.874	95.5
492.092	78.5
492.31	105.5
492.527	95.5
492.745	83.5
492.963	86.5
493.18	86.5
493.398	87.5
493.615	91.5
493.833	79.5
494.05	90.5
494.268	78.5
494.485	107.5
494.703	94.5
494.92	85.5
495.138	81.5
495.355	86.5
495.573	78.5
495.79	78.5
496.008	93.5
496.225	97.5
496.442	96.5
496.66	89.5
496.877	78.5
497.094	94.5
497.312	81.5
497.529	81.5
497.746	92.5
497.963	81.5
498.181	85.5
498.398	86.5
498.615	112.5
498.832	107.5
499.049	94.5
499.267	80.5
499.484	97.5
499.701	99.5
499.918	88.5
500.135	78.5
500.352	86.5
500.569	73.5
500.786	106.5
501.003	86.5
501.22	80.5
501.437	100.5
501.654	83.5
501.871	100.5
502.088	99.5
502.305	87.5
502.522	91.5
502.739	81.5
502.956	86.5
503.172	79.5
503.389	95.5
503.606	109.5
503.823	100.5
504.04	87.5
504.256	87.5
504.473	92.5
504.69	97.5
504.907	94.5
505.123	80.5
505.34	85.5
505.557	96.5
505.773	97.5
505.99	87.5
506.207	87.5
506.423	92.5
506.64	85.5
506.856	84.5
507.073	85.5
507.289	90.5
507.506	107.5
507.722	119.5
507.939	117.5
508.155	98.5
508.372	101.5
508.588	95.5
508.805	89.5
509.021	109.5
509.238	105.5
509.454	101.5
509.67	102.5
509.887	95.5
510.103	144.5
510.319	238.5
510.536	871.5
510.752	2874.5
510.968	811.5
511.184	164.5
511.401	122.5
511.617	102.5
511.833	99.5
512.049	100.5
512.265	92.5
512.481	86.5
512.698	95.5
512.914	89.5
513.13	95.5
513.346	82.5
513.562	98.5
513.778	95.5
513.994	94.5
514.21	121.5
514.426	127.5
514.642	149.5
514.858	149.5
515.074	188.5
515.29	574.5
515.506	1901.5
515.721	699.5
515.937	181.5
516.153	107.5
516.369	94.5
516.585	83.5
516.801	94.5
517.016	97.5
517.232	80.5
517.448	86.5
517.664	112.5
517.879	100.5
518.095	97.5
518.311	101.5
518.527	87.5
518.742	80.5
518.958	91.5
519.173	102.5
519.389	96.5
519.605	106.5
519.82	90.5
520.036	113.5
520.251	123.5
520.467	117.5
520.682	97.5
520.898	100.5
521.113	111.5
521.329	163.5
521.544	233.5
521.76	690.5
521.975	3176.5
522.19	1951.5
522.406	386.5
522.621	150.5
522.836	113.5
523.052	90.5
523.267	86.5
523.482	90.5
523.698	95.5
523.913	133.5
524.128	117.5
524.343	89.5
524.559	90.5
524.774	103.5
524.989	94.5
525.204	101.5
525.419	92.5
525.634	82.5
525.849	85.5
526.064	80.5
526.28	96.5
526.495	80.5
526.71	96.5
526.925	82.5
527.14	88.5
527.355	88.5
527.57	82.5
527.785	84.5
527.999	89.5
528.214	101.5
528.429	86.5
528.644	88.5
528.859	89.5
529.074	102.5
529.289	123.5
529.503	206.5
529.718	113.5
529.933	91.5
530.148	89.5
530.363	86.5
530.577	89.5
530.792	91.5
531.007	96.5
531.221	92.5
531.436	98.5
531.651	97.5
531.865	85.5
532.08	82.5
532.295	90.5
532.509	103.5
532.724	104.5
532.938	99.5
533.153	90.5
533.367	92.5
533.582	88.5
533.796	94.5
534.011	88.5
534.225	80.5
534.44	94.5
534.654	93.5
534.868	97.5
535.083	92.5
