Data from Circ_2008_H10_HRD10591_00018.txt Node
Date: Wed Jan 03 10:16:59 EST 2024
User: Yrep
Spectrometer: HR+D1059
Trigger mode: 1
Integration Time (sec): 1.000000E-1
Scans to average: 1
Electric dark correction enabled: true
Nonlinearity correction enabled: false
Boxcar width: 0
XAxis mode: Wavelengths
Number of Pixels in Spectrum: 2048
>>>>>Begin Spectral Data<<<<<
223.165	-12.62
223.4	-12.62
223.635	-12.62
223.869	-27.62
224.104	-19.62
224.338	-29.62
224.573	-20.62
224.808	-7.62
225.042	-8.62
225.277	2.38
225.511	3.38
225.746	4.38
225.98	5.38
226.215	13.38
226.449	13.38
226.683	17.38
226.918	35.38
227.152	31.38
227.387	40.38
227.621	30.38
227.856	29.38
228.09	42.38
228.324	44.38
228.559	57.38
228.793	70.38
229.027	56.38
229.262	62.38
229.496	79.38
229.73	88.38
229.964	102.38
230.199	80.38
230.433	81.38
230.667	87.38
230.901	64.38
231.136	79.38
231.37	87.38
231.604	91.38
231.838	94.38
232.072	83.38
232.306	79.38
232.541	72.38
232.775	75.38
233.009	73.38
233.243	87.38
233.477	84.38
233.711	73.38
233.945	82.38
234.179	78.38
234.413	84.38
234.647	71.38
234.881	66.38
235.115	77.38
235.349	65.38
235.583	75.38
235.817	73.38
236.051	85.38
236.285	83.38
236.519	71.38
236.753	88.38
236.987	80.38
237.221	80.38
237.455	84.38
237.689	73.38
237.922	65.38
238.156	84.38
238.39	88.38
238.624	62.38
238.858	78.38
239.091	84.38
239.325	62.38
239.559	90.38
239.793	88.38
240.027	83.38
240.26	76.38
240.494	77.38
240.728	75.38
240.961	91.38
241.195	83.38
241.429	63.38
241.662	85.38
241.896	82.38
242.13	77.38
242.363	73.38
242.597	77.38
242.83	73.38
243.064	84.38
243.298	79.38
243.531	78.38
243.765	72.38
243.998	92.38
244.232	81.38
244.465	84.38
244.699	85.38
244.932	91.38
245.166	80.38
245.399	84.38
245.633	83.38
245.866	85.38
246.099	69.38
246.333	84.38
246.566	80.38
246.8	62.38
247.033	74.38
247.266	76.38
247.5	76.38
247.733	81.38
247.966	94.38
248.2	91.38
248.433	87.38
248.666	71.38
248.899	96.38
249.133	97.38
249.366	111.38
249.599	113.38
249.832	89.38
250.066	75.38
250.299	79.38
250.532	71.38
250.765	81.38
250.998	93.38
251.231	82.38
251.465	68.38
251.698	86.38
251.931	84.38
252.164	84.38
252.397	71.38
252.63	75.38
252.863	69.38
253.096	62.38
253.329	88.38
253.562	76.38
253.795	82.38
254.028	68.38
254.261	79.38
254.494	89.38
254.727	75.38
254.96	79.38
255.193	84.38
255.426	84.38
255.659	63.38
255.892	80.38
256.124	90.38
256.357	83.38
256.59	91.38
256.823	75.38
257.056	76.38
257.289	85.38
257.521	80.38
257.754	80.38
257.987	80.38
258.22	94.38
258.452	77.38
258.685	80.38
258.918	75.38
259.151	77.38
259.383	85.38
259.616	72.38
259.849	81.38
260.081	84.38
260.314	77.38
260.547	88.38
260.779	87.38
261.012	75.38
261.244	88.38
261.477	83.38
261.71	102.38
261.942	135.38
262.175	139.38
262.407	91.38
262.64	90.38
262.872	66.38
263.105	76.38
263.337	93.38
263.57	89.38
263.802	104.38
264.035	93.38
264.267	82.38
264.499	85.38
264.732	92.38
264.964	74.38
265.197	65.38
265.429	90.38
265.661	95.38
265.894	80.38
266.126	73.38
266.358	87.38
266.591	76.38
266.823	92.38
267.055	82.38
267.287	93.38
267.52	96.38
267.752	83.38
267.984	83.38
268.216	82.38
268.448	82.38
268.681	90.38
268.913	89.38
269.145	97.38
269.377	75.38
269.609	78.38
269.841	88.38
270.073	93.38
270.306	77.38
270.538	79.38
270.77	71.38
271.002	76.38
271.234	104.38
271.466	88.38
271.698	87.38
271.93	89.38
272.162	89.38
272.394	89.38
272.626	84.38
272.858	84.38
273.09	88.38
273.322	90.38
273.553	82.38
273.785	94.38
274.017	97.38
274.249	88.38
274.481	87.38
274.713	88.38
274.945	92.38
275.176	70.38
275.408	94.38
275.64	89.38
275.872	78.38
276.104	82.38
276.335	95.38
276.567	105.38
276.799	114.38
277.031	109.38
277.262	70.38
277.494	84.38
277.726	96.38
277.957	92.38
278.189	84.38
278.421	95.38
278.652	83.38
278.884	79.38
279.115	95.38
279.347	89.38
279.579	90.38
279.81	82.38
280.042	93.38
280.273	85.38
280.505	98.38
280.736	81.38
280.968	83.38
281.199	91.38
281.431	91.38
281.662	90.38
281.894	110.38
282.125	109.38
282.356	141.38
282.588	163.38
282.819	133.38
283.051	79.38
283.282	90.38
283.513	93.38
283.745	84.38
283.976	74.38
284.207	92.38
284.439	83.38
284.67	75.38
284.901	85.38
285.132	87.38
285.364	91.38
285.595	85.38
285.826	87.38
286.057	91.38
286.288	97.38
286.52	88.38
286.751	79.38
286.982	94.38
287.213	82.38
287.444	88.38
287.675	83.38
287.906	86.38
288.138	88.38
288.369	85.38
288.6	82.38
288.831	82.38
289.062	92.38
289.293	87.38
289.524	84.38
289.755	85.38
289.986	98.38
290.217	77.38
290.448	86.38
290.679	97.38
290.91	103.38
291.141	83.38
291.371	88.38
291.602	93.38
291.833	82.38
292.064	83.38
292.295	93.38
292.526	85.38
292.757	77.38
292.987	70.38
293.218	98.38
293.449	74.38
293.68	74.38
293.91	103.38
294.141	90.38
294.372	92.38
294.603	87.38
294.833	89.38
295.064	66.38
295.295	91.38
295.525	77.38
295.756	96.38
295.987	133.38
296.217	165.38
296.448	140.38
296.679	99.38
296.909	79.38
297.14	84.38
297.37	83.38
297.601	82.38
297.831	92.38
298.062	94.38
298.292	103.38
298.523	91.38
298.753	77.38
298.984	97.38
299.214	99.38
299.445	85.38
299.675	103.38
299.905	102.38
300.136	77.38
300.366	91.38
300.597	96.38
300.827	89.38
301.057	100.38
301.288	100.38
301.518	96.38
301.748	85.38
301.979	104.38
302.209	97.38
302.439	99.38
302.669	87.38
302.9	82.38
303.13	95.38
303.36	96.38
303.59	105.38
303.82	110.38
304.051	93.38
304.281	94.38
304.511	90.38
304.741	88.38
304.971	93.38
305.201	98.38
305.431	101.38
305.661	90.38
305.891	90.38
306.121	113.38
306.352	108.38
306.582	114.38
306.812	105.38
307.042	103.38
307.272	93.38
307.502	99.38
307.731	82.38
307.961	81.38
308.191	84.38
308.421	89.38
308.651	92.38
308.881	99.38
309.111	89.38
309.341	88.38
309.571	110.38
309.8	95.38
310.03	100.38
310.26	109.38
310.49	93.38
310.72	103.38
310.949	99.38
311.179	108.38
311.409	104.38
311.639	113.38
311.868	100.38
312.098	88.38
312.328	114.38
312.557	108.38
312.787	117.38
313.017	107.38
313.246	93.38
313.476	101.38
313.706	112.38
313.935	98.38
314.165	95.38
314.394	122.38
314.624	103.38
314.853	98.38
315.083	101.38
315.312	79.38
315.542	93.38
315.771	104.38
316.001	104.38
316.23	97.38
316.46	105.38
316.689	96.38
316.919	91.38
317.148	96.38
317.377	93.38
317.607	104.38
317.836	95.38
318.065	112.38
318.295	91.38
318.524	96.38
318.753	94.38
318.983	90.38
319.212	113.38
319.441	139.38
319.67	119.38
319.9	92.38
320.129	100.38
320.358	91.38
320.587	118.38
320.816	119.38
321.046	104.38
321.275	93.38
321.504	109.38
321.733	93.38
321.962	91.38
322.191	119.38
322.42	112.38
322.649	125.38
322.878	116.38
323.108	124.38
323.337	141.38
323.566	164.38
323.795	160.38
324.024	245.38
324.253	479.38
324.482	1070.38
324.71	2221.38
324.939	3023.38
325.168	1116.38
325.397	311.38
325.626	180.38
325.855	148.38
326.084	121.38
326.313	145.38
326.542	155.38
326.77	264.38
326.999	555.38
327.228	1120.38
327.457	2096.38
327.686	1703.38
327.914	459.38
328.143	249.38
328.372	179.38
328.6	131.38
328.829	129.38
329.058	139.38
329.287	157.38
329.515	112.38
329.744	107.38
329.972	109.38
330.201	109.38
330.43	123.38
330.658	153.38
330.887	179.38
331.115	144.38
331.344	117.38
331.572	98.38
331.801	116.38
332.03	103.38
332.258	87.38
332.486	89.38
332.715	104.38
332.943	89.38
333.172	108.38
333.4	93.38
333.629	100.38
333.857	136.38
334.085	131.38
334.314	116.38
334.542	112.38
334.771	112.38
334.999	106.38
335.227	92.38
335.455	93.38
335.684	110.38
335.912	108.38
336.14	106.38
336.369	109.38
336.597	98.38
336.825	105.38
337.053	100.38
337.281	80.38
337.51	104.38
337.738	97.38
337.966	91.38
338.194	110.38
338.422	89.38
338.65	74.38
338.878	91.38
339.106	97.38
339.334	100.38
339.562	98.38
339.79	87.38
340.018	77.38
340.246	91.38
340.474	89.38
340.702	97.38
340.93	92.38
341.158	96.38
341.386	102.38
341.614	103.38
341.842	88.38
342.07	83.38
342.298	89.38
342.526	94.38
342.754	79.38
342.981	77.38
343.209	90.38
343.437	79.38
343.665	97.38
343.893	97.38
344.12	103.38
344.348	93.38
344.576	89.38
344.804	97.38
345.031	103.38
345.259	111.38
345.487	97.38
345.714	85.38
345.942	103.38
346.17	112.38
346.397	88.38
346.625	107.38
346.853	102.38
347.08	87.38
347.308	96.38
347.535	96.38
347.763	117.38
347.99	110.38
348.218	102.38
348.445	101.38
348.673	103.38
348.9	107.38
349.128	85.38
349.355	82.38
349.583	104.38
349.81	83.38
350.037	101.38
350.265	91.38
350.492	95.38
350.72	104.38
350.947	101.38
351.174	126.38
351.402	124.38
351.629	123.38
351.856	97.38
352.083	95.38
352.311	110.38
352.538	115.38
352.765	121.38
352.992	123.38
353.22	130.38
353.447	114.38
353.674	106.38
353.901	100.38
354.128	98.38
354.355	92.38
354.583	114.38
354.81	109.38
355.037	110.38
355.264	109.38
355.491	101.38
355.718	98.38
355.945	91.38
356.172	102.38
356.399	84.38
356.626	97.38
356.853	83.38
357.08	85.38
357.307	94.38
357.534	108.38
357.761	90.38
357.988	113.38
358.215	87.38
358.441	110.38
358.668	81.38
358.895	89.38
359.122	95.38
359.349	90.38
359.576	95.38
359.802	107.38
360.029	133.38
360.256	124.38
360.483	107.38
360.709	93.38
360.936	99.38
361.163	97.38
361.39	102.38
361.616	91.38
361.843	92.38
362.07	105.38
362.296	92.38
362.523	98.38
362.749	101.38
362.976	99.38
363.203	95.38
363.429	91.38
363.656	95.38
363.882	84.38
364.109	96.38
364.335	99.38
364.562	95.38
364.788	86.38
365.015	99.38
365.241	98.38
365.468	137.38
365.694	110.38
365.92	105.38
366.147	111.38
366.373	93.38
366.599	94.38
366.826	98.38
367.052	100.38
367.278	91.38
367.505	94.38
367.731	98.38
367.957	91.38
368.184	102.38
368.41	108.38
368.636	112.38
368.862	130.38
369.089	126.38
369.315	105.38
369.541	97.38
369.767	99.38
369.993	83.38
370.219	100.38
370.445	80.38
370.672	83.38
370.898	100.38
371.124	86.38
371.35	97.38
371.576	90.38
371.802	92.38
372.028	93.38
372.254	87.38
372.48	97.38
372.706	90.38
372.932	85.38
373.158	95.38
373.384	100.38
373.61	87.38
373.835	91.38
374.061	95.38
374.287	100.38
374.513	96.38
374.739	81.38
374.965	79.38
375.191	96.38
375.416	103.38
375.642	100.38
375.868	95.38
376.094	89.38
376.319	88.38
376.545	100.38
376.771	90.38
376.997	96.38
377.222	94.38
377.448	87.38
377.674	85.38
377.899	93.38
378.125	82.38
378.35	87.38
378.576	91.38
378.802	101.38
379.027	89.38
379.253	107.38
379.478	89.38
379.704	102.38
379.929	100.38
380.155	108.38
380.38	89.38
380.606	92.38
380.831	88.38
381.057	108.38
381.282	111.38
381.507	100.38
381.733	86.38
381.958	115.38
382.184	101.38
382.409	105.38
382.634	112.38
382.86	94.38
383.085	97.38
383.31	108.38
383.535	118.38
383.761	100.38
383.986	118.38
384.211	108.38
384.436	102.38
384.662	111.38
384.887	101.38
385.112	110.38
385.337	102.38
385.562	108.38
385.787	106.38
386.013	125.38
386.238	138.38
386.463	126.38
386.688	122.38
386.913	121.38
387.138	119.38
387.363	101.38
387.588	98.38
387.813	95.38
388.038	113.38
388.263	135.38
388.488	115.38
388.713	109.38
388.938	91.38
389.163	99.38
389.387	96.38
389.612	89.38
389.837	93.38
390.062	76.38
390.287	82.38
390.512	87.38
390.736	89.38
390.961	88.38
391.186	99.38
391.411	89.38
391.636	92.38
391.86	81.38
392.085	85.38
392.31	91.38
392.534	80.38
392.759	95.38
392.984	98.38
393.208	113.38
393.433	125.38
393.658	112.38
393.882	66.38
394.107	84.38
394.331	97.38
394.556	89.38
394.78	95.38
395.005	84.38
395.229	82.38
395.454	91.38
395.678	77.38
395.903	96.38
396.127	99.38
396.352	103.38
396.576	74.38
396.801	96.38
397.025	99.38
397.249	90.38
397.474	96.38
397.698	97.38
397.922	88.38
398.147	105.38
398.371	94.38
398.595	103.38
398.82	93.38
399.044	85.38
399.268	90.38
399.492	98.38
399.717	88.38
399.941	105.38
400.165	96.38
400.389	105.38
400.613	104.38
400.837	93.38
401.062	81.38
401.286	96.38
401.51	106.38
401.734	90.38
401.958	112.38
402.182	160.38
402.406	222.38
402.63	141.38
402.854	93.38
403.078	83.38
403.302	82.38
403.526	92.38
403.75	92.38
403.974	96.38
404.198	107.38
404.422	103.38
404.645	100.38
404.869	121.38
405.093	105.38
405.317	97.38
405.541	108.38
405.765	127.38
405.988	134.38
406.212	229.38
406.436	356.38
406.66	192.38
406.883	117.38
407.107	106.38
407.331	106.38
407.555	110.38
407.778	88.38
408.002	90.38
408.226	94.38
408.449	87.38
408.673	109.38
408.896	104.38
409.12	87.38
409.344	96.38
409.567	87.38
409.791	101.38
410.014	83.38
410.238	97.38
410.461	95.38
410.685	90.38
410.908	92.38
411.132	104.38
411.355	99.38
411.578	85.38
411.802	89.38
412.025	89.38
412.249	91.38
412.472	88.38
412.695	86.38
412.919	89.38
413.142	98.38
413.365	90.38
413.589	79.38
413.812	90.38
414.035	95.38
414.258	96.38
414.482	84.38
414.705	95.38
414.928	92.38
415.151	110.38
415.374	112.38
415.597	98.38
415.821	86.38
416.044	89.38
416.267	81.38
416.49	92.38
416.713	89.38
416.936	68.38
417.159	75.38
417.382	102.38
417.605	83.38
417.828	91.38
418.051	87.38
418.274	98.38
418.497	86.38
418.72	78.38
418.943	100.38
419.166	90.38
419.389	98.38
419.611	86.38
419.834	85.38
420.057	75.38
420.28	88.38
420.503	79.38
420.726	75.38
420.948	76.38
421.171	100.38
421.394	94.38
421.617	87.38
421.839	95.38
422.062	96.38
422.285	71.38
422.507	124.38
422.73	114.38
422.953	91.38
423.175	96.38
423.398	103.38
423.621	83.38
423.843	92.38
424.066	83.38
424.288	92.38
424.511	90.38
424.733	103.38
424.956	117.38
425.178	114.38
425.401	97.38
425.623	104.38
425.846	98.38
426.068	89.38
426.291	90.38
426.513	95.38
426.735	96.38
426.958	98.38
427.18	112.38
427.402	145.38
427.625	203.38
427.847	161.38
428.069	125.38
428.292	89.38
428.514	93.38
428.736	79.38
428.958	88.38
429.181	77.38
429.403	84.38
429.625	79.38
429.847	96.38
430.069	97.38
430.292	87.38
430.514	85.38
430.736	80.38
430.958	84.38
431.18	84.38
431.402	82.38
431.624	94.38
431.846	81.38
432.068	90.38
432.29	95.38
432.512	99.38
432.734	90.38
432.956	79.38
433.178	108.38
433.4	104.38
433.622	89.38
433.844	82.38
434.066	81.38
434.287	97.38
434.509	88.38
434.731	98.38
434.953	93.38
435.175	80.38
435.397	89.38
435.618	95.38
435.84	105.38
436.062	110.38
436.284	111.38
436.505	117.38
436.727	97.38
436.949	93.38
437.17	88.38
437.392	88.38
437.614	105.38
437.835	121.38
438.057	134.38
438.278	126.38
438.5	97.38
438.721	118.38
438.943	116.38
439.165	101.38
439.386	81.38
439.608	100.38
439.829	112.38
440.05	141.38
440.272	147.38
440.493	121.38
440.715	94.38
440.936	96.38
441.158	80.38
441.379	89.38
441.6	106.38
441.822	106.38
442.043	97.38
442.264	115.38
442.486	111.38
442.707	101.38
442.928	115.38
443.149	165.38
443.371	169.38
443.592	123.38
443.813	135.38
444.034	120.38
444.255	101.38
444.476	80.38
444.698	90.38
444.919	80.38
445.14	115.38
445.361	132.38
445.582	124.38
445.803	149.38
446.024	135.38
446.245	146.38
446.466	132.38
446.687	88.38
446.908	76.38
447.129	83.38
447.35	90.38
447.571	103.38
447.792	96.38
448.013	99.38
448.234	112.38
448.455	100.38
448.675	119.38
448.896	120.38
449.117	111.38
449.338	109.38
449.559	120.38
449.779	133.38
450	98.38
450.221	79.38
450.442	91.38
450.662	112.38
450.883	120.38
451.104	127.38
451.324	104.38
451.545	85.38
451.766	92.38
451.986	85.38
452.207	100.38
452.428	97.38
452.648	104.38
452.869	122.38
453.089	131.38
453.31	141.38
453.53	101.38
453.751	98.38
453.971	108.38
454.192	108.38
454.412	91.38
454.633	91.38
454.853	85.38
455.073	87.38
455.294	105.38
455.514	92.38
455.734	99.38
455.955	97.38
456.175	103.38
456.395	90.38
456.616	89.38
456.836	85.38
457.056	94.38
457.276	75.38
457.497	81.38
457.717	91.38
457.937	90.38
458.157	93.38
458.377	93.38
458.598	110.38
458.818	180.38
459.038	219.38
459.258	148.38
459.478	98.38
459.698	100.38
459.918	87.38
460.138	93.38
460.358	78.38
460.578	90.38
460.798	86.38
461.018	87.38
461.238	75.38
461.458	82.38
461.678	81.38
461.898	75.38
462.118	88.38
462.338	88.38
462.558	84.38
462.777	87.38
462.997	84.38
463.217	81.38
463.437	86.38
463.657	92.38
463.876	96.38
464.096	96.38
464.316	91.38
464.536	105.38
464.755	97.38
464.975	130.38
465.195	225.38
465.414	217.38
465.634	106.38
465.854	85.38
466.073	95.38
466.293	87.38
466.512	77.38
466.732	89.38
466.951	92.38
467.171	92.38
467.391	102.38
467.61	123.38
467.829	98.38
468.049	86.38
468.268	101.38
468.488	96.38
468.707	79.38
468.927	93.38
469.146	84.38
469.365	86.38
469.585	90.38
469.804	97.38
470.023	116.38
470.243	93.38
470.462	96.38
470.681	139.38
470.901	95.38
471.12	82.38
471.339	88.38
471.558	91.38
471.777	105.38
471.997	84.38
472.216	85.38
472.435	124.38
472.654	90.38
472.873	93.38
473.092	91.38
473.311	105.38
473.53	96.38
473.749	100.38
473.968	107.38
474.187	104.38
474.406	107.38
474.625	86.38
474.844	69.38
475.063	88.38
475.282	96.38
475.501	94.38
475.72	90.38
475.939	81.38
476.158	91.38
476.377	94.38
476.596	89.38
476.814	94.38
477.033	105.38
477.252	98.38
477.471	97.38
477.69	75.38
477.908	82.38
478.127	92.38
478.346	103.38
478.564	78.38
478.783	106.38
479.002	107.38
479.22	99.38
479.439	101.38
479.658	108.38
479.876	107.38
480.095	96.38
480.313	97.38
480.532	96.38
480.751	85.38
480.969	121.38
481.188	139.38
481.406	128.38
481.624	104.38
481.843	95.38
482.061	97.38
482.28	84.38
482.498	96.38
482.717	89.38
482.935	92.38
483.153	85.38
483.372	95.38
483.59	102.38
483.808	98.38
484.027	98.38
484.245	109.38
484.463	86.38
484.681	97.38
484.9	91.38
485.118	96.38
485.336	90.38
485.554	100.38
485.772	106.38
485.99	89.38
486.209	99.38
486.427	94.38
486.645	96.38
486.863	107.38
487.081	98.38
487.299	108.38
487.517	96.38
487.735	88.38
487.953	84.38
488.171	108.38
488.389	97.38
488.607	105.38
488.825	101.38
489.043	84.38
489.261	83.38
489.479	73.38
489.696	80.38
489.914	104.38
490.132	90.38
490.35	103.38
490.568	105.38
490.786	88.38
491.003	85.38
491.221	91.38
491.439	84.38
491.657	103.38
491.874	90.38
492.092	83.38
492.31	91.38
492.527	91.38
492.745	88.38
492.963	83.38
493.18	95.38
493.398	99.38
493.615	95.38
493.833	97.38
494.05	85.38
494.268	100.38
494.485	104.38
494.703	88.38
494.92	86.38
495.138	95.38
495.355	85.38
495.573	84.38
495.79	89.38
496.008	79.38
496.225	82.38
496.442	87.38
496.66	93.38
496.877	81.38
497.094	92.38
497.312	87.38
497.529	96.38
497.746	100.38
497.963	89.38
498.181	103.38
498.398	94.38
498.615	116.38
498.832	120.38
499.049	100.38
499.267	94.38
499.484	95.38
499.701	80.38
499.918	88.38
500.135	98.38
500.352	92.38
500.569	94.38
500.786	99.38
501.003	101.38
501.22	98.38
501.437	86.38
501.654	95.38
501.871	117.38
502.088	96.38
502.305	93.38
502.522	82.38
502.739	106.38
502.956	94.38
503.172	88.38
503.389	103.38
503.606	98.38
503.823	115.38
504.04	83.38
504.256	101.38
504.473	92.38
504.69	93.38
504.907	90.38
505.123	107.38
505.34	79.38
505.557	99.38
505.773	99.38
505.99	104.38
506.207	87.38
506.423	99.38
506.64	102.38
506.856	100.38
507.073	87.38
507.289	88.38
507.506	113.38
507.722	124.38
507.939	131.38
508.155	105.38
508.372	107.38
508.588	88.38
508.805	97.38
509.021	97.38
509.238	116.38
509.454	91.38
509.67	122.38
509.887	125.38
510.103	160.38
510.319	274.38
510.536	1145.38
510.752	4112.38
510.968	1089.38
511.184	203.38
511.401	122.38
511.617	108.38
511.833	94.38
512.049	87.38
512.265	98.38
512.481	105.38
512.698	98.38
512.914	100.38
513.13	99.38
513.346	104.38
513.562	101.38
513.778	105.38
513.994	110.38
