Data from Circ_2008_H10_HRD10591_00080.txt Node
Date: Wed Jan 03 10:17:12 EST 2024
User: Yrep
Spectrometer: HR+D1059
Trigger mode: 1
Integration Time (sec): 1.000000E-1
Scans to average: 1
Electric dark correction enabled: true
Nonlinearity correction enabled: false
Boxcar width: 0
XAxis mode: Wavelengths
Number of Pixels in Spectrum: 2048
>>>>>Begin Spectral Data<<<<<
223.165	-28.94
223.4	-28.94
223.635	-28.94
223.869	-5.94
224.104	-18.94
224.338	-14.94
224.573	0.06
224.808	-11.94
225.042	-10.94
225.277	-10.94
225.511	-0.94
225.746	7.06
225.98	-3.94
226.215	17.06
226.449	10.06
226.683	13.06
226.918	27.06
227.152	33.06
227.387	34.06
227.621	26.06
227.856	35.06
228.09	51.06
228.324	41.06
228.559	50.06
228.793	67.06
229.027	76.06
229.262	64.06
229.496	80.06
229.73	90.06
229.964	81.06
230.199	79.06
230.433	57.06
230.667	88.06
230.901	82.06
231.136	79.06
231.37	82.06
231.604	89.06
231.838	77.06
232.072	87.06
232.306	80.06
232.541	86.06
232.775	73.06
233.009	74.06
233.243	76.06
233.477	82.06
233.711	76.06
233.945	91.06
234.179	80.06
234.413	85.06
234.647	77.06
234.881	75.06
235.115	80.06
235.349	80.06
235.583	83.06
235.817	76.06
236.051	84.06
236.285	81.06
236.519	82.06
236.753	81.06
236.987	87.06
237.221	92.06
237.455	85.06
237.689	84.06
237.922	87.06
238.156	75.06
238.39	76.06
238.624	72.06
238.858	83.06
239.091	80.06
239.325	73.06
239.559	75.06
239.793	72.06
240.027	76.06
240.26	75.06
240.494	78.06
240.728	85.06
240.961	76.06
241.195	83.06
241.429	72.06
241.662	88.06
241.896	79.06
242.13	76.06
242.363	87.06
242.597	74.06
242.83	73.06
243.064	65.06
243.298	94.06
243.531	69.06
243.765	92.06
243.998	85.06
244.232	65.06
244.465	79.06
244.699	75.06
244.932	80.06
245.166	78.06
245.399	78.06
245.633	85.06
245.866	88.06
246.099	75.06
246.333	84.06
246.566	77.06
246.8	85.06
247.033	72.06
247.266	84.06
247.5	77.06
247.733	78.06
247.966	80.06
248.2	73.06
248.433	70.06
248.666	69.06
248.899	79.06
249.133	90.06
249.366	76.06
249.599	87.06
249.832	96.06
250.066	84.06
250.299	83.06
250.532	76.06
250.765	82.06
250.998	74.06
251.231	83.06
251.465	81.06
251.698	82.06
251.931	98.06
252.164	95.06
252.397	82.06
252.63	78.06
252.863	89.06
253.096	84.06
253.329	80.06
253.562	88.06
253.795	95.06
254.028	86.06
254.261	80.06
254.494	80.06
254.727	75.06
254.96	83.06
255.193	66.06
255.426	91.06
255.659	83.06
255.892	87.06
256.124	81.06
256.357	82.06
256.59	85.06
256.823	86.06
257.056	91.06
257.289	83.06
257.521	84.06
257.754	73.06
257.987	83.06
258.22	87.06
258.452	77.06
258.685	83.06
258.918	80.06
259.151	78.06
259.383	91.06
259.616	79.06
259.849	97.06
260.081	83.06
260.314	87.06
260.547	76.06
260.779	72.06
261.012	81.06
261.244	88.06
261.477	99.06
261.71	83.06
261.942	112.06
262.175	116.06
262.407	82.06
262.64	103.06
262.872	86.06
263.105	90.06
263.337	84.06
263.57	86.06
263.802	89.06
264.035	75.06
264.267	71.06
264.499	80.06
264.732	71.06
264.964	90.06
265.197	83.06
265.429	88.06
265.661	94.06
265.894	88.06
266.126	92.06
266.358	84.06
266.591	71.06
266.823	97.06
267.055	102.06
267.287	87.06
267.52	93.06
267.752	77.06
267.984	83.06
268.216	92.06
268.448	89.06
268.681	78.06
268.913	82.06
269.145	93.06
269.377	86.06
269.609	83.06
269.841	92.06
270.073	75.06
270.306	92.06
270.538	77.06
270.77	97.06
271.002	96.06
271.234	95.06
271.466	89.06
271.698	80.06
271.93	90.06
272.162	85.06
272.394	78.06
272.626	78.06
272.858	87.06
273.09	85.06
273.322	83.06
273.553	83.06
273.785	77.06
274.017	93.06
274.249	81.06
274.481	95.06
274.713	75.06
274.945	78.06
275.176	92.06
275.408	90.06
275.64	94.06
275.872	84.06
276.104	86.06
276.335	98.06
276.567	106.06
276.799	124.06
277.031	102.06
277.262	94.06
277.494	83.06
277.726	80.06
277.957	85.06
278.189	86.06
278.421	90.06
278.652	85.06
278.884	79.06
279.115	101.06
279.347	105.06
279.579	81.06
279.81	78.06
280.042	104.06
280.273	97.06
280.505	108.06
280.736	88.06
280.968	100.06
281.199	100.06
281.431	78.06
281.662	84.06
281.894	82.06
282.125	87.06
282.356	128.06
282.588	139.06
282.819	123.06
283.051	117.06
283.282	80.06
283.513	89.06
283.745	99.06
283.976	91.06
284.207	81.06
284.439	91.06
284.67	93.06
284.901	97.06
285.132	95.06
285.364	88.06
285.595	81.06
285.826	89.06
286.057	76.06
286.288	80.06
286.52	93.06
286.751	78.06
286.982	82.06
287.213	88.06
287.444	74.06
287.675	84.06
287.906	88.06
288.138	84.06
288.369	81.06
288.6	104.06
288.831	87.06
289.062	90.06
289.293	92.06
289.524	85.06
289.755	78.06
289.986	91.06
290.217	84.06
290.448	79.06
290.679	92.06
290.91	94.06
291.141	88.06
291.371	84.06
291.602	88.06
291.833	89.06
292.064	89.06
292.295	85.06
292.526	85.06
292.757	99.06
292.987	98.06
293.218	87.06
293.449	79.06
293.68	87.06
293.91	75.06
294.141	73.06
294.372	80.06
294.603	91.06
294.833	100.06
295.064	96.06
295.295	89.06
295.525	90.06
295.756	100.06
295.987	116.06
296.217	141.06
296.448	137.06
296.679	94.06
296.909	80.06
297.14	97.06
297.37	90.06
297.601	98.06
297.831	83.06
298.062	100.06
298.292	87.06
298.523	80.06
298.753	82.06
298.984	85.06
299.214	106.06
299.445	106.06
299.675	95.06
299.905	88.06
300.136	89.06
300.366	94.06
300.597	89.06
300.827	100.06
301.057	88.06
301.288	108.06
301.518	99.06
301.748	93.06
301.979	88.06
302.209	97.06
302.439	96.06
302.669	84.06
302.9	88.06
303.13	91.06
303.36	94.06
303.59	114.06
303.82	120.06
304.051	97.06
304.281	86.06
304.511	90.06
304.741	87.06
304.971	91.06
305.201	101.06
305.431	85.06
305.661	91.06
305.891	105.06
306.121	104.06
306.352	110.06
306.582	105.06
306.812	96.06
307.042	81.06
307.272	107.06
307.502	108.06
307.731	97.06
307.961	94.06
308.191	86.06
308.421	94.06
308.651	91.06
308.881	104.06
309.111	109.06
309.341	97.06
309.571	89.06
309.8	101.06
310.03	89.06
310.26	106.06
310.49	97.06
310.72	95.06
310.949	93.06
311.179	92.06
311.409	97.06
311.639	93.06
311.868	103.06
312.098	99.06
312.328	92.06
312.557	99.06
312.787	121.06
313.017	103.06
313.246	119.06
313.476	109.06
313.706	88.06
313.935	92.06
314.165	103.06
314.394	89.06
314.624	107.06
314.853	82.06
315.083	91.06
315.312	104.06
315.542	97.06
315.771	98.06
316.001	81.06
316.23	85.06
316.46	92.06
316.689	93.06
316.919	110.06
317.148	99.06
317.377	101.06
317.607	97.06
317.836	91.06
318.065	104.06
318.295	95.06
318.524	89.06
318.753	94.06
318.983	108.06
319.212	101.06
319.441	97.06
319.67	107.06
319.9	97.06
320.129	81.06
320.358	90.06
320.587	102.06
320.816	100.06
321.046	93.06
321.275	101.06
321.504	117.06
321.733	103.06
321.962	120.06
322.191	109.06
322.42	102.06
322.649	116.06
322.878	112.06
323.108	120.06
323.337	118.06
323.566	139.06
323.795	149.06
324.024	200.06
324.253	375.06
324.482	807.06
324.71	1577.06
324.939	2040.06
325.168	795.06
325.397	238.06
325.626	145.06
325.855	120.06
326.084	137.06
326.313	124.06
326.542	150.06
326.77	215.06
326.999	405.06
327.228	875.06
327.457	1538.06
327.686	1237.06
327.914	369.06
328.143	217.06
328.372	210.06
328.6	135.06
328.829	125.06
329.058	146.06
329.287	114.06
329.515	102.06
329.744	104.06
329.972	146.06
330.201	196.06
330.43	255.06
330.658	181.06
330.887	159.06
331.115	135.06
331.344	101.06
331.572	120.06
331.801	100.06
332.03	113.06
332.258	100.06
332.486	104.06
332.715	100.06
332.943	93.06
333.172	108.06
333.4	104.06
333.629	111.06
333.857	140.06
334.085	134.06
334.314	192.06
334.542	301.06
334.771	282.06
334.999	136.06
335.227	119.06
335.455	104.06
335.684	82.06
335.912	93.06
336.14	99.06
336.369	109.06
336.597	92.06
336.825	106.06
337.053	99.06
337.281	96.06
337.51	91.06
337.738	85.06
337.966	88.06
338.194	97.06
338.422	107.06
338.65	88.06
338.878	94.06
339.106	99.06
339.334	87.06
339.562	84.06
339.79	93.06
340.018	89.06
340.246	104.06
340.474	95.06
340.702	103.06
340.93	81.06
341.158	83.06
341.386	97.06
341.614	94.06
341.842	91.06
342.07	80.06
342.298	94.06
342.526	83.06
342.754	84.06
342.981	85.06
343.209	92.06
343.437	99.06
343.665	80.06
343.893	84.06
344.12	93.06
344.348	100.06
344.576	97.06
344.804	99.06
345.031	93.06
345.259	90.06
345.487	105.06
345.714	94.06
345.942	91.06
346.17	92.06
346.397	89.06
346.625	93.06
346.853	95.06
347.08	93.06
347.308	96.06
347.535	83.06
347.763	114.06
347.99	95.06
348.218	97.06
348.445	126.06
348.673	96.06
348.9	99.06
349.128	83.06
349.355	105.06
349.583	91.06
349.81	93.06
350.037	109.06
350.265	93.06
350.492	90.06
350.72	93.06
350.947	108.06
351.174	106.06
351.402	115.06
351.629	104.06
351.856	103.06
352.083	123.06
352.311	97.06
352.538	104.06
352.765	113.06
352.992	113.06
353.22	109.06
353.447	99.06
353.674	97.06
353.901	96.06
354.128	93.06
354.355	94.06
354.583	102.06
354.81	105.06
355.037	96.06
355.264	83.06
355.491	93.06
355.718	90.06
355.945	89.06
356.172	96.06
356.399	110.06
356.626	94.06
356.853	90.06
357.08	80.06
357.307	100.06
357.534	95.06
357.761	102.06
357.988	105.06
358.215	104.06
358.441	108.06
358.668	90.06
358.895	94.06
359.122	102.06
359.349	98.06
359.576	91.06
359.802	116.06
360.029	113.06
360.256	115.06
360.483	102.06
360.709	83.06
360.936	91.06
361.163	110.06
361.39	108.06
361.616	98.06
361.843	107.06
362.07	101.06
362.296	102.06
362.523	106.06
362.749	104.06
362.976	93.06
363.203	81.06
363.429	97.06
363.656	89.06
363.882	94.06
364.109	89.06
364.335	91.06
364.562	94.06
364.788	84.06
365.015	104.06
365.241	107.06
365.468	110.06
365.694	101.06
365.92	99.06
366.147	90.06
366.373	96.06
366.599	97.06
366.826	88.06
367.052	85.06
367.278	83.06
367.505	86.06
367.731	108.06
367.957	104.06
368.184	104.06
368.41	97.06
368.636	131.06
368.862	125.06
369.089	124.06
369.315	96.06
369.541	103.06
369.767	91.06
369.993	100.06
370.219	86.06
370.445	91.06
370.672	87.06
370.898	100.06
371.124	96.06
371.35	91.06
371.576	82.06
371.802	80.06
372.028	93.06
372.254	97.06
372.48	89.06
372.706	82.06
372.932	99.06
373.158	86.06
373.384	86.06
373.61	92.06
373.835	93.06
374.061	92.06
374.287	91.06
374.513	86.06
374.739	92.06
374.965	88.06
375.191	88.06
375.416	80.06
375.642	109.06
375.868	91.06
376.094	99.06
376.319	99.06
376.545	90.06
376.771	91.06
376.997	85.06
377.222	84.06
377.448	92.06
377.674	96.06
377.899	84.06
378.125	80.06
378.35	92.06
378.576	87.06
378.802	111.06
379.027	88.06
379.253	93.06
379.478	95.06
379.704	85.06
379.929	101.06
380.155	82.06
380.38	103.06
380.606	100.06
380.831	91.06
381.057	76.06
381.282	88.06
381.507	96.06
381.733	92.06
381.958	92.06
382.184	107.06
382.409	97.06
382.634	100.06
382.86	96.06
383.085	119.06
383.31	117.06
383.535	106.06
383.761	98.06
383.986	111.06
384.211	111.06
384.436	94.06
384.662	84.06
384.887	112.06
385.112	100.06
385.337	104.06
385.562	97.06
385.787	117.06
386.013	104.06
386.238	122.06
386.463	110.06
386.688	122.06
386.913	109.06
387.138	98.06
387.363	104.06
387.588	99.06
387.813	97.06
388.038	83.06
388.263	95.06
388.488	103.06
388.713	98.06
388.938	97.06
389.163	102.06
389.387	94.06
389.612	99.06
389.837	92.06
390.062	91.06
390.287	97.06
390.512	89.06
390.736	99.06
390.961	96.06
391.186	95.06
391.411	85.06
391.636	92.06
391.86	79.06
392.085	88.06
392.31	84.06
392.534	74.06
392.759	83.06
392.984	94.06
393.208	93.06
393.433	104.06
393.658	83.06
393.882	82.06
394.107	102.06
394.331	83.06
394.556	87.06
394.78	81.06
395.005	101.06
395.229	84.06
395.454	90.06
395.678	92.06
395.903	92.06
396.127	96.06
396.352	91.06
396.576	92.06
396.801	110.06
397.025	88.06
397.249	91.06
397.474	94.06
397.698	101.06
397.922	86.06
398.147	78.06
398.371	88.06
398.595	71.06
398.82	81.06
399.044	91.06
399.268	88.06
399.492	79.06
399.717	83.06
399.941	102.06
400.165	84.06
400.389	81.06
400.613	74.06
400.837	101.06
401.062	95.06
401.286	79.06
401.51	93.06
401.734	80.06
401.958	114.06
402.182	121.06
402.406	167.06
402.63	130.06
402.854	101.06
403.078	84.06
403.302	89.06
403.526	87.06
403.75	90.06
403.974	67.06
404.198	87.06
404.422	76.06
404.645	96.06
404.869	90.06
405.093	108.06
405.317	107.06
405.541	105.06
405.765	102.06
405.988	130.06
406.212	193.06
406.436	255.06
406.66	162.06
406.883	108.06
407.107	104.06
407.331	102.06
407.555	96.06
407.778	96.06
408.002	88.06
408.226	96.06
408.449	96.06
408.673	111.06
408.896	89.06
409.12	95.06
409.344	75.06
409.567	82.06
409.791	103.06
410.014	82.06
410.238	84.06
410.461	103.06
410.685	89.06
410.908	100.06
411.132	109.06
411.355	108.06
411.578	95.06
411.802	84.06
412.025	103.06
412.249	91.06
412.472	105.06
412.695	99.06
412.919	95.06
413.142	110.06
413.365	83.06
413.589	88.06
413.812	96.06
414.035	95.06
414.258	89.06
414.482	88.06
414.705	88.06
414.928	105.06
415.151	101.06
415.374	102.06
415.597	92.06
415.821	82.06
416.044	97.06
416.267	76.06
416.49	84.06
416.713	81.06
416.936	83.06
417.159	80.06
417.382	80.06
417.605	71.06
417.828	100.06
418.051	86.06
418.274	79.06
418.497	84.06
418.72	79.06
418.943	101.06
419.166	93.06
419.389	76.06
419.611	105.06
419.834	93.06
420.057	96.06
420.28	93.06
420.503	92.06
420.726	85.06
420.948	87.06
421.171	88.06
421.394	103.06
421.617	97.06
421.839	103.06
422.062	91.06
422.285	84.06
422.507	100.06
422.73	87.06
422.953	94.06
423.175	81.06
423.398	90.06
423.621	105.06
423.843	89.06
424.066	89.06
424.288	98.06
424.511	92.06
424.733	94.06
424.956	99.06
425.178	110.06
425.401	96.06
425.623	102.06
425.846	102.06
426.068	92.06
426.291	109.06
426.513	88.06
426.735	96.06
426.958	95.06
427.18	107.06
427.402	147.06
427.625	194.06
427.847	159.06
428.069	141.06
428.292	103.06
428.514	88.06
428.736	83.06
428.958	76.06
429.181	83.06
429.403	84.06
429.625	82.06
429.847	87.06
430.069	100.06
430.292	78.06
430.514	95.06
430.736	71.06
430.958	90.06
431.18	89.06
431.402	84.06
431.624	84.06
431.846	88.06
432.068	93.06
432.29	73.06
432.512	84.06
432.734	84.06
432.956	107.06
433.178	93.06
433.4	102.06
433.622	100.06
433.844	69.06
434.066	99.06
434.287	96.06
434.509	89.06
434.731	82.06
434.953	82.06
435.175	93.06
435.397	91.06
435.618	101.06
435.84	92.06
436.062	111.06
436.284	125.06
436.505	93.06
436.727	98.06
436.949	95.06
437.17	93.06
437.392	90.06
437.614	100.06
437.835	105.06
438.057	137.06
438.278	106.06
438.5	77.06
438.721	112.06
438.943	107.06
439.165	93.06
439.386	92.06
439.608	104.06
439.829	97.06
440.05	121.06
440.272	141.06
440.493	96.06
440.715	83.06
440.936	91.06
441.158	89.06
441.379	83.06
441.6	103.06
441.822	88.06
442.043	119.06
442.264	106.06
442.486	110.06
442.707	89.06
442.928	109.06
443.149	140.06
443.371	135.06
443.592	102.06
443.813	106.06
444.034	101.06
444.255	94.06
444.476	81.06
444.698	95.06
444.919	90.06
445.14	123.06
445.361	116.06
445.582	116.06
445.803	148.06
446.024	132.06
446.245	141.06
446.466	121.06
446.687	101.06
446.908	94.06
447.129	97.06
447.35	86.06
447.571	84.06
447.792	97.06
448.013	98.06
448.234	109.06
448.455	89.06
448.675	113.06
448.896	124.06
449.117	103.06
449.338	98.06
449.559	127.06
449.779	129.06
450	100.06
450.221	92.06
450.442	90.06
450.662	96.06
450.883	117.06
451.104	113.06
451.324	88.06
451.545	89.06
451.766	96.06
451.986	91.06
452.207	95.06
452.428	101.06
452.648	113.06
452.869	123.06
453.089	137.06
453.31	125.06
453.53	89.06
453.751	86.06
453.971	103.06
454.192	100.06
454.412	103.06
454.633	93.06
454.853	85.06
455.073	95.06
455.294	85.06
455.514	101.06
455.734	94.06
455.955	95.06
456.175	88.06
456.395	95.06
456.616	83.06
456.836	94.06
457.056	96.06
457.276	96.06
457.497	74.06
457.717	93.06
457.937	71.06
458.157	79.06
458.377	92.06
458.598	100.06
458.818	148.06
459.038	173.06
459.258	123.06
459.478	91.06
459.698	83.06
459.918	89.06
460.138	87.06
460.358	92.06
460.578	94.06
460.798	99.06
461.018	97.06
461.238	98.06
461.458	80.06
461.678	80.06
461.898	84.06
462.118	97.06
462.338	95.06
462.558	99.06
462.777	79.06
462.997	94.06
463.217	72.06
463.437	78.06
463.657	99.06
463.876	82.06
464.096	90.06
464.316	97.06
464.536	100.06
464.755	97.06
464.975	111.06
465.195	167.06
465.414	163.06
465.634	103.06
465.854	97.06
466.073	82.06
466.293	92.06
466.512	88.06
466.732	84.06
466.951	95.06
467.171	84.06
467.391	97.06
467.61	122.06
467.829	108.06
468.049	153.06
468.268	174.06
468.488	103.06
468.707	91.06
468.927	97.06
469.146	81.06
469.365	93.06
469.585	85.06
469.804	98.06
470.023	100.06
470.243	93.06
470.462	100.06
470.681	115.06
470.901	84.06
471.12	67.06
471.339	95.06
471.558	94.06
471.777	96.06
471.997	124.06
472.216	233.06
472.435	409.06
472.654	141.06
472.873	99.06
473.092	93.06
473.311	89.06
473.53	89.06
473.749	87.06
473.968	91.06
474.187	108.06
474.406	104.06
474.625	96.06
474.844	93.06
475.063	79.06
475.282	103.06
475.501	84.06
475.72	102.06
475.939	92.06
476.158	85.06
476.377	82.06
476.596	88.06
476.814	93.06
477.033	82.06
477.252	111.06
477.471	100.06
477.69	95.06
477.908	81.06
478.127	69.06
478.346	89.06
478.564	99.06
478.783	110.06
479.002	102.06
479.22	96.06
479.439	105.06
479.658	109.06
479.876	102.06
480.095	104.06
480.313	79.06
480.532	88.06
480.751	101.06
480.969	230.06
481.188	633.06
481.406	406.06
481.624	127.06
481.843	97.06
482.061	90.06
482.28	92.06
482.498	80.06
482.717	91.06
482.935	88.06
483.153	88.06
483.372	96.06
483.59	83.06
483.808	96.06
484.027	97.06
484.245	86.06
484.463	105.06
484.681	96.06
484.9	79.06
485.118	93.06
485.336	108.06
485.554	111.06
485.772	110.06
485.99	88.06
486.209	102.06
486.427	114.06
486.645	122.06
486.863	110.06
487.081	97.06
487.299	87.06
487.517	95.06
487.735	97.06
487.953	88.06
488.171	93.06
488.389	88.06
488.607	80.06
488.825	92.06
489.043	89.06
489.261	94.06
489.479	85.06
489.696	90.06
489.914	78.06
490.132	88.06
490.35	89.06
490.568	84.06
490.786	78.06
491.003	87.06
491.221	77.06
491.439	95.06
491.657	97.06
491.874	104.06
492.092	109.06
492.31	74.06
492.527	88.06
492.745	84.06
492.963	85.06
493.18	95.06
493.398	92.06
493.615	87.06
493.833	83.06
494.05	80.06
494.268	90.06
494.485	92.06
494.703	85.06
494.92	93.06
495.138	80.06
495.355	84.06
495.573	84.06
495.79	85.06
496.008	92.06
496.225	98.06
496.442	87.06
496.66	98.06
496.877	100.06
497.094	82.06
497.312	86.06
497.529	94.06
497.746	83.06
497.963	79.06
498.181	88.06
498.398	93.06
498.615	98.06
498.832	103.06
499.049	82.06
499.267	99.06
499.484	74.06
499.701	86.06
499.918	90.06
500.135	94.06
500.352	93.06
500.569	95.06
500.786	91.06
501.003	80.06
501.22	97.06
501.437	94.06
501.654	81.06
501.871	111.06
502.088	85.06
502.305	92.06
502.522	75.06
502.739	100.06
502.956	99.06
503.172	89.06
503.389	85.06
503.606	92.06
503.823	95.06
504.04	98.06
504.256	97.06
504.473	86.06
504.69	80.06
504.907	93.06
505.123	95.06
505.34	96.06
505.557	93.06
505.773	86.06
505.99	90.06
506.207	97.06
506.423	77.06
506.64	90.06
506.856	93.06
507.073	88.06
507.289	80.06
507.506	85.06
507.722	124.06
507.939	127.06
508.155	105.06
508.372	77.06
508.588	100.06
508.805	88.06
509.021	108.06
509.238	106.06
509.454	85.06
509.67	104.06
509.887	118.06
510.103	126.06
510.319	226.06
510.536	819.06
510.752	2741.06
510.968	780.06
511.184	175.06
511.401	111.06
511.617	109.06
511.833	92.06
512.049	93.06
512.265	93.06
512.481	85.06
512.698	100.06
512.914	99.06
513.13	87.06
513.346	104.06
513.562	107.06
513.778	99.06
513.994	101.06
514.21	93.06
514.426	120.06
514.642	148.06
