Data from Circ_2008_H10_HRD10591_00012.txt Node
Date: Wed Jan 03 10:16:58 EST 2024
User: Yrep
Spectrometer: HR+D1059
Trigger mode: 1
Integration Time (sec): 1.000000E-1
Scans to average: 1
Electric dark correction enabled: true
Nonlinearity correction enabled: false
Boxcar width: 0
XAxis mode: Wavelengths
Number of Pixels in Spectrum: 2048
>>>>>Begin Spectral Data<<<<<
223.165	-25.12
223.4	-25.12
223.635	-25.12
223.869	-15.12
224.104	-11.12
224.338	-15.12
224.573	-20.12
224.808	-5.12
225.042	-0.12
225.277	-10.12
225.511	-0.12
225.746	0.88
225.98	15.88
226.215	-3.12
226.449	3.88
226.683	24.88
226.918	27.88
227.152	31.88
227.387	41.88
227.621	25.88
227.856	42.88
228.09	38.88
228.324	37.88
228.559	47.88
228.793	48.88
229.027	57.88
229.262	55.88
229.496	66.88
229.73	71.88
229.964	76.88
230.199	67.88
230.433	74.88
230.667	69.88
230.901	69.88
231.136	75.88
231.37	76.88
231.604	71.88
231.838	78.88
232.072	73.88
232.306	82.88
232.541	79.88
232.775	78.88
233.009	81.88
233.243	76.88
233.477	82.88
233.711	85.88
233.945	87.88
234.179	71.88
234.413	78.88
234.647	77.88
234.881	78.88
235.115	71.88
235.349	70.88
235.583	72.88
235.817	69.88
236.051	86.88
236.285	87.88
236.519	67.88
236.753	76.88
236.987	89.88
237.221	76.88
237.455	77.88
237.689	68.88
237.922	62.88
238.156	76.88
238.39	76.88
238.624	72.88
238.858	72.88
239.091	79.88
239.325	67.88
239.559	69.88
239.793	71.88
240.027	75.88
240.26	69.88
240.494	88.88
240.728	64.88
240.961	73.88
241.195	79.88
241.429	65.88
241.662	68.88
241.896	86.88
242.13	73.88
242.363	72.88
242.597	65.88
242.83	67.88
243.064	72.88
243.298	80.88
243.531	77.88
243.765	73.88
243.998	83.88
244.232	79.88
244.465	79.88
244.699	67.88
244.932	72.88
245.166	77.88
245.399	76.88
245.633	80.88
245.866	83.88
246.099	83.88
246.333	66.88
246.566	69.88
246.8	96.88
247.033	84.88
247.266	84.88
247.5	82.88
247.733	65.88
247.966	71.88
248.2	89.88
248.433	79.88
248.666	76.88
248.899	77.88
249.133	93.88
249.366	88.88
249.599	90.88
249.832	70.88
250.066	68.88
250.299	73.88
250.532	75.88
250.765	71.88
250.998	64.88
251.231	74.88
251.465	59.88
251.698	80.88
251.931	90.88
252.164	79.88
252.397	74.88
252.63	82.88
252.863	91.88
253.096	71.88
253.329	71.88
253.562	78.88
253.795	84.88
254.028	71.88
254.261	72.88
254.494	89.88
254.727	81.88
254.96	74.88
255.193	92.88
255.426	79.88
255.659	81.88
255.892	81.88
256.124	84.88
256.357	87.88
256.59	77.88
256.823	73.88
257.056	78.88
257.289	87.88
257.521	80.88
257.754	77.88
257.987	83.88
258.22	83.88
258.452	87.88
258.685	65.88
258.918	91.88
259.151	74.88
259.383	94.88
259.616	77.88
259.849	73.88
260.081	84.88
260.314	75.88
260.547	81.88
260.779	79.88
261.012	68.88
261.244	74.88
261.477	84.88
261.71	95.88
261.942	117.88
262.175	123.88
262.407	68.88
262.64	88.88
262.872	80.88
263.105	74.88
263.337	70.88
263.57	74.88
263.802	85.88
264.035	86.88
264.267	88.88
264.499	65.88
264.732	94.88
264.964	90.88
265.197	74.88
265.429	80.88
265.661	78.88
265.894	68.88
266.126	81.88
266.358	66.88
266.591	76.88
266.823	77.88
267.055	78.88
267.287	83.88
267.52	87.88
267.752	67.88
267.984	81.88
268.216	86.88
268.448	81.88
268.681	77.88
268.913	90.88
269.145	71.88
269.377	80.88
269.609	81.88
269.841	88.88
270.073	81.88
270.306	77.88
270.538	77.88
270.77	76.88
271.002	80.88
271.234	83.88
271.466	78.88
271.698	84.88
271.93	91.88
272.162	70.88
272.394	90.88
272.626	74.88
272.858	68.88
273.09	94.88
273.322	92.88
273.553	79.88
273.785	83.88
274.017	72.88
274.249	73.88
274.481	69.88
274.713	91.88
274.945	75.88
275.176	76.88
275.408	82.88
275.64	93.88
275.872	77.88
276.104	86.88
276.335	91.88
276.567	85.88
276.799	96.88
277.031	104.88
277.262	91.88
277.494	83.88
277.726	80.88
277.957	79.88
278.189	88.88
278.421	83.88
278.652	81.88
278.884	70.88
279.115	79.88
279.347	72.88
279.579	61.88
279.81	80.88
280.042	94.88
280.273	83.88
280.505	83.88
280.736	76.88
280.968	85.88
281.199	81.88
281.431	82.88
281.662	97.88
281.894	89.88
282.125	80.88
282.356	126.88
282.588	145.88
282.819	117.88
283.051	88.88
283.282	83.88
283.513	93.88
283.745	87.88
283.976	92.88
284.207	70.88
284.439	76.88
284.67	89.88
284.901	89.88
285.132	83.88
285.364	61.88
285.595	88.88
285.826	79.88
286.057	83.88
286.288	88.88
286.52	83.88
286.751	75.88
286.982	73.88
287.213	77.88
287.444	98.88
287.675	76.88
287.906	71.88
288.138	80.88
288.369	100.88
288.6	84.88
288.831	92.88
289.062	92.88
289.293	84.88
289.524	97.88
289.755	86.88
289.986	77.88
290.217	92.88
290.448	80.88
290.679	78.88
290.91	71.88
291.141	66.88
291.371	88.88
291.602	92.88
291.833	85.88
292.064	78.88
292.295	67.88
292.526	88.88
292.757	88.88
292.987	72.88
293.218	92.88
293.449	71.88
293.68	64.88
293.91	90.88
294.141	92.88
294.372	86.88
294.603	86.88
294.833	83.88
295.064	73.88
295.295	69.88
295.525	91.88
295.756	115.88
295.987	115.88
296.217	146.88
296.448	141.88
296.679	107.88
296.909	82.88
297.14	84.88
297.37	78.88
297.601	77.88
297.831	77.88
298.062	89.88
298.292	84.88
298.523	84.88
298.753	82.88
298.984	79.88
299.214	85.88
299.445	100.88
299.675	95.88
299.905	100.88
300.136	91.88
300.366	87.88
300.597	71.88
300.827	89.88
301.057	92.88
301.288	96.88
301.518	95.88
301.748	97.88
301.979	100.88
302.209	81.88
302.439	75.88
302.669	72.88
302.9	71.88
303.13	107.88
303.36	101.88
303.59	98.88
303.82	107.88
304.051	94.88
304.281	90.88
304.511	94.88
304.741	84.88
304.971	100.88
305.201	78.88
305.431	80.88
305.661	83.88
305.891	90.88
306.121	92.88
306.352	101.88
306.582	114.88
306.812	89.88
307.042	94.88
307.272	93.88
307.502	80.88
307.731	90.88
307.961	78.88
308.191	88.88
308.421	71.88
308.651	103.88
308.881	92.88
309.111	90.88
309.341	96.88
309.571	95.88
309.8	99.88
310.03	103.88
310.26	96.88
310.49	87.88
310.72	84.88
310.949	92.88
311.179	99.88
311.409	86.88
311.639	97.88
311.868	85.88
312.098	89.88
312.328	93.88
312.557	94.88
312.787	117.88
313.017	96.88
313.246	94.88
313.476	91.88
313.706	92.88
313.935	107.88
314.165	90.88
314.394	80.88
314.624	89.88
314.853	82.88
315.083	92.88
315.312	71.88
315.542	81.88
315.771	100.88
316.001	89.88
316.23	78.88
316.46	81.88
316.689	94.88
316.919	88.88
317.148	92.88
317.377	85.88
317.607	77.88
317.836	90.88
318.065	85.88
318.295	86.88
318.524	76.88
318.753	91.88
318.983	89.88
319.212	102.88
319.441	112.88
319.67	115.88
319.9	92.88
320.129	85.88
320.358	85.88
320.587	97.88
320.816	97.88
321.046	91.88
321.275	110.88
321.504	108.88
321.733	89.88
321.962	100.88
322.191	93.88
322.42	104.88
322.649	109.88
322.878	117.88
323.108	123.88
323.337	140.88
323.566	150.88
323.795	154.88
324.024	239.88
324.253	455.88
324.482	936.88
324.71	1973.88
324.939	2615.88
325.168	941.88
325.397	287.88
325.626	162.88
325.855	147.88
326.084	115.88
326.313	126.88
326.542	157.88
326.77	238.88
326.999	513.88
327.228	1055.88
327.457	1905.88
327.686	1521.88
327.914	426.88
328.143	203.88
328.372	153.88
328.6	139.88
328.829	121.88
329.058	135.88
329.287	139.88
329.515	113.88
329.744	104.88
329.972	94.88
330.201	112.88
330.43	100.88
330.658	130.88
330.887	155.88
331.115	132.88
331.344	94.88
331.572	98.88
331.801	121.88
332.03	94.88
332.258	88.88
332.486	97.88
332.715	93.88
332.943	80.88
333.172	84.88
333.4	90.88
333.629	105.88
333.857	112.88
334.085	113.88
334.314	97.88
334.542	110.88
334.771	118.88
334.999	113.88
335.227	89.88
335.455	93.88
335.684	95.88
335.912	99.88
336.14	105.88
336.369	89.88
336.597	103.88
336.825	87.88
337.053	89.88
337.281	100.88
337.51	81.88
337.738	80.88
337.966	95.88
338.194	102.88
338.422	103.88
338.65	108.88
338.878	94.88
339.106	86.88
339.334	79.88
339.562	91.88
339.79	81.88
340.018	83.88
340.246	97.88
340.474	88.88
340.702	95.88
340.93	83.88
341.158	88.88
341.386	88.88
341.614	76.88
341.842	96.88
342.07	105.88
342.298	97.88
342.526	92.88
342.754	83.88
342.981	88.88
343.209	87.88
343.437	107.88
343.665	67.88
343.893	82.88
344.12	79.88
344.348	85.88
344.576	93.88
344.804	77.88
345.031	80.88
345.259	93.88
345.487	99.88
345.714	94.88
345.942	81.88
346.17	87.88
346.397	95.88
346.625	94.88
346.853	99.88
347.08	87.88
347.308	93.88
347.535	95.88
347.763	94.88
347.99	90.88
348.218	79.88
348.445	103.88
348.673	105.88
348.9	100.88
349.128	104.88
349.355	95.88
349.583	85.88
349.81	78.88
350.037	84.88
350.265	104.88
350.492	86.88
350.72	88.88
350.947	108.88
351.174	104.88
351.402	118.88
351.629	110.88
351.856	102.88
352.083	88.88
352.311	91.88
352.538	98.88
352.765	109.88
352.992	99.88
353.22	118.88
353.447	105.88
353.674	96.88
353.901	94.88
354.128	92.88
354.355	95.88
354.583	104.88
354.81	80.88
355.037	95.88
355.264	99.88
355.491	99.88
355.718	86.88
355.945	88.88
356.172	89.88
356.399	86.88
356.626	96.88
356.853	87.88
357.08	96.88
357.307	81.88
357.534	91.88
357.761	95.88
357.988	95.88
358.215	101.88
358.441	104.88
358.668	90.88
358.895	91.88
359.122	88.88
359.349	73.88
359.576	90.88
359.802	99.88
360.029	117.88
360.256	118.88
360.483	99.88
360.709	91.88
360.936	88.88
361.163	89.88
361.39	78.88
361.616	84.88
361.843	83.88
362.07	93.88
362.296	85.88
362.523	84.88
362.749	89.88
362.976	86.88
363.203	90.88
363.429	84.88
363.656	90.88
363.882	90.88
364.109	88.88
364.335	88.88
364.562	95.88
364.788	100.88
365.015	97.88
365.241	96.88
365.468	103.88
365.694	98.88
365.92	102.88
366.147	99.88
366.373	79.88
366.599	79.88
366.826	86.88
367.052	92.88
367.278	84.88
367.505	90.88
367.731	84.88
367.957	69.88
368.184	92.88
368.41	95.88
368.636	110.88
368.862	113.88
369.089	111.88
369.315	86.88
369.541	93.88
369.767	91.88
369.993	108.88
370.219	98.88
370.445	78.88
370.672	80.88
370.898	89.88
371.124	86.88
371.35	86.88
371.576	79.88
371.802	91.88
372.028	81.88
372.254	77.88
372.48	91.88
372.706	93.88
372.932	75.88
373.158	83.88
373.384	81.88
373.61	96.88
373.835	88.88
374.061	79.88
374.287	94.88
374.513	77.88
374.739	92.88
374.965	92.88
375.191	94.88
375.416	87.88
375.642	88.88
375.868	76.88
376.094	83.88
376.319	93.88
376.545	84.88
376.771	80.88
376.997	98.88
377.222	100.88
377.448	81.88
377.674	88.88
377.899	92.88
378.125	99.88
378.35	99.88
378.576	105.88
378.802	88.88
379.027	85.88
379.253	94.88
379.478	90.88
379.704	91.88
379.929	109.88
380.155	87.88
380.38	100.88
380.606	103.88
380.831	102.88
381.057	99.88
381.282	97.88
381.507	114.88
381.733	90.88
381.958	101.88
382.184	96.88
382.409	99.88
382.634	115.88
382.86	102.88
383.085	88.88
383.31	98.88
383.535	92.88
383.761	110.88
383.986	112.88
384.211	109.88
384.436	108.88
384.662	117.88
384.887	109.88
385.112	108.88
385.337	104.88
385.562	122.88
385.787	107.88
386.013	119.88
386.238	129.88
386.463	114.88
386.688	111.88
386.913	99.88
387.138	111.88
387.363	115.88
387.588	103.88
387.813	112.88
388.038	116.88
388.263	111.88
388.488	120.88
388.713	79.88
388.938	104.88
389.163	90.88
389.387	92.88
389.612	83.88
389.837	78.88
390.062	86.88
390.287	64.88
390.512	87.88
390.736	81.88
390.961	85.88
391.186	92.88
391.411	90.88
391.636	101.88
391.86	82.88
392.085	80.88
392.31	88.88
392.534	82.88
392.759	66.88
392.984	85.88
393.208	107.88
393.433	119.88
393.658	96.88
393.882	99.88
394.107	93.88
394.331	90.88
394.556	93.88
394.78	88.88
395.005	75.88
395.229	86.88
395.454	89.88
395.678	92.88
395.903	87.88
396.127	92.88
396.352	92.88
396.576	85.88
396.801	96.88
397.025	96.88
397.249	101.88
397.474	83.88
397.698	92.88
397.922	94.88
398.147	71.88
398.371	78.88
398.595	93.88
398.82	73.88
399.044	90.88
399.268	83.88
399.492	78.88
399.717	82.88
399.941	86.88
400.165	81.88
400.389	103.88
400.613	78.88
400.837	68.88
401.062	81.88
401.286	85.88
401.51	80.88
401.734	83.88
401.958	106.88
402.182	137.88
402.406	179.88
402.63	115.88
402.854	92.88
403.078	85.88
403.302	70.88
403.526	75.88
403.75	82.88
403.974	80.88
404.198	91.88
404.422	92.88
404.645	90.88
404.869	98.88
405.093	88.88
405.317	108.88
405.541	111.88
405.765	93.88
405.988	104.88
406.212	203.88
406.436	281.88
406.66	141.88
406.883	91.88
407.107	73.88
407.331	80.88
407.555	96.88
407.778	92.88
408.002	93.88
408.226	83.88
408.449	107.88
408.673	78.88
408.896	85.88
409.12	88.88
409.344	86.88
409.567	94.88
409.791	81.88
410.014	94.88
410.238	91.88
410.461	81.88
410.685	72.88
410.908	112.88
411.132	102.88
411.355	86.88
411.578	81.88
411.802	88.88
412.025	81.88
412.249	90.88
412.472	103.88
412.695	79.88
412.919	94.88
413.142	76.88
413.365	97.88
413.589	86.88
413.812	86.88
414.035	82.88
414.258	79.88
414.482	93.88
414.705	95.88
414.928	80.88
415.151	88.88
415.374	84.88
415.597	92.88
415.821	95.88
416.044	97.88
416.267	72.88
416.49	93.88
416.713	87.88
416.936	89.88
417.159	88.88
417.382	82.88
417.605	77.88
417.828	93.88
418.051	76.88
418.274	96.88
418.497	89.88
418.72	80.88
418.943	81.88
419.166	87.88
419.389	89.88
419.611	96.88
419.834	82.88
420.057	81.88
420.28	60.88
420.503	79.88
420.726	84.88
420.948	84.88
421.171	93.88
421.394	91.88
421.617	89.88
421.839	88.88
422.062	70.88
422.285	87.88
422.507	94.88
422.73	113.88
422.953	79.88
423.175	78.88
423.398	84.88
423.621	80.88
423.843	99.88
424.066	78.88
424.288	94.88
424.511	85.88
424.733	101.88
424.956	108.88
425.178	81.88
425.401	94.88
425.623	87.88
425.846	82.88
426.068	91.88
426.291	88.88
426.513	73.88
426.735	90.88
426.958	96.88
427.18	97.88
427.402	144.88
427.625	189.88
427.847	125.88
428.069	106.88
428.292	107.88
428.514	95.88
428.736	79.88
428.958	81.88
429.181	88.88
429.403	74.88
429.625	89.88
429.847	98.88
430.069	97.88
430.292	75.88
430.514	94.88
430.736	96.88
430.958	76.88
431.18	89.88
431.402	84.88
431.624	86.88
431.846	77.88
432.068	95.88
432.29	77.88
432.512	78.88
432.734	84.88
432.956	91.88
433.178	94.88
433.4	88.88
433.622	89.88
433.844	103.88
434.066	89.88
434.287	91.88
434.509	80.88
434.731	87.88
434.953	81.88
435.175	83.88
435.397	82.88
435.618	102.88
435.84	88.88
436.062	109.88
436.284	107.88
436.505	104.88
436.727	79.88
436.949	81.88
437.17	77.88
437.392	81.88
437.614	99.88
437.835	99.88
438.057	107.88
438.278	111.88
438.5	107.88
438.721	108.88
438.943	86.88
439.165	76.88
439.386	91.88
439.608	78.88
439.829	94.88
440.05	110.88
440.272	143.88
440.493	84.88
440.715	82.88
440.936	86.88
441.158	88.88
441.379	86.88
441.6	92.88
441.822	98.88
442.043	92.88
442.264	91.88
442.486	100.88
442.707	91.88
442.928	105.88
443.149	127.88
443.371	139.88
443.592	117.88
443.813	114.88
444.034	116.88
444.255	86.88
444.476	93.88
444.698	68.88
444.919	76.88
445.14	127.88
445.361	116.88
445.582	117.88
445.803	134.88
446.024	131.88
446.245	133.88
446.466	107.88
446.687	76.88
446.908	85.88
447.129	82.88
447.35	89.88
447.571	87.88
447.792	101.88
448.013	104.88
448.234	98.88
448.455	111.88
448.675	119.88
448.896	110.88
449.117	89.88
449.338	104.88
449.559	135.88
449.779	139.88
450	103.88
450.221	82.88
450.442	88.88
450.662	94.88
450.883	121.88
451.104	121.88
451.324	87.88
451.545	88.88
451.766	94.88
451.986	87.88
452.207	89.88
452.428	94.88
452.648	94.88
452.869	110.88
453.089	128.88
453.31	116.88
453.53	106.88
453.751	92.88
453.971	89.88
454.192	88.88
454.412	99.88
454.633	80.88
454.853	76.88
455.073	90.88
455.294	91.88
455.514	93.88
455.734	81.88
455.955	77.88
456.175	90.88
456.395	78.88
456.616	84.88
456.836	68.88
457.056	89.88
457.276	87.88
457.497	85.88
457.717	80.88
457.937	77.88
458.157	82.88
458.377	81.88
458.598	106.88
458.818	169.88
459.038	175.88
459.258	119.88
459.478	88.88
459.698	78.88
459.918	78.88
460.138	84.88
460.358	72.88
460.578	90.88
460.798	91.88
461.018	91.88
461.238	88.88
461.458	65.88
461.678	88.88
461.898	67.88
462.118	76.88
462.338	97.88
462.558	87.88
462.777	70.88
462.997	69.88
463.217	94.88
463.437	94.88
463.657	68.88
463.876	73.88
464.096	81.88
464.316	93.88
464.536	96.88
464.755	92.88
464.975	107.88
465.195	176.88
465.414	191.88
465.634	87.88
465.854	84.88
466.073	87.88
466.293	78.88
466.512	88.88
466.732	77.88
466.951	81.88
467.171	84.88
467.391	104.88
467.61	105.88
467.829	90.88
468.049	98.88
468.268	89.88
468.488	78.88
468.707	85.88
468.927	84.88
469.146	75.88
469.365	83.88
469.585	80.88
469.804	94.88
470.023	95.88
470.243	95.88
470.462	113.88
470.681	111.88
470.901	91.88
471.12	88.88
471.339	79.88
471.558	83.88
471.777	87.88
471.997	88.88
472.216	103.88
472.435	117.88
472.654	85.88
472.873	78.88
473.092	81.88
473.311	75.88
473.53	84.88
473.749	86.88
473.968	91.88
474.187	107.88
474.406	90.88
474.625	70.88
474.844	76.88
475.063	102.88
475.282	83.88
475.501	94.88
475.72	89.88
475.939	82.88
476.158	75.88
476.377	94.88
476.596	90.88
476.814	93.88
477.033	88.88
477.252	82.88
477.471	102.88
477.69	74.88
477.908	79.88
478.127	80.88
478.346	93.88
478.564	83.88
478.783	86.88
479.002	88.88
479.22	77.88
479.439	95.88
479.658	96.88
479.876	95.88
480.095	87.88
480.313	95.88
480.532	93.88
480.751	91.88
480.969	104.88
481.188	131.88
481.406	120.88
481.624	85.88
481.843	92.88
482.061	84.88
482.28	94.88
482.498	74.88
482.717	75.88
482.935	72.88
483.153	84.88
483.372	80.88
483.59	83.88
483.808	75.88
484.027	99.88
484.245	86.88
484.463	93.88
484.681	94.88
484.9	89.88
485.118	100.88
485.336	86.88
485.554	90.88
485.772	103.88
485.99	88.88
486.209	104.88
486.427	99.88
486.645	112.88
486.863	106.88
487.081	87.88
487.299	107.88
487.517	99.88
487.735	92.88
487.953	84.88
488.171	94.88
488.389	106.88
488.607	98.88
488.825	80.88
489.043	92.88
489.261	60.88
489.479	98.88
489.696	87.88
489.914	81.88
490.132	77.88
490.35	87.88
490.568	88.88
490.786	94.88
491.003	89.88
491.221	93.88
491.439	93.88
491.657	94.88
491.874	81.88
492.092	99.88
492.31	76.88
492.527	84.88
492.745	98.88
492.963	107.88
493.18	78.88
493.398	83.88
493.615	87.88
493.833	90.88
494.05	93.88
494.268	81.88
494.485	88.88
494.703	91.88
494.92	89.88
495.138	81.88
495.355	81.88
495.573	84.88
495.79	94.88
496.008	87.88
496.225	84.88
496.442	94.88
496.66	93.88
496.877	93.88
497.094	87.88
497.312	93.88
497.529	92.88
497.746	88.88
497.963	82.88
498.181	87.88
498.398	116.88
498.615	99.88
498.832	93.88
499.049	88.88
499.267	92.88
499.484	89.88
499.701	88.88
499.918	85.88
500.135	97.88
500.352	86.88
500.569	86.88
500.786	92.88
501.003	84.88
501.22	86.88
501.437	93.88
501.654	97.88
501.871	102.88
502.088	101.88
502.305	97.88
502.522	85.88
502.739	80.88
502.956	96.88
503.172	86.88
503.389	96.88
503.606	99.88
503.823	92.88
504.04	81.88
504.256	85.88
504.473	104.88
504.69	85.88
504.907	101.88
505.123	86.88
505.34	88.88
505.557	87.88
505.773	92.88
505.99	73.88
506.207	96.88
506.423	89.88
506.64	80.88
506.856	92.88
507.073	89.88
507.289	80.88
507.506	107.88
507.722	116.88
507.939	115.88
508.155	99.88
508.372	91.88
508.588	90.88
508.805	89.88
509.021	103.88
509.238	100.88
509.454	91.88
509.67	94.88
509.887	132.88
510.103	150.88
510.319	236.88
510.536	970.88
510.752	3358.88
510.968	893.88
511.184	175.88
511.401	116.88
511.617	101.88
511.833	77.88
512.049	95.88
512.265	104.88
512.481	69.88
512.698	103.88
512.914	105.88
513.13	96.88
513.346	88.88
513.562	88.88
513.778	91.88
513.994	91.88
514.21	117.88
514.426	113.88
514.642	150.88
514.858	129.88
515.074	188.88
515.29	603.88
515.506	2079.88
515.721	759.88
515.937	185.88
516.153	119.88
