Data from Circ_2008_H10_HRD10591_00029.txt Node
Date: Wed Jan 03 10:17:02 EST 2024
User: Yrep
Spectrometer: HR+D1059
Trigger mode: 1
Integration Time (sec): 1.000000E-1
Scans to average: 1
Electric dark correction enabled: true
Nonlinearity correction enabled: false
Boxcar width: 0
XAxis mode: Wavelengths
Number of Pixels in Spectrum: 2048
>>>>>Begin Spectral Data<<<<<
223.165	-24.12
223.4	-24.12
223.635	-24.12
223.869	-15.12
224.104	-18.12
224.338	-10.12
224.573	-12.12
224.808	-2.12
225.042	-15.12
225.277	-3.12
225.511	-2.12
225.746	-3.12
225.98	7.88
226.215	-0.12
226.449	18.88
226.683	24.88
226.918	29.88
227.152	23.88
227.387	43.88
227.621	36.88
227.856	45.88
228.09	41.88
228.324	38.88
228.559	64.88
228.793	65.88
229.027	66.88
229.262	67.88
229.496	74.88
229.73	86.88
229.964	84.88
230.199	72.88
230.433	81.88
230.667	78.88
230.901	87.88
231.136	83.88
231.37	79.88
231.604	81.88
231.838	73.88
232.072	77.88
232.306	67.88
232.541	75.88
232.775	91.88
233.009	85.88
233.243	75.88
233.477	67.88
233.711	78.88
233.945	77.88
234.179	78.88
234.413	87.88
234.647	72.88
234.881	91.88
235.115	81.88
235.349	75.88
235.583	73.88
235.817	74.88
236.051	80.88
236.285	81.88
236.519	97.88
236.753	77.88
236.987	78.88
237.221	87.88
237.455	78.88
237.689	79.88
237.922	74.88
238.156	81.88
238.39	70.88
238.624	73.88
238.858	87.88
239.091	86.88
239.325	78.88
239.559	84.88
239.793	81.88
240.027	83.88
240.26	79.88
240.494	73.88
240.728	90.88
240.961	74.88
241.195	86.88
241.429	75.88
241.662	64.88
241.896	75.88
242.13	77.88
242.363	80.88
242.597	70.88
242.83	77.88
243.064	79.88
243.298	84.88
243.531	71.88
243.765	72.88
243.998	73.88
244.232	82.88
244.465	86.88
244.699	80.88
244.932	80.88
245.166	59.88
245.399	75.88
245.633	77.88
245.866	74.88
246.099	66.88
246.333	87.88
246.566	88.88
246.8	80.88
247.033	80.88
247.266	69.88
247.5	71.88
247.733	77.88
247.966	85.88
248.2	82.88
248.433	82.88
248.666	82.88
248.899	75.88
249.133	91.88
249.366	85.88
249.599	82.88
249.832	86.88
250.066	78.88
250.299	69.88
250.532	73.88
250.765	82.88
250.998	85.88
251.231	77.88
251.465	85.88
251.698	73.88
251.931	92.88
252.164	77.88
252.397	73.88
252.63	87.88
252.863	76.88
253.096	72.88
253.329	98.88
253.562	76.88
253.795	81.88
254.028	70.88
254.261	94.88
254.494	85.88
254.727	83.88
254.96	70.88
255.193	89.88
255.426	72.88
255.659	88.88
255.892	74.88
256.124	81.88
256.357	85.88
256.59	98.88
256.823	83.88
257.056	79.88
257.289	89.88
257.521	75.88
257.754	82.88
257.987	75.88
258.22	72.88
258.452	79.88
258.685	83.88
258.918	80.88
259.151	79.88
259.383	91.88
259.616	83.88
259.849	82.88
260.081	72.88
260.314	83.88
260.547	86.88
260.779	78.88
261.012	95.88
261.244	101.88
261.477	88.88
261.71	94.88
261.942	110.88
262.175	117.88
262.407	89.88
262.64	94.88
262.872	80.88
263.105	70.88
263.337	81.88
263.57	89.88
263.802	92.88
264.035	89.88
264.267	89.88
264.499	89.88
264.732	81.88
264.964	91.88
265.197	88.88
265.429	82.88
265.661	69.88
265.894	81.88
266.126	71.88
266.358	85.88
266.591	91.88
266.823	81.88
267.055	74.88
267.287	71.88
267.52	85.88
267.752	95.88
267.984	91.88
268.216	85.88
268.448	94.88
268.681	91.88
268.913	85.88
269.145	71.88
269.377	79.88
269.609	91.88
269.841	81.88
270.073	89.88
270.306	79.88
270.538	82.88
270.77	79.88
271.002	82.88
271.234	95.88
271.466	74.88
271.698	87.88
271.93	71.88
272.162	80.88
272.394	84.88
272.626	82.88
272.858	71.88
273.09	75.88
273.322	86.88
273.553	85.88
273.785	74.88
274.017	87.88
274.249	75.88
274.481	76.88
274.713	88.88
274.945	84.88
275.176	86.88
275.408	87.88
275.64	87.88
275.872	88.88
276.104	87.88
276.335	89.88
276.567	94.88
276.799	98.88
277.031	103.88
277.262	82.88
277.494	86.88
277.726	82.88
277.957	75.88
278.189	93.88
278.421	82.88
278.652	83.88
278.884	83.88
279.115	81.88
279.347	84.88
279.579	77.88
279.81	91.88
280.042	82.88
280.273	89.88
280.505	94.88
280.736	69.88
280.968	88.88
281.199	81.88
281.431	83.88
281.662	87.88
281.894	97.88
282.125	97.88
282.356	117.88
282.588	140.88
282.819	108.88
283.051	79.88
283.282	96.88
283.513	91.88
283.745	81.88
283.976	89.88
284.207	78.88
284.439	87.88
284.67	95.88
284.901	92.88
285.132	87.88
285.364	88.88
285.595	98.88
285.826	76.88
286.057	83.88
286.288	76.88
286.52	89.88
286.751	76.88
286.982	88.88
287.213	87.88
287.444	89.88
287.675	83.88
287.906	86.88
288.138	69.88
288.369	82.88
288.6	73.88
288.831	97.88
289.062	87.88
289.293	95.88
289.524	95.88
289.755	89.88
289.986	81.88
290.217	86.88
290.448	102.88
290.679	79.88
290.91	87.88
291.141	78.88
291.371	92.88
291.602	85.88
291.833	84.88
292.064	78.88
292.295	78.88
292.526	85.88
292.757	93.88
292.987	89.88
293.218	89.88
293.449	94.88
293.68	78.88
293.91	92.88
294.141	90.88
294.372	86.88
294.603	79.88
294.833	97.88
295.064	90.88
295.295	101.88
295.525	82.88
295.756	101.88
295.987	122.88
296.217	126.88
296.448	119.88
296.679	92.88
296.909	89.88
297.14	79.88
297.37	104.88
297.601	82.88
297.831	96.88
298.062	89.88
298.292	92.88
298.523	93.88
298.753	88.88
298.984	87.88
299.214	97.88
299.445	93.88
299.675	83.88
299.905	89.88
300.136	94.88
300.366	83.88
300.597	86.88
300.827	91.88
301.057	97.88
301.288	91.88
301.518	96.88
301.748	86.88
301.979	101.88
302.209	98.88
302.439	98.88
302.669	83.88
302.9	98.88
303.13	89.88
303.36	88.88
303.59	95.88
303.82	117.88
304.051	106.88
304.281	81.88
304.511	97.88
304.741	79.88
304.971	86.88
305.201	101.88
305.431	88.88
305.661	85.88
305.891	90.88
306.121	85.88
306.352	100.88
306.582	111.88
306.812	86.88
307.042	89.88
307.272	89.88
307.502	88.88
307.731	90.88
307.961	82.88
308.191	86.88
308.421	86.88
308.651	85.88
308.881	97.88
309.111	92.88
309.341	89.88
309.571	91.88
309.8	100.88
310.03	97.88
310.26	105.88
310.49	97.88
310.72	80.88
310.949	90.88
311.179	95.88
311.409	83.88
311.639	104.88
311.868	101.88
312.098	100.88
312.328	97.88
312.557	105.88
312.787	98.88
313.017	105.88
313.246	98.88
313.476	88.88
313.706	91.88
313.935	96.88
314.165	104.88
314.394	109.88
314.624	99.88
314.853	113.88
315.083	108.88
315.312	82.88
315.542	80.88
315.771	94.88
316.001	82.88
316.23	69.88
316.46	93.88
316.689	99.88
316.919	96.88
317.148	98.88
317.377	103.88
317.607	95.88
317.836	94.88
318.065	97.88
318.295	101.88
318.524	86.88
318.753	95.88
318.983	102.88
319.212	108.88
319.441	114.88
319.67	85.88
319.9	77.88
320.129	92.88
320.358	85.88
320.587	101.88
320.816	87.88
321.046	93.88
321.275	108.88
321.504	87.88
321.733	94.88
321.962	86.88
322.191	96.88
322.42	97.88
322.649	109.88
322.878	103.88
323.108	96.88
323.337	104.88
323.566	124.88
323.795	143.88
324.024	190.88
324.253	343.88
324.482	720.88
324.71	1483.88
324.939	1912.88
325.168	721.88
325.397	212.88
325.626	133.88
325.855	117.88
326.084	115.88
326.313	116.88
326.542	135.88
326.77	211.88
326.999	400.88
327.228	783.88
327.457	1428.88
327.686	1131.88
327.914	348.88
328.143	191.88
328.372	139.88
328.6	109.88
328.829	114.88
329.058	110.88
329.287	119.88
329.515	109.88
329.744	101.88
329.972	110.88
330.201	114.88
330.43	125.88
330.658	120.88
330.887	135.88
331.115	116.88
331.344	101.88
331.572	95.88
331.801	104.88
332.03	102.88
332.258	88.88
332.486	98.88
332.715	91.88
332.943	79.88
333.172	101.88
333.4	94.88
333.629	105.88
333.857	111.88
334.085	109.88
334.314	123.88
334.542	126.88
334.771	136.88
334.999	106.88
335.227	94.88
335.455	78.88
335.684	105.88
335.912	83.88
336.14	95.88
336.369	99.88
336.597	92.88
336.825	102.88
337.053	89.88
337.281	82.88
337.51	94.88
337.738	104.88
337.966	73.88
338.194	110.88
338.422	105.88
338.65	82.88
338.878	91.88
339.106	80.88
339.334	80.88
339.562	97.88
339.79	92.88
340.018	84.88
340.246	95.88
340.474	91.88
340.702	95.88
340.93	95.88
341.158	91.88
341.386	103.88
341.614	97.88
341.842	113.88
342.07	98.88
342.298	86.88
342.526	79.88
342.754	70.88
342.981	66.88
343.209	87.88
343.437	95.88
343.665	94.88
343.893	85.88
344.12	91.88
344.348	91.88
344.576	82.88
344.804	95.88
345.031	85.88
345.259	97.88
345.487	94.88
345.714	102.88
345.942	86.88
346.17	87.88
346.397	96.88
346.625	101.88
346.853	81.88
347.08	85.88
347.308	85.88
347.535	99.88
347.763	105.88
347.99	90.88
348.218	108.88
348.445	95.88
348.673	101.88
348.9	98.88
349.128	74.88
349.355	75.88
349.583	89.88
349.81	109.88
350.037	94.88
350.265	77.88
350.492	94.88
350.72	99.88
350.947	80.88
351.174	107.88
351.402	102.88
351.629	108.88
351.856	90.88
352.083	109.88
352.311	111.88
352.538	97.88
352.765	98.88
352.992	101.88
353.22	118.88
353.447	115.88
353.674	108.88
353.901	96.88
354.128	94.88
354.355	101.88
354.583	79.88
354.81	97.88
355.037	106.88
355.264	93.88
355.491	93.88
355.718	92.88
355.945	93.88
356.172	95.88
356.399	102.88
356.626	83.88
356.853	85.88
357.08	94.88
357.307	94.88
357.534	76.88
357.761	105.88
357.988	106.88
358.215	96.88
358.441	96.88
358.668	91.88
358.895	96.88
359.122	97.88
359.349	100.88
359.576	93.88
359.802	95.88
360.029	103.88
360.256	106.88
360.483	88.88
360.709	80.88
360.936	80.88
361.163	86.88
361.39	92.88
361.616	87.88
361.843	92.88
362.07	91.88
362.296	89.88
362.523	93.88
362.749	93.88
362.976	66.88
363.203	99.88
363.429	93.88
363.656	93.88
363.882	85.88
364.109	93.88
364.335	101.88
364.562	97.88
364.788	81.88
365.015	102.88
365.241	88.88
365.468	106.88
365.694	96.88
365.92	93.88
366.147	87.88
366.373	75.88
366.599	86.88
366.826	87.88
367.052	76.88
367.278	89.88
367.505	87.88
367.731	88.88
367.957	93.88
368.184	81.88
368.41	105.88
368.636	111.88
368.862	119.88
369.089	102.88
369.315	99.88
369.541	86.88
369.767	81.88
369.993	87.88
370.219	97.88
370.445	91.88
370.672	83.88
370.898	75.88
371.124	89.88
371.35	80.88
371.576	92.88
371.802	87.88
372.028	86.88
372.254	85.88
372.48	83.88
372.706	79.88
372.932	92.88
373.158	87.88
373.384	90.88
373.61	91.88
373.835	103.88
374.061	82.88
374.287	92.88
374.513	82.88
374.739	76.88
374.965	93.88
375.191	96.88
375.416	94.88
375.642	89.88
375.868	98.88
376.094	101.88
376.319	85.88
376.545	77.88
376.771	83.88
376.997	91.88
377.222	87.88
377.448	98.88
377.674	79.88
377.899	82.88
378.125	87.88
378.35	99.88
378.576	96.88
378.802	97.88
379.027	91.88
379.253	84.88
379.478	83.88
379.704	97.88
379.929	92.88
380.155	107.88
380.38	91.88
380.606	101.88
380.831	99.88
381.057	98.88
381.282	98.88
381.507	75.88
381.733	103.88
381.958	80.88
382.184	99.88
382.409	86.88
382.634	107.88
382.86	93.88
383.085	115.88
383.31	99.88
383.535	102.88
383.761	104.88
383.986	100.88
384.211	106.88
384.436	110.88
384.662	93.88
384.887	110.88
385.112	100.88
385.337	109.88
385.562	105.88
385.787	105.88
386.013	109.88
386.238	104.88
386.463	110.88
386.688	106.88
386.913	108.88
387.138	99.88
387.363	95.88
387.588	108.88
387.813	102.88
388.038	114.88
388.263	104.88
388.488	113.88
388.713	93.88
388.938	97.88
389.163	106.88
389.387	100.88
389.612	93.88
389.837	80.88
390.062	95.88
390.287	102.88
390.512	83.88
390.736	79.88
390.961	93.88
391.186	99.88
391.411	95.88
391.636	87.88
391.86	79.88
392.085	74.88
392.31	76.88
392.534	82.88
392.759	93.88
392.984	79.88
393.208	101.88
393.433	104.88
393.658	83.88
393.882	96.88
394.107	78.88
394.331	94.88
394.556	87.88
394.78	77.88
395.005	104.88
395.229	105.88
395.454	89.88
395.678	86.88
395.903	80.88
396.127	87.88
396.352	85.88
396.576	86.88
396.801	93.88
397.025	92.88
397.249	87.88
397.474	92.88
397.698	89.88
397.922	93.88
398.147	91.88
398.371	87.88
398.595	86.88
398.82	79.88
399.044	82.88
399.268	86.88
399.492	102.88
399.717	86.88
399.941	71.88
400.165	97.88
400.389	85.88
400.613	93.88
400.837	91.88
401.062	80.88
401.286	74.88
401.51	77.88
401.734	64.88
401.958	107.88
402.182	115.88
402.406	151.88
402.63	117.88
402.854	86.88
403.078	82.88
403.302	91.88
403.526	77.88
403.75	91.88
403.974	90.88
404.198	77.88
404.422	89.88
404.645	86.88
404.869	97.88
405.093	97.88
405.317	81.88
405.541	98.88
405.765	87.88
405.988	104.88
406.212	165.88
406.436	202.88
406.66	138.88
406.883	91.88
407.107	76.88
407.331	92.88
407.555	90.88
407.778	100.88
408.002	94.88
408.226	89.88
408.449	105.88
408.673	81.88
408.896	93.88
409.12	96.88
409.344	79.88
409.567	68.88
409.791	102.88
410.014	103.88
410.238	96.88
410.461	86.88
410.685	89.88
410.908	92.88
411.132	90.88
411.355	88.88
411.578	85.88
411.802	90.88
412.025	89.88
412.249	97.88
412.472	95.88
412.695	90.88
412.919	104.88
413.142	93.88
413.365	75.88
413.589	78.88
413.812	86.88
414.035	103.88
414.258	89.88
414.482	80.88
414.705	92.88
414.928	92.88
415.151	88.88
415.374	91.88
415.597	87.88
415.821	85.88
416.044	93.88
416.267	96.88
416.49	91.88
416.713	83.88
416.936	88.88
417.159	81.88
417.382	92.88
417.605	78.88
417.828	88.88
418.051	89.88
418.274	79.88
418.497	83.88
418.72	74.88
418.943	81.88
419.166	92.88
419.389	81.88
419.611	94.88
419.834	90.88
420.057	90.88
420.28	86.88
420.503	78.88
420.726	82.88
420.948	83.88
421.171	83.88
421.394	74.88
421.617	78.88
421.839	79.88
422.062	86.88
422.285	81.88
422.507	83.88
422.73	96.88
422.953	79.88
423.175	85.88
423.398	82.88
423.621	93.88
423.843	85.88
424.066	90.88
424.288	86.88
424.511	89.88
424.733	98.88
424.956	102.88
425.178	87.88
425.401	94.88
425.623	99.88
425.846	89.88
426.068	85.88
426.291	86.88
426.513	90.88
426.735	103.88
426.958	95.88
427.18	94.88
427.402	145.88
427.625	142.88
427.847	114.88
428.069	104.88
428.292	94.88
428.514	88.88
428.736	88.88
428.958	78.88
429.181	85.88
429.403	82.88
429.625	83.88
429.847	82.88
430.069	106.88
430.292	97.88
430.514	82.88
430.736	94.88
430.958	92.88
431.18	82.88
431.402	79.88
431.624	81.88
431.846	87.88
432.068	80.88
432.29	71.88
432.512	74.88
432.734	86.88
432.956	77.88
433.178	80.88
433.4	93.88
433.622	82.88
433.844	89.88
434.066	87.88
434.287	83.88
434.509	91.88
434.731	89.88
434.953	84.88
435.175	79.88
435.397	80.88
435.618	93.88
435.84	86.88
436.062	119.88
436.284	109.88
436.505	91.88
436.727	92.88
436.949	96.88
437.17	89.88
437.392	76.88
437.614	83.88
437.835	95.88
438.057	105.88
438.278	97.88
438.5	91.88
438.721	108.88
438.943	90.88
439.165	88.88
439.386	84.88
439.608	69.88
439.829	90.88
440.05	105.88
440.272	118.88
440.493	95.88
440.715	81.88
440.936	74.88
441.158	91.88
441.379	89.88
441.6	90.88
441.822	91.88
442.043	104.88
442.264	92.88
442.486	103.88
442.707	81.88
442.928	100.88
443.149	136.88
443.371	126.88
443.592	123.88
443.813	93.88
444.034	77.88
444.255	94.88
444.476	94.88
444.698	87.88
444.919	90.88
445.14	117.88
445.361	111.88
445.582	104.88
445.803	111.88
446.024	113.88
446.245	114.88
446.466	102.88
446.687	91.88
446.908	88.88
447.129	93.88
447.35	93.88
447.571	86.88
447.792	113.88
448.013	100.88
448.234	101.88
448.455	92.88
448.675	105.88
448.896	106.88
449.117	99.88
449.338	113.88
449.559	120.88
449.779	122.88
450	91.88
450.221	92.88
450.442	98.88
450.662	80.88
450.883	91.88
451.104	110.88
451.324	92.88
451.545	86.88
451.766	87.88
451.986	87.88
452.207	93.88
452.428	88.88
452.648	99.88
452.869	91.88
453.089	104.88
453.31	123.88
453.53	87.88
453.751	102.88
453.971	87.88
454.192	111.88
454.412	94.88
454.633	89.88
454.853	74.88
455.073	79.88
455.294	101.88
455.514	97.88
455.734	84.88
455.955	92.88
456.175	79.88
456.395	84.88
456.616	79.88
456.836	78.88
457.056	95.88
457.276	82.88
457.497	86.88
457.717	72.88
457.937	85.88
458.157	78.88
458.377	84.88
458.598	113.88
458.818	142.88
459.038	144.88
459.258	98.88
459.478	83.88
459.698	83.88
459.918	94.88
460.138	87.88
460.358	81.88
460.578	102.88
460.798	82.88
461.018	97.88
461.238	81.88
461.458	86.88
461.678	76.88
461.898	97.88
462.118	81.88
462.338	88.88
462.558	87.88
462.777	84.88
462.997	76.88
463.217	87.88
463.437	83.88
463.657	97.88
463.876	84.88
464.096	82.88
464.316	86.88
464.536	100.88
464.755	83.88
464.975	100.88
465.195	153.88
465.414	143.88
465.634	82.88
465.854	95.88
466.073	84.88
466.293	90.88
466.512	97.88
466.732	87.88
466.951	75.88
467.171	87.88
467.391	90.88
467.61	95.88
467.829	101.88
468.049	87.88
468.268	88.88
468.488	90.88
468.707	85.88
468.927	83.88
469.146	77.88
469.365	94.88
469.585	78.88
469.804	93.88
470.023	88.88
470.243	87.88
470.462	96.88
470.681	99.88
470.901	82.88
471.12	81.88
471.339	89.88
471.558	97.88
471.777	89.88
471.997	100.88
472.216	120.88
472.435	138.88
472.654	102.88
472.873	94.88
473.092	82.88
473.311	97.88
473.53	79.88
473.749	91.88
473.968	90.88
474.187	99.88
474.406	93.88
474.625	95.88
474.844	101.88
475.063	91.88
475.282	82.88
475.501	93.88
475.72	82.88
475.939	93.88
476.158	84.88
476.377	74.88
476.596	87.88
476.814	73.88
477.033	97.88
477.252	92.88
477.471	75.88
477.69	78.88
477.908	71.88
478.127	103.88
478.346	75.88
478.564	80.88
478.783	94.88
479.002	89.88
479.22	83.88
479.439	92.88
479.658	97.88
479.876	73.88
480.095	87.88
480.313	91.88
480.532	82.88
480.751	89.88
480.969	119.88
481.188	169.88
481.406	154.88
481.624	94.88
481.843	82.88
482.061	94.88
482.28	88.88
482.498	91.88
482.717	83.88
482.935	82.88
483.153	75.88
483.372	89.88
483.59	97.88
483.808	93.88
484.027	94.88
484.245	77.88
484.463	86.88
484.681	78.88
484.9	89.88
485.118	100.88
485.336	90.88
485.554	97.88
485.772	89.88
485.99	85.88
486.209	101.88
486.427	94.88
486.645	107.88
486.863	90.88
487.081	103.88
487.299	73.88
487.517	101.88
487.735	90.88
487.953	94.88
488.171	83.88
488.389	93.88
488.607	94.88
488.825	94.88
489.043	83.88
489.261	71.88
489.479	92.88
489.696	86.88
489.914	98.88
490.132	91.88
490.35	89.88
490.568	102.88
490.786	92.88
491.003	88.88
491.221	74.88
491.439	86.88
491.657	87.88
491.874	94.88
492.092	100.88
492.31	89.88
492.527	77.88
492.745	101.88
492.963	80.88
493.18	101.88
493.398	93.88
493.615	97.88
493.833	94.88
494.05	77.88
494.268	89.88
494.485	80.88
494.703	101.88
494.92	75.88
495.138	86.88
495.355	92.88
495.573	92.88
495.79	81.88
496.008	90.88
496.225	85.88
496.442	86.88
496.66	84.88
496.877	90.88
497.094	97.88
497.312	94.88
497.529	86.88
497.746	91.88
497.963	80.88
498.181	94.88
498.398	88.88
498.615	104.88
498.832	103.88
499.049	81.88
499.267	78.88
499.484	97.88
499.701	98.88
499.918	81.88
500.135	94.88
500.352	77.88
500.569	92.88
500.786	92.88
501.003	102.88
501.22	99.88
501.437	94.88
501.654	86.88
501.871	95.88
502.088	106.88
502.305	91.88
502.522	90.88
502.739	80.88
502.956	85.88
503.172	82.88
503.389	86.88
503.606	106.88
503.823	99.88
504.04	90.88
504.256	89.88
504.473	84.88
504.69	81.88
504.907	73.88
505.123	89.88
505.34	90.88
505.557	93.88
505.773	85.88
505.99	76.88
506.207	105.88
506.423	97.88
506.64	101.88
506.856	87.88
507.073	87.88
507.289	79.88
507.506	87.88
507.722	109.88
507.939	103.88
508.155	89.88
508.372	76.88
508.588	95.88
508.805	100.88
509.021	111.88
509.238	101.88
509.454	90.88
509.67	99.88
509.887	111.88
510.103	122.88
510.319	215.88
510.536	761.88
510.752	2489.88
510.968	710.88
511.184	151.88
511.401	121.88
511.617	88.88
511.833	101.88
512.049	78.88
512.265	87.88
512.481	91.88
512.698	94.88
512.914	98.88
513.13	103.88
513.346	94.88
513.562	106.88
513.778	87.88
513.994	100.88
514.21	94.88
514.426	114.88
514.642	138.88
514.858	123.88
515.074	168.88
515.29	447.88
515.506	1492.88
515.721	559.88
515.937	153.88
516.153	112.88
