Data from Circ_2008_H10_HRD10591_00033.txt Node
Date: Wed Jan 03 10:17:02 EST 2024
User: Yrep
Spectrometer: HR+D1059
Trigger mode: 1
Integration Time (sec): 1.000000E-1
Scans to average: 1
Electric dark correction enabled: true
Nonlinearity correction enabled: false
Boxcar width: 0
XAxis mode: Wavelengths
Number of Pixels in Spectrum: 2048
>>>>>Begin Spectral Data<<<<<
223.165	-23.94
223.4	-23.94
223.635	-23.94
223.869	-19.94
224.104	-23.94
224.338	-15.94
224.573	-34.94
224.808	-9.94
225.042	-24.94
225.277	13.06
225.511	4.06
225.746	12.06
225.98	6.06
226.215	13.06
226.449	19.06
226.683	30.06
226.918	21.06
227.152	35.06
227.387	43.06
227.621	48.06
227.856	32.06
228.09	56.06
228.324	59.06
228.559	65.06
228.793	69.06
229.027	80.06
229.262	61.06
229.496	77.06
229.73	71.06
229.964	90.06
230.199	78.06
230.433	80.06
230.667	85.06
230.901	88.06
231.136	68.06
231.37	88.06
231.604	86.06
231.838	87.06
232.072	77.06
232.306	76.06
232.541	90.06
232.775	93.06
233.009	82.06
233.243	72.06
233.477	81.06
233.711	80.06
233.945	78.06
234.179	86.06
234.413	76.06
234.647	80.06
234.881	84.06
235.115	76.06
235.349	66.06
235.583	81.06
235.817	84.06
236.051	79.06
236.285	79.06
236.519	80.06
236.753	77.06
236.987	72.06
237.221	79.06
237.455	84.06
237.689	80.06
237.922	72.06
238.156	80.06
238.39	76.06
238.624	72.06
238.858	69.06
239.091	80.06
239.325	74.06
239.559	85.06
239.793	75.06
240.027	86.06
240.26	81.06
240.494	87.06
240.728	67.06
240.961	84.06
241.195	92.06
241.429	80.06
241.662	77.06
241.896	87.06
242.13	83.06
242.363	87.06
242.597	70.06
242.83	96.06
243.064	95.06
243.298	76.06
243.531	90.06
243.765	92.06
243.998	82.06
244.232	71.06
244.465	87.06
244.699	81.06
244.932	63.06
245.166	87.06
245.399	80.06
245.633	83.06
245.866	78.06
246.099	86.06
246.333	79.06
246.566	93.06
246.8	72.06
247.033	92.06
247.266	84.06
247.5	84.06
247.733	88.06
247.966	86.06
248.2	82.06
248.433	77.06
248.666	89.06
248.899	68.06
249.133	88.06
249.366	94.06
249.599	83.06
249.832	88.06
250.066	95.06
250.299	87.06
250.532	87.06
250.765	93.06
250.998	82.06
251.231	79.06
251.465	83.06
251.698	83.06
251.931	103.06
252.164	80.06
252.397	77.06
252.63	76.06
252.863	80.06
253.096	81.06
253.329	101.06
253.562	78.06
253.795	84.06
254.028	73.06
254.261	71.06
254.494	82.06
254.727	85.06
254.96	72.06
255.193	93.06
255.426	88.06
255.659	72.06
255.892	80.06
256.124	84.06
256.357	94.06
256.59	90.06
256.823	78.06
257.056	91.06
257.289	83.06
257.521	82.06
257.754	96.06
257.987	94.06
258.22	92.06
258.452	86.06
258.685	99.06
258.918	91.06
259.151	93.06
259.383	82.06
259.616	79.06
259.849	86.06
260.081	88.06
260.314	102.06
260.547	79.06
260.779	84.06
261.012	85.06
261.244	84.06
261.477	95.06
261.71	111.06
261.942	125.06
262.175	127.06
262.407	87.06
262.64	91.06
262.872	90.06
263.105	87.06
263.337	87.06
263.57	81.06
263.802	102.06
264.035	96.06
264.267	98.06
264.499	78.06
264.732	77.06
264.964	79.06
265.197	95.06
265.429	99.06
265.661	88.06
265.894	91.06
266.126	72.06
266.358	93.06
266.591	100.06
266.823	77.06
267.055	71.06
267.287	77.06
267.52	90.06
267.752	93.06
267.984	92.06
268.216	76.06
268.448	82.06
268.681	88.06
268.913	79.06
269.145	77.06
269.377	100.06
269.609	91.06
269.841	96.06
270.073	99.06
270.306	107.06
270.538	86.06
270.77	80.06
271.002	82.06
271.234	80.06
271.466	76.06
271.698	91.06
271.93	84.06
272.162	94.06
272.394	88.06
272.626	103.06
272.858	106.06
273.09	82.06
273.322	87.06
273.553	94.06
273.785	86.06
274.017	75.06
274.249	99.06
274.481	82.06
274.713	97.06
274.945	93.06
275.176	77.06
275.408	89.06
275.64	74.06
275.872	91.06
276.104	99.06
276.335	96.06
276.567	107.06
276.799	125.06
277.031	106.06
277.262	101.06
277.494	90.06
277.726	87.06
277.957	91.06
278.189	96.06
278.421	103.06
278.652	88.06
278.884	91.06
279.115	73.06
279.347	87.06
279.579	92.06
279.81	94.06
280.042	91.06
280.273	87.06
280.505	103.06
280.736	100.06
280.968	104.06
281.199	94.06
281.431	91.06
281.662	90.06
281.894	82.06
282.125	108.06
282.356	127.06
282.588	138.06
282.819	127.06
283.051	93.06
283.282	86.06
283.513	91.06
283.745	93.06
283.976	73.06
284.207	84.06
284.439	91.06
284.67	89.06
284.901	91.06
285.132	99.06
285.364	96.06
285.595	90.06
285.826	101.06
286.057	79.06
286.288	97.06
286.52	94.06
286.751	86.06
286.982	87.06
287.213	104.06
287.444	91.06
287.675	103.06
287.906	92.06
288.138	101.06
288.369	93.06
288.6	95.06
288.831	84.06
289.062	97.06
289.293	97.06
289.524	102.06
289.755	95.06
289.986	99.06
290.217	97.06
290.448	103.06
290.679	94.06
290.91	101.06
291.141	103.06
291.371	94.06
291.602	100.06
291.833	91.06
292.064	93.06
292.295	94.06
292.526	89.06
292.757	97.06
292.987	95.06
293.218	89.06
293.449	86.06
293.68	91.06
293.91	100.06
294.141	93.06
294.372	94.06
294.603	81.06
294.833	98.06
295.064	110.06
295.295	105.06
295.525	101.06
295.756	101.06
295.987	121.06
296.217	161.06
296.448	133.06
296.679	98.06
296.909	92.06
297.14	101.06
297.37	90.06
297.601	94.06
297.831	83.06
298.062	92.06
298.292	94.06
298.523	87.06
298.753	107.06
298.984	90.06
299.214	91.06
299.445	92.06
299.675	85.06
299.905	99.06
300.136	97.06
300.366	96.06
300.597	94.06
300.827	101.06
301.057	101.06
301.288	118.06
301.518	96.06
301.748	94.06
301.979	101.06
302.209	96.06
302.439	86.06
302.669	83.06
302.9	94.06
303.13	97.06
303.36	109.06
303.59	110.06
303.82	105.06
304.051	92.06
304.281	88.06
304.511	87.06
304.741	90.06
304.971	96.06
305.201	88.06
305.431	91.06
305.661	90.06
305.891	99.06
306.121	110.06
306.352	82.06
306.582	99.06
306.812	94.06
307.042	85.06
307.272	99.06
307.502	101.06
307.731	99.06
307.961	99.06
308.191	92.06
308.421	93.06
308.651	100.06
308.881	106.06
309.111	106.06
309.341	103.06
309.571	106.06
309.8	109.06
310.03	94.06
310.26	97.06
310.49	104.06
310.72	97.06
310.949	106.06
311.179	115.06
311.409	91.06
311.639	93.06
311.868	101.06
312.098	95.06
312.328	111.06
312.557	99.06
312.787	103.06
313.017	103.06
313.246	111.06
313.476	87.06
313.706	93.06
313.935	87.06
314.165	106.06
314.394	92.06
314.624	107.06
314.853	111.06
315.083	93.06
315.312	99.06
315.542	94.06
315.771	101.06
316.001	99.06
316.23	106.06
316.46	91.06
316.689	101.06
316.919	103.06
317.148	115.06
317.377	99.06
317.607	103.06
317.836	96.06
318.065	94.06
318.295	100.06
318.524	108.06
318.753	92.06
318.983	106.06
319.212	99.06
319.441	118.06
319.67	104.06
319.9	110.06
320.129	90.06
320.358	100.06
320.587	91.06
320.816	97.06
321.046	101.06
321.275	92.06
321.504	96.06
321.733	113.06
321.962	114.06
322.191	115.06
322.42	101.06
322.649	107.06
322.878	108.06
323.108	114.06
323.337	142.06
323.566	135.06
323.795	154.06
324.024	196.06
324.253	378.06
324.482	799.06
324.71	1638.06
324.939	2129.06
325.168	816.06
325.397	266.06
325.626	164.06
325.855	138.06
326.084	114.06
326.313	130.06
326.542	164.06
326.77	234.06
326.999	449.06
327.228	873.06
327.457	1577.06
327.686	1283.06
327.914	355.06
328.143	208.06
328.372	160.06
328.6	142.06
328.829	115.06
329.058	138.06
329.287	138.06
329.515	127.06
329.744	120.06
329.972	102.06
330.201	142.06
330.43	150.06
330.658	133.06
330.887	153.06
331.115	141.06
331.344	118.06
331.572	108.06
331.801	120.06
332.03	121.06
332.258	103.06
332.486	77.06
332.715	97.06
332.943	107.06
333.172	106.06
333.4	83.06
333.629	116.06
333.857	125.06
334.085	115.06
334.314	119.06
334.542	156.06
334.771	144.06
334.999	117.06
335.227	110.06
335.455	111.06
335.684	99.06
335.912	104.06
336.14	92.06
336.369	107.06
336.597	109.06
336.825	102.06
337.053	100.06
337.281	99.06
337.51	110.06
337.738	111.06
337.966	97.06
338.194	108.06
338.422	97.06
338.65	92.06
338.878	103.06
339.106	102.06
339.334	90.06
339.562	90.06
339.79	97.06
340.018	96.06
340.246	106.06
340.474	95.06
340.702	99.06
340.93	106.06
341.158	107.06
341.386	98.06
341.614	112.06
341.842	104.06
342.07	96.06
342.298	95.06
342.526	85.06
342.754	94.06
342.981	95.06
343.209	87.06
343.437	110.06
343.665	86.06
343.893	91.06
344.12	98.06
344.348	90.06
344.576	91.06
344.804	95.06
345.031	95.06
345.259	95.06
345.487	97.06
345.714	99.06
345.942	94.06
346.17	102.06
346.397	103.06
346.625	85.06
346.853	107.06
347.08	99.06
347.308	100.06
347.535	103.06
347.763	110.06
347.99	100.06
348.218	101.06
348.445	108.06
348.673	95.06
348.9	91.06
349.128	96.06
349.355	96.06
349.583	107.06
349.81	96.06
350.037	100.06
350.265	97.06
350.492	101.06
350.72	102.06
350.947	111.06
351.174	111.06
351.402	96.06
351.629	103.06
351.856	103.06
352.083	98.06
352.311	108.06
352.538	128.06
352.765	105.06
352.992	111.06
353.22	118.06
353.447	122.06
353.674	106.06
353.901	101.06
354.128	99.06
354.355	94.06
354.583	113.06
354.81	96.06
355.037	93.06
355.264	96.06
355.491	97.06
355.718	95.06
355.945	97.06
356.172	109.06
356.399	92.06
356.626	103.06
356.853	99.06
357.08	91.06
357.307	92.06
357.534	103.06
357.761	96.06
357.988	91.06
358.215	98.06
358.441	91.06
358.668	102.06
358.895	96.06
359.122	114.06
359.349	102.06
359.576	88.06
359.802	113.06
360.029	116.06
360.256	113.06
360.483	102.06
360.709	102.06
360.936	109.06
361.163	102.06
361.39	99.06
361.616	98.06
361.843	95.06
362.07	99.06
362.296	112.06
362.523	88.06
362.749	92.06
362.976	99.06
363.203	92.06
363.429	86.06
363.656	104.06
363.882	102.06
364.109	107.06
364.335	100.06
364.562	104.06
364.788	109.06
365.015	109.06
365.241	93.06
365.468	102.06
365.694	108.06
365.92	101.06
366.147	89.06
366.373	79.06
366.599	97.06
366.826	100.06
367.052	88.06
367.278	107.06
367.505	102.06
367.731	102.06
367.957	102.06
368.184	103.06
368.41	99.06
368.636	111.06
368.862	140.06
369.089	111.06
369.315	98.06
369.541	85.06
369.767	77.06
369.993	100.06
370.219	99.06
370.445	102.06
370.672	97.06
370.898	94.06
371.124	86.06
371.35	91.06
371.576	91.06
371.802	88.06
372.028	96.06
372.254	103.06
372.48	107.06
372.706	94.06
372.932	93.06
373.158	103.06
373.384	102.06
373.61	100.06
373.835	93.06
374.061	98.06
374.287	80.06
374.513	96.06
374.739	88.06
374.965	80.06
375.191	96.06
375.416	95.06
375.642	100.06
375.868	87.06
376.094	84.06
376.319	98.06
376.545	92.06
376.771	99.06
376.997	83.06
377.222	111.06
377.448	93.06
377.674	92.06
377.899	87.06
378.125	96.06
378.35	103.06
378.576	85.06
378.802	87.06
379.027	103.06
379.253	94.06
379.478	109.06
379.704	98.06
379.929	99.06
380.155	106.06
380.38	89.06
380.606	111.06
380.831	105.06
381.057	104.06
381.282	87.06
381.507	115.06
381.733	103.06
381.958	105.06
382.184	111.06
382.409	114.06
382.634	111.06
382.86	111.06
383.085	117.06
383.31	104.06
383.535	99.06
383.761	110.06
383.986	105.06
384.211	105.06
384.436	99.06
384.662	118.06
384.887	114.06
385.112	119.06
385.337	119.06
385.562	123.06
385.787	127.06
386.013	123.06
386.238	124.06
386.463	119.06
386.688	126.06
386.913	117.06
387.138	104.06
387.363	130.06
387.588	108.06
387.813	109.06
388.038	117.06
388.263	128.06
388.488	126.06
388.713	90.06
388.938	76.06
389.163	92.06
389.387	110.06
389.612	88.06
389.837	109.06
390.062	97.06
390.287	92.06
390.512	108.06
390.736	94.06
390.961	85.06
391.186	101.06
391.411	99.06
391.636	88.06
391.86	93.06
392.085	92.06
392.31	102.06
392.534	92.06
392.759	93.06
392.984	92.06
393.208	98.06
393.433	112.06
393.658	110.06
393.882	96.06
394.107	108.06
394.331	104.06
394.556	96.06
394.78	107.06
395.005	82.06
395.229	99.06
395.454	94.06
395.678	91.06
395.903	94.06
396.127	99.06
396.352	115.06
396.576	91.06
396.801	111.06
397.025	99.06
397.249	94.06
397.474	84.06
397.698	96.06
397.922	94.06
398.147	80.06
398.371	90.06
398.595	79.06
398.82	104.06
399.044	86.06
399.268	89.06
399.492	101.06
399.717	82.06
399.941	86.06
400.165	98.06
400.389	85.06
400.613	94.06
400.837	82.06
401.062	96.06
401.286	92.06
401.51	87.06
401.734	90.06
401.958	103.06
402.182	146.06
402.406	170.06
402.63	131.06
402.854	104.06
403.078	93.06
403.302	75.06
403.526	85.06
403.75	98.06
403.974	85.06
404.198	78.06
404.422	92.06
404.645	96.06
404.869	102.06
405.093	108.06
405.317	95.06
405.541	91.06
405.765	97.06
405.988	117.06
406.212	184.06
406.436	244.06
406.66	150.06
406.883	115.06
407.107	100.06
407.331	95.06
407.555	83.06
407.778	99.06
408.002	85.06
408.226	100.06
408.449	91.06
408.673	101.06
408.896	90.06
409.12	95.06
409.344	106.06
409.567	103.06
409.791	91.06
410.014	94.06
410.238	90.06
410.461	88.06
410.685	107.06
410.908	103.06
411.132	114.06
411.355	95.06
411.578	109.06
411.802	104.06
412.025	89.06
412.249	102.06
412.472	86.06
412.695	99.06
412.919	107.06
413.142	101.06
413.365	88.06
413.589	97.06
413.812	68.06
414.035	91.06
414.258	82.06
414.482	89.06
414.705	99.06
414.928	97.06
415.151	94.06
415.374	107.06
415.597	93.06
415.821	83.06
416.044	95.06
416.267	95.06
416.49	84.06
416.713	100.06
416.936	102.06
417.159	84.06
417.382	92.06
417.605	96.06
417.828	114.06
418.051	92.06
418.274	104.06
418.497	103.06
418.72	91.06
418.943	88.06
419.166	97.06
419.389	102.06
419.611	93.06
419.834	99.06
420.057	98.06
420.28	98.06
420.503	90.06
420.726	80.06
420.948	93.06
421.171	103.06
421.394	102.06
421.617	101.06
421.839	91.06
422.062	75.06
422.285	91.06
422.507	101.06
422.73	105.06
422.953	96.06
423.175	100.06
423.398	86.06
423.621	94.06
423.843	99.06
424.066	101.06
424.288	87.06
424.511	87.06
424.733	91.06
424.956	113.06
425.178	110.06
425.401	108.06
425.623	99.06
425.846	82.06
426.068	85.06
426.291	93.06
426.513	91.06
426.735	100.06
426.958	99.06
427.18	110.06
427.402	128.06
427.625	174.06
427.847	159.06
428.069	114.06
428.292	85.06
428.514	94.06
428.736	87.06
428.958	70.06
429.181	88.06
429.403	99.06
429.625	93.06
429.847	91.06
430.069	99.06
430.292	95.06
430.514	92.06
430.736	97.06
430.958	87.06
431.18	92.06
431.402	81.06
431.624	88.06
431.846	85.06
432.068	83.06
432.29	88.06
432.512	92.06
432.734	96.06
432.956	72.06
433.178	103.06
433.4	107.06
433.622	95.06
433.844	96.06
434.066	91.06
434.287	100.06
434.509	98.06
434.731	86.06
434.953	80.06
435.175	91.06
435.397	93.06
435.618	92.06
435.84	109.06
436.062	120.06
436.284	107.06
436.505	101.06
436.727	89.06
436.949	96.06
437.17	76.06
437.392	84.06
437.614	93.06
437.835	115.06
438.057	111.06
438.278	102.06
438.5	98.06
438.721	111.06
438.943	91.06
439.165	84.06
439.386	97.06
439.608	96.06
439.829	116.06
440.05	124.06
440.272	138.06
440.493	100.06
440.715	102.06
440.936	84.06
441.158	82.06
441.379	98.06
441.6	95.06
441.822	95.06
442.043	100.06
442.264	108.06
442.486	102.06
442.707	90.06
442.928	102.06
443.149	129.06
443.371	143.06
443.592	127.06
443.813	104.06
444.034	113.06
444.255	102.06
444.476	94.06
444.698	91.06
444.919	106.06
445.14	133.06
445.361	123.06
445.582	113.06
445.803	155.06
446.024	130.06
446.245	118.06
446.466	104.06
446.687	103.06
446.908	99.06
447.129	84.06
447.35	100.06
447.571	91.06
447.792	94.06
448.013	109.06
448.234	124.06
448.455	100.06
448.675	103.06
448.896	94.06
449.117	101.06
449.338	102.06
449.559	120.06
449.779	123.06
450	102.06
450.221	100.06
450.442	93.06
450.662	102.06
450.883	128.06
451.104	121.06
451.324	99.06
451.545	92.06
451.766	89.06
451.986	92.06
452.207	98.06
452.428	90.06
452.648	113.06
452.869	122.06
453.089	113.06
453.31	133.06
453.53	100.06
453.751	98.06
453.971	100.06
454.192	103.06
454.412	104.06
454.633	98.06
454.853	85.06
455.073	92.06
455.294	108.06
455.514	103.06
455.734	79.06
455.955	90.06
456.175	85.06
456.395	92.06
456.616	87.06
456.836	102.06
457.056	80.06
457.276	81.06
457.497	102.06
457.717	85.06
457.937	95.06
458.157	96.06
458.377	93.06
458.598	113.06
458.818	154.06
459.038	167.06
459.258	138.06
459.478	82.06
459.698	91.06
459.918	74.06
460.138	85.06
460.358	84.06
460.578	100.06
460.798	85.06
461.018	92.06
461.238	88.06
461.458	87.06
461.678	84.06
461.898	87.06
462.118	92.06
462.338	82.06
462.558	88.06
462.777	89.06
462.997	96.06
463.217	100.06
463.437	87.06
463.657	86.06
463.876	77.06
464.096	95.06
464.316	94.06
464.536	96.06
464.755	112.06
464.975	110.06
465.195	175.06
465.414	160.06
465.634	101.06
465.854	93.06
466.073	94.06
466.293	93.06
466.512	92.06
466.732	84.06
466.951	100.06
467.171	88.06
467.391	107.06
467.61	115.06
467.829	113.06
468.049	101.06
468.268	116.06
468.488	92.06
468.707	96.06
468.927	96.06
469.146	69.06
469.365	79.06
469.585	85.06
469.804	96.06
470.023	97.06
470.243	112.06
470.462	103.06
470.681	107.06
470.901	79.06
471.12	92.06
471.339	92.06
471.558	94.06
471.777	92.06
471.997	91.06
472.216	116.06
472.435	150.06
472.654	89.06
472.873	87.06
473.092	81.06
473.311	87.06
473.53	87.06
473.749	91.06
473.968	91.06
474.187	99.06
474.406	88.06
474.625	82.06
474.844	74.06
475.063	84.06
475.282	86.06
475.501	71.06
475.72	95.06
475.939	98.06
476.158	93.06
476.377	90.06
476.596	94.06
476.814	98.06
477.033	100.06
477.252	98.06
477.471	79.06
477.69	95.06
477.908	83.06
478.127	88.06
478.346	91.06
478.564	81.06
478.783	84.06
479.002	76.06
479.22	99.06
479.439	104.06
479.658	95.06
479.876	110.06
480.095	98.06
480.313	99.06
480.532	93.06
480.751	88.06
480.969	127.06
481.188	239.06
481.406	184.06
481.624	118.06
481.843	100.06
482.061	97.06
482.28	82.06
482.498	99.06
482.717	95.06
482.935	93.06
483.153	97.06
483.372	83.06
483.59	90.06
483.808	102.06
484.027	92.06
484.245	99.06
484.463	83.06
484.681	103.06
484.9	102.06
485.118	95.06
485.336	91.06
485.554	87.06
485.772	116.06
485.99	96.06
486.209	86.06
486.427	109.06
486.645	122.06
486.863	104.06
487.081	99.06
487.299	85.06
487.517	106.06
487.735	92.06
487.953	101.06
488.171	79.06
488.389	96.06
488.607	102.06
488.825	98.06
489.043	104.06
489.261	96.06
489.479	92.06
489.696	101.06
489.914	82.06
490.132	86.06
490.35	99.06
490.568	93.06
490.786	84.06
491.003	113.06
491.221	102.06
491.439	88.06
491.657	86.06
491.874	96.06
492.092	99.06
492.31	78.06
492.527	87.06
492.745	102.06
492.963	88.06
493.18	104.06
493.398	86.06
493.615	86.06
493.833	85.06
494.05	80.06
494.268	85.06
494.485	103.06
494.703	104.06
494.92	82.06
495.138	109.06
495.355	95.06
495.573	93.06
495.79	111.06
496.008	91.06
496.225	91.06
496.442	101.06
496.66	97.06
496.877	95.06
497.094	78.06
497.312	93.06
497.529	97.06
497.746	76.06
497.963	108.06
498.181	92.06
498.398	97.06
498.615	111.06
498.832	111.06
499.049	101.06
499.267	93.06
499.484	93.06
499.701	90.06
499.918	88.06
500.135	93.06
500.352	86.06
500.569	94.06
500.786	110.06
501.003	79.06
501.22	87.06
501.437	76.06
501.654	98.06
501.871	99.06
502.088	97.06
502.305	95.06
502.522	84.06
502.739	87.06
502.956	99.06
503.172	76.06
503.389	96.06
503.606	107.06
503.823	97.06
504.04	81.06
504.256	83.06
504.473	95.06
504.69	97.06
504.907	95.06
505.123	98.06
505.34	93.06
505.557	102.06
505.773	85.06
505.99	93.06
506.207	91.06
506.423	94.06
506.64	88.06
506.856	88.06
507.073	83.06
507.289	99.06
507.506	99.06
507.722	111.06
507.939	107.06
508.155	104.06
508.372	96.06
508.588	89.06
508.805	101.06
509.021	95.06
509.238	110.06
509.454	94.06
509.67	102.06
509.887	121.06
510.103	147.06
510.319	237.06
510.536	893.06
510.752	2999.06
510.968	844.06
511.184	170.06
511.401	111.06
511.617	101.06
511.833	108.06
512.049	97.06
512.265	99.06
512.481	99.06
512.698	102.06
512.914	90.06
513.13	85.06
513.346	94.06
513.562	99.06
