Data from Circ_2008_H10_HRD10591_00019.txt Node
Date: Wed Jan 03 10:17:00 EST 2024
User: Yrep
Spectrometer: HR+D1059
Trigger mode: 1
Integration Time (sec): 1.000000E-1
Scans to average: 1
Electric dark correction enabled: true
Nonlinearity correction enabled: false
Boxcar width: 0
XAxis mode: Wavelengths
Number of Pixels in Spectrum: 2048
>>>>>Begin Spectral Data<<<<<
223.165	-24.81
223.4	-24.81
223.635	-24.81
223.869	-15.81
224.104	-24.81
224.338	-21.81
224.573	-15.81
224.808	-2.81
225.042	-8.81
225.277	-0.81
225.511	-3.81
225.746	11.19
225.98	3.19
226.215	23.19
226.449	15.19
226.683	17.19
226.918	22.19
227.152	27.19
227.387	26.19
227.621	43.19
227.856	44.19
228.09	40.19
228.324	40.19
228.559	41.19
228.793	29.19
229.027	58.19
229.262	71.19
229.496	85.19
229.73	86.19
229.964	76.19
230.199	69.19
230.433	74.19
230.667	76.19
230.901	81.19
231.136	84.19
231.37	84.19
231.604	86.19
231.838	76.19
232.072	55.19
232.306	79.19
232.541	73.19
232.775	68.19
233.009	76.19
233.243	62.19
233.477	87.19
233.711	76.19
233.945	88.19
234.179	67.19
234.413	83.19
234.647	69.19
234.881	69.19
235.115	73.19
235.349	86.19
235.583	77.19
235.817	79.19
236.051	75.19
236.285	71.19
236.519	70.19
236.753	65.19
236.987	62.19
237.221	71.19
237.455	97.19
237.689	75.19
237.922	84.19
238.156	75.19
238.39	81.19
238.624	77.19
238.858	78.19
239.091	76.19
239.325	63.19
239.559	88.19
239.793	78.19
240.027	72.19
240.26	84.19
240.494	64.19
240.728	81.19
240.961	92.19
241.195	64.19
241.429	80.19
241.662	72.19
241.896	79.19
242.13	78.19
242.363	94.19
242.597	67.19
242.83	64.19
243.064	78.19
243.298	76.19
243.531	73.19
243.765	70.19
243.998	71.19
244.232	62.19
244.465	75.19
244.699	63.19
244.932	89.19
245.166	79.19
245.399	71.19
245.633	75.19
245.866	72.19
246.099	79.19
246.333	64.19
246.566	73.19
246.8	82.19
247.033	83.19
247.266	82.19
247.5	72.19
247.733	70.19
247.966	68.19
248.2	71.19
248.433	69.19
248.666	72.19
248.899	65.19
249.133	76.19
249.366	96.19
249.599	101.19
249.832	84.19
250.066	86.19
250.299	67.19
250.532	76.19
250.765	69.19
250.998	75.19
251.231	79.19
251.465	69.19
251.698	81.19
251.931	71.19
252.164	71.19
252.397	82.19
252.63	76.19
252.863	81.19
253.096	77.19
253.329	79.19
253.562	87.19
253.795	77.19
254.028	78.19
254.261	64.19
254.494	70.19
254.727	93.19
254.96	81.19
255.193	75.19
255.426	70.19
255.659	74.19
255.892	87.19
256.124	72.19
256.357	80.19
256.59	74.19
256.823	83.19
257.056	78.19
257.289	79.19
257.521	88.19
257.754	73.19
257.987	78.19
258.22	67.19
258.452	81.19
258.685	76.19
258.918	81.19
259.151	73.19
259.383	84.19
259.616	81.19
259.849	74.19
260.081	71.19
260.314	82.19
260.547	90.19
260.779	87.19
261.012	77.19
261.244	80.19
261.477	91.19
261.71	89.19
261.942	124.19
262.175	130.19
262.407	86.19
262.64	75.19
262.872	90.19
263.105	64.19
263.337	82.19
263.57	92.19
263.802	75.19
264.035	94.19
264.267	78.19
264.499	88.19
264.732	71.19
264.964	85.19
265.197	100.19
265.429	84.19
265.661	73.19
265.894	79.19
266.126	91.19
266.358	80.19
266.591	91.19
266.823	75.19
267.055	89.19
267.287	93.19
267.52	80.19
267.752	88.19
267.984	84.19
268.216	79.19
268.448	98.19
268.681	81.19
268.913	96.19
269.145	87.19
269.377	87.19
269.609	91.19
269.841	71.19
270.073	89.19
270.306	70.19
270.538	90.19
270.77	84.19
271.002	72.19
271.234	86.19
271.466	91.19
271.698	81.19
271.93	86.19
272.162	76.19
272.394	75.19
272.626	78.19
272.858	85.19
273.09	76.19
273.322	85.19
273.553	71.19
273.785	86.19
274.017	82.19
274.249	84.19
274.481	85.19
274.713	82.19
274.945	82.19
275.176	93.19
275.408	85.19
275.64	73.19
275.872	90.19
276.104	93.19
276.335	92.19
276.567	94.19
276.799	119.19
277.031	108.19
277.262	106.19
277.494	89.19
277.726	81.19
277.957	74.19
278.189	72.19
278.421	85.19
278.652	87.19
278.884	76.19
279.115	79.19
279.347	89.19
279.579	95.19
279.81	84.19
280.042	82.19
280.273	86.19
280.505	77.19
280.736	79.19
280.968	87.19
281.199	85.19
281.431	83.19
281.662	77.19
281.894	88.19
282.125	93.19
282.356	121.19
282.588	134.19
282.819	115.19
283.051	85.19
283.282	72.19
283.513	81.19
283.745	81.19
283.976	95.19
284.207	78.19
284.439	84.19
284.67	94.19
284.901	69.19
285.132	85.19
285.364	90.19
285.595	77.19
285.826	80.19
286.057	85.19
286.288	81.19
286.52	85.19
286.751	93.19
286.982	80.19
287.213	82.19
287.444	91.19
287.675	83.19
287.906	87.19
288.138	86.19
288.369	89.19
288.6	79.19
288.831	88.19
289.062	91.19
289.293	71.19
289.524	102.19
289.755	71.19
289.986	78.19
290.217	81.19
290.448	72.19
290.679	93.19
290.91	82.19
291.141	67.19
291.371	77.19
291.602	91.19
291.833	76.19
292.064	90.19
292.295	80.19
292.526	83.19
292.757	74.19
292.987	83.19
293.218	79.19
293.449	68.19
293.68	79.19
293.91	85.19
294.141	92.19
294.372	87.19
294.603	79.19
294.833	94.19
295.064	91.19
295.295	99.19
295.525	82.19
295.756	100.19
295.987	118.19
296.217	151.19
296.448	132.19
296.679	87.19
296.909	71.19
297.14	101.19
297.37	75.19
297.601	92.19
297.831	87.19
298.062	92.19
298.292	81.19
298.523	101.19
298.753	91.19
298.984	80.19
299.214	88.19
299.445	104.19
299.675	91.19
299.905	107.19
300.136	93.19
300.366	74.19
300.597	102.19
300.827	91.19
301.057	103.19
301.288	113.19
301.518	89.19
301.748	80.19
301.979	92.19
302.209	85.19
302.439	80.19
302.669	80.19
302.9	82.19
303.13	83.19
303.36	81.19
303.59	99.19
303.82	100.19
304.051	98.19
304.281	108.19
304.511	91.19
304.741	86.19
304.971	87.19
305.201	95.19
305.431	79.19
305.661	87.19
305.891	91.19
306.121	106.19
306.352	113.19
306.582	111.19
306.812	85.19
307.042	98.19
307.272	96.19
307.502	93.19
307.731	90.19
307.961	86.19
308.191	74.19
308.421	94.19
308.651	95.19
308.881	85.19
309.111	89.19
309.341	92.19
309.571	102.19
309.8	95.19
310.03	86.19
310.26	95.19
310.49	90.19
310.72	105.19
310.949	104.19
311.179	102.19
311.409	95.19
311.639	93.19
311.868	91.19
312.098	101.19
312.328	91.19
312.557	106.19
312.787	89.19
313.017	91.19
313.246	107.19
313.476	90.19
313.706	92.19
313.935	84.19
314.165	94.19
314.394	103.19
314.624	96.19
314.853	98.19
315.083	99.19
315.312	103.19
315.542	81.19
315.771	89.19
316.001	105.19
316.23	88.19
316.46	90.19
316.689	101.19
316.919	101.19
317.148	99.19
317.377	95.19
317.607	92.19
317.836	83.19
318.065	72.19
318.295	85.19
318.524	92.19
318.753	94.19
318.983	113.19
319.212	109.19
319.441	107.19
319.67	101.19
319.9	91.19
320.129	92.19
320.358	92.19
320.587	84.19
320.816	105.19
321.046	110.19
321.275	96.19
321.504	102.19
321.733	102.19
321.962	97.19
322.191	105.19
322.42	105.19
322.649	102.19
322.878	121.19
323.108	118.19
323.337	134.19
323.566	141.19
323.795	163.19
324.024	217.19
324.253	428.19
324.482	916.19
324.71	1933.19
324.939	2555.19
325.168	929.19
325.397	265.19
325.626	149.19
325.855	145.19
326.084	134.19
326.313	135.19
326.542	158.19
326.77	239.19
326.999	498.19
327.228	1011.19
327.457	1879.19
327.686	1445.19
327.914	411.19
328.143	225.19
328.372	163.19
328.6	142.19
328.829	131.19
329.058	128.19
329.287	137.19
329.515	117.19
329.744	107.19
329.972	99.19
330.201	108.19
330.43	112.19
330.658	137.19
330.887	157.19
331.115	123.19
331.344	98.19
331.572	93.19
331.801	115.19
332.03	98.19
332.258	103.19
332.486	103.19
332.715	86.19
332.943	95.19
333.172	100.19
333.4	97.19
333.629	116.19
333.857	121.19
334.085	101.19
334.314	107.19
334.542	115.19
334.771	121.19
334.999	107.19
335.227	88.19
335.455	86.19
335.684	94.19
335.912	109.19
336.14	101.19
336.369	92.19
336.597	103.19
336.825	104.19
337.053	92.19
337.281	82.19
337.51	99.19
337.738	88.19
337.966	92.19
338.194	91.19
338.422	91.19
338.65	93.19
338.878	92.19
339.106	85.19
339.334	81.19
339.562	85.19
339.79	93.19
340.018	87.19
340.246	79.19
340.474	89.19
340.702	115.19
340.93	93.19
341.158	95.19
341.386	87.19
341.614	99.19
341.842	99.19
342.07	92.19
342.298	87.19
342.526	95.19
342.754	97.19
342.981	88.19
343.209	81.19
343.437	93.19
343.665	99.19
343.893	80.19
344.12	87.19
344.348	86.19
344.576	94.19
344.804	99.19
345.031	85.19
345.259	89.19
345.487	95.19
345.714	82.19
345.942	94.19
346.17	82.19
346.397	89.19
346.625	90.19
346.853	104.19
347.08	92.19
347.308	98.19
347.535	83.19
347.763	97.19
347.99	99.19
348.218	100.19
348.445	101.19
348.673	97.19
348.9	88.19
349.128	89.19
349.355	99.19
349.583	94.19
349.81	99.19
350.037	84.19
350.265	91.19
350.492	113.19
350.72	97.19
350.947	117.19
351.174	99.19
351.402	102.19
351.629	96.19
351.856	107.19
352.083	123.19
352.311	107.19
352.538	106.19
352.765	107.19
352.992	122.19
353.22	111.19
353.447	100.19
353.674	94.19
353.901	97.19
354.128	93.19
354.355	91.19
354.583	94.19
354.81	102.19
355.037	99.19
355.264	88.19
355.491	88.19
355.718	88.19
355.945	95.19
356.172	97.19
356.399	86.19
356.626	85.19
356.853	98.19
357.08	75.19
357.307	93.19
357.534	95.19
357.761	97.19
357.988	107.19
358.215	95.19
358.441	87.19
358.668	99.19
358.895	88.19
359.122	92.19
359.349	81.19
359.576	89.19
359.802	86.19
360.029	108.19
360.256	103.19
360.483	101.19
360.709	96.19
360.936	88.19
361.163	85.19
361.39	92.19
361.616	95.19
361.843	85.19
362.07	97.19
362.296	99.19
362.523	88.19
362.749	84.19
362.976	79.19
363.203	99.19
363.429	90.19
363.656	90.19
363.882	101.19
364.109	85.19
364.335	87.19
364.562	95.19
364.788	98.19
365.015	102.19
365.241	96.19
365.468	117.19
365.694	103.19
365.92	105.19
366.147	93.19
366.373	102.19
366.599	72.19
366.826	81.19
367.052	96.19
367.278	93.19
367.505	79.19
367.731	103.19
367.957	95.19
368.184	97.19
368.41	100.19
368.636	110.19
368.862	121.19
369.089	111.19
369.315	90.19
369.541	85.19
369.767	81.19
369.993	97.19
370.219	88.19
370.445	98.19
370.672	98.19
370.898	101.19
371.124	74.19
371.35	97.19
371.576	97.19
371.802	74.19
372.028	87.19
372.254	100.19
372.48	84.19
372.706	80.19
372.932	96.19
373.158	79.19
373.384	92.19
373.61	90.19
373.835	91.19
374.061	87.19
374.287	88.19
374.513	81.19
374.739	84.19
374.965	101.19
375.191	84.19
375.416	90.19
375.642	90.19
375.868	85.19
376.094	80.19
376.319	89.19
376.545	102.19
376.771	87.19
376.997	82.19
377.222	93.19
377.448	94.19
377.674	91.19
377.899	91.19
378.125	85.19
378.35	97.19
378.576	93.19
378.802	76.19
379.027	96.19
379.253	90.19
379.478	92.19
379.704	92.19
379.929	94.19
380.155	106.19
380.38	83.19
380.606	93.19
380.831	96.19
381.057	106.19
381.282	100.19
381.507	103.19
381.733	88.19
381.958	104.19
382.184	96.19
382.409	105.19
382.634	101.19
382.86	103.19
383.085	92.19
383.31	106.19
383.535	98.19
383.761	103.19
383.986	99.19
384.211	104.19
384.436	105.19
384.662	106.19
384.887	95.19
385.112	94.19
385.337	112.19
385.562	114.19
385.787	110.19
386.013	115.19
386.238	115.19
386.463	112.19
386.688	111.19
386.913	102.19
387.138	104.19
387.363	122.19
387.588	109.19
387.813	111.19
388.038	110.19
388.263	121.19
388.488	109.19
388.713	92.19
388.938	90.19
389.163	88.19
389.387	89.19
389.612	98.19
389.837	90.19
390.062	88.19
390.287	93.19
390.512	82.19
390.736	88.19
390.961	85.19
391.186	94.19
391.411	87.19
391.636	100.19
391.86	71.19
392.085	90.19
392.31	97.19
392.534	84.19
392.759	94.19
392.984	73.19
393.208	92.19
393.433	94.19
393.658	102.19
393.882	86.19
394.107	79.19
394.331	96.19
394.556	73.19
394.78	76.19
395.005	92.19
395.229	93.19
395.454	86.19
395.678	83.19
395.903	82.19
396.127	85.19
396.352	103.19
396.576	81.19
396.801	84.19
397.025	93.19
397.249	98.19
397.474	85.19
397.698	85.19
397.922	92.19
398.147	89.19
398.371	85.19
398.595	88.19
398.82	95.19
399.044	81.19
399.268	88.19
399.492	94.19
399.717	83.19
399.941	86.19
400.165	91.19
400.389	85.19
400.613	86.19
400.837	82.19
401.062	85.19
401.286	86.19
401.51	80.19
401.734	93.19
401.958	97.19
402.182	134.19
402.406	186.19
402.63	141.19
402.854	91.19
403.078	97.19
403.302	81.19
403.526	86.19
403.75	78.19
403.974	79.19
404.198	65.19
404.422	90.19
404.645	92.19
404.869	95.19
405.093	103.19
405.317	96.19
405.541	102.19
405.765	90.19
405.988	132.19
406.212	191.19
406.436	271.19
406.66	168.19
406.883	95.19
407.107	87.19
407.331	101.19
407.555	102.19
407.778	100.19
408.002	104.19
408.226	98.19
408.449	88.19
408.673	99.19
408.896	85.19
409.12	103.19
409.344	87.19
409.567	92.19
409.791	89.19
410.014	89.19
410.238	105.19
410.461	97.19
410.685	102.19
410.908	79.19
411.132	81.19
411.355	93.19
411.578	88.19
411.802	99.19
412.025	88.19
412.249	92.19
412.472	91.19
412.695	92.19
412.919	96.19
413.142	74.19
413.365	101.19
413.589	73.19
413.812	78.19
414.035	93.19
414.258	83.19
414.482	92.19
414.705	79.19
414.928	82.19
415.151	99.19
415.374	87.19
415.597	75.19
415.821	90.19
416.044	78.19
416.267	91.19
416.49	91.19
416.713	91.19
416.936	91.19
417.159	84.19
417.382	105.19
417.605	79.19
417.828	86.19
418.051	87.19
418.274	90.19
418.497	89.19
418.72	82.19
418.943	89.19
419.166	80.19
419.389	80.19
419.611	86.19
419.834	91.19
420.057	86.19
420.28	73.19
420.503	83.19
420.726	96.19
420.948	91.19
421.171	96.19
421.394	83.19
421.617	94.19
421.839	78.19
422.062	77.19
422.285	97.19
422.507	88.19
422.73	109.19
422.953	100.19
423.175	97.19
423.398	78.19
423.621	81.19
423.843	68.19
424.066	88.19
424.288	94.19
424.511	96.19
424.733	86.19
424.956	96.19
425.178	102.19
425.401	98.19
425.623	89.19
425.846	84.19
426.068	88.19
426.291	91.19
426.513	92.19
426.735	86.19
426.958	92.19
427.18	95.19
427.402	132.19
427.625	198.19
427.847	146.19
428.069	103.19
428.292	102.19
428.514	91.19
428.736	86.19
428.958	88.19
429.181	81.19
429.403	83.19
429.625	93.19
429.847	97.19
430.069	100.19
430.292	66.19
430.514	83.19
430.736	75.19
430.958	78.19
431.18	83.19
431.402	100.19
431.624	75.19
431.846	84.19
432.068	78.19
432.29	81.19
432.512	84.19
432.734	85.19
432.956	77.19
433.178	111.19
433.4	87.19
433.622	96.19
433.844	87.19
434.066	95.19
434.287	90.19
434.509	99.19
434.731	90.19
434.953	74.19
435.175	84.19
435.397	84.19
435.618	87.19
435.84	104.19
436.062	122.19
436.284	99.19
436.505	93.19
436.727	106.19
436.949	86.19
437.17	100.19
437.392	95.19
437.614	93.19
437.835	121.19
438.057	138.19
438.278	104.19
438.5	103.19
438.721	123.19
438.943	91.19
439.165	91.19
439.386	91.19
439.608	105.19
439.829	98.19
440.05	139.19
440.272	158.19
440.493	97.19
440.715	99.19
440.936	92.19
441.158	84.19
441.379	92.19
441.6	95.19
441.822	81.19
442.043	95.19
442.264	102.19
442.486	101.19
442.707	83.19
442.928	98.19
443.149	145.19
443.371	143.19
443.592	113.19
443.813	121.19
444.034	125.19
444.255	93.19
444.476	94.19
444.698	82.19
444.919	94.19
445.14	123.19
445.361	123.19
445.582	122.19
445.803	142.19
446.024	139.19
446.245	126.19
446.466	108.19
446.687	87.19
446.908	81.19
447.129	92.19
447.35	86.19
447.571	93.19
447.792	92.19
448.013	92.19
448.234	118.19
448.455	102.19
448.675	104.19
448.896	130.19
449.117	112.19
449.338	92.19
449.559	129.19
449.779	145.19
450	91.19
450.221	81.19
450.442	88.19
450.662	93.19
450.883	119.19
451.104	131.19
451.324	92.19
451.545	78.19
451.766	85.19
451.986	83.19
452.207	80.19
452.428	96.19
452.648	102.19
452.869	112.19
453.089	131.19
453.31	135.19
453.53	87.19
453.751	94.19
453.971	100.19
454.192	115.19
454.412	104.19
454.633	83.19
454.853	87.19
455.073	75.19
455.294	92.19
455.514	93.19
455.734	94.19
455.955	77.19
456.175	78.19
456.395	81.19
456.616	90.19
456.836	83.19
457.056	85.19
457.276	76.19
457.497	99.19
457.717	95.19
457.937	83.19
458.157	90.19
458.377	99.19
458.598	112.19
458.818	171.19
459.038	190.19
459.258	125.19
459.478	104.19
459.698	85.19
459.918	84.19
460.138	84.19
460.358	73.19
460.578	80.19
460.798	92.19
461.018	93.19
461.238	75.19
461.458	95.19
461.678	76.19
461.898	87.19
462.118	79.19
462.338	92.19
462.558	87.19
462.777	74.19
462.997	79.19
463.217	88.19
463.437	79.19
463.657	95.19
463.876	88.19
464.096	88.19
464.316	86.19
464.536	107.19
464.755	89.19
464.975	106.19
465.195	190.19
465.414	172.19
465.634	90.19
465.854	96.19
466.073	90.19
466.293	71.19
466.512	80.19
466.732	85.19
466.951	93.19
467.171	93.19
467.391	92.19
467.61	103.19
467.829	103.19
468.049	93.19
468.268	104.19
468.488	88.19
468.707	80.19
468.927	81.19
469.146	76.19
469.365	87.19
469.585	93.19
469.804	108.19
470.023	101.19
470.243	96.19
470.462	107.19
470.681	122.19
470.901	95.19
471.12	76.19
471.339	76.19
471.558	96.19
471.777	61.19
471.997	96.19
472.216	108.19
472.435	124.19
472.654	88.19
472.873	71.19
473.092	86.19
473.311	77.19
473.53	83.19
473.749	96.19
473.968	87.19
474.187	104.19
474.406	92.19
474.625	95.19
474.844	91.19
475.063	72.19
475.282	87.19
475.501	92.19
475.72	92.19
475.939	82.19
476.158	80.19
476.377	93.19
476.596	96.19
476.814	92.19
477.033	91.19
477.252	95.19
477.471	73.19
477.69	92.19
477.908	83.19
478.127	73.19
478.346	94.19
478.564	96.19
478.783	103.19
479.002	96.19
479.22	103.19
479.439	94.19
479.658	93.19
479.876	101.19
480.095	81.19
480.313	91.19
480.532	78.19
480.751	91.19
480.969	115.19
481.188	181.19
481.406	148.19
481.624	96.19
481.843	82.19
482.061	92.19
482.28	77.19
482.498	87.19
482.717	78.19
482.935	83.19
483.153	91.19
483.372	95.19
483.59	88.19
483.808	77.19
484.027	80.19
484.245	69.19
484.463	97.19
484.681	93.19
484.9	97.19
485.118	94.19
485.336	102.19
485.554	95.19
485.772	104.19
485.99	96.19
486.209	89.19
486.427	96.19
486.645	117.19
486.863	106.19
487.081	93.19
487.299	102.19
487.517	94.19
487.735	76.19
487.953	102.19
488.171	87.19
488.389	103.19
488.607	96.19
488.825	96.19
489.043	88.19
489.261	90.19
489.479	82.19
489.696	78.19
489.914	105.19
490.132	81.19
490.35	95.19
490.568	88.19
490.786	76.19
491.003	85.19
491.221	90.19
491.439	79.19
491.657	88.19
491.874	90.19
492.092	86.19
492.31	88.19
492.527	107.19
492.745	90.19
492.963	93.19
493.18	101.19
493.398	90.19
493.615	77.19
493.833	79.19
494.05	72.19
494.268	89.19
494.485	79.19
494.703	86.19
494.92	80.19
495.138	79.19
495.355	95.19
495.573	77.19
495.79	82.19
496.008	95.19
496.225	99.19
496.442	78.19
496.66	87.19
496.877	94.19
497.094	99.19
497.312	89.19
497.529	86.19
497.746	106.19
497.963	83.19
498.181	98.19
498.398	103.19
498.615	107.19
498.832	82.19
499.049	85.19
499.267	92.19
499.484	74.19
499.701	82.19
499.918	87.19
500.135	97.19
500.352	87.19
500.569	80.19
500.786	81.19
501.003	75.19
501.22	96.19
501.437	79.19
501.654	96.19
501.871	113.19
502.088	98.19
502.305	87.19
502.522	89.19
502.739	79.19
502.956	83.19
503.172	88.19
503.389	85.19
503.606	110.19
503.823	109.19
504.04	98.19
504.256	96.19
504.473	97.19
504.69	87.19
504.907	94.19
505.123	101.19
505.34	89.19
505.557	88.19
505.773	96.19
505.99	95.19
506.207	92.19
506.423	91.19
506.64	93.19
506.856	93.19
507.073	72.19
507.289	86.19
507.506	89.19
507.722	109.19
507.939	117.19
508.155	94.19
508.372	112.19
508.588	93.19
508.805	104.19
509.021	97.19
509.238	98.19
509.454	98.19
509.67	114.19
509.887	122.19
510.103	146.19
510.319	253.19
510.536	987.19
510.752	3358.19
510.968	944.19
511.184	177.19
511.401	120.19
511.617	95.19
511.833	91.19
512.049	80.19
512.265	93.19
512.481	93.19
512.698	77.19
512.914	94.19
513.13	81.19
513.346	89.19
513.562	93.19
513.778	96.19
513.994	91.19
514.21	106.19
514.426	127.19
514.642	131.19
514.858	142.19
515.074	210.19
515.29	609.19
515.506	2162.19
515.721	763.19
