Data from Circ_2008_H10_HRD10591_00048.txt Node
Date: Wed Jan 03 10:17:05 EST 2024
User: Yrep
Spectrometer: HR+D1059
Trigger mode: 1
Integration Time (sec): 1.000000E-1
Scans to average: 1
Electric dark correction enabled: true
Nonlinearity correction enabled: false
Boxcar width: 0
XAxis mode: Wavelengths
Number of Pixels in Spectrum: 2048
>>>>>Begin Spectral Data<<<<<
223.165	-17.06
223.4	-17.06
223.635	-17.06
223.869	-22.06
224.104	-22.06
224.338	3.94
224.573	-20.06
224.808	-12.06
225.042	-2.06
225.277	-12.06
225.511	-8.06
225.746	10.94
225.98	-2.06
226.215	8.94
226.449	21.94
226.683	23.94
226.918	14.94
227.152	32.94
227.387	38.94
227.621	36.94
227.856	36.94
228.09	37.94
228.324	45.94
228.559	67.94
228.793	63.94
229.027	57.94
229.262	69.94
229.496	58.94
229.73	88.94
229.964	70.94
230.199	68.94
230.433	67.94
230.667	69.94
230.901	77.94
231.136	84.94
231.37	75.94
231.604	78.94
231.838	80.94
232.072	68.94
232.306	75.94
232.541	81.94
232.775	85.94
233.009	72.94
233.243	80.94
233.477	73.94
233.711	91.94
233.945	75.94
234.179	61.94
234.413	79.94
234.647	74.94
234.881	68.94
235.115	88.94
235.349	88.94
235.583	81.94
235.817	72.94
236.051	75.94
236.285	79.94
236.519	70.94
236.753	79.94
236.987	84.94
237.221	84.94
237.455	82.94
237.689	81.94
237.922	72.94
238.156	72.94
238.39	72.94
238.624	64.94
238.858	83.94
239.091	74.94
239.325	69.94
239.559	77.94
239.793	68.94
240.027	68.94
240.26	85.94
240.494	73.94
240.728	75.94
240.961	85.94
241.195	79.94
241.429	55.94
241.662	82.94
241.896	68.94
242.13	76.94
242.363	63.94
242.597	89.94
242.83	73.94
243.064	76.94
243.298	83.94
243.531	57.94
243.765	81.94
243.998	86.94
244.232	80.94
244.465	84.94
244.699	87.94
244.932	74.94
245.166	67.94
245.399	73.94
245.633	68.94
245.866	69.94
246.099	74.94
246.333	79.94
246.566	60.94
246.8	80.94
247.033	81.94
247.266	75.94
247.5	62.94
247.733	73.94
247.966	67.94
248.2	77.94
248.433	81.94
248.666	79.94
248.899	78.94
249.133	87.94
249.366	83.94
249.599	77.94
249.832	67.94
250.066	84.94
250.299	70.94
250.532	74.94
250.765	55.94
250.998	79.94
251.231	72.94
251.465	73.94
251.698	82.94
251.931	79.94
252.164	81.94
252.397	70.94
252.63	95.94
252.863	74.94
253.096	73.94
253.329	84.94
253.562	76.94
253.795	80.94
254.028	62.94
254.261	87.94
254.494	89.94
254.727	81.94
254.96	78.94
255.193	74.94
255.426	77.94
255.659	78.94
255.892	77.94
256.124	80.94
256.357	72.94
256.59	90.94
256.823	68.94
257.056	81.94
257.289	74.94
257.521	76.94
257.754	72.94
257.987	83.94
258.22	71.94
258.452	92.94
258.685	67.94
258.918	80.94
259.151	71.94
259.383	72.94
259.616	77.94
259.849	82.94
260.081	78.94
260.314	67.94
260.547	92.94
260.779	87.94
261.012	89.94
261.244	88.94
261.477	96.94
261.71	100.94
261.942	102.94
262.175	112.94
262.407	89.94
262.64	70.94
262.872	78.94
263.105	78.94
263.337	78.94
263.57	78.94
263.802	80.94
264.035	79.94
264.267	72.94
264.499	85.94
264.732	83.94
264.964	81.94
265.197	79.94
265.429	78.94
265.661	78.94
265.894	76.94
266.126	83.94
266.358	86.94
266.591	77.94
266.823	75.94
267.055	80.94
267.287	75.94
267.52	89.94
267.752	87.94
267.984	75.94
268.216	66.94
268.448	81.94
268.681	66.94
268.913	78.94
269.145	76.94
269.377	73.94
269.609	74.94
269.841	93.94
270.073	71.94
270.306	78.94
270.538	77.94
270.77	81.94
271.002	89.94
271.234	75.94
271.466	71.94
271.698	83.94
271.93	85.94
272.162	85.94
272.394	89.94
272.626	94.94
272.858	85.94
273.09	94.94
273.322	81.94
273.553	85.94
273.785	80.94
274.017	71.94
274.249	100.94
274.481	67.94
274.713	87.94
274.945	84.94
275.176	85.94
275.408	65.94
275.64	77.94
275.872	81.94
276.104	99.94
276.335	80.94
276.567	87.94
276.799	113.94
277.031	93.94
277.262	92.94
277.494	77.94
277.726	81.94
277.957	75.94
278.189	84.94
278.421	85.94
278.652	72.94
278.884	89.94
279.115	77.94
279.347	77.94
279.579	80.94
279.81	85.94
280.042	76.94
280.273	92.94
280.505	87.94
280.736	88.94
280.968	83.94
281.199	78.94
281.431	83.94
281.662	82.94
281.894	91.94
282.125	103.94
282.356	117.94
282.588	144.94
282.819	94.94
283.051	91.94
283.282	81.94
283.513	89.94
283.745	83.94
283.976	81.94
284.207	78.94
284.439	97.94
284.67	87.94
284.901	81.94
285.132	73.94
285.364	87.94
285.595	65.94
285.826	83.94
286.057	72.94
286.288	96.94
286.52	90.94
286.751	86.94
286.982	93.94
287.213	84.94
287.444	85.94
287.675	84.94
287.906	89.94
288.138	78.94
288.369	94.94
288.6	90.94
288.831	89.94
289.062	83.94
289.293	81.94
289.524	79.94
289.755	71.94
289.986	77.94
290.217	83.94
290.448	83.94
290.679	84.94
290.91	79.94
291.141	80.94
291.371	88.94
291.602	86.94
291.833	90.94
292.064	86.94
292.295	90.94
292.526	99.94
292.757	91.94
292.987	90.94
293.218	76.94
293.449	77.94
293.68	96.94
293.91	88.94
294.141	94.94
294.372	90.94
294.603	89.94
294.833	95.94
295.064	76.94
295.295	81.94
295.525	99.94
295.756	94.94
295.987	116.94
296.217	113.94
296.448	119.94
296.679	94.94
296.909	85.94
297.14	87.94
297.37	84.94
297.601	77.94
297.831	84.94
298.062	73.94
298.292	81.94
298.523	70.94
298.753	87.94
298.984	80.94
299.214	85.94
299.445	100.94
299.675	96.94
299.905	86.94
300.136	87.94
300.366	94.94
300.597	88.94
300.827	94.94
301.057	92.94
301.288	90.94
301.518	87.94
301.748	83.94
301.979	91.94
302.209	102.94
302.439	92.94
302.669	85.94
302.9	89.94
303.13	85.94
303.36	92.94
303.59	95.94
303.82	93.94
304.051	93.94
304.281	88.94
304.511	96.94
304.741	88.94
304.971	92.94
305.201	103.94
305.431	79.94
305.661	76.94
305.891	99.94
306.121	89.94
306.352	92.94
306.582	101.94
306.812	83.94
307.042	87.94
307.272	96.94
307.502	101.94
307.731	99.94
307.961	86.94
308.191	85.94
308.421	74.94
308.651	93.94
308.881	91.94
309.111	83.94
309.341	87.94
309.571	86.94
309.8	102.94
310.03	90.94
310.26	86.94
310.49	90.94
310.72	84.94
310.949	99.94
311.179	90.94
311.409	92.94
311.639	89.94
311.868	85.94
312.098	79.94
312.328	89.94
312.557	91.94
312.787	84.94
313.017	103.94
313.246	91.94
313.476	88.94
313.706	83.94
313.935	89.94
314.165	92.94
314.394	101.94
314.624	104.94
314.853	99.94
315.083	91.94
315.312	82.94
315.542	96.94
315.771	94.94
316.001	87.94
316.23	89.94
316.46	87.94
316.689	85.94
316.919	91.94
317.148	94.94
317.377	92.94
317.607	86.94
317.836	96.94
318.065	84.94
318.295	83.94
318.524	84.94
318.753	95.94
318.983	96.94
319.212	93.94
319.441	111.94
319.67	96.94
319.9	96.94
320.129	94.94
320.358	94.94
320.587	87.94
320.816	99.94
321.046	97.94
321.275	104.94
321.504	84.94
321.733	99.94
321.962	85.94
322.191	103.94
322.42	99.94
322.649	93.94
322.878	107.94
323.108	99.94
323.337	110.94
323.566	143.94
323.795	128.94
324.024	176.94
324.253	349.94
324.482	665.94
324.71	1328.94
324.939	1733.94
325.168	671.94
325.397	197.94
325.626	146.94
325.855	115.94
326.084	112.94
326.313	124.94
326.542	129.94
326.77	203.94
326.999	376.94
327.228	736.94
327.457	1284.94
327.686	1057.94
327.914	313.94
328.143	186.94
328.372	158.94
328.6	122.94
328.829	103.94
329.058	125.94
329.287	110.94
329.515	109.94
329.744	109.94
329.972	117.94
330.201	132.94
330.43	145.94
330.658	131.94
330.887	134.94
331.115	122.94
331.344	83.94
331.572	88.94
331.801	99.94
332.03	88.94
332.258	105.94
332.486	81.94
332.715	87.94
332.943	88.94
333.172	84.94
333.4	93.94
333.629	119.94
333.857	121.94
334.085	124.94
334.314	137.94
334.542	164.94
334.771	152.94
334.999	110.94
335.227	92.94
335.455	81.94
335.684	84.94
335.912	101.94
336.14	91.94
336.369	83.94
336.597	91.94
336.825	95.94
337.053	92.94
337.281	89.94
337.51	91.94
337.738	92.94
337.966	109.94
338.194	90.94
338.422	102.94
338.65	90.94
338.878	71.94
339.106	74.94
339.334	85.94
339.562	85.94
339.79	90.94
340.018	72.94
340.246	89.94
340.474	84.94
340.702	98.94
340.93	101.94
341.158	78.94
341.386	100.94
341.614	90.94
341.842	90.94
342.07	86.94
342.298	94.94
342.526	93.94
342.754	77.94
342.981	91.94
343.209	83.94
343.437	105.94
343.665	103.94
343.893	85.94
344.12	92.94
344.348	81.94
344.576	93.94
344.804	80.94
345.031	116.94
345.259	96.94
345.487	98.94
345.714	102.94
345.942	95.94
346.17	92.94
346.397	81.94
346.625	82.94
346.853	97.94
347.08	81.94
347.308	101.94
347.535	93.94
347.763	97.94
347.99	96.94
348.218	103.94
348.445	96.94
348.673	81.94
348.9	88.94
349.128	95.94
349.355	82.94
349.583	89.94
349.81	100.94
350.037	82.94
350.265	98.94
350.492	74.94
350.72	83.94
350.947	87.94
351.174	109.94
351.402	95.94
351.629	96.94
351.856	89.94
352.083	90.94
352.311	94.94
352.538	105.94
352.765	96.94
352.992	98.94
353.22	112.94
353.447	96.94
353.674	108.94
353.901	101.94
354.128	97.94
354.355	95.94
354.583	100.94
354.81	85.94
355.037	83.94
355.264	85.94
355.491	88.94
355.718	88.94
355.945	88.94
356.172	87.94
356.399	86.94
356.626	102.94
356.853	84.94
357.08	98.94
357.307	93.94
357.534	88.94
357.761	85.94
357.988	96.94
358.215	83.94
358.441	88.94
358.668	75.94
358.895	90.94
359.122	85.94
359.349	88.94
359.576	91.94
359.802	97.94
360.029	112.94
360.256	107.94
360.483	93.94
360.709	83.94
360.936	81.94
361.163	84.94
361.39	90.94
361.616	87.94
361.843	85.94
362.07	89.94
362.296	79.94
362.523	86.94
362.749	95.94
362.976	87.94
363.203	91.94
363.429	94.94
363.656	87.94
363.882	87.94
364.109	79.94
364.335	86.94
364.562	89.94
364.788	78.94
365.015	81.94
365.241	81.94
365.468	105.94
365.694	110.94
365.92	76.94
366.147	81.94
366.373	90.94
366.599	100.94
366.826	82.94
367.052	87.94
367.278	72.94
367.505	82.94
367.731	81.94
367.957	68.94
368.184	96.94
368.41	93.94
368.636	102.94
368.862	112.94
369.089	109.94
369.315	90.94
369.541	98.94
369.767	88.94
369.993	92.94
370.219	93.94
370.445	90.94
370.672	78.94
370.898	85.94
371.124	87.94
371.35	83.94
371.576	89.94
371.802	90.94
372.028	76.94
372.254	104.94
372.48	90.94
372.706	91.94
372.932	78.94
373.158	85.94
373.384	86.94
373.61	85.94
373.835	84.94
374.061	84.94
374.287	87.94
374.513	85.94
374.739	74.94
374.965	77.94
375.191	73.94
375.416	92.94
375.642	87.94
375.868	96.94
376.094	99.94
376.319	74.94
376.545	100.94
376.771	84.94
376.997	102.94
377.222	83.94
377.448	94.94
377.674	76.94
377.899	87.94
378.125	89.94
378.35	86.94
378.576	106.94
378.802	86.94
379.027	91.94
379.253	87.94
379.478	89.94
379.704	81.94
379.929	85.94
380.155	85.94
380.38	93.94
380.606	100.94
380.831	94.94
381.057	92.94
381.282	95.94
381.507	84.94
381.733	91.94
381.958	89.94
382.184	93.94
382.409	90.94
382.634	89.94
382.86	94.94
383.085	100.94
383.31	96.94
383.535	102.94
383.761	98.94
383.986	106.94
384.211	128.94
384.436	108.94
384.662	109.94
384.887	112.94
385.112	102.94
385.337	96.94
385.562	84.94
385.787	88.94
386.013	97.94
386.238	117.94
386.463	103.94
386.688	115.94
386.913	107.94
387.138	94.94
387.363	78.94
387.588	97.94
387.813	105.94
388.038	96.94
388.263	100.94
388.488	114.94
388.713	90.94
388.938	103.94
389.163	87.94
389.387	92.94
389.612	84.94
389.837	89.94
390.062	95.94
390.287	74.94
390.512	88.94
390.736	83.94
390.961	85.94
391.186	92.94
391.411	90.94
391.636	87.94
391.86	90.94
392.085	88.94
392.31	79.94
392.534	89.94
392.759	99.94
392.984	86.94
393.208	91.94
393.433	80.94
393.658	80.94
393.882	71.94
394.107	84.94
394.331	85.94
394.556	84.94
394.78	84.94
395.005	69.94
395.229	89.94
395.454	79.94
395.678	87.94
395.903	95.94
396.127	84.94
396.352	87.94
396.576	85.94
396.801	82.94
397.025	100.94
397.249	80.94
397.474	83.94
397.698	76.94
397.922	82.94
398.147	88.94
398.371	91.94
398.595	71.94
398.82	102.94
399.044	83.94
399.268	100.94
399.492	85.94
399.717	93.94
399.941	76.94
400.165	94.94
400.389	89.94
400.613	90.94
400.837	85.94
401.062	80.94
401.286	81.94
401.51	96.94
401.734	98.94
401.958	98.94
402.182	124.94
402.406	154.94
402.63	111.94
402.854	93.94
403.078	77.94
403.302	85.94
403.526	88.94
403.75	90.94
403.974	88.94
404.198	90.94
404.422	77.94
404.645	76.94
404.869	84.94
405.093	89.94
405.317	95.94
405.541	92.94
405.765	99.94
405.988	117.94
406.212	172.94
406.436	210.94
406.66	151.94
406.883	95.94
407.107	86.94
407.331	79.94
407.555	90.94
407.778	97.94
408.002	93.94
408.226	80.94
408.449	76.94
408.673	93.94
408.896	77.94
409.12	97.94
409.344	90.94
409.567	79.94
409.791	95.94
410.014	93.94
410.238	88.94
410.461	79.94
410.685	93.94
410.908	87.94
411.132	89.94
411.355	82.94
411.578	81.94
411.802	78.94
412.025	78.94
412.249	76.94
412.472	101.94
412.695	87.94
412.919	81.94
413.142	98.94
413.365	93.94
413.589	75.94
413.812	79.94
414.035	90.94
414.258	80.94
414.482	89.94
414.705	89.94
414.928	87.94
415.151	93.94
415.374	79.94
415.597	75.94
415.821	90.94
416.044	80.94
416.267	98.94
416.49	81.94
416.713	87.94
416.936	96.94
417.159	87.94
417.382	74.94
417.605	85.94
417.828	85.94
418.051	91.94
418.274	109.94
418.497	67.94
418.72	78.94
418.943	79.94
419.166	76.94
419.389	70.94
419.611	92.94
419.834	72.94
420.057	85.94
420.28	99.94
420.503	79.94
420.726	84.94
420.948	87.94
421.171	89.94
421.394	88.94
421.617	86.94
421.839	84.94
422.062	89.94
422.285	83.94
422.507	100.94
422.73	102.94
422.953	85.94
423.175	81.94
423.398	95.94
423.621	88.94
423.843	90.94
424.066	81.94
424.288	91.94
424.511	94.94
424.733	84.94
424.956	106.94
425.178	91.94
425.401	91.94
425.623	99.94
425.846	75.94
426.068	86.94
426.291	81.94
426.513	95.94
426.735	93.94
426.958	92.94
427.18	87.94
427.402	137.94
427.625	163.94
427.847	115.94
428.069	104.94
428.292	91.94
428.514	84.94
428.736	108.94
428.958	82.94
429.181	89.94
429.403	78.94
429.625	83.94
429.847	67.94
430.069	84.94
430.292	85.94
430.514	80.94
430.736	86.94
430.958	94.94
431.18	81.94
431.402	77.94
431.624	72.94
431.846	88.94
432.068	85.94
432.29	77.94
432.512	91.94
432.734	75.94
432.956	88.94
433.178	87.94
433.4	92.94
433.622	79.94
433.844	74.94
434.066	90.94
434.287	76.94
434.509	83.94
434.731	88.94
434.953	77.94
435.175	80.94
435.397	78.94
435.618	89.94
435.84	81.94
436.062	100.94
436.284	99.94
436.505	105.94
436.727	108.94
436.949	99.94
437.17	84.94
437.392	83.94
437.614	86.94
437.835	100.94
438.057	101.94
438.278	107.94
438.5	96.94
438.721	108.94
438.943	108.94
439.165	88.94
439.386	82.94
439.608	93.94
439.829	93.94
440.05	108.94
440.272	118.94
440.493	94.94
440.715	84.94
440.936	70.94
441.158	88.94
441.379	86.94
441.6	80.94
441.822	78.94
442.043	73.94
442.264	91.94
442.486	96.94
442.707	95.94
442.928	90.94
443.149	108.94
443.371	111.94
443.592	111.94
443.813	97.94
444.034	95.94
444.255	85.94
444.476	101.94
444.698	96.94
444.919	98.94
445.14	130.94
445.361	111.94
445.582	109.94
445.803	103.94
446.024	116.94
446.245	112.94
446.466	103.94
446.687	93.94
446.908	90.94
447.129	94.94
447.35	100.94
447.571	85.94
447.792	104.94
448.013	97.94
448.234	111.94
448.455	92.94
448.675	110.94
448.896	86.94
449.117	87.94
449.338	87.94
449.559	100.94
449.779	132.94
450	88.94
450.221	75.94
450.442	84.94
450.662	94.94
450.883	103.94
451.104	116.94
451.324	94.94
451.545	79.94
451.766	81.94
451.986	87.94
452.207	86.94
452.428	93.94
452.648	91.94
452.869	108.94
453.089	117.94
453.31	126.94
453.53	90.94
453.751	88.94
453.971	85.94
454.192	110.94
454.412	98.94
454.633	75.94
454.853	84.94
455.073	84.94
455.294	84.94
455.514	94.94
455.734	81.94
455.955	81.94
456.175	80.94
456.395	89.94
456.616	86.94
456.836	76.94
457.056	80.94
457.276	78.94
457.497	97.94
457.717	75.94
457.937	79.94
458.157	81.94
458.377	76.94
458.598	100.94
458.818	147.94
459.038	144.94
459.258	118.94
459.478	88.94
459.698	78.94
459.918	80.94
460.138	78.94
460.358	87.94
460.578	73.94
460.798	79.94
461.018	89.94
461.238	81.94
461.458	99.94
461.678	81.94
461.898	81.94
462.118	84.94
462.338	79.94
462.558	81.94
462.777	76.94
462.997	95.94
463.217	89.94
463.437	88.94
463.657	103.94
463.876	93.94
464.096	81.94
464.316	78.94
464.536	71.94
464.755	78.94
464.975	106.94
465.195	152.94
465.414	149.94
465.634	99.94
465.854	78.94
466.073	94.94
466.293	81.94
466.512	73.94
466.732	90.94
466.951	87.94
467.171	93.94
467.391	80.94
467.61	98.94
467.829	85.94
468.049	113.94
468.268	109.94
468.488	83.94
468.707	93.94
468.927	88.94
469.146	68.94
469.365	84.94
469.585	78.94
469.804	85.94
470.023	88.94
470.243	80.94
470.462	96.94
470.681	108.94
470.901	82.94
471.12	89.94
471.339	97.94
471.558	92.94
471.777	88.94
471.997	100.94
472.216	139.94
472.435	191.94
472.654	99.94
472.873	97.94
473.092	92.94
473.311	70.94
473.53	83.94
473.749	81.94
473.968	91.94
474.187	85.94
474.406	88.94
474.625	76.94
474.844	87.94
475.063	86.94
475.282	87.94
475.501	85.94
475.72	84.94
475.939	80.94
476.158	93.94
476.377	88.94
476.596	78.94
476.814	86.94
477.033	89.94
477.252	86.94
477.471	84.94
477.69	67.94
477.908	80.94
478.127	69.94
478.346	89.94
478.564	86.94
478.783	102.94
479.002	86.94
479.22	82.94
479.439	100.94
479.658	107.94
479.876	99.94
480.095	91.94
480.313	86.94
480.532	91.94
480.751	96.94
480.969	139.94
481.188	292.94
481.406	203.94
481.624	95.94
481.843	87.94
482.061	88.94
482.28	86.94
482.498	76.94
482.717	104.94
482.935	81.94
483.153	83.94
483.372	87.94
483.59	92.94
483.808	84.94
484.027	101.94
484.245	70.94
484.463	86.94
484.681	97.94
484.9	92.94
485.118	87.94
485.336	91.94
485.554	81.94
485.772	102.94
485.99	95.94
486.209	87.94
486.427	110.94
486.645	110.94
486.863	102.94
487.081	111.94
487.299	94.94
487.517	93.94
487.735	95.94
487.953	91.94
488.171	84.94
488.389	87.94
488.607	92.94
488.825	84.94
489.043	78.94
489.261	80.94
489.479	87.94
489.696	84.94
489.914	83.94
490.132	87.94
490.35	88.94
490.568	81.94
490.786	86.94
491.003	100.94
491.221	77.94
491.439	91.94
491.657	87.94
491.874	97.94
492.092	81.94
492.31	97.94
492.527	93.94
492.745	84.94
492.963	82.94
493.18	89.94
493.398	81.94
493.615	89.94
493.833	97.94
494.05	91.94
494.268	94.94
494.485	86.94
494.703	77.94
494.92	81.94
495.138	80.94
495.355	89.94
495.573	91.94
495.79	86.94
496.008	84.94
496.225	91.94
496.442	89.94
496.66	79.94
496.877	85.94
497.094	84.94
497.312	85.94
497.529	88.94
497.746	85.94
497.963	75.94
498.181	91.94
498.398	87.94
498.615	91.94
498.832	104.94
499.049	93.94
499.267	88.94
499.484	91.94
499.701	82.94
499.918	73.94
500.135	80.94
500.352	91.94
500.569	86.94
500.786	94.94
501.003	88.94
501.22	96.94
501.437	103.94
501.654	96.94
501.871	94.94
502.088	96.94
502.305	84.94
502.522	89.94
502.739	78.94
502.956	96.94
503.172	79.94
503.389	80.94
503.606	97.94
503.823	94.94
504.04	84.94
504.256	84.94
504.473	92.94
504.69	89.94
504.907	94.94
505.123	86.94
505.34	85.94
505.557	67.94
505.773	79.94
505.99	86.94
506.207	90.94
506.423	80.94
506.64	89.94
506.856	83.94
507.073	77.94
507.289	89.94
507.506	85.94
507.722	94.94
507.939	106.94
508.155	79.94
508.372	86.94
508.588	84.94
508.805	106.94
509.021	82.94
509.238	94.94
509.454	94.94
509.67	93.94
509.887	94.94
510.103	124.94
510.319	204.94
510.536	748.94
510.752	2479.94
510.968	702.94
511.184	154.94
511.401	99.94
511.617	103.94
511.833	85.94
512.049	69.94
512.265	86.94
512.481	95.94
512.698	85.94
512.914	75.94
513.13	77.94
513.346	72.94
513.562	96.94
513.778	82.94
513.994	104.94
514.21	86.94
514.426	120.94
514.642	112.94
514.858	124.94
515.074	167.94
515.29	451.94
515.506	1495.94
515.721	541.94
515.937	138.94
516.153	98.94
516.369	79.94
516.585	79.94
516.801	97.94
517.016	105.94
