Data from Circ_2008_H10_HRD10591_00011.txt Node
Date: Wed Jan 03 10:16:58 EST 2024
User: Yrep
Spectrometer: HR+D1059
Trigger mode: 1
Integration Time (sec): 1.000000E-1
Scans to average: 1
Electric dark correction enabled: true
Nonlinearity correction enabled: false
Boxcar width: 0
XAxis mode: Wavelengths
Number of Pixels in Spectrum: 2048
>>>>>Begin Spectral Data<<<<<
223.165	-15.56
223.4	-15.56
223.635	-15.56
223.869	-10.56
224.104	-28.56
224.338	-19.56
224.573	-7.56
224.808	-7.56
225.042	-8.56
225.277	-2.56
225.511	-4.56
225.746	2.44
225.98	-0.56
226.215	7.44
226.449	17.44
226.683	15.44
226.918	23.44
227.152	39.44
227.387	36.44
227.621	34.44
227.856	43.44
228.09	50.44
228.324	47.44
228.559	56.44
228.793	63.44
229.027	57.44
229.262	79.44
229.496	70.44
229.73	76.44
229.964	83.44
230.199	89.44
230.433	77.44
230.667	74.44
230.901	76.44
231.136	75.44
231.37	76.44
231.604	80.44
231.838	76.44
232.072	94.44
232.306	84.44
232.541	62.44
232.775	79.44
233.009	74.44
233.243	80.44
233.477	82.44
233.711	77.44
233.945	75.44
234.179	64.44
234.413	71.44
234.647	75.44
234.881	83.44
235.115	62.44
235.349	83.44
235.583	85.44
235.817	80.44
236.051	95.44
236.285	67.44
236.519	70.44
236.753	86.44
236.987	68.44
237.221	88.44
237.455	91.44
237.689	73.44
237.922	81.44
238.156	80.44
238.39	76.44
238.624	75.44
238.858	71.44
239.091	62.44
239.325	73.44
239.559	83.44
239.793	84.44
240.027	77.44
240.26	73.44
240.494	84.44
240.728	74.44
240.961	86.44
241.195	74.44
241.429	76.44
241.662	71.44
241.896	73.44
242.13	83.44
242.363	76.44
242.597	66.44
242.83	75.44
243.064	79.44
243.298	77.44
243.531	83.44
243.765	79.44
243.998	83.44
244.232	76.44
244.465	78.44
244.699	90.44
244.932	71.44
245.166	57.44
245.399	72.44
245.633	68.44
245.866	72.44
246.099	85.44
246.333	79.44
246.566	72.44
246.8	83.44
247.033	78.44
247.266	88.44
247.5	79.44
247.733	80.44
247.966	84.44
248.2	81.44
248.433	94.44
248.666	68.44
248.899	75.44
249.133	82.44
249.366	97.44
249.599	98.44
249.832	87.44
250.066	90.44
250.299	73.44
250.532	81.44
250.765	83.44
250.998	81.44
251.231	81.44
251.465	80.44
251.698	85.44
251.931	72.44
252.164	76.44
252.397	83.44
252.63	75.44
252.863	82.44
253.096	88.44
253.329	82.44
253.562	81.44
253.795	74.44
254.028	81.44
254.261	93.44
254.494	78.44
254.727	82.44
254.96	67.44
255.193	96.44
255.426	90.44
255.659	86.44
255.892	85.44
256.124	83.44
256.357	83.44
256.59	73.44
256.823	85.44
257.056	72.44
257.289	100.44
257.521	88.44
257.754	92.44
257.987	78.44
258.22	88.44
258.452	77.44
258.685	83.44
258.918	92.44
259.151	82.44
259.383	79.44
259.616	77.44
259.849	70.44
260.081	91.44
260.314	72.44
260.547	86.44
260.779	70.44
261.012	75.44
261.244	76.44
261.477	83.44
261.71	101.44
261.942	124.44
262.175	121.44
262.407	95.44
262.64	88.44
262.872	89.44
263.105	84.44
263.337	90.44
263.57	76.44
263.802	84.44
264.035	76.44
264.267	79.44
264.499	78.44
264.732	83.44
264.964	79.44
265.197	87.44
265.429	86.44
265.661	88.44
265.894	82.44
266.126	82.44
266.358	75.44
266.591	89.44
266.823	75.44
267.055	91.44
267.287	78.44
267.52	82.44
267.752	82.44
267.984	84.44
268.216	73.44
268.448	84.44
268.681	82.44
268.913	79.44
269.145	91.44
269.377	92.44
269.609	85.44
269.841	80.44
270.073	91.44
270.306	91.44
270.538	96.44
270.77	66.44
271.002	90.44
271.234	89.44
271.466	85.44
271.698	84.44
271.93	102.44
272.162	79.44
272.394	91.44
272.626	97.44
272.858	80.44
273.09	76.44
273.322	94.44
273.553	90.44
273.785	84.44
274.017	81.44
274.249	85.44
274.481	80.44
274.713	78.44
274.945	72.44
275.176	89.44
275.408	92.44
275.64	88.44
275.872	80.44
276.104	84.44
276.335	95.44
276.567	95.44
276.799	113.44
277.031	100.44
277.262	103.44
277.494	89.44
277.726	83.44
277.957	87.44
278.189	94.44
278.421	80.44
278.652	80.44
278.884	96.44
279.115	89.44
279.347	83.44
279.579	95.44
279.81	96.44
280.042	81.44
280.273	97.44
280.505	71.44
280.736	66.44
280.968	87.44
281.199	75.44
281.431	84.44
281.662	94.44
281.894	97.44
282.125	98.44
282.356	132.44
282.588	168.44
282.819	127.44
283.051	94.44
283.282	100.44
283.513	94.44
283.745	92.44
283.976	91.44
284.207	75.44
284.439	81.44
284.67	78.44
284.901	81.44
285.132	80.44
285.364	78.44
285.595	84.44
285.826	88.44
286.057	93.44
286.288	79.44
286.52	62.44
286.751	95.44
286.982	84.44
287.213	81.44
287.444	73.44
287.675	76.44
287.906	75.44
288.138	90.44
288.369	100.44
288.6	85.44
288.831	94.44
289.062	92.44
289.293	87.44
289.524	98.44
289.755	91.44
289.986	80.44
290.217	100.44
290.448	93.44
290.679	81.44
290.91	91.44
291.141	84.44
291.371	88.44
291.602	91.44
291.833	88.44
292.064	98.44
292.295	87.44
292.526	94.44
292.757	85.44
292.987	99.44
293.218	88.44
293.449	94.44
293.68	97.44
293.91	91.44
294.141	100.44
294.372	91.44
294.603	79.44
294.833	90.44
295.064	91.44
295.295	81.44
295.525	98.44
295.756	105.44
295.987	120.44
296.217	140.44
296.448	157.44
296.679	104.44
296.909	79.44
297.14	90.44
297.37	94.44
297.601	88.44
297.831	95.44
298.062	98.44
298.292	101.44
298.523	81.44
298.753	84.44
298.984	94.44
299.214	83.44
299.445	95.44
299.675	102.44
299.905	102.44
300.136	94.44
300.366	74.44
300.597	89.44
300.827	97.44
301.057	111.44
301.288	100.44
301.518	96.44
301.748	96.44
301.979	112.44
302.209	83.44
302.439	87.44
302.669	91.44
302.9	90.44
303.13	109.44
303.36	86.44
303.59	104.44
303.82	114.44
304.051	80.44
304.281	103.44
304.511	106.44
304.741	80.44
304.971	84.44
305.201	98.44
305.431	82.44
305.661	100.44
305.891	96.44
306.121	101.44
306.352	95.44
306.582	125.44
306.812	100.44
307.042	107.44
307.272	101.44
307.502	94.44
307.731	87.44
307.961	96.44
308.191	90.44
308.421	89.44
308.651	91.44
308.881	89.44
309.111	91.44
309.341	93.44
309.571	114.44
309.8	116.44
310.03	113.44
310.26	98.44
310.49	73.44
310.72	103.44
310.949	101.44
311.179	104.44
311.409	103.44
311.639	111.44
311.868	98.44
312.098	95.44
312.328	99.44
312.557	100.44
312.787	108.44
313.017	118.44
313.246	82.44
313.476	89.44
313.706	112.44
313.935	102.44
314.165	103.44
314.394	101.44
314.624	102.44
314.853	97.44
315.083	89.44
315.312	94.44
315.542	97.44
315.771	106.44
316.001	93.44
316.23	81.44
316.46	103.44
316.689	88.44
316.919	103.44
317.148	96.44
317.377	86.44
317.607	101.44
317.836	92.44
318.065	88.44
318.295	78.44
318.524	83.44
318.753	96.44
318.983	92.44
319.212	115.44
319.441	107.44
319.67	120.44
319.9	95.44
320.129	92.44
320.358	89.44
320.587	91.44
320.816	80.44
321.046	102.44
321.275	89.44
321.504	111.44
321.733	107.44
321.962	99.44
322.191	95.44
322.42	104.44
322.649	125.44
322.878	105.44
323.108	118.44
323.337	115.44
323.566	147.44
323.795	170.44
324.024	236.44
324.253	462.44
324.482	967.44
324.71	2015.44
324.939	2652.44
325.168	1010.44
325.397	275.44
325.626	179.44
325.855	147.44
326.084	123.44
326.313	135.44
326.542	167.44
326.77	236.44
326.999	509.44
327.228	1056.44
327.457	1968.44
327.686	1596.44
327.914	422.44
328.143	229.44
328.372	166.44
328.6	132.44
328.829	128.44
329.058	140.44
329.287	143.44
329.515	120.44
329.744	108.44
329.972	102.44
330.201	102.44
330.43	124.44
330.658	130.44
330.887	159.44
331.115	142.44
331.344	113.44
331.572	97.44
331.801	103.44
332.03	115.44
332.258	96.44
332.486	99.44
332.715	95.44
332.943	94.44
333.172	92.44
333.4	97.44
333.629	121.44
333.857	126.44
334.085	108.44
334.314	109.44
334.542	114.44
334.771	121.44
334.999	112.44
335.227	100.44
335.455	93.44
335.684	100.44
335.912	88.44
336.14	97.44
336.369	106.44
336.597	103.44
336.825	84.44
337.053	98.44
337.281	88.44
337.51	84.44
337.738	100.44
337.966	94.44
338.194	100.44
338.422	96.44
338.65	91.44
338.878	90.44
339.106	98.44
339.334	98.44
339.562	94.44
339.79	79.44
340.018	88.44
340.246	90.44
340.474	80.44
340.702	90.44
340.93	77.44
341.158	109.44
341.386	93.44
341.614	105.44
341.842	95.44
342.07	87.44
342.298	88.44
342.526	93.44
342.754	93.44
342.981	88.44
343.209	92.44
343.437	89.44
343.665	84.44
343.893	76.44
344.12	95.44
344.348	76.44
344.576	94.44
344.804	101.44
345.031	97.44
345.259	103.44
345.487	83.44
345.714	93.44
345.942	100.44
346.17	99.44
346.397	93.44
346.625	97.44
346.853	96.44
347.08	87.44
347.308	98.44
347.535	88.44
347.763	99.44
347.99	109.44
348.218	106.44
348.445	120.44
348.673	103.44
348.9	104.44
349.128	80.44
349.355	95.44
349.583	94.44
349.81	96.44
350.037	88.44
350.265	97.44
350.492	103.44
350.72	104.44
350.947	114.44
351.174	109.44
351.402	121.44
351.629	117.44
351.856	90.44
352.083	108.44
352.311	107.44
352.538	109.44
352.765	117.44
352.992	134.44
353.22	119.44
353.447	98.44
353.674	107.44
353.901	88.44
354.128	93.44
354.355	87.44
354.583	104.44
354.81	96.44
355.037	103.44
355.264	90.44
355.491	84.44
355.718	92.44
355.945	84.44
356.172	74.44
356.399	103.44
356.626	92.44
356.853	91.44
357.08	99.44
357.307	107.44
357.534	87.44
357.761	95.44
357.988	101.44
358.215	83.44
358.441	96.44
358.668	101.44
358.895	90.44
359.122	102.44
359.349	102.44
359.576	97.44
359.802	96.44
360.029	128.44
360.256	125.44
360.483	97.44
360.709	88.44
360.936	89.44
361.163	94.44
361.39	107.44
361.616	90.44
361.843	80.44
362.07	103.44
362.296	93.44
362.523	98.44
362.749	91.44
362.976	80.44
363.203	91.44
363.429	89.44
363.656	74.44
363.882	92.44
364.109	73.44
364.335	93.44
364.562	105.44
364.788	86.44
365.015	97.44
365.241	97.44
365.468	107.44
365.694	98.44
365.92	89.44
366.147	110.44
366.373	74.44
366.599	89.44
366.826	85.44
367.052	88.44
367.278	97.44
367.505	90.44
367.731	95.44
367.957	99.44
368.184	79.44
368.41	94.44
368.636	113.44
368.862	126.44
369.089	121.44
369.315	109.44
369.541	94.44
369.767	86.44
369.993	88.44
370.219	90.44
370.445	88.44
370.672	93.44
370.898	81.44
371.124	83.44
371.35	95.44
371.576	69.44
371.802	97.44
372.028	73.44
372.254	87.44
372.48	84.44
372.706	81.44
372.932	88.44
373.158	87.44
373.384	84.44
373.61	90.44
373.835	91.44
374.061	102.44
374.287	90.44
374.513	95.44
374.739	91.44
374.965	89.44
375.191	97.44
375.416	83.44
375.642	89.44
375.868	97.44
376.094	90.44
376.319	98.44
376.545	74.44
376.771	88.44
376.997	91.44
377.222	87.44
377.448	72.44
377.674	99.44
377.899	94.44
378.125	93.44
378.35	82.44
378.576	98.44
378.802	87.44
379.027	94.44
379.253	88.44
379.478	88.44
379.704	99.44
379.929	96.44
380.155	95.44
380.38	84.44
380.606	99.44
380.831	96.44
381.057	97.44
381.282	91.44
381.507	99.44
381.733	102.44
381.958	94.44
382.184	118.44
382.409	106.44
382.634	97.44
382.86	115.44
383.085	97.44
383.31	121.44
383.535	122.44
383.761	112.44
383.986	102.44
384.211	91.44
384.436	114.44
384.662	119.44
384.887	100.44
385.112	111.44
385.337	127.44
385.562	116.44
385.787	116.44
386.013	122.44
386.238	134.44
386.463	114.44
386.688	134.44
386.913	120.44
387.138	117.44
387.363	119.44
387.588	119.44
387.813	98.44
388.038	121.44
388.263	135.44
388.488	115.44
388.713	96.44
388.938	93.44
389.163	102.44
389.387	107.44
389.612	100.44
389.837	107.44
390.062	82.44
390.287	98.44
390.512	97.44
390.736	81.44
390.961	89.44
391.186	105.44
391.411	92.44
391.636	105.44
391.86	94.44
392.085	89.44
392.31	80.44
392.534	100.44
392.759	99.44
392.984	95.44
393.208	104.44
393.433	154.44
393.658	127.44
393.882	91.44
394.107	88.44
394.331	92.44
394.556	83.44
394.78	69.44
395.005	92.44
395.229	94.44
395.454	98.44
395.678	81.44
395.903	84.44
396.127	92.44
396.352	91.44
396.576	88.44
396.801	92.44
397.025	108.44
397.249	94.44
397.474	87.44
397.698	90.44
397.922	91.44
398.147	92.44
398.371	88.44
398.595	95.44
398.82	79.44
399.044	80.44
399.268	95.44
399.492	96.44
399.717	99.44
399.941	79.44
400.165	91.44
400.389	85.44
400.613	78.44
400.837	88.44
401.062	87.44
401.286	108.44
401.51	90.44
401.734	84.44
401.958	109.44
402.182	132.44
402.406	183.44
402.63	126.44
402.854	99.44
403.078	85.44
403.302	99.44
403.526	90.44
403.75	81.44
403.974	92.44
404.198	79.44
404.422	95.44
404.645	87.44
404.869	89.44
405.093	98.44
405.317	92.44
405.541	100.44
405.765	98.44
405.988	134.44
406.212	196.44
406.436	286.44
406.66	168.44
406.883	117.44
407.107	89.44
407.331	91.44
407.555	114.44
407.778	80.44
408.002	100.44
408.226	95.44
408.449	87.44
408.673	81.44
408.896	91.44
409.12	96.44
409.344	77.44
409.567	85.44
409.791	80.44
410.014	99.44
410.238	91.44
410.461	89.44
410.685	96.44
410.908	99.44
411.132	101.44
411.355	112.44
411.578	97.44
411.802	79.44
412.025	101.44
412.249	89.44
412.472	89.44
412.695	97.44
412.919	86.44
413.142	74.44
413.365	82.44
413.589	84.44
413.812	74.44
414.035	88.44
414.258	91.44
414.482	78.44
414.705	79.44
414.928	85.44
415.151	91.44
415.374	95.44
415.597	92.44
415.821	95.44
416.044	95.44
416.267	84.44
416.49	84.44
416.713	91.44
416.936	107.44
417.159	88.44
417.382	90.44
417.605	95.44
417.828	103.44
418.051	102.44
418.274	96.44
418.497	94.44
418.72	81.44
418.943	79.44
419.166	100.44
419.389	92.44
419.611	89.44
419.834	83.44
420.057	97.44
420.28	81.44
420.503	98.44
420.726	97.44
420.948	87.44
421.171	86.44
421.394	100.44
421.617	87.44
421.839	76.44
422.062	86.44
422.285	89.44
422.507	108.44
422.73	120.44
422.953	102.44
423.175	84.44
423.398	89.44
423.621	80.44
423.843	91.44
424.066	90.44
424.288	86.44
424.511	91.44
424.733	87.44
424.956	109.44
425.178	102.44
425.401	107.44
425.623	91.44
425.846	91.44
426.068	84.44
426.291	82.44
426.513	100.44
426.735	102.44
426.958	110.44
427.18	106.44
427.402	131.44
427.625	195.44
427.847	153.44
428.069	121.44
428.292	92.44
428.514	86.44
428.736	89.44
428.958	77.44
429.181	78.44
429.403	88.44
429.625	90.44
429.847	103.44
430.069	99.44
430.292	91.44
430.514	103.44
430.736	80.44
430.958	77.44
431.18	69.44
431.402	93.44
431.624	84.44
431.846	81.44
432.068	83.44
432.29	80.44
432.512	80.44
432.734	92.44
432.956	100.44
433.178	100.44
433.4	103.44
433.622	82.44
433.844	81.44
434.066	83.44
434.287	87.44
434.509	88.44
434.731	90.44
434.953	92.44
435.175	71.44
435.397	105.44
435.618	94.44
435.84	100.44
436.062	128.44
436.284	112.44
436.505	92.44
436.727	103.44
436.949	98.44
437.17	99.44
437.392	98.44
437.614	102.44
437.835	112.44
438.057	115.44
438.278	108.44
438.5	94.44
438.721	108.44
438.943	105.44
439.165	94.44
439.386	100.44
439.608	86.44
439.829	106.44
440.05	136.44
440.272	150.44
440.493	107.44
440.715	94.44
440.936	98.44
441.158	88.44
441.379	81.44
441.6	87.44
441.822	108.44
442.043	97.44
442.264	102.44
442.486	97.44
442.707	102.44
442.928	120.44
443.149	158.44
443.371	133.44
443.592	127.44
443.813	121.44
444.034	106.44
444.255	91.44
444.476	94.44
444.698	81.44
444.919	78.44
445.14	110.44
445.361	126.44
445.582	126.44
445.803	168.44
446.024	138.44
446.245	144.44
446.466	113.44
446.687	78.44
446.908	84.44
447.129	83.44
447.35	97.44
447.571	90.44
447.792	104.44
448.013	96.44
448.234	113.44
448.455	108.44
448.675	108.44
448.896	109.44
449.117	104.44
449.338	110.44
449.559	124.44
449.779	120.44
450	95.44
450.221	98.44
450.442	104.44
450.662	92.44
450.883	109.44
451.104	122.44
451.324	92.44
451.545	80.44
451.766	82.44
451.986	72.44
452.207	84.44
452.428	95.44
452.648	110.44
452.869	120.44
453.089	134.44
453.31	126.44
453.53	94.44
453.751	82.44
453.971	116.44
454.192	109.44
454.412	110.44
454.633	88.44
454.853	82.44
455.073	91.44
455.294	88.44
455.514	94.44
455.734	88.44
455.955	70.44
456.175	83.44
456.395	74.44
456.616	88.44
456.836	90.44
457.056	114.44
457.276	91.44
457.497	80.44
457.717	76.44
457.937	100.44
458.157	82.44
458.377	98.44
458.598	108.44
458.818	175.44
459.038	200.44
459.258	124.44
459.478	96.44
459.698	87.44
459.918	86.44
460.138	86.44
460.358	89.44
460.578	78.44
460.798	82.44
461.018	100.44
461.238	100.44
461.458	67.44
461.678	86.44
461.898	90.44
462.118	99.44
462.338	86.44
462.558	96.44
462.777	90.44
462.997	81.44
463.217	91.44
463.437	81.44
463.657	89.44
463.876	85.44
464.096	83.44
464.316	102.44
464.536	101.44
464.755	95.44
464.975	121.44
465.195	200.44
465.414	176.44
465.634	97.44
465.854	92.44
466.073	95.44
466.293	92.44
466.512	88.44
466.732	103.44
466.951	87.44
467.171	93.44
467.391	106.44
467.61	105.44
467.829	99.44
468.049	106.44
468.268	98.44
468.488	83.44
468.707	96.44
468.927	76.44
469.146	80.44
469.365	84.44
469.585	93.44
469.804	102.44
470.023	104.44
470.243	92.44
470.462	111.44
470.681	120.44
470.901	100.44
471.12	86.44
471.339	87.44
471.558	83.44
471.777	75.44
471.997	83.44
472.216	94.44
472.435	114.44
472.654	104.44
472.873	88.44
473.092	79.44
473.311	85.44
473.53	77.44
473.749	100.44
473.968	83.44
474.187	88.44
474.406	98.44
474.625	82.44
474.844	85.44
475.063	91.44
475.282	86.44
475.501	85.44
475.72	78.44
475.939	82.44
476.158	94.44
476.377	84.44
476.596	91.44
476.814	100.44
477.033	93.44
477.252	71.44
477.471	88.44
477.69	80.44
477.908	91.44
478.127	90.44
478.346	88.44
478.564	92.44
478.783	103.44
479.002	87.44
479.22	91.44
479.439	96.44
479.658	114.44
479.876	92.44
480.095	81.44
480.313	89.44
480.532	98.44
480.751	101.44
480.969	105.44
481.188	146.44
481.406	122.44
481.624	89.44
481.843	82.44
482.061	83.44
482.28	72.44
482.498	88.44
482.717	77.44
482.935	96.44
483.153	76.44
483.372	97.44
483.59	82.44
483.808	91.44
484.027	91.44
484.245	99.44
484.463	98.44
484.681	97.44
484.9	96.44
485.118	84.44
485.336	89.44
485.554	97.44
485.772	85.44
485.99	88.44
486.209	108.44
486.427	90.44
486.645	111.44
486.863	105.44
487.081	98.44
487.299	102.44
487.517	98.44
487.735	100.44
487.953	93.44
488.171	82.44
488.389	99.44
488.607	95.44
488.825	80.44
489.043	88.44
489.261	89.44
489.479	85.44
489.696	102.44
489.914	98.44
490.132	90.44
490.35	95.44
490.568	88.44
490.786	81.44
491.003	88.44
491.221	87.44
491.439	89.44
491.657	97.44
491.874	90.44
492.092	98.44
492.31	93.44
492.527	93.44
492.745	72.44
492.963	95.44
493.18	90.44
493.398	92.44
493.615	99.44
493.833	94.44
494.05	98.44
494.268	87.44
494.485	91.44
494.703	77.44
494.92	88.44
495.138	85.44
495.355	83.44
495.573	93.44
495.79	76.44
496.008	90.44
496.225	96.44
496.442	96.44
496.66	99.44
496.877	95.44
497.094	90.44
497.312	78.44
497.529	97.44
497.746	96.44
497.963	90.44
498.181	82.44
498.398	112.44
498.615	133.44
498.832	109.44
499.049	94.44
499.267	96.44
499.484	87.44
499.701	79.44
499.918	93.44
500.135	90.44
500.352	82.44
500.569	97.44
500.786	99.44
501.003	89.44
501.22	91.44
501.437	92.44
501.654	93.44
501.871	101.44
502.088	108.44
502.305	86.44
502.522	92.44
502.739	91.44
502.956	87.44
503.172	88.44
503.389	100.44
503.606	113.44
503.823	105.44
504.04	87.44
504.256	102.44
504.473	99.44
504.69	91.44
504.907	102.44
505.123	80.44
505.34	99.44
505.557	97.44
505.773	88.44
505.99	90.44
506.207	98.44
506.423	91.44
506.64	88.44
506.856	96.44
507.073	91.44
507.289	98.44
507.506	97.44
507.722	115.44
507.939	118.44
508.155	98.44
508.372	102.44
508.588	95.44
508.805	99.44
509.021	101.44
509.238	113.44
509.454	105.44
509.67	98.44
509.887	110.44
510.103	160.44
510.319	237.44
510.536	989.44
510.752	3372.44
510.968	923.44
511.184	176.44
511.401	126.44
511.617	107.44
511.833	86.44
512.049	84.44
512.265	95.44
512.481	97.44
512.698	91.44
512.914	89.44
513.13	95.44
513.346	106.44
513.562	79.44
513.778	86.44
513.994	98.44
514.21	96.44
514.426	120.44
514.642	145.44
514.858	134.44
515.074	202.44
