Data from Circ_2008_H10_HRD10591_00094.txt Node
Date: Wed Jan 03 10:17:15 EST 2024
User: Yrep
Spectrometer: HR+D1059
Trigger mode: 1
Integration Time (sec): 1.000000E-1
Scans to average: 1
Electric dark correction enabled: true
Nonlinearity correction enabled: false
Boxcar width: 0
XAxis mode: Wavelengths
Number of Pixels in Spectrum: 2048
>>>>>Begin Spectral Data<<<<<
223.165	-17.75
223.4	-17.75
223.635	-17.75
223.869	-17.75
224.104	-21.75
224.338	-15.75
224.573	-16.75
224.808	-14.75
225.042	-14.75
225.277	-5.75
225.511	13.25
225.746	3.25
225.98	4.25
226.215	-1.75
226.449	16.25
226.683	16.25
226.918	36.25
227.152	37.25
227.387	22.25
227.621	33.25
227.856	34.25
228.09	63.25
228.324	47.25
228.559	63.25
228.793	51.25
229.027	56.25
229.262	64.25
229.496	75.25
229.73	89.25
229.964	100.25
230.199	75.25
230.433	80.25
230.667	73.25
230.901	68.25
231.136	75.25
231.37	66.25
231.604	64.25
231.838	83.25
232.072	102.25
232.306	81.25
232.541	91.25
232.775	88.25
233.009	73.25
233.243	84.25
233.477	81.25
233.711	96.25
233.945	81.25
234.179	81.25
234.413	70.25
234.647	83.25
234.881	83.25
235.115	71.25
235.349	83.25
235.583	74.25
235.817	77.25
236.051	85.25
236.285	72.25
236.519	70.25
236.753	86.25
236.987	90.25
237.221	84.25
237.455	89.25
237.689	88.25
237.922	82.25
238.156	81.25
238.39	68.25
238.624	70.25
238.858	88.25
239.091	82.25
239.325	82.25
239.559	86.25
239.793	85.25
240.027	79.25
240.26	68.25
240.494	70.25
240.728	64.25
240.961	73.25
241.195	78.25
241.429	80.25
241.662	82.25
241.896	86.25
242.13	66.25
242.363	86.25
242.597	72.25
242.83	81.25
243.064	88.25
243.298	80.25
243.531	84.25
243.765	73.25
243.998	83.25
244.232	89.25
244.465	64.25
244.699	74.25
244.932	83.25
245.166	76.25
245.399	82.25
245.633	64.25
245.866	83.25
246.099	72.25
246.333	81.25
246.566	71.25
246.8	96.25
247.033	74.25
247.266	71.25
247.5	72.25
247.733	80.25
247.966	80.25
248.2	79.25
248.433	74.25
248.666	82.25
248.899	76.25
249.133	86.25
249.366	91.25
249.599	98.25
249.832	87.25
250.066	74.25
250.299	68.25
250.532	85.25
250.765	74.25
250.998	81.25
251.231	82.25
251.465	74.25
251.698	86.25
251.931	84.25
252.164	73.25
252.397	82.25
252.63	86.25
252.863	83.25
253.096	78.25
253.329	78.25
253.562	82.25
253.795	95.25
254.028	85.25
254.261	67.25
254.494	58.25
254.727	71.25
254.96	79.25
255.193	89.25
255.426	88.25
255.659	76.25
255.892	94.25
256.124	82.25
256.357	76.25
256.59	71.25
256.823	80.25
257.056	76.25
257.289	73.25
257.521	84.25
257.754	72.25
257.987	87.25
258.22	84.25
258.452	84.25
258.685	75.25
258.918	79.25
259.151	61.25
259.383	80.25
259.616	79.25
259.849	76.25
260.081	80.25
260.314	83.25
260.547	78.25
260.779	64.25
261.012	84.25
261.244	90.25
261.477	103.25
261.71	93.25
261.942	111.25
262.175	119.25
262.407	103.25
262.64	97.25
262.872	87.25
263.105	80.25
263.337	82.25
263.57	84.25
263.802	73.25
264.035	81.25
264.267	90.25
264.499	85.25
264.732	97.25
264.964	73.25
265.197	82.25
265.429	89.25
265.661	78.25
265.894	92.25
266.126	88.25
266.358	75.25
266.591	84.25
266.823	93.25
267.055	72.25
267.287	89.25
267.52	71.25
267.752	87.25
267.984	91.25
268.216	75.25
268.448	91.25
268.681	88.25
268.913	88.25
269.145	82.25
269.377	74.25
269.609	87.25
269.841	75.25
270.073	89.25
270.306	65.25
270.538	63.25
270.77	79.25
271.002	96.25
271.234	97.25
271.466	82.25
271.698	78.25
271.93	78.25
272.162	75.25
272.394	82.25
272.626	90.25
272.858	75.25
273.09	75.25
273.322	94.25
273.553	98.25
273.785	89.25
274.017	89.25
274.249	81.25
274.481	71.25
274.713	67.25
274.945	89.25
275.176	83.25
275.408	92.25
275.64	82.25
275.872	96.25
276.104	92.25
276.335	90.25
276.567	95.25
276.799	111.25
277.031	97.25
277.262	84.25
277.494	93.25
277.726	99.25
277.957	87.25
278.189	78.25
278.421	99.25
278.652	76.25
278.884	90.25
279.115	81.25
279.347	79.25
279.579	87.25
279.81	102.25
280.042	107.25
280.273	97.25
280.505	101.25
280.736	83.25
280.968	82.25
281.199	93.25
281.431	86.25
281.662	88.25
281.894	104.25
282.125	102.25
282.356	137.25
282.588	157.25
282.819	112.25
283.051	95.25
283.282	94.25
283.513	92.25
283.745	90.25
283.976	89.25
284.207	85.25
284.439	82.25
284.67	94.25
284.901	91.25
285.132	89.25
285.364	82.25
285.595	79.25
285.826	101.25
286.057	92.25
286.288	80.25
286.52	91.25
286.751	90.25
286.982	92.25
287.213	89.25
287.444	92.25
287.675	96.25
287.906	99.25
288.138	107.25
288.369	92.25
288.6	87.25
288.831	82.25
289.062	83.25
289.293	92.25
289.524	98.25
289.755	84.25
289.986	84.25
290.217	96.25
290.448	84.25
290.679	91.25
290.91	74.25
291.141	71.25
291.371	83.25
291.602	88.25
291.833	90.25
292.064	88.25
292.295	95.25
292.526	96.25
292.757	96.25
292.987	75.25
293.218	79.25
293.449	83.25
293.68	77.25
293.91	107.25
294.141	96.25
294.372	90.25
294.603	89.25
294.833	79.25
295.064	75.25
295.295	80.25
295.525	104.25
295.756	111.25
295.987	136.25
296.217	149.25
296.448	124.25
296.679	95.25
296.909	91.25
297.14	91.25
297.37	81.25
297.601	72.25
297.831	86.25
298.062	98.25
298.292	95.25
298.523	88.25
298.753	94.25
298.984	97.25
299.214	83.25
299.445	99.25
299.675	111.25
299.905	91.25
300.136	89.25
300.366	79.25
300.597	98.25
300.827	94.25
301.057	104.25
301.288	109.25
301.518	91.25
301.748	96.25
301.979	101.25
302.209	96.25
302.439	88.25
302.669	91.25
302.9	84.25
303.13	79.25
303.36	95.25
303.59	111.25
303.82	107.25
304.051	90.25
304.281	102.25
304.511	88.25
304.741	93.25
304.971	94.25
305.201	90.25
305.431	95.25
305.661	92.25
305.891	100.25
306.121	111.25
306.352	100.25
306.582	113.25
306.812	98.25
307.042	88.25
307.272	105.25
307.502	111.25
307.731	121.25
307.961	88.25
308.191	95.25
308.421	80.25
308.651	89.25
308.881	104.25
309.111	97.25
309.341	99.25
309.571	108.25
309.8	105.25
310.03	115.25
310.26	88.25
310.49	84.25
310.72	95.25
310.949	109.25
311.179	96.25
311.409	97.25
311.639	96.25
311.868	94.25
312.098	89.25
312.328	94.25
312.557	98.25
312.787	106.25
313.017	94.25
313.246	94.25
313.476	98.25
313.706	112.25
313.935	89.25
314.165	94.25
314.394	93.25
314.624	106.25
314.853	80.25
315.083	88.25
315.312	93.25
315.542	89.25
315.771	84.25
316.001	93.25
316.23	86.25
316.46	85.25
316.689	96.25
316.919	93.25
317.148	105.25
317.377	106.25
317.607	104.25
317.836	91.25
318.065	87.25
318.295	80.25
318.524	83.25
318.753	97.25
318.983	91.25
319.212	103.25
319.441	107.25
319.67	92.25
319.9	88.25
320.129	96.25
320.358	88.25
320.587	82.25
320.816	109.25
321.046	108.25
321.275	106.25
321.504	108.25
321.733	106.25
321.962	103.25
322.191	105.25
322.42	108.25
322.649	122.25
322.878	102.25
323.108	120.25
323.337	112.25
323.566	128.25
323.795	164.25
324.024	195.25
324.253	379.25
324.482	796.25
324.71	1650.25
324.939	2190.25
325.168	810.25
325.397	247.25
325.626	144.25
325.855	123.25
326.084	111.25
326.313	110.25
326.542	151.25
326.77	229.25
326.999	467.25
327.228	918.25
327.457	1645.25
327.686	1350.25
327.914	374.25
328.143	221.25
328.372	207.25
328.6	159.25
328.829	127.25
329.058	136.25
329.287	127.25
329.515	118.25
329.744	123.25
329.972	136.25
330.201	216.25
330.43	263.25
330.658	194.25
330.887	154.25
331.115	131.25
331.344	107.25
331.572	94.25
331.801	111.25
332.03	89.25
332.258	91.25
332.486	74.25
332.715	83.25
332.943	100.25
333.172	111.25
333.4	100.25
333.629	118.25
333.857	120.25
334.085	161.25
334.314	227.25
334.542	335.25
334.771	321.25
334.999	135.25
335.227	91.25
335.455	107.25
335.684	93.25
335.912	94.25
336.14	90.25
336.369	95.25
336.597	97.25
336.825	99.25
337.053	100.25
337.281	89.25
337.51	74.25
337.738	99.25
337.966	89.25
338.194	96.25
338.422	109.25
338.65	97.25
338.878	95.25
339.106	83.25
339.334	91.25
339.562	87.25
339.79	96.25
340.018	74.25
340.246	105.25
340.474	93.25
340.702	102.25
340.93	96.25
341.158	98.25
341.386	80.25
341.614	90.25
341.842	91.25
342.07	88.25
342.298	92.25
342.526	89.25
342.754	88.25
342.981	97.25
343.209	94.25
343.437	91.25
343.665	74.25
343.893	93.25
344.12	78.25
344.348	76.25
344.576	92.25
344.804	95.25
345.031	94.25
345.259	103.25
345.487	88.25
345.714	102.25
345.942	83.25
346.17	100.25
346.397	74.25
346.625	96.25
346.853	103.25
347.08	94.25
347.308	90.25
347.535	90.25
347.763	111.25
347.99	104.25
348.218	109.25
348.445	120.25
348.673	105.25
348.9	94.25
349.128	84.25
349.355	90.25
349.583	96.25
349.81	90.25
350.037	101.25
350.265	99.25
350.492	95.25
350.72	105.25
350.947	100.25
351.174	120.25
351.402	105.25
351.629	109.25
351.856	105.25
352.083	102.25
352.311	105.25
352.538	97.25
352.765	110.25
352.992	118.25
353.22	113.25
353.447	83.25
353.674	96.25
353.901	87.25
354.128	86.25
354.355	98.25
354.583	105.25
354.81	94.25
355.037	99.25
355.264	87.25
355.491	106.25
355.718	89.25
355.945	93.25
356.172	99.25
356.399	91.25
356.626	103.25
356.853	94.25
357.08	96.25
357.307	91.25
357.534	76.25
357.761	95.25
357.988	91.25
358.215	81.25
358.441	101.25
358.668	107.25
358.895	81.25
359.122	102.25
359.349	93.25
359.576	88.25
359.802	90.25
360.029	114.25
360.256	102.25
360.483	96.25
360.709	93.25
360.936	95.25
361.163	83.25
361.39	96.25
361.616	91.25
361.843	82.25
362.07	81.25
362.296	98.25
362.523	89.25
362.749	79.25
362.976	98.25
363.203	95.25
363.429	80.25
363.656	95.25
363.882	77.25
364.109	78.25
364.335	81.25
364.562	88.25
364.788	103.25
365.015	94.25
365.241	105.25
365.468	106.25
365.694	102.25
365.92	110.25
366.147	91.25
366.373	91.25
366.599	89.25
366.826	91.25
367.052	83.25
367.278	79.25
367.505	92.25
367.731	84.25
367.957	100.25
368.184	83.25
368.41	98.25
368.636	110.25
368.862	115.25
369.089	103.25
369.315	80.25
369.541	93.25
369.767	94.25
369.993	79.25
370.219	105.25
370.445	80.25
370.672	84.25
370.898	88.25
371.124	92.25
371.35	77.25
371.576	95.25
371.802	75.25
372.028	83.25
372.254	83.25
372.48	95.25
372.706	90.25
372.932	89.25
373.158	95.25
373.384	76.25
373.61	79.25
373.835	91.25
374.061	84.25
374.287	98.25
374.513	88.25
374.739	83.25
374.965	88.25
375.191	91.25
375.416	84.25
375.642	84.25
375.868	86.25
376.094	86.25
376.319	87.25
376.545	91.25
376.771	89.25
376.997	96.25
377.222	103.25
377.448	83.25
377.674	106.25
377.899	86.25
378.125	104.25
378.35	84.25
378.576	80.25
378.802	81.25
379.027	95.25
379.253	99.25
379.478	92.25
379.704	90.25
379.929	105.25
380.155	100.25
380.38	70.25
380.606	96.25
380.831	94.25
381.057	89.25
381.282	80.25
381.507	84.25
381.733	105.25
381.958	95.25
382.184	117.25
382.409	95.25
382.634	95.25
382.86	91.25
383.085	98.25
383.31	98.25
383.535	98.25
383.761	98.25
383.986	89.25
384.211	90.25
384.436	93.25
384.662	90.25
384.887	82.25
385.112	85.25
385.337	98.25
385.562	97.25
385.787	116.25
386.013	90.25
386.238	107.25
386.463	115.25
386.688	104.25
386.913	103.25
387.138	97.25
387.363	120.25
387.588	120.25
387.813	97.25
388.038	101.25
388.263	112.25
388.488	113.25
388.713	97.25
388.938	78.25
389.163	86.25
389.387	92.25
389.612	102.25
389.837	90.25
390.062	97.25
390.287	100.25
390.512	94.25
390.736	84.25
390.961	81.25
391.186	102.25
391.411	93.25
391.636	83.25
391.86	92.25
392.085	92.25
392.31	93.25
392.534	86.25
392.759	82.25
392.984	93.25
393.208	80.25
393.433	88.25
393.658	87.25
393.882	83.25
394.107	79.25
394.331	83.25
394.556	92.25
394.78	94.25
395.005	86.25
395.229	90.25
395.454	90.25
395.678	98.25
395.903	79.25
396.127	87.25
396.352	89.25
396.576	81.25
396.801	92.25
397.025	88.25
397.249	80.25
397.474	91.25
397.698	80.25
397.922	90.25
398.147	98.25
398.371	75.25
398.595	88.25
398.82	78.25
399.044	68.25
399.268	99.25
399.492	75.25
399.717	82.25
399.941	84.25
400.165	98.25
400.389	64.25
400.613	90.25
400.837	88.25
401.062	104.25
401.286	76.25
401.51	93.25
401.734	92.25
401.958	90.25
402.182	120.25
402.406	158.25
402.63	135.25
402.854	90.25
403.078	90.25
403.302	89.25
403.526	81.25
403.75	88.25
403.974	90.25
404.198	101.25
404.422	84.25
404.645	85.25
404.869	93.25
405.093	112.25
405.317	107.25
405.541	108.25
405.765	123.25
405.988	116.25
406.212	192.25
406.436	246.25
406.66	166.25
406.883	104.25
407.107	110.25
407.331	101.25
407.555	101.25
407.778	99.25
408.002	91.25
408.226	103.25
408.449	74.25
408.673	87.25
408.896	78.25
409.12	81.25
409.344	96.25
409.567	95.25
409.791	99.25
410.014	91.25
410.238	95.25
410.461	79.25
410.685	99.25
410.908	95.25
411.132	98.25
411.355	98.25
411.578	100.25
411.802	94.25
412.025	81.25
412.249	91.25
412.472	85.25
412.695	91.25
412.919	99.25
413.142	95.25
413.365	105.25
413.589	83.25
413.812	87.25
414.035	105.25
414.258	85.25
414.482	83.25
414.705	90.25
414.928	89.25
415.151	86.25
415.374	98.25
415.597	87.25
415.821	79.25
416.044	103.25
416.267	82.25
416.49	90.25
416.713	65.25
416.936	96.25
417.159	91.25
417.382	89.25
417.605	79.25
417.828	86.25
418.051	87.25
418.274	89.25
418.497	91.25
418.72	91.25
418.943	87.25
419.166	99.25
419.389	90.25
419.611	76.25
419.834	91.25
420.057	82.25
420.28	91.25
420.503	107.25
420.726	81.25
420.948	86.25
421.171	98.25
421.394	106.25
421.617	101.25
421.839	86.25
422.062	84.25
422.285	75.25
422.507	97.25
422.73	88.25
422.953	83.25
423.175	79.25
423.398	94.25
423.621	78.25
423.843	97.25
424.066	84.25
424.288	93.25
424.511	100.25
424.733	97.25
424.956	102.25
425.178	108.25
425.401	85.25
425.623	84.25
425.846	85.25
426.068	96.25
426.291	96.25
426.513	93.25
426.735	91.25
426.958	103.25
427.18	99.25
427.402	136.25
427.625	185.25
427.847	158.25
428.069	125.25
428.292	99.25
428.514	96.25
428.736	90.25
428.958	84.25
429.181	89.25
429.403	93.25
429.625	91.25
429.847	80.25
430.069	94.25
430.292	93.25
430.514	95.25
430.736	79.25
430.958	70.25
431.18	84.25
431.402	92.25
431.624	76.25
431.846	82.25
432.068	95.25
432.29	101.25
432.512	82.25
432.734	83.25
432.956	96.25
433.178	91.25
433.4	92.25
433.622	94.25
433.844	91.25
434.066	89.25
434.287	89.25
434.509	84.25
434.731	93.25
434.953	93.25
435.175	91.25
435.397	80.25
435.618	92.25
435.84	100.25
436.062	118.25
436.284	114.25
436.505	99.25
436.727	98.25
436.949	92.25
437.17	88.25
437.392	95.25
437.614	91.25
437.835	109.25
438.057	120.25
438.278	118.25
438.5	96.25
438.721	100.25
438.943	101.25
439.165	90.25
439.386	93.25
439.608	108.25
439.829	102.25
440.05	113.25
440.272	149.25
440.493	99.25
440.715	87.25
440.936	83.25
441.158	86.25
441.379	87.25
441.6	94.25
441.822	84.25
442.043	98.25
442.264	94.25
442.486	93.25
442.707	76.25
442.928	114.25
443.149	119.25
443.371	123.25
443.592	106.25
443.813	105.25
444.034	105.25
444.255	82.25
444.476	76.25
444.698	96.25
444.919	77.25
445.14	134.25
445.361	111.25
445.582	124.25
445.803	134.25
446.024	138.25
446.245	139.25
446.466	97.25
446.687	93.25
446.908	80.25
447.129	91.25
447.35	92.25
447.571	85.25
447.792	94.25
448.013	99.25
448.234	107.25
448.455	97.25
448.675	101.25
448.896	120.25
449.117	98.25
449.338	110.25
449.559	124.25
449.779	115.25
450	90.25
450.221	89.25
450.442	102.25
450.662	94.25
450.883	103.25
451.104	109.25
451.324	105.25
451.545	88.25
451.766	98.25
451.986	83.25
452.207	82.25
452.428	94.25
452.648	102.25
452.869	111.25
453.089	120.25
453.31	122.25
453.53	96.25
453.751	100.25
453.971	98.25
454.192	107.25
454.412	93.25
454.633	84.25
454.853	84.25
455.073	89.25
455.294	85.25
455.514	106.25
455.734	91.25
455.955	87.25
456.175	84.25
456.395	92.25
456.616	95.25
456.836	91.25
457.056	92.25
457.276	77.25
457.497	88.25
457.717	75.25
457.937	70.25
458.157	81.25
458.377	96.25
458.598	108.25
458.818	140.25
459.038	178.25
459.258	132.25
459.478	91.25
459.698	99.25
459.918	91.25
460.138	87.25
460.358	88.25
460.578	94.25
460.798	91.25
461.018	90.25
461.238	108.25
461.458	100.25
461.678	82.25
461.898	88.25
462.118	90.25
462.338	88.25
462.558	89.25
462.777	92.25
462.997	97.25
463.217	90.25
463.437	106.25
463.657	88.25
463.876	95.25
464.096	90.25
464.316	113.25
464.536	94.25
464.755	103.25
464.975	114.25
465.195	188.25
465.414	175.25
465.634	93.25
465.854	95.25
466.073	79.25
466.293	91.25
466.512	67.25
466.732	92.25
466.951	101.25
467.171	102.25
467.391	88.25
467.61	106.25
467.829	110.25
468.049	151.25
468.268	188.25
468.488	113.25
468.707	97.25
468.927	94.25
469.146	84.25
469.365	80.25
469.585	86.25
469.804	100.25
470.023	99.25
470.243	100.25
470.462	94.25
470.681	114.25
470.901	98.25
471.12	88.25
471.339	97.25
471.558	93.25
471.777	104.25
471.997	146.25
472.216	250.25
472.435	436.25
472.654	162.25
472.873	107.25
473.092	95.25
473.311	103.25
473.53	77.25
473.749	88.25
473.968	76.25
474.187	105.25
474.406	89.25
474.625	82.25
474.844	73.25
475.063	91.25
475.282	83.25
475.501	94.25
475.72	89.25
475.939	90.25
476.158	79.25
476.377	88.25
476.596	78.25
476.814	76.25
477.033	80.25
477.252	80.25
477.471	79.25
477.69	97.25
477.908	101.25
478.127	94.25
478.346	78.25
478.564	87.25
478.783	101.25
479.002	102.25
479.22	93.25
479.439	122.25
479.658	110.25
479.876	88.25
480.095	103.25
480.313	97.25
480.532	84.25
480.751	109.25
480.969	225.25
481.188	707.25
481.406	456.25
481.624	119.25
481.843	83.25
482.061	101.25
482.28	88.25
482.498	90.25
482.717	93.25
482.935	78.25
483.153	89.25
483.372	91.25
483.59	85.25
483.808	93.25
484.027	87.25
484.245	94.25
484.463	75.25
484.681	82.25
484.9	80.25
485.118	100.25
485.336	109.25
485.554	100.25
485.772	94.25
485.99	91.25
486.209	108.25
486.427	105.25
486.645	118.25
486.863	118.25
487.081	95.25
487.299	82.25
487.517	95.25
487.735	92.25
487.953	104.25
488.171	94.25
488.389	95.25
488.607	94.25
488.825	95.25
489.043	96.25
489.261	92.25
489.479	92.25
489.696	103.25
489.914	79.25
490.132	88.25
490.35	85.25
490.568	80.25
490.786	94.25
491.003	101.25
491.221	84.25
491.439	104.25
491.657	93.25
491.874	92.25
492.092	91.25
492.31	100.25
492.527	94.25
492.745	95.25
492.963	100.25
493.18	78.25
493.398	90.25
493.615	106.25
493.833	87.25
494.05	99.25
494.268	85.25
494.485	87.25
494.703	92.25
494.92	90.25
495.138	74.25
495.355	102.25
495.573	80.25
495.79	95.25
496.008	84.25
496.225	80.25
496.442	81.25
496.66	82.25
496.877	91.25
497.094	87.25
497.312	88.25
497.529	95.25
497.746	83.25
497.963	78.25
498.181	95.25
498.398	92.25
498.615	111.25
498.832	120.25
499.049	86.25
499.267	95.25
499.484	80.25
499.701	81.25
499.918	84.25
500.135	88.25
500.352	82.25
500.569	83.25
500.786	86.25
501.003	80.25
501.22	90.25
501.437	86.25
501.654	93.25
501.871	108.25
502.088	100.25
502.305	80.25
502.522	92.25
502.739	84.25
502.956	90.25
503.172	98.25
503.389	110.25
503.606	104.25
503.823	96.25
504.04	84.25
504.256	89.25
504.473	89.25
504.69	93.25
504.907	87.25
505.123	87.25
505.34	83.25
505.557	97.25
505.773	82.25
505.99	88.25
506.207	95.25
506.423	82.25
506.64	92.25
506.856	90.25
507.073	87.25
507.289	92.25
507.506	100.25
507.722	113.25
507.939	127.25
508.155	103.25
508.372	99.25
508.588	96.25
508.805	106.25
509.021	87.25
509.238	88.25
509.454	95.25
509.67	95.25
509.887	125.25
510.103	130.25
510.319	218.25
510.536	856.25
510.752	2743.25
510.968	742.25
511.184	174.25
511.401	103.25
511.617	104.25
511.833	109.25
512.049	106.25
512.265	82.25
512.481	73.25
512.698	98.25
512.914	88.25
513.13	92.25
513.346	98.25
513.562	95.25
513.778	102.25
513.994	93.25
514.21	111.25
514.426	120.25
514.642	138.25
514.858	130.25
515.074	185.25
515.29	529.25
