Data from Circ_2008_H10_HRD10591_00027.txt Node
Date: Wed Jan 03 10:17:01 EST 2024
User: Yrep
Spectrometer: HR+D1059
Trigger mode: 1
Integration Time (sec): 1.000000E-1
Scans to average: 1
Electric dark correction enabled: true
Nonlinearity correction enabled: false
Boxcar width: 0
XAxis mode: Wavelengths
Number of Pixels in Spectrum: 2048
>>>>>Begin Spectral Data<<<<<
223.165	-8.94
223.4	-8.94
223.635	-8.94
223.869	-15.94
224.104	-9.94
224.338	-12.94
224.573	-25.94
224.808	-29.94
225.042	-12.94
225.277	-6.94
225.511	3.06
225.746	17.06
225.98	8.06
226.215	6.06
226.449	25.06
226.683	6.06
226.918	24.06
227.152	34.06
227.387	37.06
227.621	48.06
227.856	46.06
228.09	50.06
228.324	46.06
228.559	47.06
228.793	51.06
229.027	63.06
229.262	73.06
229.496	59.06
229.73	71.06
229.964	77.06
230.199	61.06
230.433	62.06
230.667	85.06
230.901	80.06
231.136	86.06
231.37	83.06
231.604	80.06
231.838	81.06
232.072	68.06
232.306	90.06
232.541	83.06
232.775	82.06
233.009	87.06
233.243	75.06
233.477	85.06
233.711	88.06
233.945	83.06
234.179	75.06
234.413	77.06
234.647	82.06
234.881	72.06
235.115	77.06
235.349	64.06
235.583	81.06
235.817	80.06
236.051	72.06
236.285	84.06
236.519	75.06
236.753	74.06
236.987	78.06
237.221	94.06
237.455	70.06
237.689	74.06
237.922	66.06
238.156	82.06
238.39	73.06
238.624	70.06
238.858	63.06
239.091	75.06
239.325	84.06
239.559	77.06
239.793	63.06
240.027	83.06
240.26	68.06
240.494	66.06
240.728	77.06
240.961	72.06
241.195	72.06
241.429	74.06
241.662	71.06
241.896	83.06
242.13	70.06
242.363	73.06
242.597	67.06
242.83	76.06
243.064	78.06
243.298	73.06
243.531	79.06
243.765	65.06
243.998	78.06
244.232	71.06
244.465	83.06
244.699	89.06
244.932	76.06
245.166	69.06
245.399	70.06
245.633	64.06
245.866	79.06
246.099	67.06
246.333	64.06
246.566	85.06
246.8	82.06
247.033	76.06
247.266	80.06
247.5	86.06
247.733	73.06
247.966	80.06
248.2	77.06
248.433	64.06
248.666	71.06
248.899	82.06
249.133	89.06
249.366	83.06
249.599	108.06
249.832	85.06
250.066	86.06
250.299	76.06
250.532	85.06
250.765	79.06
250.998	74.06
251.231	95.06
251.465	78.06
251.698	80.06
251.931	69.06
252.164	73.06
252.397	82.06
252.63	75.06
252.863	84.06
253.096	86.06
253.329	78.06
253.562	77.06
253.795	75.06
254.028	72.06
254.261	90.06
254.494	82.06
254.727	79.06
254.96	62.06
255.193	74.06
255.426	88.06
255.659	72.06
255.892	85.06
256.124	71.06
256.357	83.06
256.59	72.06
256.823	79.06
257.056	79.06
257.289	88.06
257.521	88.06
257.754	77.06
257.987	68.06
258.22	70.06
258.452	71.06
258.685	71.06
258.918	83.06
259.151	81.06
259.383	76.06
259.616	72.06
259.849	72.06
260.081	77.06
260.314	91.06
260.547	77.06
260.779	69.06
261.012	73.06
261.244	80.06
261.477	62.06
261.71	86.06
261.942	94.06
262.175	114.06
262.407	105.06
262.64	79.06
262.872	74.06
263.105	85.06
263.337	78.06
263.57	80.06
263.802	77.06
264.035	83.06
264.267	93.06
264.499	83.06
264.732	79.06
264.964	67.06
265.197	91.06
265.429	77.06
265.661	77.06
265.894	75.06
266.126	79.06
266.358	88.06
266.591	66.06
266.823	72.06
267.055	86.06
267.287	72.06
267.52	78.06
267.752	91.06
267.984	87.06
268.216	78.06
268.448	82.06
268.681	76.06
268.913	83.06
269.145	82.06
269.377	76.06
269.609	82.06
269.841	76.06
270.073	64.06
270.306	77.06
270.538	75.06
270.77	71.06
271.002	80.06
271.234	82.06
271.466	75.06
271.698	90.06
271.93	80.06
272.162	87.06
272.394	86.06
272.626	75.06
272.858	74.06
273.09	75.06
273.322	75.06
273.553	72.06
273.785	84.06
274.017	72.06
274.249	72.06
274.481	83.06
274.713	80.06
274.945	89.06
275.176	75.06
275.408	77.06
275.64	80.06
275.872	80.06
276.104	78.06
276.335	90.06
276.567	93.06
276.799	87.06
277.031	83.06
277.262	98.06
277.494	82.06
277.726	71.06
277.957	83.06
278.189	80.06
278.421	93.06
278.652	85.06
278.884	86.06
279.115	80.06
279.347	85.06
279.579	86.06
279.81	83.06
280.042	91.06
280.273	74.06
280.505	68.06
280.736	80.06
280.968	76.06
281.199	74.06
281.431	82.06
281.662	98.06
281.894	81.06
282.125	86.06
282.356	119.06
282.588	146.06
282.819	103.06
283.051	90.06
283.282	80.06
283.513	83.06
283.745	88.06
283.976	96.06
284.207	83.06
284.439	95.06
284.67	74.06
284.901	72.06
285.132	84.06
285.364	75.06
285.595	92.06
285.826	86.06
286.057	102.06
286.288	90.06
286.52	81.06
286.751	90.06
286.982	88.06
287.213	84.06
287.444	78.06
287.675	77.06
287.906	78.06
288.138	84.06
288.369	79.06
288.6	89.06
288.831	86.06
289.062	90.06
289.293	90.06
289.524	79.06
289.755	86.06
289.986	81.06
290.217	73.06
290.448	80.06
290.679	89.06
290.91	86.06
291.141	80.06
291.371	88.06
291.602	84.06
291.833	73.06
292.064	93.06
292.295	77.06
292.526	94.06
292.757	98.06
292.987	91.06
293.218	80.06
293.449	83.06
293.68	77.06
293.91	78.06
294.141	92.06
294.372	95.06
294.603	79.06
294.833	82.06
295.064	90.06
295.295	87.06
295.525	98.06
295.756	92.06
295.987	110.06
296.217	137.06
296.448	132.06
296.679	96.06
296.909	92.06
297.14	89.06
297.37	89.06
297.601	79.06
297.831	75.06
298.062	82.06
298.292	78.06
298.523	79.06
298.753	80.06
298.984	74.06
299.214	78.06
299.445	90.06
299.675	77.06
299.905	104.06
300.136	87.06
300.366	77.06
300.597	93.06
300.827	80.06
301.057	88.06
301.288	107.06
301.518	87.06
301.748	79.06
301.979	95.06
302.209	83.06
302.439	81.06
302.669	89.06
302.9	92.06
303.13	82.06
303.36	106.06
303.59	101.06
303.82	108.06
304.051	92.06
304.281	93.06
304.511	91.06
304.741	82.06
304.971	72.06
305.201	69.06
305.431	93.06
305.661	93.06
305.891	83.06
306.121	107.06
306.352	91.06
306.582	93.06
306.812	84.06
307.042	97.06
307.272	95.06
307.502	82.06
307.731	94.06
307.961	88.06
308.191	86.06
308.421	88.06
308.651	85.06
308.881	73.06
309.111	100.06
309.341	82.06
309.571	95.06
309.8	90.06
310.03	95.06
310.26	72.06
310.49	91.06
310.72	92.06
310.949	102.06
311.179	83.06
311.409	105.06
311.639	102.06
311.868	95.06
312.098	101.06
312.328	95.06
312.557	103.06
312.787	87.06
313.017	71.06
313.246	98.06
313.476	84.06
313.706	86.06
313.935	93.06
314.165	91.06
314.394	93.06
314.624	88.06
314.853	74.06
315.083	88.06
315.312	84.06
315.542	90.06
315.771	84.06
316.001	90.06
316.23	101.06
316.46	78.06
316.689	94.06
316.919	102.06
317.148	107.06
317.377	92.06
317.607	97.06
317.836	84.06
318.065	94.06
318.295	87.06
318.524	97.06
318.753	87.06
318.983	83.06
319.212	88.06
319.441	95.06
319.67	91.06
319.9	89.06
320.129	89.06
320.358	95.06
320.587	85.06
320.816	101.06
321.046	101.06
321.275	101.06
321.504	90.06
321.733	91.06
321.962	101.06
322.191	97.06
322.42	106.06
322.649	117.06
322.878	100.06
323.108	99.06
323.337	122.06
323.566	111.06
323.795	159.06
324.024	186.06
324.253	336.06
324.482	702.06
324.71	1446.06
324.939	1858.06
325.168	711.06
325.397	207.06
325.626	143.06
325.855	124.06
326.084	124.06
326.313	124.06
326.542	141.06
326.77	212.06
326.999	394.06
327.228	774.06
327.457	1400.06
327.686	1142.06
327.914	323.06
328.143	182.06
328.372	142.06
328.6	114.06
328.829	109.06
329.058	109.06
329.287	115.06
329.515	106.06
329.744	116.06
329.972	103.06
330.201	98.06
330.43	118.06
330.658	130.06
330.887	127.06
331.115	121.06
331.344	96.06
331.572	114.06
331.801	107.06
332.03	94.06
332.258	89.06
332.486	86.06
332.715	92.06
332.943	89.06
333.172	83.06
333.4	90.06
333.629	101.06
333.857	119.06
334.085	101.06
334.314	104.06
334.542	126.06
334.771	115.06
334.999	90.06
335.227	86.06
335.455	98.06
335.684	93.06
335.912	85.06
336.14	91.06
336.369	91.06
336.597	86.06
336.825	92.06
337.053	82.06
337.281	91.06
337.51	78.06
337.738	91.06
337.966	102.06
338.194	85.06
338.422	81.06
338.65	96.06
338.878	87.06
339.106	98.06
339.334	88.06
339.562	77.06
339.79	84.06
340.018	79.06
340.246	96.06
340.474	82.06
340.702	82.06
340.93	83.06
341.158	86.06
341.386	86.06
341.614	102.06
341.842	91.06
342.07	87.06
342.298	79.06
342.526	80.06
342.754	96.06
342.981	83.06
343.209	88.06
343.437	92.06
343.665	92.06
343.893	81.06
344.12	88.06
344.348	89.06
344.576	80.06
344.804	91.06
345.031	85.06
345.259	93.06
345.487	91.06
345.714	100.06
345.942	102.06
346.17	107.06
346.397	86.06
346.625	80.06
346.853	100.06
347.08	88.06
347.308	82.06
347.535	76.06
347.763	90.06
347.99	81.06
348.218	97.06
348.445	75.06
348.673	80.06
348.9	87.06
349.128	92.06
349.355	88.06
349.583	85.06
349.81	86.06
350.037	100.06
350.265	95.06
350.492	93.06
350.72	90.06
350.947	93.06
351.174	103.06
351.402	98.06
351.629	96.06
351.856	96.06
352.083	91.06
352.311	93.06
352.538	94.06
352.765	101.06
352.992	112.06
353.22	89.06
353.447	93.06
353.674	92.06
353.901	106.06
354.128	88.06
354.355	87.06
354.583	92.06
354.81	91.06
355.037	85.06
355.264	79.06
355.491	97.06
355.718	90.06
355.945	90.06
356.172	82.06
356.399	80.06
356.626	86.06
356.853	80.06
357.08	94.06
357.307	89.06
357.534	102.06
357.761	98.06
357.988	93.06
358.215	95.06
358.441	94.06
358.668	104.06
358.895	99.06
359.122	76.06
359.349	78.06
359.576	73.06
359.802	99.06
360.029	106.06
360.256	108.06
360.483	102.06
360.709	79.06
360.936	91.06
361.163	86.06
361.39	88.06
361.616	92.06
361.843	86.06
362.07	83.06
362.296	98.06
362.523	86.06
362.749	87.06
362.976	93.06
363.203	98.06
363.429	82.06
363.656	94.06
363.882	89.06
364.109	75.06
364.335	89.06
364.562	81.06
364.788	93.06
365.015	81.06
365.241	95.06
365.468	106.06
365.694	96.06
365.92	97.06
366.147	82.06
366.373	88.06
366.599	77.06
366.826	81.06
367.052	82.06
367.278	77.06
367.505	89.06
367.731	81.06
367.957	73.06
368.184	76.06
368.41	91.06
368.636	117.06
368.862	125.06
369.089	91.06
369.315	93.06
369.541	97.06
369.767	87.06
369.993	76.06
370.219	89.06
370.445	90.06
370.672	81.06
370.898	92.06
371.124	92.06
371.35	83.06
371.576	79.06
371.802	90.06
372.028	84.06
372.254	83.06
372.48	80.06
372.706	76.06
372.932	80.06
373.158	81.06
373.384	90.06
373.61	88.06
373.835	79.06
374.061	74.06
374.287	100.06
374.513	83.06
374.739	80.06
374.965	83.06
375.191	92.06
375.416	88.06
375.642	91.06
375.868	79.06
376.094	71.06
376.319	86.06
376.545	85.06
376.771	68.06
376.997	85.06
377.222	88.06
377.448	81.06
377.674	92.06
377.899	93.06
378.125	101.06
378.35	102.06
378.576	87.06
378.802	91.06
379.027	89.06
379.253	80.06
379.478	99.06
379.704	85.06
379.929	96.06
380.155	73.06
380.38	76.06
380.606	85.06
380.831	90.06
381.057	89.06
381.282	84.06
381.507	92.06
381.733	101.06
381.958	100.06
382.184	87.06
382.409	100.06
382.634	97.06
382.86	97.06
383.085	80.06
383.31	92.06
383.535	92.06
383.761	81.06
383.986	102.06
384.211	87.06
384.436	101.06
384.662	85.06
384.887	109.06
385.112	96.06
385.337	126.06
385.562	92.06
385.787	103.06
386.013	114.06
386.238	109.06
386.463	110.06
386.688	93.06
386.913	107.06
387.138	107.06
387.363	108.06
387.588	107.06
387.813	96.06
388.038	107.06
388.263	104.06
388.488	110.06
388.713	89.06
388.938	74.06
389.163	84.06
389.387	99.06
389.612	88.06
389.837	89.06
390.062	85.06
390.287	87.06
390.512	90.06
390.736	82.06
390.961	80.06
391.186	77.06
391.411	99.06
391.636	88.06
391.86	82.06
392.085	67.06
392.31	75.06
392.534	90.06
392.759	94.06
392.984	103.06
393.208	89.06
393.433	95.06
393.658	93.06
393.882	89.06
394.107	88.06
394.331	86.06
394.556	105.06
394.78	86.06
395.005	88.06
395.229	75.06
395.454	83.06
395.678	78.06
395.903	77.06
396.127	83.06
396.352	89.06
396.576	79.06
396.801	88.06
397.025	101.06
397.249	70.06
397.474	84.06
397.698	77.06
397.922	86.06
398.147	81.06
398.371	85.06
398.595	83.06
398.82	72.06
399.044	83.06
399.268	84.06
399.492	85.06
399.717	82.06
399.941	88.06
400.165	83.06
400.389	82.06
400.613	86.06
400.837	82.06
401.062	79.06
401.286	101.06
401.51	88.06
401.734	83.06
401.958	104.06
402.182	126.06
402.406	150.06
402.63	94.06
402.854	88.06
403.078	98.06
403.302	73.06
403.526	100.06
403.75	87.06
403.974	75.06
404.198	86.06
404.422	77.06
404.645	74.06
404.869	71.06
405.093	94.06
405.317	91.06
405.541	91.06
405.765	95.06
405.988	106.06
406.212	167.06
406.436	232.06
406.66	148.06
406.883	93.06
407.107	86.06
407.331	77.06
407.555	86.06
407.778	90.06
408.002	83.06
408.226	75.06
408.449	67.06
408.673	88.06
408.896	86.06
409.12	81.06
409.344	69.06
409.567	89.06
409.791	83.06
410.014	90.06
410.238	85.06
410.461	82.06
410.685	85.06
410.908	91.06
411.132	98.06
411.355	98.06
411.578	93.06
411.802	79.06
412.025	95.06
412.249	84.06
412.472	82.06
412.695	83.06
412.919	91.06
413.142	98.06
413.365	86.06
413.589	79.06
413.812	84.06
414.035	90.06
414.258	94.06
414.482	70.06
414.705	93.06
414.928	95.06
415.151	85.06
415.374	85.06
415.597	77.06
415.821	89.06
416.044	75.06
416.267	87.06
416.49	82.06
416.713	83.06
416.936	79.06
417.159	80.06
417.382	80.06
417.605	91.06
417.828	81.06
418.051	84.06
418.274	86.06
418.497	72.06
418.72	78.06
418.943	91.06
419.166	77.06
419.389	65.06
419.611	76.06
419.834	84.06
420.057	86.06
420.28	77.06
420.503	87.06
420.726	84.06
420.948	79.06
421.171	92.06
421.394	91.06
421.617	79.06
421.839	84.06
422.062	93.06
422.285	94.06
422.507	85.06
422.73	91.06
422.953	95.06
423.175	84.06
423.398	84.06
423.621	77.06
423.843	69.06
424.066	82.06
424.288	87.06
424.511	80.06
424.733	83.06
424.956	93.06
425.178	96.06
425.401	88.06
425.623	83.06
425.846	88.06
426.068	72.06
426.291	86.06
426.513	90.06
426.735	86.06
426.958	90.06
427.18	98.06
427.402	115.06
427.625	146.06
427.847	126.06
428.069	110.06
428.292	83.06
428.514	86.06
428.736	83.06
428.958	83.06
429.181	80.06
429.403	77.06
429.625	89.06
429.847	93.06
430.069	83.06
430.292	81.06
430.514	89.06
430.736	62.06
430.958	69.06
431.18	79.06
431.402	71.06
431.624	86.06
431.846	78.06
432.068	80.06
432.29	83.06
432.512	77.06
432.734	84.06
432.956	91.06
433.178	79.06
433.4	85.06
433.622	96.06
433.844	83.06
434.066	84.06
434.287	86.06
434.509	73.06
434.731	98.06
434.953	83.06
435.175	93.06
435.397	88.06
435.618	72.06
435.84	91.06
436.062	97.06
436.284	94.06
436.505	91.06
436.727	84.06
436.949	91.06
437.17	76.06
437.392	73.06
437.614	70.06
437.835	109.06
438.057	101.06
438.278	105.06
438.5	99.06
438.721	95.06
438.943	87.06
439.165	77.06
439.386	78.06
439.608	93.06
439.829	83.06
440.05	111.06
440.272	122.06
440.493	92.06
440.715	84.06
440.936	79.06
441.158	81.06
441.379	88.06
441.6	77.06
441.822	84.06
442.043	98.06
442.264	106.06
442.486	93.06
442.707	86.06
442.928	109.06
443.149	132.06
443.371	131.06
443.592	103.06
443.813	109.06
444.034	92.06
444.255	89.06
444.476	69.06
444.698	88.06
444.919	74.06
445.14	123.06
445.361	100.06
445.582	94.06
445.803	124.06
446.024	127.06
446.245	119.06
446.466	100.06
446.687	94.06
446.908	80.06
447.129	82.06
447.35	90.06
447.571	79.06
447.792	99.06
448.013	107.06
448.234	104.06
448.455	75.06
448.675	107.06
448.896	103.06
449.117	88.06
449.338	95.06
449.559	109.06
449.779	118.06
450	90.06
450.221	77.06
450.442	95.06
450.662	88.06
450.883	102.06
451.104	100.06
451.324	85.06
451.545	81.06
451.766	70.06
451.986	78.06
452.207	84.06
452.428	96.06
452.648	92.06
452.869	97.06
453.089	89.06
453.31	99.06
453.53	95.06
453.751	102.06
453.971	96.06
454.192	106.06
454.412	99.06
454.633	88.06
454.853	75.06
455.073	76.06
455.294	82.06
455.514	101.06
455.734	90.06
455.955	69.06
456.175	78.06
456.395	75.06
456.616	85.06
456.836	66.06
457.056	82.06
457.276	68.06
457.497	78.06
457.717	73.06
457.937	81.06
458.157	81.06
458.377	87.06
458.598	87.06
458.818	150.06
459.038	141.06
459.258	104.06
459.478	75.06
459.698	94.06
459.918	75.06
460.138	74.06
460.358	91.06
460.578	70.06
460.798	82.06
461.018	90.06
461.238	87.06
461.458	97.06
461.678	77.06
461.898	78.06
462.118	76.06
462.338	80.06
462.558	83.06
462.777	83.06
462.997	82.06
463.217	77.06
463.437	79.06
463.657	76.06
463.876	75.06
464.096	83.06
464.316	94.06
464.536	94.06
464.755	82.06
464.975	97.06
465.195	159.06
465.414	151.06
465.634	94.06
465.854	82.06
466.073	68.06
466.293	87.06
466.512	67.06
466.732	83.06
466.951	96.06
467.171	86.06
467.391	94.06
467.61	96.06
467.829	86.06
468.049	82.06
468.268	98.06
468.488	92.06
468.707	77.06
468.927	84.06
469.146	86.06
469.365	90.06
469.585	87.06
469.804	100.06
470.023	81.06
470.243	90.06
470.462	95.06
470.681	109.06
470.901	86.06
471.12	90.06
471.339	91.06
471.558	79.06
471.777	71.06
471.997	68.06
472.216	111.06
472.435	137.06
472.654	79.06
472.873	88.06
473.092	69.06
473.311	89.06
473.53	80.06
473.749	87.06
473.968	84.06
474.187	100.06
474.406	85.06
474.625	86.06
474.844	79.06
475.063	69.06
475.282	75.06
475.501	85.06
475.72	78.06
475.939	80.06
476.158	75.06
476.377	84.06
476.596	84.06
476.814	88.06
477.033	87.06
477.252	82.06
477.471	80.06
477.69	99.06
477.908	89.06
478.127	97.06
478.346	86.06
478.564	79.06
478.783	85.06
479.002	95.06
479.22	88.06
479.439	87.06
479.658	100.06
479.876	92.06
480.095	100.06
480.313	98.06
480.532	88.06
480.751	96.06
480.969	102.06
481.188	176.06
481.406	118.06
481.624	89.06
481.843	84.06
482.061	87.06
482.28	84.06
482.498	93.06
482.717	84.06
482.935	82.06
483.153	82.06
483.372	80.06
483.59	75.06
483.808	78.06
484.027	88.06
484.245	89.06
484.463	88.06
484.681	77.06
484.9	90.06
485.118	88.06
485.336	92.06
485.554	98.06
485.772	91.06
485.99	104.06
486.209	82.06
486.427	95.06
486.645	101.06
486.863	87.06
487.081	84.06
487.299	84.06
487.517	82.06
487.735	92.06
487.953	87.06
488.171	88.06
488.389	84.06
488.607	95.06
488.825	87.06
489.043	78.06
489.261	77.06
489.479	92.06
489.696	80.06
489.914	95.06
490.132	94.06
490.35	91.06
490.568	93.06
490.786	88.06
491.003	90.06
491.221	89.06
491.439	90.06
491.657	80.06
491.874	100.06
492.092	86.06
492.31	75.06
492.527	81.06
492.745	74.06
492.963	81.06
493.18	80.06
493.398	88.06
493.615	95.06
493.833	84.06
494.05	80.06
494.268	86.06
494.485	83.06
494.703	78.06
494.92	79.06
495.138	90.06
495.355	95.06
495.573	87.06
495.79	93.06
496.008	103.06
496.225	90.06
496.442	80.06
496.66	95.06
496.877	70.06
497.094	76.06
497.312	88.06
497.529	88.06
497.746	93.06
497.963	73.06
498.181	80.06
498.398	93.06
498.615	98.06
498.832	90.06
499.049	93.06
499.267	74.06
499.484	82.06
499.701	85.06
499.918	88.06
500.135	86.06
500.352	91.06
500.569	92.06
500.786	89.06
501.003	74.06
501.22	88.06
501.437	97.06
501.654	107.06
501.871	93.06
502.088	83.06
502.305	74.06
502.522	84.06
502.739	90.06
502.956	82.06
503.172	91.06
503.389	87.06
503.606	107.06
503.823	89.06
504.04	88.06
504.256	77.06
504.473	95.06
504.69	80.06
504.907	92.06
505.123	83.06
505.34	84.06
505.557	84.06
505.773	76.06
505.99	84.06
506.207	83.06
506.423	93.06
506.64	83.06
506.856	85.06
507.073	83.06
507.289	92.06
507.506	99.06
507.722	95.06
507.939	104.06
508.155	99.06
508.372	89.06
508.588	77.06
508.805	92.06
509.021	94.06
509.238	95.06
509.454	103.06
509.67	99.06
509.887	99.06
510.103	129.06
510.319	224.06
510.536	805.06
510.752	2666.06
510.968	744.06
511.184	171.06
511.401	116.06
511.617	85.06
511.833	98.06
512.049	79.06
512.265	87.06
512.481	87.06
512.698	86.06
512.914	91.06
513.13	82.06
513.346	84.06
513.562	95.06
513.778	100.06
513.994	104.06
514.21	93.06
514.426	114.06
514.642	124.06
514.858	126.06
515.074	151.06
515.29	442.06
515.506	1604.06
515.721	571.06
515.937	147.06
516.153	103.06
516.369	102.06
516.585	100.06
516.801	60.06
517.016	87.06
517.232	89.06
