Data from Circ_2008_H10_HRD10591_00017.txt Node
Date: Wed Jan 03 10:16:59 EST 2024
User: Yrep
Spectrometer: HR+D1059
Trigger mode: 1
Integration Time (sec): 1.000000E-1
Scans to average: 1
Electric dark correction enabled: true
Nonlinearity correction enabled: false
Boxcar width: 0
XAxis mode: Wavelengths
Number of Pixels in Spectrum: 2048
>>>>>Begin Spectral Data<<<<<
223.165	-11.69
223.4	-11.69
223.635	-11.69
223.869	-14.69
224.104	-5.69
224.338	-19.69
224.573	-19.69
224.808	-25.69
225.042	-9.69
225.277	-2.69
225.511	3.31
225.746	7.31
225.98	15.31
226.215	11.31
226.449	12.31
226.683	8.31
226.918	20.31
227.152	31.31
227.387	32.31
227.621	30.31
227.856	49.31
228.09	41.31
228.324	38.31
228.559	52.31
228.793	62.31
229.027	56.31
229.262	59.31
229.496	86.31
229.73	97.31
229.964	87.31
230.199	72.31
230.433	63.31
230.667	80.31
230.901	74.31
231.136	66.31
231.37	79.31
231.604	73.31
231.838	81.31
232.072	65.31
232.306	73.31
232.541	79.31
232.775	80.31
233.009	89.31
233.243	63.31
233.477	88.31
233.711	89.31
233.945	78.31
234.179	77.31
234.413	82.31
234.647	75.31
234.881	89.31
235.115	86.31
235.349	86.31
235.583	102.31
235.817	84.31
236.051	92.31
236.285	78.31
236.519	68.31
236.753	84.31
236.987	76.31
237.221	78.31
237.455	96.31
237.689	77.31
237.922	67.31
238.156	70.31
238.39	77.31
238.624	70.31
238.858	71.31
239.091	68.31
239.325	82.31
239.559	100.31
239.793	83.31
240.027	80.31
240.26	76.31
240.494	78.31
240.728	81.31
240.961	80.31
241.195	73.31
241.429	81.31
241.662	68.31
241.896	84.31
242.13	74.31
242.363	76.31
242.597	75.31
242.83	82.31
243.064	77.31
243.298	84.31
243.531	85.31
243.765	86.31
243.998	66.31
244.232	70.31
244.465	71.31
244.699	74.31
244.932	62.31
245.166	86.31
245.399	75.31
245.633	82.31
245.866	88.31
246.099	75.31
246.333	76.31
246.566	78.31
246.8	83.31
247.033	75.31
247.266	73.31
247.5	70.31
247.733	80.31
247.966	84.31
248.2	67.31
248.433	74.31
248.666	82.31
248.899	89.31
249.133	78.31
249.366	89.31
249.599	112.31
249.832	87.31
250.066	91.31
250.299	78.31
250.532	80.31
250.765	83.31
250.998	83.31
251.231	81.31
251.465	78.31
251.698	85.31
251.931	96.31
252.164	89.31
252.397	80.31
252.63	77.31
252.863	87.31
253.096	75.31
253.329	74.31
253.562	91.31
253.795	75.31
254.028	79.31
254.261	71.31
254.494	86.31
254.727	89.31
254.96	63.31
255.193	80.31
255.426	84.31
255.659	76.31
255.892	84.31
256.124	84.31
256.357	84.31
256.59	75.31
256.823	84.31
257.056	85.31
257.289	83.31
257.521	90.31
257.754	75.31
257.987	82.31
258.22	84.31
258.452	72.31
258.685	90.31
258.918	73.31
259.151	90.31
259.383	84.31
259.616	72.31
259.849	76.31
260.081	84.31
260.314	92.31
260.547	68.31
260.779	81.31
261.012	79.31
261.244	88.31
261.477	75.31
261.71	105.31
261.942	114.31
262.175	122.31
262.407	87.31
262.64	77.31
262.872	85.31
263.105	85.31
263.337	89.31
263.57	77.31
263.802	85.31
264.035	85.31
264.267	96.31
264.499	83.31
264.732	77.31
264.964	60.31
265.197	80.31
265.429	78.31
265.661	72.31
265.894	95.31
266.126	77.31
266.358	77.31
266.591	89.31
266.823	93.31
267.055	89.31
267.287	82.31
267.52	86.31
267.752	84.31
267.984	77.31
268.216	91.31
268.448	81.31
268.681	87.31
268.913	96.31
269.145	83.31
269.377	82.31
269.609	89.31
269.841	95.31
270.073	89.31
270.306	77.31
270.538	83.31
270.77	88.31
271.002	102.31
271.234	88.31
271.466	95.31
271.698	94.31
271.93	78.31
272.162	94.31
272.394	81.31
272.626	72.31
272.858	81.31
273.09	86.31
273.322	92.31
273.553	73.31
273.785	102.31
274.017	84.31
274.249	82.31
274.481	73.31
274.713	94.31
274.945	70.31
275.176	81.31
275.408	86.31
275.64	81.31
275.872	85.31
276.104	94.31
276.335	84.31
276.567	96.31
276.799	99.31
277.031	107.31
277.262	94.31
277.494	101.31
277.726	84.31
277.957	80.31
278.189	74.31
278.421	81.31
278.652	70.31
278.884	76.31
279.115	60.31
279.347	92.31
279.579	99.31
279.81	80.31
280.042	85.31
280.273	91.31
280.505	91.31
280.736	77.31
280.968	91.31
281.199	99.31
281.431	76.31
281.662	88.31
281.894	82.31
282.125	91.31
282.356	128.31
282.588	156.31
282.819	112.31
283.051	94.31
283.282	87.31
283.513	83.31
283.745	89.31
283.976	89.31
284.207	89.31
284.439	95.31
284.67	82.31
284.901	82.31
285.132	104.31
285.364	85.31
285.595	91.31
285.826	92.31
286.057	81.31
286.288	70.31
286.52	87.31
286.751	91.31
286.982	89.31
287.213	81.31
287.444	98.31
287.675	87.31
287.906	95.31
288.138	75.31
288.369	99.31
288.6	94.31
288.831	80.31
289.062	92.31
289.293	91.31
289.524	85.31
289.755	93.31
289.986	102.31
290.217	100.31
290.448	99.31
290.679	92.31
290.91	96.31
291.141	80.31
291.371	88.31
291.602	87.31
291.833	84.31
292.064	77.31
292.295	87.31
292.526	83.31
292.757	103.31
292.987	83.31
293.218	81.31
293.449	73.31
293.68	72.31
293.91	87.31
294.141	87.31
294.372	79.31
294.603	71.31
294.833	91.31
295.064	92.31
295.295	74.31
295.525	102.31
295.756	102.31
295.987	107.31
296.217	157.31
296.448	124.31
296.679	110.31
296.909	93.31
297.14	89.31
297.37	91.31
297.601	98.31
297.831	87.31
298.062	95.31
298.292	88.31
298.523	82.31
298.753	90.31
298.984	75.31
299.214	79.31
299.445	94.31
299.675	102.31
299.905	106.31
300.136	93.31
300.366	78.31
300.597	82.31
300.827	90.31
301.057	103.31
301.288	107.31
301.518	82.31
301.748	76.31
301.979	118.31
302.209	87.31
302.439	98.31
302.669	101.31
302.9	81.31
303.13	88.31
303.36	88.31
303.59	106.31
303.82	113.31
304.051	87.31
304.281	92.31
304.511	86.31
304.741	80.31
304.971	87.31
305.201	92.31
305.431	94.31
305.661	91.31
305.891	90.31
306.121	87.31
306.352	104.31
306.582	92.31
306.812	93.31
307.042	97.31
307.272	105.31
307.502	88.31
307.731	114.31
307.961	98.31
308.191	100.31
308.421	95.31
308.651	81.31
308.881	76.31
309.111	93.31
309.341	90.31
309.571	88.31
309.8	98.31
310.03	110.31
310.26	99.31
310.49	98.31
310.72	97.31
310.949	103.31
311.179	106.31
311.409	91.31
311.639	83.31
311.868	100.31
312.098	103.31
312.328	82.31
312.557	95.31
312.787	92.31
313.017	107.31
313.246	108.31
313.476	110.31
313.706	89.31
313.935	100.31
314.165	116.31
314.394	112.31
314.624	95.31
314.853	87.31
315.083	94.31
315.312	94.31
315.542	88.31
315.771	99.31
316.001	82.31
316.23	100.31
316.46	88.31
316.689	100.31
316.919	105.31
317.148	92.31
317.377	95.31
317.607	97.31
317.836	103.31
318.065	102.31
318.295	96.31
318.524	91.31
318.753	107.31
318.983	106.31
319.212	107.31
319.441	107.31
319.67	97.31
319.9	100.31
320.129	71.31
320.358	87.31
320.587	92.31
320.816	85.31
321.046	91.31
321.275	89.31
321.504	84.31
321.733	81.31
321.962	99.31
322.191	112.31
322.42	86.31
322.649	113.31
322.878	113.31
323.108	109.31
323.337	123.31
323.566	126.31
323.795	144.31
324.024	199.31
324.253	413.31
324.482	847.31
324.71	1745.31
324.939	2283.31
325.168	845.31
325.397	263.31
325.626	145.31
325.855	129.31
326.084	121.31
326.313	132.31
326.542	146.31
326.77	225.31
326.999	461.31
327.228	930.31
327.457	1670.31
327.686	1342.31
327.914	375.31
328.143	190.31
328.372	144.31
328.6	118.31
328.829	113.31
329.058	128.31
329.287	138.31
329.515	112.31
329.744	99.31
329.972	94.31
330.201	102.31
330.43	121.31
330.658	136.31
330.887	151.31
331.115	131.31
331.344	110.31
331.572	102.31
331.801	107.31
332.03	110.31
332.258	99.31
332.486	88.31
332.715	83.31
332.943	94.31
333.172	99.31
333.4	91.31
333.629	107.31
333.857	115.31
334.085	119.31
334.314	110.31
334.542	123.31
334.771	128.31
334.999	98.31
335.227	99.31
335.455	94.31
335.684	90.31
335.912	106.31
336.14	104.31
336.369	90.31
336.597	93.31
336.825	105.31
337.053	99.31
337.281	84.31
337.51	95.31
337.738	108.31
337.966	107.31
338.194	100.31
338.422	98.31
338.65	102.31
338.878	97.31
339.106	88.31
339.334	104.31
339.562	90.31
339.79	91.31
340.018	86.31
340.246	96.31
340.474	89.31
340.702	97.31
340.93	91.31
341.158	107.31
341.386	98.31
341.614	106.31
341.842	94.31
342.07	98.31
342.298	80.31
342.526	96.31
342.754	95.31
342.981	96.31
343.209	88.31
343.437	87.31
343.665	94.31
343.893	87.31
344.12	91.31
344.348	92.31
344.576	96.31
344.804	95.31
345.031	100.31
345.259	97.31
345.487	99.31
345.714	104.31
345.942	98.31
346.17	94.31
346.397	90.31
346.625	84.31
346.853	91.31
347.08	87.31
347.308	106.31
347.535	88.31
347.763	103.31
347.99	100.31
348.218	106.31
348.445	95.31
348.673	100.31
348.9	87.31
349.128	89.31
349.355	103.31
349.583	98.31
349.81	90.31
350.037	93.31
350.265	99.31
350.492	104.31
350.72	110.31
350.947	104.31
351.174	108.31
351.402	125.31
351.629	99.31
351.856	105.31
352.083	99.31
352.311	106.31
352.538	116.31
352.765	111.31
352.992	115.31
353.22	106.31
353.447	115.31
353.674	109.31
353.901	91.31
354.128	104.31
354.355	95.31
354.583	97.31
354.81	90.31
355.037	90.31
355.264	103.31
355.491	103.31
355.718	88.31
355.945	97.31
356.172	92.31
356.399	104.31
356.626	90.31
356.853	92.31
357.08	95.31
357.307	75.31
357.534	96.31
357.761	100.31
357.988	87.31
358.215	95.31
358.441	89.31
358.668	90.31
358.895	97.31
359.122	83.31
359.349	84.31
359.576	90.31
359.802	100.31
360.029	123.31
360.256	106.31
360.483	91.31
360.709	93.31
360.936	96.31
361.163	103.31
361.39	104.31
361.616	100.31
361.843	82.31
362.07	85.31
362.296	93.31
362.523	96.31
362.749	85.31
362.976	89.31
363.203	94.31
363.429	84.31
363.656	91.31
363.882	106.31
364.109	102.31
364.335	99.31
364.562	96.31
364.788	98.31
365.015	86.31
365.241	100.31
365.468	106.31
365.694	97.31
365.92	83.31
366.147	97.31
366.373	96.31
366.599	90.31
366.826	93.31
367.052	107.31
367.278	99.31
367.505	83.31
367.731	84.31
367.957	86.31
368.184	101.31
368.41	108.31
368.636	123.31
368.862	124.31
369.089	111.31
369.315	90.31
369.541	97.31
369.767	87.31
369.993	81.31
370.219	98.31
370.445	95.31
370.672	92.31
370.898	79.31
371.124	97.31
371.35	93.31
371.576	89.31
371.802	81.31
372.028	80.31
372.254	80.31
372.48	86.31
372.706	86.31
372.932	99.31
373.158	100.31
373.384	86.31
373.61	87.31
373.835	89.31
374.061	85.31
374.287	94.31
374.513	88.31
374.739	93.31
374.965	88.31
375.191	89.31
375.416	88.31
375.642	83.31
375.868	71.31
376.094	91.31
376.319	81.31
376.545	86.31
376.771	84.31
376.997	89.31
377.222	81.31
377.448	84.31
377.674	90.31
377.899	80.31
378.125	88.31
378.35	98.31
378.576	92.31
378.802	102.31
379.027	96.31
379.253	84.31
379.478	86.31
379.704	97.31
379.929	103.31
380.155	90.31
380.38	93.31
380.606	109.31
380.831	109.31
381.057	105.31
381.282	105.31
381.507	91.31
381.733	108.31
381.958	102.31
382.184	94.31
382.409	106.31
382.634	94.31
382.86	91.31
383.085	106.31
383.31	110.31
383.535	115.31
383.761	102.31
383.986	98.31
384.211	92.31
384.436	106.31
384.662	109.31
384.887	122.31
385.112	111.31
385.337	110.31
385.562	109.31
385.787	109.31
386.013	107.31
386.238	125.31
386.463	119.31
386.688	122.31
386.913	92.31
387.138	112.31
387.363	100.31
387.588	97.31
387.813	98.31
388.038	114.31
388.263	118.31
388.488	122.31
388.713	113.31
388.938	82.31
389.163	78.31
389.387	95.31
389.612	93.31
389.837	79.31
390.062	76.31
390.287	93.31
390.512	87.31
390.736	87.31
390.961	76.31
391.186	75.31
391.411	90.31
391.636	95.31
391.86	92.31
392.085	76.31
392.31	89.31
392.534	83.31
392.759	90.31
392.984	79.31
393.208	97.31
393.433	103.31
393.658	109.31
393.882	76.31
394.107	80.31
394.331	93.31
394.556	88.31
394.78	81.31
395.005	93.31
395.229	101.31
395.454	95.31
395.678	98.31
395.903	96.31
396.127	95.31
396.352	88.31
396.576	76.31
396.801	86.31
397.025	98.31
397.249	75.31
397.474	98.31
397.698	89.31
397.922	82.31
398.147	95.31
398.371	103.31
398.595	87.31
398.82	82.31
399.044	101.31
399.268	100.31
399.492	80.31
399.717	95.31
399.941	97.31
400.165	105.31
400.389	95.31
400.613	97.31
400.837	91.31
401.062	84.31
401.286	93.31
401.51	95.31
401.734	84.31
401.958	96.31
402.182	130.31
402.406	167.31
402.63	129.31
402.854	107.31
403.078	95.31
403.302	83.31
403.526	87.31
403.75	88.31
403.974	84.31
404.198	84.31
404.422	99.31
404.645	85.31
404.869	84.31
405.093	103.31
405.317	96.31
405.541	99.31
405.765	110.31
405.988	122.31
406.212	187.31
406.436	254.31
406.66	167.31
406.883	102.31
407.107	106.31
407.331	95.31
407.555	108.31
407.778	94.31
408.002	100.31
408.226	87.31
408.449	77.31
408.673	87.31
408.896	92.31
409.12	90.31
409.344	107.31
409.567	91.31
409.791	90.31
410.014	86.31
410.238	88.31
410.461	89.31
410.685	98.31
410.908	94.31
411.132	105.31
411.355	98.31
411.578	87.31
411.802	92.31
412.025	94.31
412.249	87.31
412.472	91.31
412.695	84.31
412.919	93.31
413.142	81.31
413.365	90.31
413.589	97.31
413.812	89.31
414.035	95.31
414.258	75.31
414.482	80.31
414.705	89.31
414.928	98.31
415.151	97.31
415.374	106.31
415.597	97.31
415.821	86.31
416.044	83.31
416.267	94.31
416.49	94.31
416.713	84.31
416.936	80.31
417.159	79.31
417.382	90.31
417.605	96.31
417.828	76.31
418.051	89.31
418.274	92.31
418.497	91.31
418.72	79.31
418.943	99.31
419.166	91.31
419.389	94.31
419.611	90.31
419.834	93.31
420.057	75.31
420.28	83.31
420.503	81.31
420.726	89.31
420.948	103.31
421.171	87.31
421.394	81.31
421.617	90.31
421.839	87.31
422.062	78.31
422.285	89.31
422.507	98.31
422.73	123.31
422.953	106.31
423.175	78.31
423.398	92.31
423.621	78.31
423.843	97.31
424.066	67.31
424.288	70.31
424.511	91.31
424.733	105.31
424.956	93.31
425.178	99.31
425.401	88.31
425.623	96.31
425.846	91.31
426.068	91.31
426.291	106.31
426.513	97.31
426.735	100.31
426.958	99.31
427.18	101.31
427.402	127.31
427.625	185.31
427.847	141.31
428.069	113.31
428.292	83.31
428.514	85.31
428.736	87.31
428.958	94.31
429.181	92.31
429.403	88.31
429.625	87.31
429.847	86.31
430.069	99.31
430.292	108.31
430.514	88.31
430.736	100.31
430.958	91.31
431.18	95.31
431.402	76.31
431.624	93.31
431.846	93.31
432.068	76.31
432.29	87.31
432.512	86.31
432.734	100.31
432.956	93.31
433.178	106.31
433.4	107.31
433.622	84.31
433.844	89.31
434.066	99.31
434.287	106.31
434.509	104.31
434.731	88.31
434.953	85.31
435.175	90.31
435.397	91.31
435.618	78.31
435.84	96.31
436.062	121.31
436.284	109.31
436.505	95.31
436.727	109.31
436.949	94.31
437.17	87.31
437.392	87.31
437.614	81.31
437.835	110.31
438.057	112.31
438.278	114.31
438.5	105.31
438.721	126.31
438.943	108.31
439.165	88.31
439.386	87.31
439.608	84.31
439.829	111.31
440.05	139.31
440.272	140.31
440.493	95.31
440.715	76.31
440.936	81.31
441.158	90.31
441.379	94.31
441.6	98.31
441.822	84.31
442.043	102.31
442.264	114.31
442.486	103.31
442.707	98.31
442.928	97.31
443.149	101.31
443.371	139.31
443.592	120.31
443.813	113.31
444.034	102.31
444.255	86.31
444.476	74.31
444.698	74.31
444.919	86.31
445.14	138.31
445.361	113.31
445.582	112.31
445.803	141.31
446.024	142.31
446.245	144.31
446.466	112.31
446.687	82.31
446.908	89.31
447.129	70.31
447.35	95.31
447.571	96.31
447.792	101.31
448.013	93.31
448.234	124.31
448.455	102.31
448.675	102.31
448.896	127.31
449.117	106.31
449.338	97.31
449.559	131.31
449.779	125.31
450	101.31
450.221	110.31
450.442	87.31
450.662	88.31
450.883	125.31
451.104	116.31
451.324	102.31
451.545	93.31
451.766	80.31
451.986	85.31
452.207	88.31
452.428	95.31
452.648	100.31
452.869	112.31
453.089	123.31
453.31	122.31
453.53	96.31
453.751	105.31
453.971	105.31
454.192	104.31
454.412	108.31
454.633	94.31
454.853	89.31
455.073	91.31
455.294	83.31
455.514	94.31
455.734	90.31
455.955	89.31
456.175	91.31
456.395	82.31
456.616	77.31
456.836	97.31
457.056	77.31
457.276	79.31
457.497	90.31
457.717	96.31
457.937	84.31
458.157	83.31
458.377	97.31
458.598	102.31
458.818	168.31
459.038	173.31
459.258	123.31
459.478	94.31
459.698	91.31
459.918	85.31
460.138	92.31
460.358	89.31
460.578	84.31
460.798	80.31
461.018	78.31
461.238	81.31
461.458	82.31
461.678	75.31
461.898	76.31
462.118	78.31
462.338	77.31
462.558	89.31
462.777	90.31
462.997	75.31
463.217	80.31
463.437	76.31
463.657	84.31
463.876	79.31
464.096	90.31
464.316	90.31
464.536	89.31
464.755	77.31
464.975	98.31
465.195	189.31
465.414	192.31
465.634	94.31
465.854	90.31
466.073	74.31
466.293	76.31
466.512	99.31
466.732	95.31
466.951	79.31
467.171	95.31
467.391	87.31
467.61	98.31
467.829	98.31
468.049	102.31
468.268	87.31
468.488	84.31
468.707	80.31
468.927	83.31
469.146	82.31
469.365	81.31
469.585	83.31
469.804	89.31
470.023	87.31
470.243	96.31
470.462	102.31
470.681	112.31
470.901	94.31
471.12	71.31
471.339	84.31
471.558	74.31
471.777	72.31
471.997	72.31
472.216	98.31
472.435	118.31
472.654	102.31
472.873	79.31
473.092	77.31
473.311	84.31
473.53	81.31
473.749	94.31
473.968	95.31
474.187	96.31
474.406	85.31
474.625	87.31
474.844	81.31
475.063	95.31
475.282	94.31
475.501	88.31
475.72	76.31
475.939	75.31
476.158	98.31
476.377	89.31
476.596	81.31
476.814	83.31
477.033	93.31
477.252	81.31
477.471	89.31
477.69	91.31
477.908	79.31
478.127	88.31
478.346	91.31
478.564	87.31
478.783	97.31
479.002	99.31
479.22	81.31
479.439	105.31
479.658	114.31
479.876	96.31
480.095	89.31
480.313	87.31
480.532	90.31
480.751	92.31
480.969	88.31
481.188	145.31
481.406	127.31
481.624	98.31
481.843	84.31
482.061	95.31
482.28	93.31
482.498	91.31
482.717	76.31
482.935	84.31
483.153	88.31
483.372	80.31
483.59	99.31
483.808	87.31
484.027	92.31
484.245	93.31
484.463	90.31
484.681	92.31
484.9	94.31
485.118	99.31
485.336	82.31
485.554	83.31
485.772	96.31
485.99	105.31
486.209	81.31
486.427	105.31
486.645	117.31
486.863	119.31
487.081	111.31
487.299	99.31
487.517	90.31
487.735	92.31
487.953	100.31
488.171	92.31
488.389	88.31
488.607	102.31
488.825	84.31
489.043	96.31
489.261	84.31
489.479	104.31
489.696	92.31
489.914	91.31
490.132	97.31
490.35	80.31
490.568	80.31
490.786	85.31
491.003	78.31
491.221	96.31
491.439	96.31
491.657	102.31
491.874	91.31
492.092	80.31
492.31	100.31
492.527	79.31
492.745	89.31
492.963	81.31
493.18	76.31
493.398	102.31
493.615	106.31
493.833	108.31
494.05	86.31
494.268	90.31
494.485	80.31
494.703	93.31
494.92	85.31
495.138	73.31
495.355	88.31
495.573	88.31
495.79	97.31
496.008	90.31
496.225	78.31
496.442	78.31
496.66	89.31
496.877	81.31
497.094	90.31
497.312	93.31
497.529	101.31
497.746	92.31
497.963	95.31
498.181	103.31
498.398	100.31
498.615	114.31
498.832	118.31
499.049	96.31
499.267	89.31
499.484	97.31
499.701	88.31
499.918	101.31
500.135	74.31
500.352	85.31
500.569	105.31
500.786	83.31
501.003	87.31
501.22	82.31
501.437	92.31
501.654	99.31
501.871	102.31
502.088	84.31
502.305	84.31
502.522	88.31
502.739	85.31
502.956	94.31
503.172	74.31
503.389	91.31
503.606	114.31
503.823	94.31
504.04	87.31
504.256	90.31
504.473	89.31
504.69	96.31
504.907	103.31
505.123	90.31
505.34	98.31
505.557	89.31
505.773	85.31
505.99	76.31
506.207	83.31
506.423	89.31
506.64	94.31
506.856	96.31
507.073	93.31
507.289	84.31
507.506	88.31
507.722	119.31
507.939	115.31
508.155	100.31
508.372	91.31
508.588	84.31
508.805	99.31
509.021	75.31
509.238	83.31
509.454	97.31
509.67	105.31
509.887	114.31
510.103	144.31
510.319	243.31
510.536	851.31
510.752	2939.31
510.968	787.31
511.184	164.31
511.401	128.31
511.617	99.31
511.833	113.31
512.049	79.31
512.265	83.31
512.481	82.31
512.698	89.31
512.914	77.31
513.13	74.31
513.346	99.31
513.562	122.31
513.778	106.31
513.994	105.31
514.21	105.31
514.426	125.31
514.642	148.31
514.858	133.31
515.074	178.31
515.29	549.31
