Data from Circ_2008_H10_HRD10591_00090.txt Node
Date: Wed Jan 03 10:17:14 EST 2024
User: Yrep
Spectrometer: HR+D1059
Trigger mode: 1
Integration Time (sec): 1.000000E-1
Scans to average: 1
Electric dark correction enabled: true
Nonlinearity correction enabled: false
Boxcar width: 0
XAxis mode: Wavelengths
Number of Pixels in Spectrum: 2048
>>>>>Begin Spectral Data<<<<<
223.165	-11.38
223.4	-11.38
223.635	-11.38
223.869	-13.38
224.104	-33.38
224.338	-11.38
224.573	-15.38
224.808	-3.38
225.042	-3.38
225.277	1.62
225.511	-3.38
225.746	-5.38
225.98	6.62
226.215	14.62
226.449	15.62
226.683	12.62
226.918	23.62
227.152	25.62
227.387	34.62
227.621	35.62
227.856	37.62
228.09	59.62
228.324	40.62
228.559	60.62
228.793	60.62
229.027	66.62
229.262	72.62
229.496	77.62
229.73	91.62
229.964	90.62
230.199	73.62
230.433	78.62
230.667	88.62
230.901	60.62
231.136	77.62
231.37	78.62
231.604	84.62
231.838	81.62
232.072	65.62
232.306	76.62
232.541	69.62
232.775	77.62
233.009	68.62
233.243	77.62
233.477	80.62
233.711	73.62
233.945	77.62
234.179	72.62
234.413	82.62
234.647	73.62
234.881	86.62
235.115	79.62
235.349	84.62
235.583	89.62
235.817	80.62
236.051	70.62
236.285	86.62
236.519	82.62
236.753	81.62
236.987	77.62
237.221	92.62
237.455	83.62
237.689	77.62
237.922	82.62
238.156	82.62
238.39	73.62
238.624	62.62
238.858	78.62
239.091	81.62
239.325	83.62
239.559	93.62
239.793	79.62
240.027	86.62
240.26	81.62
240.494	85.62
240.728	68.62
240.961	75.62
241.195	90.62
241.429	60.62
241.662	68.62
241.896	76.62
242.13	72.62
242.363	80.62
242.597	75.62
242.83	65.62
243.064	94.62
243.298	75.62
243.531	84.62
243.765	54.62
243.998	64.62
244.232	81.62
244.465	73.62
244.699	88.62
244.932	70.62
245.166	89.62
245.399	81.62
245.633	72.62
245.866	83.62
246.099	68.62
246.333	89.62
246.566	73.62
246.8	78.62
247.033	97.62
247.266	82.62
247.5	75.62
247.733	65.62
247.966	82.62
248.2	72.62
248.433	71.62
248.666	90.62
248.899	96.62
249.133	89.62
249.366	94.62
249.599	102.62
249.832	77.62
250.066	81.62
250.299	85.62
250.532	91.62
250.765	78.62
250.998	84.62
251.231	90.62
251.465	73.62
251.698	84.62
251.931	76.62
252.164	76.62
252.397	89.62
252.63	79.62
252.863	81.62
253.096	80.62
253.329	65.62
253.562	78.62
253.795	91.62
254.028	66.62
254.261	97.62
254.494	88.62
254.727	76.62
254.96	83.62
255.193	78.62
255.426	76.62
255.659	73.62
255.892	86.62
256.124	84.62
256.357	87.62
256.59	81.62
256.823	78.62
257.056	71.62
257.289	82.62
257.521	82.62
257.754	69.62
257.987	82.62
258.22	78.62
258.452	91.62
258.685	86.62
258.918	74.62
259.151	74.62
259.383	90.62
259.616	75.62
259.849	77.62
260.081	76.62
260.314	90.62
260.547	76.62
260.779	87.62
261.012	90.62
261.244	84.62
261.477	100.62
261.71	95.62
261.942	94.62
262.175	114.62
262.407	83.62
262.64	82.62
262.872	91.62
263.105	88.62
263.337	76.62
263.57	90.62
263.802	86.62
264.035	75.62
264.267	79.62
264.499	84.62
264.732	81.62
264.964	88.62
265.197	91.62
265.429	78.62
265.661	61.62
265.894	88.62
266.126	76.62
266.358	74.62
266.591	83.62
266.823	80.62
267.055	82.62
267.287	80.62
267.52	89.62
267.752	80.62
267.984	80.62
268.216	80.62
268.448	77.62
268.681	89.62
268.913	91.62
269.145	81.62
269.377	89.62
269.609	83.62
269.841	79.62
270.073	87.62
270.306	96.62
270.538	70.62
270.77	81.62
271.002	86.62
271.234	75.62
271.466	84.62
271.698	93.62
271.93	70.62
272.162	64.62
272.394	81.62
272.626	78.62
272.858	93.62
273.09	86.62
273.322	80.62
273.553	89.62
273.785	97.62
274.017	78.62
274.249	90.62
274.481	98.62
274.713	80.62
274.945	72.62
275.176	81.62
275.408	93.62
275.64	87.62
275.872	94.62
276.104	104.62
276.335	100.62
276.567	105.62
276.799	117.62
277.031	114.62
277.262	109.62
277.494	92.62
277.726	87.62
277.957	87.62
278.189	78.62
278.421	74.62
278.652	94.62
278.884	88.62
279.115	92.62
279.347	90.62
279.579	80.62
279.81	102.62
280.042	120.62
280.273	120.62
280.505	104.62
280.736	95.62
280.968	91.62
281.199	85.62
281.431	76.62
281.662	80.62
281.894	88.62
282.125	109.62
282.356	130.62
282.588	153.62
282.819	124.62
283.051	88.62
283.282	79.62
283.513	86.62
283.745	92.62
283.976	75.62
284.207	89.62
284.439	64.62
284.67	94.62
284.901	77.62
285.132	83.62
285.364	97.62
285.595	81.62
285.826	82.62
286.057	99.62
286.288	76.62
286.52	88.62
286.751	96.62
286.982	83.62
287.213	100.62
287.444	81.62
287.675	90.62
287.906	84.62
288.138	94.62
288.369	86.62
288.6	79.62
288.831	89.62
289.062	89.62
289.293	84.62
289.524	79.62
289.755	73.62
289.986	98.62
290.217	90.62
290.448	79.62
290.679	81.62
290.91	82.62
291.141	82.62
291.371	97.62
291.602	90.62
291.833	88.62
292.064	96.62
292.295	83.62
292.526	93.62
292.757	91.62
292.987	93.62
293.218	76.62
293.449	79.62
293.68	91.62
293.91	89.62
294.141	92.62
294.372	91.62
294.603	85.62
294.833	80.62
295.064	86.62
295.295	80.62
295.525	84.62
295.756	94.62
295.987	123.62
296.217	156.62
296.448	125.62
296.679	94.62
296.909	83.62
297.14	95.62
297.37	89.62
297.601	81.62
297.831	94.62
298.062	86.62
298.292	100.62
298.523	83.62
298.753	92.62
298.984	80.62
299.214	85.62
299.445	72.62
299.675	96.62
299.905	108.62
300.136	94.62
300.366	88.62
300.597	99.62
300.827	98.62
301.057	97.62
301.288	108.62
301.518	92.62
301.748	78.62
301.979	103.62
302.209	89.62
302.439	84.62
302.669	77.62
302.9	101.62
303.13	76.62
303.36	96.62
303.59	106.62
303.82	119.62
304.051	90.62
304.281	84.62
304.511	94.62
304.741	81.62
304.971	86.62
305.201	86.62
305.431	83.62
305.661	86.62
305.891	88.62
306.121	112.62
306.352	106.62
306.582	110.62
306.812	101.62
307.042	97.62
307.272	105.62
307.502	120.62
307.731	113.62
307.961	102.62
308.191	95.62
308.421	77.62
308.651	75.62
308.881	92.62
309.111	92.62
309.341	97.62
309.571	111.62
309.8	106.62
310.03	97.62
310.26	104.62
310.49	77.62
310.72	101.62
310.949	116.62
311.179	100.62
311.409	92.62
311.639	89.62
311.868	93.62
312.098	93.62
312.328	92.62
312.557	100.62
312.787	119.62
313.017	116.62
313.246	95.62
313.476	80.62
313.706	88.62
313.935	94.62
314.165	114.62
314.394	105.62
314.624	103.62
314.853	97.62
315.083	91.62
315.312	87.62
315.542	97.62
315.771	80.62
316.001	93.62
316.23	81.62
316.46	97.62
316.689	78.62
316.919	98.62
317.148	102.62
317.377	93.62
317.607	103.62
317.836	98.62
318.065	93.62
318.295	95.62
318.524	84.62
318.753	89.62
318.983	108.62
319.212	105.62
319.441	96.62
319.67	105.62
319.9	108.62
320.129	92.62
320.358	103.62
320.587	88.62
320.816	98.62
321.046	106.62
321.275	112.62
321.504	104.62
321.733	98.62
321.962	97.62
322.191	100.62
322.42	116.62
322.649	103.62
322.878	120.62
323.108	117.62
323.337	129.62
323.566	121.62
323.795	152.62
324.024	236.62
324.253	441.62
324.482	901.62
324.71	1828.62
324.939	2404.62
325.168	874.62
325.397	263.62
325.626	146.62
325.855	134.62
326.084	123.62
326.313	135.62
326.542	166.62
326.77	249.62
326.999	478.62
327.228	944.62
327.457	1791.62
327.686	1432.62
327.914	424.62
328.143	278.62
328.372	273.62
328.6	184.62
328.829	140.62
329.058	154.62
329.287	167.62
329.515	137.62
329.744	125.62
329.972	188.62
330.201	323.62
330.43	438.62
330.658	230.62
330.887	190.62
331.115	169.62
331.344	108.62
331.572	114.62
331.801	114.62
332.03	108.62
332.258	91.62
332.486	86.62
332.715	97.62
332.943	99.62
333.172	86.62
333.4	93.62
333.629	122.62
333.857	148.62
334.085	202.62
334.314	321.62
334.542	540.62
334.771	504.62
334.999	197.62
335.227	132.62
335.455	97.62
335.684	102.62
335.912	92.62
336.14	103.62
336.369	108.62
336.597	106.62
336.825	107.62
337.053	89.62
337.281	93.62
337.51	79.62
337.738	83.62
337.966	89.62
338.194	86.62
338.422	100.62
338.65	97.62
338.878	89.62
339.106	103.62
339.334	74.62
339.562	71.62
339.79	99.62
340.018	90.62
340.246	92.62
340.474	97.62
340.702	84.62
340.93	94.62
341.158	90.62
341.386	100.62
341.614	77.62
341.842	103.62
342.07	98.62
342.298	77.62
342.526	94.62
342.754	73.62
342.981	97.62
343.209	89.62
343.437	101.62
343.665	75.62
343.893	90.62
344.12	68.62
344.348	91.62
344.576	98.62
344.804	87.62
345.031	101.62
345.259	95.62
345.487	95.62
345.714	102.62
345.942	101.62
346.17	97.62
346.397	88.62
346.625	91.62
346.853	84.62
347.08	91.62
347.308	100.62
347.535	91.62
347.763	93.62
347.99	103.62
348.218	105.62
348.445	102.62
348.673	99.62
348.9	110.62
349.128	92.62
349.355	77.62
349.583	88.62
349.81	82.62
350.037	94.62
350.265	89.62
350.492	84.62
350.72	97.62
350.947	94.62
351.174	112.62
351.402	117.62
351.629	111.62
351.856	117.62
352.083	104.62
352.311	116.62
352.538	112.62
352.765	109.62
352.992	125.62
353.22	108.62
353.447	105.62
353.674	103.62
353.901	101.62
354.128	77.62
354.355	86.62
354.583	95.62
354.81	106.62
355.037	109.62
355.264	94.62
355.491	89.62
355.718	81.62
355.945	94.62
356.172	90.62
356.399	81.62
356.626	90.62
356.853	90.62
357.08	93.62
357.307	107.62
357.534	77.62
357.761	88.62
357.988	97.62
358.215	94.62
358.441	97.62
358.668	93.62
358.895	93.62
359.122	84.62
359.349	90.62
359.576	96.62
359.802	111.62
360.029	141.62
360.256	119.62
360.483	105.62
360.709	93.62
360.936	93.62
361.163	86.62
361.39	85.62
361.616	99.62
361.843	99.62
362.07	92.62
362.296	99.62
362.523	102.62
362.749	91.62
362.976	92.62
363.203	90.62
363.429	95.62
363.656	90.62
363.882	94.62
364.109	82.62
364.335	88.62
364.562	87.62
364.788	81.62
365.015	103.62
365.241	89.62
365.468	105.62
365.694	118.62
365.92	95.62
366.147	88.62
366.373	88.62
366.599	85.62
366.826	100.62
367.052	101.62
367.278	86.62
367.505	81.62
367.731	107.62
367.957	91.62
368.184	93.62
368.41	105.62
368.636	126.62
368.862	117.62
369.089	99.62
369.315	82.62
369.541	92.62
369.767	79.62
369.993	100.62
370.219	94.62
370.445	100.62
370.672	82.62
370.898	88.62
371.124	79.62
371.35	80.62
371.576	93.62
371.802	85.62
372.028	88.62
372.254	77.62
372.48	79.62
372.706	108.62
372.932	82.62
373.158	89.62
373.384	92.62
373.61	83.62
373.835	96.62
374.061	85.62
374.287	85.62
374.513	94.62
374.739	91.62
374.965	92.62
375.191	82.62
375.416	88.62
375.642	81.62
375.868	81.62
376.094	90.62
376.319	78.62
376.545	87.62
376.771	80.62
376.997	90.62
377.222	91.62
377.448	94.62
377.674	92.62
377.899	87.62
378.125	88.62
378.35	92.62
378.576	89.62
378.802	79.62
379.027	87.62
379.253	85.62
379.478	104.62
379.704	81.62
379.929	86.62
380.155	79.62
380.38	102.62
380.606	86.62
380.831	85.62
381.057	87.62
381.282	96.62
381.507	89.62
381.733	102.62
381.958	95.62
382.184	96.62
382.409	95.62
382.634	83.62
382.86	98.62
383.085	96.62
383.31	104.62
383.535	103.62
383.761	97.62
383.986	97.62
384.211	89.62
384.436	82.62
384.662	98.62
384.887	85.62
385.112	105.62
385.337	105.62
385.562	93.62
385.787	95.62
386.013	115.62
386.238	101.62
386.463	103.62
386.688	93.62
386.913	90.62
387.138	99.62
387.363	88.62
387.588	102.62
387.813	96.62
388.038	98.62
388.263	81.62
388.488	103.62
388.713	92.62
388.938	90.62
389.163	96.62
389.387	86.62
389.612	95.62
389.837	89.62
390.062	85.62
390.287	91.62
390.512	84.62
390.736	105.62
390.961	80.62
391.186	97.62
391.411	96.62
391.636	86.62
391.86	94.62
392.085	100.62
392.31	87.62
392.534	81.62
392.759	87.62
392.984	92.62
393.208	103.62
393.433	109.62
393.658	89.62
393.882	81.62
394.107	82.62
394.331	86.62
394.556	89.62
394.78	93.62
395.005	76.62
395.229	77.62
395.454	78.62
395.678	85.62
395.903	79.62
396.127	79.62
396.352	85.62
396.576	95.62
396.801	102.62
397.025	89.62
397.249	81.62
397.474	88.62
397.698	79.62
397.922	95.62
398.147	92.62
398.371	75.62
398.595	76.62
398.82	88.62
399.044	74.62
399.268	70.62
399.492	84.62
399.717	90.62
399.941	88.62
400.165	95.62
400.389	94.62
400.613	74.62
400.837	76.62
401.062	86.62
401.286	97.62
401.51	80.62
401.734	87.62
401.958	97.62
402.182	135.62
402.406	198.62
402.63	129.62
402.854	98.62
403.078	97.62
403.302	94.62
403.526	85.62
403.75	83.62
403.974	87.62
404.198	85.62
404.422	89.62
404.645	85.62
404.869	94.62
405.093	107.62
405.317	128.62
405.541	117.62
405.765	115.62
405.988	113.62
406.212	191.62
406.436	286.62
406.66	182.62
406.883	116.62
407.107	105.62
407.331	96.62
407.555	114.62
407.778	98.62
408.002	86.62
408.226	88.62
408.449	86.62
408.673	86.62
408.896	99.62
409.12	102.62
409.344	89.62
409.567	79.62
409.791	84.62
410.014	72.62
410.238	89.62
410.461	109.62
410.685	97.62
410.908	104.62
411.132	101.62
411.355	111.62
411.578	100.62
411.802	90.62
412.025	82.62
412.249	102.62
412.472	103.62
412.695	113.62
412.919	93.62
413.142	85.62
413.365	83.62
413.589	77.62
413.812	76.62
414.035	81.62
414.258	92.62
414.482	88.62
414.705	100.62
414.928	100.62
415.151	90.62
415.374	94.62
415.597	92.62
415.821	87.62
416.044	85.62
416.267	78.62
416.49	67.62
416.713	82.62
416.936	81.62
417.159	81.62
417.382	98.62
417.605	89.62
417.828	99.62
418.051	90.62
418.274	87.62
418.497	76.62
418.72	86.62
418.943	80.62
419.166	88.62
419.389	87.62
419.611	72.62
419.834	78.62
420.057	81.62
420.28	80.62
420.503	88.62
420.726	76.62
420.948	94.62
421.171	89.62
421.394	92.62
421.617	87.62
421.839	79.62
422.062	87.62
422.285	95.62
422.507	99.62
422.73	91.62
422.953	105.62
423.175	89.62
423.398	80.62
423.621	95.62
423.843	77.62
424.066	88.62
424.288	89.62
424.511	92.62
424.733	99.62
424.956	117.62
425.178	80.62
425.401	96.62
425.623	95.62
425.846	87.62
426.068	91.62
426.291	84.62
426.513	94.62
426.735	93.62
426.958	98.62
427.18	112.62
427.402	149.62
427.625	208.62
427.847	174.62
428.069	159.62
428.292	110.62
428.514	88.62
428.736	77.62
428.958	97.62
429.181	89.62
429.403	92.62
429.625	80.62
429.847	81.62
430.069	98.62
430.292	84.62
430.514	76.62
430.736	71.62
430.958	87.62
431.18	81.62
431.402	86.62
431.624	88.62
431.846	102.62
432.068	74.62
432.29	79.62
432.512	90.62
432.734	74.62
432.956	96.62
433.178	92.62
433.4	104.62
433.622	100.62
433.844	91.62
434.066	82.62
434.287	87.62
434.509	89.62
434.731	94.62
434.953	77.62
435.175	89.62
435.397	87.62
435.618	102.62
435.84	93.62
436.062	144.62
436.284	115.62
436.505	105.62
436.727	109.62
436.949	88.62
437.17	87.62
437.392	72.62
437.614	101.62
437.835	115.62
438.057	140.62
438.278	119.62
438.5	116.62
438.721	141.62
438.943	100.62
439.165	80.62
439.386	91.62
439.608	86.62
439.829	112.62
440.05	142.62
440.272	151.62
440.493	107.62
440.715	88.62
440.936	84.62
441.158	94.62
441.379	98.62
441.6	95.62
441.822	100.62
442.043	91.62
442.264	111.62
442.486	103.62
442.707	89.62
442.928	102.62
443.149	160.62
443.371	146.62
443.592	116.62
443.813	108.62
444.034	105.62
444.255	94.62
444.476	87.62
444.698	82.62
444.919	85.62
445.14	116.62
445.361	128.62
445.582	140.62
445.803	161.62
446.024	147.62
446.245	153.62
446.466	120.62
446.687	80.62
446.908	99.62
447.129	78.62
447.35	91.62
447.571	91.62
447.792	100.62
448.013	98.62
448.234	110.62
448.455	108.62
448.675	130.62
448.896	141.62
449.117	97.62
449.338	111.62
449.559	139.62
449.779	148.62
450	89.62
450.221	97.62
450.442	95.62
450.662	112.62
450.883	121.62
451.104	124.62
451.324	101.62
451.545	85.62
451.766	93.62
451.986	85.62
452.207	95.62
452.428	82.62
452.648	90.62
452.869	117.62
453.089	138.62
453.31	132.62
453.53	94.62
453.751	104.62
453.971	99.62
454.192	122.62
454.412	89.62
454.633	99.62
454.853	101.62
455.073	77.62
455.294	97.62
455.514	106.62
455.734	96.62
455.955	88.62
456.175	92.62
456.395	100.62
456.616	90.62
456.836	92.62
457.056	89.62
457.276	82.62
457.497	72.62
457.717	86.62
457.937	77.62
458.157	98.62
458.377	75.62
458.598	106.62
458.818	172.62
459.038	204.62
459.258	136.62
459.478	95.62
459.698	104.62
459.918	86.62
460.138	87.62
460.358	93.62
460.578	92.62
460.798	93.62
461.018	96.62
461.238	81.62
461.458	79.62
461.678	92.62
461.898	92.62
462.118	74.62
462.338	85.62
462.558	75.62
462.777	98.62
462.997	92.62
463.217	89.62
463.437	84.62
463.657	94.62
463.876	80.62
464.096	90.62
464.316	88.62
464.536	88.62
464.755	92.62
464.975	113.62
465.195	198.62
465.414	207.62
465.634	93.62
465.854	82.62
466.073	83.62
466.293	82.62
466.512	90.62
466.732	88.62
466.951	89.62
467.171	80.62
467.391	89.62
467.61	116.62
467.829	129.62
468.049	205.62
468.268	240.62
468.488	107.62
468.707	84.62
468.927	83.62
469.146	93.62
469.365	84.62
469.585	81.62
469.804	100.62
470.023	108.62
470.243	90.62
470.462	124.62
470.681	124.62
470.901	98.62
471.12	88.62
471.339	92.62
471.558	102.62
471.777	103.62
471.997	146.62
472.216	315.62
472.435	621.62
472.654	203.62
472.873	106.62
473.092	93.62
473.311	85.62
473.53	92.62
473.749	89.62
473.968	96.62
474.187	104.62
474.406	116.62
474.625	91.62
474.844	100.62
475.063	90.62
475.282	80.62
475.501	88.62
475.72	100.62
475.939	90.62
476.158	77.62
476.377	90.62
476.596	86.62
476.814	80.62
477.033	100.62
477.252	90.62
477.471	97.62
477.69	89.62
477.908	95.62
478.127	89.62
478.346	91.62
478.564	94.62
478.783	100.62
479.002	92.62
479.22	110.62
479.439	105.62
479.658	113.62
479.876	95.62
480.095	100.62
480.313	97.62
480.532	99.62
480.751	133.62
480.969	310.62
481.188	1068.62
481.406	674.62
481.624	170.62
481.843	98.62
482.061	71.62
482.28	78.62
482.498	90.62
482.717	91.62
482.935	81.62
483.153	110.62
483.372	77.62
483.59	84.62
483.808	88.62
484.027	95.62
484.245	94.62
484.463	92.62
484.681	100.62
484.9	85.62
485.118	94.62
485.336	102.62
485.554	90.62
485.772	107.62
485.99	85.62
486.209	98.62
486.427	105.62
486.645	112.62
486.863	127.62
487.081	93.62
487.299	86.62
487.517	95.62
487.735	97.62
487.953	92.62
488.171	97.62
488.389	80.62
488.607	105.62
488.825	85.62
489.043	81.62
489.261	93.62
489.479	76.62
489.696	89.62
489.914	94.62
490.132	85.62
490.35	101.62
490.568	102.62
490.786	82.62
491.003	96.62
491.221	79.62
491.439	76.62
491.657	82.62
491.874	87.62
492.092	84.62
492.31	102.62
492.527	97.62
492.745	86.62
492.963	101.62
493.18	89.62
493.398	87.62
493.615	89.62
493.833	84.62
494.05	86.62
494.268	77.62
494.485	92.62
494.703	77.62
494.92	93.62
495.138	92.62
495.355	94.62
495.573	95.62
495.79	92.62
496.008	89.62
496.225	82.62
496.442	91.62
496.66	99.62
496.877	86.62
497.094	92.62
497.312	85.62
497.529	96.62
497.746	89.62
497.963	94.62
498.181	96.62
498.398	98.62
498.615	99.62
498.832	108.62
499.049	90.62
499.267	103.62
499.484	77.62
499.701	109.62
499.918	105.62
500.135	91.62
500.352	103.62
500.569	81.62
500.786	112.62
501.003	88.62
501.22	77.62
501.437	88.62
501.654	92.62
501.871	114.62
502.088	92.62
502.305	95.62
502.522	84.62
502.739	69.62
502.956	84.62
503.172	89.62
503.389	88.62
503.606	103.62
503.823	92.62
504.04	101.62
504.256	85.62
504.473	89.62
504.69	96.62
504.907	86.62
505.123	88.62
505.34	94.62
505.557	106.62
505.773	89.62
505.99	88.62
506.207	92.62
506.423	98.62
506.64	97.62
506.856	96.62
507.073	100.62
507.289	93.62
507.506	93.62
507.722	138.62
507.939	126.62
508.155	97.62
508.372	97.62
508.588	84.62
508.805	105.62
509.021	104.62
509.238	104.62
509.454	96.62
509.67	110.62
509.887	110.62
510.103	139.62
510.319	244.62
510.536	904.62
510.752	3082.62
510.968	832.62
511.184	189.62
511.401	122.62
511.617	120.62
511.833	93.62
512.049	102.62
512.265	96.62
512.481	87.62
512.698	95.62
512.914	97.62
513.13	100.62
513.346	100.62
513.562	88.62
513.778	88.62
513.994	101.62
514.21	102.62
514.426	130.62
514.642	164.62
514.858	137.62
515.074	197.62
