Data from Circ_2008_H10_HRD10591_00028.txt Node
Date: Wed Jan 03 10:17:01 EST 2024
User: Yrep
Spectrometer: HR+D1059
Trigger mode: 1
Integration Time (sec): 1.000000E-1
Scans to average: 1
Electric dark correction enabled: true
Nonlinearity correction enabled: false
Boxcar width: 0
XAxis mode: Wavelengths
Number of Pixels in Spectrum: 2048
>>>>>Begin Spectral Data<<<<<
223.165	-17.38
223.4	-17.38
223.635	-17.38
223.869	-14.38
224.104	-9.38
224.338	-21.38
224.573	-16.38
224.808	-13.38
225.042	-21.38
225.277	-6.38
225.511	-6.38
225.746	4.62
225.98	14.62
226.215	-1.38
226.449	16.62
226.683	23.62
226.918	29.62
227.152	38.62
227.387	35.62
227.621	39.62
227.856	42.62
228.09	47.62
228.324	49.62
228.559	57.62
228.793	51.62
229.027	63.62
229.262	53.62
229.496	79.62
229.73	79.62
229.964	82.62
230.199	87.62
230.433	83.62
230.667	62.62
230.901	65.62
231.136	71.62
231.37	80.62
231.604	90.62
231.838	81.62
232.072	75.62
232.306	84.62
232.541	94.62
232.775	76.62
233.009	90.62
233.243	86.62
233.477	77.62
233.711	85.62
233.945	78.62
234.179	81.62
234.413	78.62
234.647	91.62
234.881	67.62
235.115	79.62
235.349	74.62
235.583	75.62
235.817	102.62
236.051	90.62
236.285	82.62
236.519	80.62
236.753	78.62
236.987	76.62
237.221	89.62
237.455	86.62
237.689	86.62
237.922	91.62
238.156	68.62
238.39	70.62
238.624	78.62
238.858	91.62
239.091	92.62
239.325	76.62
239.559	83.62
239.793	83.62
240.027	83.62
240.26	70.62
240.494	65.62
240.728	77.62
240.961	70.62
241.195	66.62
241.429	69.62
241.662	68.62
241.896	80.62
242.13	92.62
242.363	94.62
242.597	88.62
242.83	88.62
243.064	87.62
243.298	79.62
243.531	78.62
243.765	78.62
243.998	83.62
244.232	69.62
244.465	93.62
244.699	89.62
244.932	77.62
245.166	81.62
245.399	74.62
245.633	82.62
245.866	80.62
246.099	83.62
246.333	83.62
246.566	85.62
246.8	75.62
247.033	83.62
247.266	69.62
247.5	84.62
247.733	67.62
247.966	69.62
248.2	88.62
248.433	77.62
248.666	72.62
248.899	70.62
249.133	97.62
249.366	105.62
249.599	99.62
249.832	85.62
250.066	85.62
250.299	99.62
250.532	72.62
250.765	73.62
250.998	89.62
251.231	90.62
251.465	86.62
251.698	90.62
251.931	94.62
252.164	69.62
252.397	73.62
252.63	84.62
252.863	94.62
253.096	83.62
253.329	80.62
253.562	81.62
253.795	84.62
254.028	84.62
254.261	93.62
254.494	70.62
254.727	86.62
254.96	88.62
255.193	96.62
255.426	75.62
255.659	84.62
255.892	91.62
256.124	79.62
256.357	85.62
256.59	76.62
256.823	84.62
257.056	90.62
257.289	87.62
257.521	84.62
257.754	84.62
257.987	82.62
258.22	91.62
258.452	94.62
258.685	94.62
258.918	77.62
259.151	92.62
259.383	89.62
259.616	82.62
259.849	75.62
260.081	86.62
260.314	87.62
260.547	83.62
260.779	91.62
261.012	91.62
261.244	86.62
261.477	84.62
261.71	90.62
261.942	107.62
262.175	132.62
262.407	104.62
262.64	88.62
262.872	75.62
263.105	90.62
263.337	85.62
263.57	69.62
263.802	92.62
264.035	91.62
264.267	77.62
264.499	81.62
264.732	78.62
264.964	64.62
265.197	94.62
265.429	79.62
265.661	77.62
265.894	84.62
266.126	85.62
266.358	88.62
266.591	91.62
266.823	93.62
267.055	95.62
267.287	75.62
267.52	80.62
267.752	90.62
267.984	77.62
268.216	86.62
268.448	94.62
268.681	91.62
268.913	84.62
269.145	88.62
269.377	94.62
269.609	85.62
269.841	81.62
270.073	89.62
270.306	89.62
270.538	79.62
270.77	80.62
271.002	89.62
271.234	71.62
271.466	84.62
271.698	74.62
271.93	85.62
272.162	82.62
272.394	86.62
272.626	90.62
272.858	89.62
273.09	91.62
273.322	93.62
273.553	74.62
273.785	88.62
274.017	82.62
274.249	91.62
274.481	97.62
274.713	90.62
274.945	84.62
275.176	107.62
275.408	87.62
275.64	99.62
275.872	96.62
276.104	83.62
276.335	97.62
276.567	94.62
276.799	111.62
277.031	103.62
277.262	83.62
277.494	91.62
277.726	93.62
277.957	95.62
278.189	84.62
278.421	81.62
278.652	78.62
278.884	97.62
279.115	87.62
279.347	94.62
279.579	89.62
279.81	87.62
280.042	110.62
280.273	105.62
280.505	90.62
280.736	84.62
280.968	89.62
281.199	81.62
281.431	94.62
281.662	89.62
281.894	87.62
282.125	98.62
282.356	119.62
282.588	143.62
282.819	122.62
283.051	93.62
283.282	97.62
283.513	97.62
283.745	96.62
283.976	92.62
284.207	95.62
284.439	90.62
284.67	77.62
284.901	76.62
285.132	82.62
285.364	83.62
285.595	121.62
285.826	81.62
286.057	87.62
286.288	79.62
286.52	79.62
286.751	91.62
286.982	89.62
287.213	85.62
287.444	76.62
287.675	96.62
287.906	93.62
288.138	97.62
288.369	97.62
288.6	90.62
288.831	90.62
289.062	85.62
289.293	83.62
289.524	93.62
289.755	93.62
289.986	107.62
290.217	87.62
290.448	93.62
290.679	84.62
290.91	97.62
291.141	87.62
291.371	88.62
291.602	100.62
291.833	86.62
292.064	90.62
292.295	101.62
292.526	92.62
292.757	93.62
292.987	94.62
293.218	92.62
293.449	93.62
293.68	98.62
293.91	75.62
294.141	95.62
294.372	87.62
294.603	93.62
294.833	78.62
295.064	91.62
295.295	93.62
295.525	93.62
295.756	104.62
295.987	133.62
296.217	147.62
296.448	148.62
296.679	86.62
296.909	91.62
297.14	96.62
297.37	105.62
297.601	108.62
297.831	74.62
298.062	96.62
298.292	92.62
298.523	79.62
298.753	83.62
298.984	79.62
299.214	92.62
299.445	83.62
299.675	91.62
299.905	109.62
300.136	97.62
300.366	98.62
300.597	94.62
300.827	100.62
301.057	104.62
301.288	110.62
301.518	84.62
301.748	85.62
301.979	96.62
302.209	97.62
302.439	100.62
302.669	91.62
302.9	102.62
303.13	91.62
303.36	106.62
303.59	96.62
303.82	100.62
304.051	102.62
304.281	93.62
304.511	101.62
304.741	88.62
304.971	95.62
305.201	106.62
305.431	101.62
305.661	90.62
305.891	101.62
306.121	104.62
306.352	108.62
306.582	98.62
306.812	71.62
307.042	96.62
307.272	91.62
307.502	75.62
307.731	97.62
307.961	97.62
308.191	89.62
308.421	93.62
308.651	92.62
308.881	90.62
309.111	107.62
309.341	103.62
309.571	94.62
309.8	100.62
310.03	108.62
310.26	95.62
310.49	91.62
310.72	95.62
310.949	98.62
311.179	107.62
311.409	100.62
311.639	113.62
311.868	110.62
312.098	95.62
312.328	95.62
312.557	111.62
312.787	95.62
313.017	94.62
313.246	109.62
313.476	95.62
313.706	94.62
313.935	109.62
314.165	86.62
314.394	107.62
314.624	103.62
314.853	92.62
315.083	82.62
315.312	106.62
315.542	92.62
315.771	103.62
316.001	101.62
316.23	94.62
316.46	99.62
316.689	103.62
316.919	92.62
317.148	90.62
317.377	91.62
317.607	91.62
317.836	105.62
318.065	86.62
318.295	84.62
318.524	95.62
318.753	85.62
318.983	111.62
319.212	116.62
319.441	110.62
319.67	115.62
319.9	85.62
320.129	84.62
320.358	90.62
320.587	97.62
320.816	93.62
321.046	87.62
321.275	104.62
321.504	99.62
321.733	109.62
321.962	101.62
322.191	106.62
322.42	109.62
322.649	99.62
322.878	108.62
323.108	114.62
323.337	129.62
323.566	142.62
323.795	161.62
324.024	191.62
324.253	367.62
324.482	770.62
324.71	1545.62
324.939	2012.62
325.168	776.62
325.397	231.62
325.626	157.62
325.855	123.62
326.084	122.62
326.313	129.62
326.542	138.62
326.77	212.62
326.999	410.62
327.228	831.62
327.457	1496.62
327.686	1217.62
327.914	363.62
328.143	214.62
328.372	145.62
328.6	113.62
328.829	135.62
329.058	125.62
329.287	145.62
329.515	109.62
329.744	110.62
329.972	109.62
330.201	132.62
330.43	127.62
330.658	124.62
330.887	138.62
331.115	121.62
331.344	89.62
331.572	108.62
331.801	98.62
332.03	100.62
332.258	106.62
332.486	86.62
332.715	98.62
332.943	110.62
333.172	110.62
333.4	120.62
333.629	109.62
333.857	122.62
334.085	112.62
334.314	123.62
334.542	145.62
334.771	127.62
334.999	91.62
335.227	96.62
335.455	91.62
335.684	94.62
335.912	101.62
336.14	99.62
336.369	102.62
336.597	100.62
336.825	111.62
337.053	103.62
337.281	104.62
337.51	107.62
337.738	105.62
337.966	95.62
338.194	109.62
338.422	85.62
338.65	89.62
338.878	93.62
339.106	89.62
339.334	83.62
339.562	85.62
339.79	103.62
340.018	110.62
340.246	97.62
340.474	84.62
340.702	89.62
340.93	92.62
341.158	95.62
341.386	102.62
341.614	108.62
341.842	94.62
342.07	76.62
342.298	104.62
342.526	96.62
342.754	102.62
342.981	85.62
343.209	95.62
343.437	121.62
343.665	108.62
343.893	109.62
344.12	102.62
344.348	103.62
344.576	96.62
344.804	103.62
345.031	101.62
345.259	110.62
345.487	87.62
345.714	91.62
345.942	105.62
346.17	98.62
346.397	86.62
346.625	102.62
346.853	94.62
347.08	87.62
347.308	105.62
347.535	94.62
347.763	116.62
347.99	94.62
348.218	101.62
348.445	102.62
348.673	104.62
348.9	101.62
349.128	90.62
349.355	114.62
349.583	82.62
349.81	92.62
350.037	95.62
350.265	103.62
350.492	93.62
350.72	91.62
350.947	98.62
351.174	117.62
351.402	115.62
351.629	99.62
351.856	103.62
352.083	97.62
352.311	109.62
352.538	117.62
352.765	96.62
352.992	87.62
353.22	111.62
353.447	109.62
353.674	98.62
353.901	95.62
354.128	114.62
354.355	103.62
354.583	97.62
354.81	98.62
355.037	99.62
355.264	112.62
355.491	98.62
355.718	95.62
355.945	109.62
356.172	88.62
356.399	98.62
356.626	98.62
356.853	102.62
357.08	96.62
357.307	96.62
357.534	91.62
357.761	93.62
357.988	85.62
358.215	97.62
358.441	88.62
358.668	85.62
358.895	99.62
359.122	95.62
359.349	90.62
359.576	102.62
359.802	112.62
360.029	117.62
360.256	121.62
360.483	96.62
360.709	91.62
360.936	91.62
361.163	80.62
361.39	96.62
361.616	89.62
361.843	97.62
362.07	92.62
362.296	98.62
362.523	100.62
362.749	89.62
362.976	82.62
363.203	93.62
363.429	98.62
363.656	104.62
363.882	93.62
364.109	94.62
364.335	104.62
364.562	91.62
364.788	95.62
365.015	90.62
365.241	110.62
365.468	108.62
365.694	114.62
365.92	96.62
366.147	87.62
366.373	98.62
366.599	108.62
366.826	87.62
367.052	87.62
367.278	109.62
367.505	102.62
367.731	103.62
367.957	101.62
368.184	92.62
368.41	104.62
368.636	110.62
368.862	140.62
369.089	108.62
369.315	90.62
369.541	89.62
369.767	86.62
369.993	81.62
370.219	104.62
370.445	94.62
370.672	98.62
370.898	105.62
371.124	77.62
371.35	80.62
371.576	80.62
371.802	94.62
372.028	78.62
372.254	90.62
372.48	91.62
372.706	82.62
372.932	97.62
373.158	88.62
373.384	109.62
373.61	82.62
373.835	87.62
374.061	92.62
374.287	100.62
374.513	95.62
374.739	98.62
374.965	92.62
375.191	79.62
375.416	94.62
375.642	106.62
375.868	98.62
376.094	92.62
376.319	85.62
376.545	101.62
376.771	83.62
376.997	93.62
377.222	106.62
377.448	102.62
377.674	94.62
377.899	87.62
378.125	91.62
378.35	86.62
378.576	96.62
378.802	81.62
379.027	85.62
379.253	84.62
379.478	93.62
379.704	85.62
379.929	95.62
380.155	97.62
380.38	100.62
380.606	103.62
380.831	106.62
381.057	97.62
381.282	93.62
381.507	96.62
381.733	86.62
381.958	106.62
382.184	98.62
382.409	121.62
382.634	113.62
382.86	108.62
383.085	113.62
383.31	118.62
383.535	108.62
383.761	104.62
383.986	107.62
384.211	101.62
384.436	107.62
384.662	102.62
384.887	91.62
385.112	109.62
385.337	113.62
385.562	110.62
385.787	115.62
386.013	127.62
386.238	109.62
386.463	110.62
386.688	120.62
386.913	104.62
387.138	107.62
387.363	100.62
387.588	98.62
387.813	108.62
388.038	109.62
388.263	118.62
388.488	122.62
388.713	95.62
388.938	97.62
389.163	102.62
389.387	108.62
389.612	92.62
389.837	88.62
390.062	101.62
390.287	90.62
390.512	91.62
390.736	94.62
390.961	76.62
391.186	80.62
391.411	96.62
391.636	102.62
391.86	97.62
392.085	85.62
392.31	95.62
392.534	70.62
392.759	90.62
392.984	94.62
393.208	94.62
393.433	89.62
393.658	108.62
393.882	92.62
394.107	75.62
394.331	102.62
394.556	97.62
394.78	85.62
395.005	82.62
395.229	93.62
395.454	75.62
395.678	89.62
395.903	90.62
396.127	96.62
396.352	84.62
396.576	89.62
396.801	96.62
397.025	93.62
397.249	86.62
397.474	82.62
397.698	86.62
397.922	81.62
398.147	91.62
398.371	91.62
398.595	94.62
398.82	79.62
399.044	86.62
399.268	75.62
399.492	95.62
399.717	75.62
399.941	107.62
400.165	106.62
400.389	87.62
400.613	98.62
400.837	78.62
401.062	93.62
401.286	95.62
401.51	102.62
401.734	90.62
401.958	107.62
402.182	137.62
402.406	178.62
402.63	114.62
402.854	98.62
403.078	86.62
403.302	100.62
403.526	103.62
403.75	93.62
403.974	87.62
404.198	96.62
404.422	92.62
404.645	99.62
404.869	106.62
405.093	107.62
405.317	103.62
405.541	99.62
405.765	102.62
405.988	127.62
406.212	189.62
406.436	253.62
406.66	143.62
406.883	119.62
407.107	112.62
407.331	96.62
407.555	85.62
407.778	86.62
408.002	99.62
408.226	96.62
408.449	82.62
408.673	91.62
408.896	99.62
409.12	72.62
409.344	88.62
409.567	105.62
409.791	90.62
410.014	108.62
410.238	107.62
410.461	79.62
410.685	101.62
410.908	100.62
411.132	98.62
411.355	87.62
411.578	88.62
411.802	92.62
412.025	90.62
412.249	91.62
412.472	101.62
412.695	96.62
412.919	104.62
413.142	101.62
413.365	100.62
413.589	80.62
413.812	84.62
414.035	90.62
414.258	94.62
414.482	92.62
414.705	79.62
414.928	96.62
415.151	102.62
415.374	97.62
415.597	87.62
415.821	95.62
416.044	97.62
416.267	103.62
416.49	85.62
416.713	99.62
416.936	86.62
417.159	72.62
417.382	84.62
417.605	98.62
417.828	98.62
418.051	91.62
418.274	99.62
418.497	94.62
418.72	91.62
418.943	93.62
419.166	106.62
419.389	81.62
419.611	98.62
419.834	81.62
420.057	70.62
420.28	100.62
420.503	91.62
420.726	80.62
420.948	90.62
421.171	105.62
421.394	94.62
421.617	105.62
421.839	87.62
422.062	102.62
422.285	93.62
422.507	89.62
422.73	106.62
422.953	94.62
423.175	87.62
423.398	85.62
423.621	91.62
423.843	92.62
424.066	100.62
424.288	84.62
424.511	89.62
424.733	97.62
424.956	111.62
425.178	103.62
425.401	94.62
425.623	100.62
425.846	86.62
426.068	93.62
426.291	97.62
426.513	95.62
426.735	68.62
426.958	86.62
427.18	90.62
427.402	123.62
427.625	180.62
427.847	125.62
428.069	111.62
428.292	102.62
428.514	96.62
428.736	87.62
428.958	89.62
429.181	90.62
429.403	93.62
429.625	77.62
429.847	101.62
430.069	100.62
430.292	85.62
430.514	92.62
430.736	78.62
430.958	92.62
431.18	84.62
431.402	97.62
431.624	86.62
431.846	77.62
432.068	87.62
432.29	97.62
432.512	80.62
432.734	89.62
432.956	83.62
433.178	96.62
433.4	98.62
433.622	96.62
433.844	90.62
434.066	94.62
434.287	96.62
434.509	83.62
434.731	86.62
434.953	100.62
435.175	100.62
435.397	92.62
435.618	97.62
435.84	87.62
436.062	113.62
436.284	97.62
436.505	107.62
436.727	98.62
436.949	95.62
437.17	100.62
437.392	96.62
437.614	93.62
437.835	107.62
438.057	126.62
438.278	99.62
438.5	102.62
438.721	139.62
438.943	94.62
439.165	97.62
439.386	88.62
439.608	84.62
439.829	93.62
440.05	111.62
440.272	135.62
440.493	95.62
440.715	99.62
440.936	78.62
441.158	90.62
441.379	86.62
441.6	96.62
441.822	95.62
442.043	99.62
442.264	107.62
442.486	103.62
442.707	91.62
442.928	115.62
443.149	130.62
443.371	129.62
443.592	109.62
443.813	100.62
444.034	95.62
444.255	95.62
444.476	98.62
444.698	107.62
444.919	91.62
445.14	134.62
445.361	131.62
445.582	114.62
445.803	129.62
446.024	136.62
446.245	126.62
446.466	114.62
446.687	91.62
446.908	83.62
447.129	95.62
447.35	103.62
447.571	96.62
447.792	92.62
448.013	95.62
448.234	116.62
448.455	113.62
448.675	92.62
448.896	118.62
449.117	92.62
449.338	98.62
449.559	134.62
449.779	117.62
450	92.62
450.221	86.62
450.442	94.62
450.662	108.62
450.883	105.62
451.104	116.62
451.324	95.62
451.545	85.62
451.766	89.62
451.986	89.62
452.207	96.62
452.428	85.62
452.648	103.62
452.869	100.62
453.089	112.62
453.31	122.62
453.53	99.62
453.751	91.62
453.971	105.62
454.192	118.62
454.412	98.62
454.633	94.62
454.853	77.62
455.073	96.62
455.294	81.62
455.514	97.62
455.734	84.62
455.955	95.62
456.175	91.62
456.395	104.62
456.616	82.62
456.836	99.62
457.056	95.62
457.276	91.62
457.497	93.62
457.717	101.62
457.937	103.62
458.157	83.62
458.377	86.62
458.598	103.62
458.818	150.62
459.038	171.62
459.258	121.62
459.478	93.62
459.698	100.62
459.918	94.62
460.138	76.62
460.358	85.62
460.578	88.62
460.798	87.62
461.018	99.62
461.238	83.62
461.458	90.62
461.678	98.62
461.898	81.62
462.118	107.62
462.338	95.62
462.558	90.62
462.777	94.62
462.997	106.62
463.217	104.62
463.437	83.62
463.657	85.62
463.876	87.62
464.096	90.62
464.316	92.62
464.536	110.62
464.755	100.62
464.975	112.62
465.195	191.62
465.414	159.62
465.634	111.62
465.854	88.62
466.073	84.62
466.293	87.62
466.512	70.62
466.732	89.62
466.951	100.62
467.171	95.62
467.391	105.62
467.61	121.62
467.829	107.62
468.049	92.62
468.268	102.62
468.488	95.62
468.707	82.62
468.927	100.62
469.146	83.62
469.365	86.62
469.585	101.62
469.804	99.62
470.023	102.62
470.243	107.62
470.462	113.62
470.681	110.62
470.901	93.62
471.12	92.62
471.339	86.62
471.558	78.62
471.777	89.62
471.997	113.62
472.216	127.62
472.435	157.62
472.654	101.62
472.873	96.62
473.092	87.62
473.311	94.62
473.53	90.62
473.749	90.62
473.968	98.62
474.187	106.62
474.406	84.62
474.625	85.62
474.844	92.62
475.063	85.62
475.282	82.62
475.501	86.62
475.72	94.62
475.939	79.62
476.158	91.62
476.377	85.62
476.596	92.62
476.814	97.62
477.033	97.62
477.252	83.62
477.471	78.62
477.69	87.62
477.908	91.62
478.127	93.62
478.346	75.62
478.564	102.62
478.783	102.62
479.002	86.62
479.22	96.62
479.439	111.62
479.658	110.62
479.876	124.62
480.095	113.62
480.313	92.62
480.532	94.62
480.751	91.62
480.969	135.62
481.188	220.62
481.406	186.62
481.624	103.62
481.843	97.62
482.061	93.62
482.28	89.62
482.498	99.62
482.717	85.62
482.935	79.62
483.153	82.62
483.372	91.62
483.59	107.62
483.808	87.62
484.027	97.62
484.245	108.62
484.463	107.62
484.681	84.62
484.9	95.62
485.118	91.62
485.336	87.62
485.554	101.62
485.772	98.62
485.99	98.62
486.209	112.62
486.427	88.62
486.645	100.62
486.863	121.62
487.081	108.62
487.299	99.62
487.517	80.62
487.735	95.62
487.953	98.62
488.171	83.62
488.389	90.62
488.607	111.62
488.825	105.62
489.043	99.62
489.261	97.62
489.479	98.62
489.696	88.62
489.914	87.62
490.132	84.62
490.35	81.62
490.568	100.62
490.786	92.62
491.003	91.62
491.221	99.62
491.439	86.62
491.657	94.62
491.874	88.62
492.092	98.62
492.31	85.62
492.527	102.62
492.745	97.62
492.963	98.62
493.18	78.62
493.398	91.62
493.615	108.62
493.833	98.62
494.05	97.62
494.268	96.62
494.485	85.62
494.703	91.62
494.92	81.62
495.138	95.62
495.355	102.62
495.573	93.62
495.79	83.62
496.008	102.62
496.225	78.62
496.442	84.62
496.66	87.62
496.877	95.62
497.094	102.62
497.312	94.62
497.529	110.62
497.746	98.62
497.963	82.62
498.181	83.62
498.398	72.62
498.615	113.62
498.832	107.62
499.049	89.62
499.267	104.62
499.484	89.62
499.701	94.62
499.918	86.62
500.135	104.62
500.352	105.62
500.569	93.62
500.786	98.62
501.003	108.62
501.22	87.62
501.437	100.62
501.654	99.62
501.871	119.62
502.088	118.62
502.305	107.62
502.522	92.62
502.739	90.62
502.956	86.62
503.172	94.62
503.389	97.62
503.606	105.62
503.823	111.62
504.04	96.62
504.256	98.62
504.473	93.62
504.69	93.62
504.907	97.62
505.123	108.62
505.34	95.62
505.557	87.62
505.773	89.62
505.99	94.62
506.207	92.62
506.423	75.62
506.64	99.62
506.856	94.62
507.073	97.62
507.289	99.62
507.506	97.62
507.722	121.62
507.939	117.62
508.155	100.62
508.372	98.62
508.588	99.62
508.805	100.62
509.021	90.62
509.238	111.62
509.454	100.62
509.67	102.62
509.887	111.62
510.103	138.62
510.319	230.62
510.536	891.62
510.752	2899.62
510.968	809.62
511.184	185.62
511.401	113.62
511.617	98.62
511.833	100.62
512.049	92.62
512.265	87.62
512.481	88.62
512.698	93.62
512.914	94.62
513.13	91.62
513.346	86.62
513.562	114.62
513.778	102.62
513.994	104.62
514.21	106.62
