Data from Circ_2008_H10_HRD10591_00051.txt Node
Date: Wed Jan 03 10:17:06 EST 2024
User: Yrep
Spectrometer: HR+D1059
Trigger mode: 1
Integration Time (sec): 1.000000E-1
Scans to average: 1
Electric dark correction enabled: true
Nonlinearity correction enabled: false
Boxcar width: 0
XAxis mode: Wavelengths
Number of Pixels in Spectrum: 2048
>>>>>Begin Spectral Data<<<<<
223.165	-24.69
223.4	-24.69
223.635	-24.69
223.869	-25.69
224.104	-34.69
224.338	-19.69
224.573	-10.69
224.808	-2.69
225.042	-12.69
225.277	12.31
225.511	-8.69
225.746	8.31
225.98	1.31
226.215	20.31
226.449	22.31
226.683	12.31
226.918	22.31
227.152	40.31
227.387	26.31
227.621	28.31
227.856	26.31
228.09	58.31
228.324	63.31
228.559	50.31
228.793	39.31
229.027	68.31
229.262	64.31
229.496	75.31
229.73	73.31
229.964	82.31
230.199	88.31
230.433	68.31
230.667	77.31
230.901	81.31
231.136	82.31
231.37	85.31
231.604	74.31
231.838	81.31
232.072	78.31
232.306	85.31
232.541	69.31
232.775	77.31
233.009	78.31
233.243	84.31
233.477	82.31
233.711	86.31
233.945	79.31
234.179	64.31
234.413	69.31
234.647	84.31
234.881	80.31
235.115	91.31
235.349	75.31
235.583	76.31
235.817	64.31
236.051	85.31
236.285	87.31
236.519	72.31
236.753	72.31
236.987	78.31
237.221	101.31
237.455	82.31
237.689	68.31
237.922	60.31
238.156	68.31
238.39	77.31
238.624	69.31
238.858	78.31
239.091	71.31
239.325	90.31
239.559	78.31
239.793	76.31
240.027	87.31
240.26	80.31
240.494	85.31
240.728	81.31
240.961	67.31
241.195	85.31
241.429	84.31
241.662	87.31
241.896	73.31
242.13	71.31
242.363	84.31
242.597	84.31
242.83	68.31
243.064	75.31
243.298	67.31
243.531	73.31
243.765	78.31
243.998	84.31
244.232	57.31
244.465	81.31
244.699	68.31
244.932	82.31
245.166	87.31
245.399	82.31
245.633	77.31
245.866	76.31
246.099	80.31
246.333	71.31
246.566	82.31
246.8	81.31
247.033	70.31
247.266	82.31
247.5	89.31
247.733	76.31
247.966	80.31
248.2	74.31
248.433	69.31
248.666	81.31
248.899	63.31
249.133	83.31
249.366	100.31
249.599	97.31
249.832	80.31
250.066	78.31
250.299	68.31
250.532	85.31
250.765	81.31
250.998	86.31
251.231	80.31
251.465	86.31
251.698	87.31
251.931	95.31
252.164	76.31
252.397	77.31
252.63	90.31
252.863	80.31
253.096	73.31
253.329	80.31
253.562	84.31
253.795	84.31
254.028	77.31
254.261	74.31
254.494	86.31
254.727	91.31
254.96	74.31
255.193	86.31
255.426	76.31
255.659	58.31
255.892	71.31
256.124	81.31
256.357	88.31
256.59	72.31
256.823	81.31
257.056	77.31
257.289	77.31
257.521	88.31
257.754	79.31
257.987	82.31
258.22	88.31
258.452	87.31
258.685	74.31
258.918	79.31
259.151	78.31
259.383	77.31
259.616	86.31
259.849	85.31
260.081	87.31
260.314	86.31
260.547	78.31
260.779	81.31
261.012	98.31
261.244	101.31
261.477	97.31
261.71	96.31
261.942	100.31
262.175	102.31
262.407	89.31
262.64	85.31
262.872	77.31
263.105	93.31
263.337	87.31
263.57	92.31
263.802	97.31
264.035	74.31
264.267	64.31
264.499	72.31
264.732	90.31
264.964	82.31
265.197	80.31
265.429	77.31
265.661	81.31
265.894	85.31
266.126	86.31
266.358	92.31
266.591	96.31
266.823	85.31
267.055	76.31
267.287	82.31
267.52	85.31
267.752	96.31
267.984	62.31
268.216	86.31
268.448	76.31
268.681	80.31
268.913	81.31
269.145	84.31
269.377	81.31
269.609	92.31
269.841	76.31
270.073	77.31
270.306	77.31
270.538	77.31
270.77	70.31
271.002	75.31
271.234	81.31
271.466	83.31
271.698	86.31
271.93	85.31
272.162	82.31
272.394	86.31
272.626	74.31
272.858	71.31
273.09	95.31
273.322	82.31
273.553	76.31
273.785	82.31
274.017	82.31
274.249	71.31
274.481	85.31
274.713	83.31
274.945	78.31
275.176	87.31
275.408	87.31
275.64	85.31
275.872	90.31
276.104	86.31
276.335	83.31
276.567	81.31
276.799	102.31
277.031	112.31
277.262	90.31
277.494	97.31
277.726	94.31
277.957	81.31
278.189	83.31
278.421	82.31
278.652	88.31
278.884	83.31
279.115	77.31
279.347	85.31
279.579	86.31
279.81	89.31
280.042	76.31
280.273	78.31
280.505	88.31
280.736	87.31
280.968	86.31
281.199	70.31
281.431	79.31
281.662	77.31
281.894	93.31
282.125	84.31
282.356	112.31
282.588	134.31
282.819	116.31
283.051	97.31
283.282	101.31
283.513	80.31
283.745	95.31
283.976	86.31
284.207	85.31
284.439	85.31
284.67	93.31
284.901	75.31
285.132	80.31
285.364	72.31
285.595	96.31
285.826	92.31
286.057	90.31
286.288	76.31
286.52	88.31
286.751	83.31
286.982	88.31
287.213	90.31
287.444	92.31
287.675	84.31
287.906	80.31
288.138	93.31
288.369	94.31
288.6	92.31
288.831	80.31
289.062	79.31
289.293	86.31
289.524	81.31
289.755	80.31
289.986	94.31
290.217	88.31
290.448	68.31
290.679	95.31
290.91	74.31
291.141	91.31
291.371	101.31
291.602	82.31
291.833	91.31
292.064	79.31
292.295	86.31
292.526	91.31
292.757	88.31
292.987	76.31
293.218	77.31
293.449	88.31
293.68	108.31
293.91	75.31
294.141	95.31
294.372	83.31
294.603	87.31
294.833	77.31
295.064	97.31
295.295	100.31
295.525	87.31
295.756	93.31
295.987	116.31
296.217	123.31
296.448	113.31
296.679	94.31
296.909	94.31
297.14	84.31
297.37	86.31
297.601	91.31
297.831	82.31
298.062	102.31
298.292	70.31
298.523	82.31
298.753	97.31
298.984	70.31
299.214	93.31
299.445	81.31
299.675	95.31
299.905	89.31
300.136	73.31
300.366	86.31
300.597	97.31
300.827	87.31
301.057	88.31
301.288	101.31
301.518	101.31
301.748	92.31
301.979	96.31
302.209	87.31
302.439	87.31
302.669	81.31
302.9	87.31
303.13	89.31
303.36	80.31
303.59	84.31
303.82	100.31
304.051	103.31
304.281	92.31
304.511	83.31
304.741	85.31
304.971	96.31
305.201	89.31
305.431	91.31
305.661	88.31
305.891	89.31
306.121	80.31
306.352	96.31
306.582	109.31
306.812	86.31
307.042	88.31
307.272	82.31
307.502	95.31
307.731	81.31
307.961	94.31
308.191	82.31
308.421	87.31
308.651	85.31
308.881	100.31
309.111	86.31
309.341	104.31
309.571	81.31
309.8	81.31
310.03	87.31
310.26	98.31
310.49	96.31
310.72	91.31
310.949	111.31
311.179	91.31
311.409	96.31
311.639	104.31
311.868	96.31
312.098	92.31
312.328	85.31
312.557	94.31
312.787	100.31
313.017	109.31
313.246	94.31
313.476	84.31
313.706	87.31
313.935	99.31
314.165	98.31
314.394	90.31
314.624	89.31
314.853	97.31
315.083	94.31
315.312	91.31
315.542	93.31
315.771	82.31
316.001	86.31
316.23	88.31
316.46	93.31
316.689	94.31
316.919	93.31
317.148	93.31
317.377	95.31
317.607	91.31
317.836	90.31
318.065	89.31
318.295	70.31
318.524	86.31
318.753	91.31
318.983	97.31
319.212	88.31
319.441	92.31
319.67	107.31
319.9	93.31
320.129	92.31
320.358	86.31
320.587	83.31
320.816	91.31
321.046	96.31
321.275	85.31
321.504	90.31
321.733	82.31
321.962	101.31
322.191	98.31
322.42	95.31
322.649	98.31
322.878	102.31
323.108	114.31
323.337	102.31
323.566	126.31
323.795	138.31
324.024	170.31
324.253	316.31
324.482	654.31
324.71	1252.31
324.939	1617.31
325.168	630.31
325.397	203.31
325.626	119.31
325.855	128.31
326.084	103.31
326.313	122.31
326.542	133.31
326.77	185.31
326.999	356.31
327.228	675.31
327.457	1238.31
327.686	964.31
327.914	281.31
328.143	172.31
328.372	170.31
328.6	127.31
328.829	104.31
329.058	101.31
329.287	112.31
329.515	97.31
329.744	97.31
329.972	111.31
330.201	135.31
330.43	161.31
330.658	124.31
330.887	128.31
331.115	109.31
331.344	91.31
331.572	89.31
331.801	79.31
332.03	95.31
332.258	86.31
332.486	96.31
332.715	112.31
332.943	94.31
333.172	95.31
333.4	99.31
333.629	100.31
333.857	111.31
334.085	116.31
334.314	118.31
334.542	168.31
334.771	158.31
334.999	98.31
335.227	86.31
335.455	93.31
335.684	90.31
335.912	84.31
336.14	85.31
336.369	105.31
336.597	100.31
336.825	80.31
337.053	85.31
337.281	89.31
337.51	98.31
337.738	72.31
337.966	97.31
338.194	88.31
338.422	104.31
338.65	88.31
338.878	99.31
339.106	97.31
339.334	100.31
339.562	85.31
339.79	89.31
340.018	79.31
340.246	85.31
340.474	90.31
340.702	93.31
340.93	98.31
341.158	98.31
341.386	98.31
341.614	94.31
341.842	104.31
342.07	83.31
342.298	96.31
342.526	86.31
342.754	98.31
342.981	89.31
343.209	83.31
343.437	90.31
343.665	81.31
343.893	92.31
344.12	83.31
344.348	90.31
344.576	97.31
344.804	96.31
345.031	99.31
345.259	96.31
345.487	93.31
345.714	82.31
345.942	86.31
346.17	85.31
346.397	99.31
346.625	98.31
346.853	91.31
347.08	94.31
347.308	99.31
347.535	92.31
347.763	94.31
347.99	90.31
348.218	97.31
348.445	96.31
348.673	100.31
348.9	78.31
349.128	72.31
349.355	92.31
349.583	92.31
349.81	97.31
350.037	95.31
350.265	98.31
350.492	77.31
350.72	89.31
350.947	96.31
351.174	106.31
351.402	100.31
351.629	97.31
351.856	104.31
352.083	92.31
352.311	96.31
352.538	118.31
352.765	125.31
352.992	108.31
353.22	101.31
353.447	94.31
353.674	107.31
353.901	105.31
354.128	82.31
354.355	91.31
354.583	98.31
354.81	91.31
355.037	99.31
355.264	85.31
355.491	88.31
355.718	90.31
355.945	96.31
356.172	95.31
356.399	92.31
356.626	97.31
356.853	83.31
357.08	76.31
357.307	76.31
357.534	98.31
357.761	97.31
357.988	86.31
358.215	94.31
358.441	93.31
358.668	82.31
358.895	89.31
359.122	93.31
359.349	78.31
359.576	73.31
359.802	95.31
360.029	96.31
360.256	97.31
360.483	95.31
360.709	86.31
360.936	85.31
361.163	88.31
361.39	77.31
361.616	78.31
361.843	74.31
362.07	83.31
362.296	104.31
362.523	88.31
362.749	83.31
362.976	93.31
363.203	86.31
363.429	82.31
363.656	90.31
363.882	89.31
364.109	90.31
364.335	90.31
364.562	92.31
364.788	92.31
365.015	93.31
365.241	90.31
365.468	100.31
365.694	97.31
365.92	85.31
366.147	90.31
366.373	90.31
366.599	74.31
366.826	100.31
367.052	102.31
367.278	92.31
367.505	86.31
367.731	85.31
367.957	80.31
368.184	92.31
368.41	90.31
368.636	110.31
368.862	116.31
369.089	104.31
369.315	97.31
369.541	88.31
369.767	94.31
369.993	73.31
370.219	88.31
370.445	82.31
370.672	90.31
370.898	98.31
371.124	74.31
371.35	93.31
371.576	85.31
371.802	80.31
372.028	88.31
372.254	82.31
372.48	89.31
372.706	91.31
372.932	86.31
373.158	84.31
373.384	84.31
373.61	87.31
373.835	86.31
374.061	70.31
374.287	89.31
374.513	88.31
374.739	90.31
374.965	80.31
375.191	84.31
375.416	80.31
375.642	92.31
375.868	90.31
376.094	84.31
376.319	85.31
376.545	77.31
376.771	74.31
376.997	84.31
377.222	97.31
377.448	79.31
377.674	92.31
377.899	93.31
378.125	84.31
378.35	96.31
378.576	82.31
378.802	90.31
379.027	89.31
379.253	80.31
379.478	93.31
379.704	92.31
379.929	92.31
380.155	78.31
380.38	97.31
380.606	98.31
380.831	82.31
381.057	85.31
381.282	101.31
381.507	93.31
381.733	92.31
381.958	95.31
382.184	96.31
382.409	96.31
382.634	93.31
382.86	91.31
383.085	99.31
383.31	91.31
383.535	104.31
383.761	91.31
383.986	95.31
384.211	90.31
384.436	100.31
384.662	98.31
384.887	96.31
385.112	100.31
385.337	71.31
385.562	97.31
385.787	110.31
386.013	99.31
386.238	105.31
386.463	105.31
386.688	105.31
386.913	103.31
387.138	100.31
387.363	97.31
387.588	100.31
387.813	102.31
388.038	98.31
388.263	96.31
388.488	98.31
388.713	95.31
388.938	82.31
389.163	98.31
389.387	78.31
389.612	81.31
389.837	88.31
390.062	85.31
390.287	84.31
390.512	77.31
390.736	84.31
390.961	82.31
391.186	93.31
391.411	87.31
391.636	82.31
391.86	82.31
392.085	77.31
392.31	89.31
392.534	88.31
392.759	79.31
392.984	97.31
393.208	89.31
393.433	86.31
393.658	78.31
393.882	84.31
394.107	79.31
394.331	78.31
394.556	82.31
394.78	82.31
395.005	93.31
395.229	78.31
395.454	86.31
395.678	77.31
395.903	86.31
396.127	84.31
396.352	74.31
396.576	77.31
396.801	83.31
397.025	97.31
397.249	89.31
397.474	81.31
397.698	86.31
397.922	78.31
398.147	76.31
398.371	75.31
398.595	85.31
398.82	70.31
399.044	73.31
399.268	97.31
399.492	96.31
399.717	78.31
399.941	73.31
400.165	84.31
400.389	81.31
400.613	94.31
400.837	81.31
401.062	86.31
401.286	87.31
401.51	84.31
401.734	96.31
401.958	93.31
402.182	114.31
402.406	160.31
402.63	111.31
402.854	97.31
403.078	81.31
403.302	90.31
403.526	74.31
403.75	78.31
403.974	89.31
404.198	70.31
404.422	96.31
404.645	81.31
404.869	86.31
405.093	83.31
405.317	97.31
405.541	91.31
405.765	90.31
405.988	124.31
406.212	166.31
406.436	200.31
406.66	146.31
406.883	90.31
407.107	98.31
407.331	94.31
407.555	93.31
407.778	93.31
408.002	79.31
408.226	92.31
408.449	79.31
408.673	80.31
408.896	102.31
409.12	86.31
409.344	97.31
409.567	94.31
409.791	92.31
410.014	80.31
410.238	81.31
410.461	96.31
410.685	87.31
410.908	101.31
411.132	89.31
411.355	100.31
411.578	93.31
411.802	78.31
412.025	80.31
412.249	79.31
412.472	81.31
412.695	100.31
412.919	89.31
413.142	73.31
413.365	85.31
413.589	82.31
413.812	78.31
414.035	81.31
414.258	85.31
414.482	94.31
414.705	100.31
414.928	96.31
415.151	66.31
415.374	106.31
415.597	86.31
415.821	93.31
416.044	96.31
416.267	97.31
416.49	88.31
416.713	73.31
416.936	87.31
417.159	83.31
417.382	81.31
417.605	84.31
417.828	92.31
418.051	83.31
418.274	95.31
418.497	90.31
418.72	87.31
418.943	86.31
419.166	97.31
419.389	71.31
419.611	81.31
419.834	90.31
420.057	90.31
420.28	85.31
420.503	78.31
420.726	81.31
420.948	88.31
421.171	72.31
421.394	83.31
421.617	93.31
421.839	76.31
422.062	82.31
422.285	86.31
422.507	98.31
422.73	101.31
422.953	81.31
423.175	78.31
423.398	84.31
423.621	103.31
423.843	80.31
424.066	81.31
424.288	100.31
424.511	85.31
424.733	86.31
424.956	95.31
425.178	94.31
425.401	84.31
425.623	101.31
425.846	88.31
426.068	85.31
426.291	77.31
426.513	95.31
426.735	86.31
426.958	81.31
427.18	100.31
427.402	128.31
427.625	137.31
427.847	119.31
428.069	98.31
428.292	93.31
428.514	74.31
428.736	88.31
428.958	64.31
429.181	80.31
429.403	78.31
429.625	84.31
429.847	85.31
430.069	101.31
430.292	82.31
430.514	68.31
430.736	70.31
430.958	85.31
431.18	75.31
431.402	94.31
431.624	87.31
431.846	81.31
432.068	73.31
432.29	97.31
432.512	69.31
432.734	82.31
432.956	95.31
433.178	86.31
433.4	93.31
433.622	86.31
433.844	95.31
434.066	96.31
434.287	93.31
434.509	88.31
434.731	88.31
434.953	89.31
435.175	98.31
435.397	89.31
435.618	76.31
435.84	72.31
436.062	105.31
436.284	94.31
436.505	89.31
436.727	88.31
436.949	97.31
437.17	80.31
437.392	86.31
437.614	90.31
437.835	109.31
438.057	111.31
438.278	98.31
438.5	89.31
438.721	80.31
438.943	89.31
439.165	91.31
439.386	87.31
439.608	81.31
439.829	80.31
440.05	97.31
440.272	120.31
440.493	97.31
440.715	72.31
440.936	78.31
441.158	90.31
441.379	81.31
441.6	104.31
441.822	103.31
442.043	87.31
442.264	91.31
442.486	82.31
442.707	81.31
442.928	92.31
443.149	119.31
443.371	116.31
443.592	105.31
443.813	103.31
444.034	88.31
444.255	102.31
444.476	90.31
444.698	92.31
444.919	74.31
445.14	125.31
445.361	109.31
445.582	106.31
445.803	128.31
446.024	124.31
446.245	122.31
446.466	120.31
446.687	88.31
446.908	77.31
447.129	81.31
447.35	93.31
447.571	88.31
447.792	86.31
448.013	94.31
448.234	98.31
448.455	88.31
448.675	105.31
448.896	107.31
449.117	100.31
449.338	90.31
449.559	104.31
449.779	108.31
450	90.31
450.221	84.31
450.442	86.31
450.662	97.31
450.883	93.31
451.104	105.31
451.324	98.31
451.545	87.31
451.766	89.31
451.986	92.31
452.207	84.31
452.428	82.31
452.648	92.31
452.869	116.31
453.089	94.31
453.31	119.31
453.53	81.31
453.751	87.31
453.971	93.31
454.192	94.31
454.412	105.31
454.633	78.31
454.853	89.31
455.073	74.31
455.294	94.31
455.514	81.31
455.734	86.31
455.955	66.31
456.175	79.31
456.395	78.31
456.616	84.31
456.836	90.31
457.056	74.31
457.276	66.31
457.497	77.31
457.717	88.31
457.937	90.31
458.157	82.31
458.377	81.31
458.598	92.31
458.818	131.31
459.038	144.31
459.258	103.31
459.478	74.31
459.698	73.31
459.918	88.31
460.138	74.31
460.358	85.31
460.578	86.31
460.798	86.31
461.018	91.31
461.238	79.31
461.458	72.31
461.678	78.31
461.898	78.31
462.118	72.31
462.338	76.31
462.558	78.31
462.777	91.31
462.997	76.31
463.217	81.31
463.437	76.31
463.657	75.31
463.876	85.31
464.096	81.31
464.316	96.31
464.536	94.31
464.755	90.31
464.975	108.31
465.195	154.31
465.414	140.31
465.634	80.31
465.854	94.31
466.073	93.31
466.293	87.31
466.512	92.31
466.732	80.31
466.951	92.31
467.171	99.31
467.391	85.31
467.61	90.31
467.829	98.31
468.049	113.31
468.268	106.31
468.488	84.31
468.707	89.31
468.927	78.31
469.146	79.31
469.365	83.31
469.585	76.31
469.804	90.31
470.023	106.31
470.243	101.31
470.462	87.31
470.681	98.31
470.901	61.31
471.12	83.31
471.339	84.31
471.558	78.31
471.777	87.31
471.997	99.31
472.216	135.31
472.435	217.31
472.654	99.31
472.873	86.31
473.092	90.31
473.311	86.31
473.53	81.31
473.749	92.31
473.968	97.31
474.187	95.31
474.406	105.31
474.625	85.31
474.844	91.31
475.063	80.31
475.282	76.31
475.501	76.31
475.72	85.31
475.939	80.31
476.158	74.31
476.377	70.31
476.596	85.31
476.814	73.31
477.033	90.31
477.252	78.31
477.471	87.31
477.69	89.31
477.908	97.31
478.127	86.31
478.346	81.31
478.564	94.31
478.783	90.31
479.002	106.31
479.22	92.31
479.439	94.31
479.658	95.31
479.876	89.31
480.095	97.31
480.313	102.31
480.532	91.31
480.751	96.31
480.969	144.31
481.188	308.31
481.406	207.31
481.624	109.31
481.843	90.31
482.061	88.31
482.28	78.31
482.498	80.31
482.717	96.31
482.935	89.31
483.153	89.31
483.372	89.31
483.59	80.31
483.808	89.31
484.027	86.31
484.245	78.31
484.463	93.31
484.681	93.31
484.9	85.31
485.118	95.31
485.336	95.31
485.554	90.31
485.772	92.31
485.99	90.31
486.209	102.31
486.427	101.31
486.645	96.31
486.863	106.31
487.081	82.31
487.299	92.31
487.517	101.31
487.735	88.31
487.953	95.31
488.171	95.31
488.389	96.31
488.607	76.31
488.825	82.31
489.043	90.31
489.261	89.31
489.479	96.31
489.696	80.31
489.914	80.31
490.132	86.31
490.35	83.31
490.568	88.31
490.786	91.31
491.003	85.31
491.221	81.31
491.439	92.31
491.657	100.31
491.874	98.31
492.092	88.31
492.31	92.31
492.527	103.31
492.745	93.31
492.963	88.31
493.18	76.31
493.398	88.31
493.615	93.31
493.833	78.31
494.05	85.31
494.268	98.31
494.485	85.31
494.703	81.31
494.92	94.31
495.138	78.31
495.355	92.31
495.573	85.31
495.79	87.31
496.008	97.31
496.225	87.31
496.442	82.31
496.66	82.31
496.877	85.31
497.094	89.31
497.312	73.31
497.529	89.31
497.746	78.31
497.963	87.31
498.181	85.31
498.398	105.31
498.615	107.31
498.832	109.31
499.049	82.31
499.267	87.31
499.484	93.31
499.701	91.31
499.918	90.31
500.135	93.31
500.352	92.31
500.569	84.31
500.786	83.31
501.003	84.31
501.22	91.31
501.437	86.31
501.654	88.31
501.871	96.31
502.088	96.31
502.305	85.31
502.522	85.31
502.739	88.31
502.956	88.31
503.172	81.31
503.389	107.31
503.606	97.31
503.823	100.31
504.04	88.31
504.256	90.31
504.473	88.31
504.69	94.31
504.907	97.31
505.123	93.31
505.34	82.31
505.557	81.31
505.773	87.31
505.99	82.31
506.207	82.31
506.423	81.31
506.64	81.31
506.856	90.31
507.073	81.31
507.289	82.31
507.506	97.31
507.722	102.31
507.939	104.31
508.155	96.31
508.372	78.31
508.588	87.31
508.805	85.31
509.021	95.31
509.238	101.31
509.454	95.31
509.67	99.31
509.887	109.31
510.103	141.31
510.319	209.31
510.536	770.31
510.752	2416.31
510.968	698.31
511.184	172.31
511.401	113.31
511.617	95.31
511.833	89.31
512.049	77.31
512.265	81.31
512.481	97.31
512.698	83.31
512.914	86.31
513.13	87.31
513.346	94.31
513.562	85.31
513.778	97.31
513.994	101.31
514.21	95.31
514.426	112.31
514.642	122.31
514.858	110.31
515.074	156.31
515.29	438.31
515.506	1453.31
515.721	554.31
515.937	154.31
516.153	92.31
516.369	100.31
516.585	110.31
516.801	88.31
517.016	98.31
517.232	87.31
