Data from Circ_2008_H10_HRD10591_00045.txt Node
Date: Wed Jan 03 10:17:05 EST 2024
User: Yrep
Spectrometer: HR+D1059
Trigger mode: 1
Integration Time (sec): 1.000000E-1
Scans to average: 1
Electric dark correction enabled: true
Nonlinearity correction enabled: false
Boxcar width: 0
XAxis mode: Wavelengths
Number of Pixels in Spectrum: 2048
>>>>>Begin Spectral Data<<<<<
223.165	-15.06
223.4	-15.06
223.635	-15.06
223.869	-7.06
224.104	-29.06
224.338	-2.06
224.573	-18.06
224.808	-17.06
225.042	-9.06
225.277	-6.06
225.511	-1.06
225.746	6.94
225.98	14.94
226.215	4.94
226.449	25.94
226.683	14.94
226.918	20.94
227.152	15.94
227.387	38.94
227.621	41.94
227.856	43.94
228.09	36.94
228.324	48.94
228.559	65.94
228.793	65.94
229.027	71.94
229.262	76.94
229.496	68.94
229.73	64.94
229.964	72.94
230.199	75.94
230.433	84.94
230.667	74.94
230.901	68.94
231.136	86.94
231.37	84.94
231.604	78.94
231.838	80.94
232.072	71.94
232.306	80.94
232.541	85.94
232.775	76.94
233.009	87.94
233.243	82.94
233.477	87.94
233.711	76.94
233.945	72.94
234.179	85.94
234.413	84.94
234.647	95.94
234.881	79.94
235.115	80.94
235.349	71.94
235.583	79.94
235.817	76.94
236.051	74.94
236.285	74.94
236.519	69.94
236.753	80.94
236.987	82.94
237.221	80.94
237.455	69.94
237.689	84.94
237.922	81.94
238.156	74.94
238.39	60.94
238.624	71.94
238.858	84.94
239.091	81.94
239.325	82.94
239.559	70.94
239.793	75.94
240.027	69.94
240.26	76.94
240.494	87.94
240.728	74.94
240.961	75.94
241.195	77.94
241.429	73.94
241.662	69.94
241.896	67.94
242.13	64.94
242.363	63.94
242.597	73.94
242.83	80.94
243.064	65.94
243.298	81.94
243.531	69.94
243.765	65.94
243.998	77.94
244.232	90.94
244.465	88.94
244.699	92.94
244.932	84.94
245.166	80.94
245.399	92.94
245.633	68.94
245.866	77.94
246.099	66.94
246.333	61.94
246.566	76.94
246.8	77.94
247.033	74.94
247.266	89.94
247.5	84.94
247.733	95.94
247.966	88.94
248.2	79.94
248.433	77.94
248.666	81.94
248.899	82.94
249.133	88.94
249.366	80.94
249.599	75.94
249.832	74.94
250.066	85.94
250.299	88.94
250.532	82.94
250.765	76.94
250.998	62.94
251.231	69.94
251.465	78.94
251.698	82.94
251.931	75.94
252.164	77.94
252.397	68.94
252.63	73.94
252.863	70.94
253.096	82.94
253.329	76.94
253.562	87.94
253.795	82.94
254.028	84.94
254.261	70.94
254.494	78.94
254.727	71.94
254.96	72.94
255.193	74.94
255.426	74.94
255.659	80.94
255.892	98.94
256.124	72.94
256.357	72.94
256.59	86.94
256.823	84.94
257.056	77.94
257.289	78.94
257.521	90.94
257.754	91.94
257.987	71.94
258.22	78.94
258.452	71.94
258.685	80.94
258.918	58.94
259.151	89.94
259.383	76.94
259.616	81.94
259.849	89.94
260.081	89.94
260.314	82.94
260.547	88.94
260.779	78.94
261.012	91.94
261.244	79.94
261.477	94.94
261.71	100.94
261.942	115.94
262.175	124.94
262.407	92.94
262.64	79.94
262.872	72.94
263.105	85.94
263.337	97.94
263.57	83.94
263.802	88.94
264.035	84.94
264.267	79.94
264.499	69.94
264.732	76.94
264.964	75.94
265.197	82.94
265.429	86.94
265.661	91.94
265.894	77.94
266.126	82.94
266.358	93.94
266.591	81.94
266.823	83.94
267.055	80.94
267.287	92.94
267.52	79.94
267.752	64.94
267.984	69.94
268.216	96.94
268.448	80.94
268.681	78.94
268.913	79.94
269.145	77.94
269.377	75.94
269.609	86.94
269.841	90.94
270.073	79.94
270.306	71.94
270.538	81.94
270.77	91.94
271.002	82.94
271.234	70.94
271.466	80.94
271.698	90.94
271.93	80.94
272.162	74.94
272.394	87.94
272.626	86.94
272.858	92.94
273.09	103.94
273.322	81.94
273.553	85.94
273.785	85.94
274.017	74.94
274.249	69.94
274.481	80.94
274.713	87.94
274.945	80.94
275.176	82.94
275.408	76.94
275.64	73.94
275.872	87.94
276.104	84.94
276.335	93.94
276.567	76.94
276.799	109.94
277.031	105.94
277.262	96.94
277.494	77.94
277.726	84.94
277.957	70.94
278.189	89.94
278.421	79.94
278.652	82.94
278.884	81.94
279.115	79.94
279.347	90.94
279.579	81.94
279.81	88.94
280.042	88.94
280.273	85.94
280.505	79.94
280.736	72.94
280.968	95.94
281.199	81.94
281.431	92.94
281.662	96.94
281.894	87.94
282.125	98.94
282.356	111.94
282.588	149.94
282.819	124.94
283.051	84.94
283.282	79.94
283.513	85.94
283.745	86.94
283.976	78.94
284.207	83.94
284.439	87.94
284.67	85.94
284.901	81.94
285.132	80.94
285.364	92.94
285.595	85.94
285.826	83.94
286.057	76.94
286.288	92.94
286.52	77.94
286.751	80.94
286.982	92.94
287.213	83.94
287.444	85.94
287.675	95.94
287.906	89.94
288.138	81.94
288.369	91.94
288.6	92.94
288.831	87.94
289.062	81.94
289.293	79.94
289.524	81.94
289.755	76.94
289.986	92.94
290.217	85.94
290.448	97.94
290.679	78.94
290.91	87.94
291.141	81.94
291.371	78.94
291.602	76.94
291.833	87.94
292.064	92.94
292.295	82.94
292.526	81.94
292.757	92.94
292.987	88.94
293.218	82.94
293.449	81.94
293.68	90.94
293.91	73.94
294.141	81.94
294.372	78.94
294.603	78.94
294.833	86.94
295.064	101.94
295.295	74.94
295.525	85.94
295.756	106.94
295.987	116.94
296.217	146.94
296.448	121.94
296.679	89.94
296.909	83.94
297.14	79.94
297.37	72.94
297.601	83.94
297.831	93.94
298.062	79.94
298.292	94.94
298.523	79.94
298.753	89.94
298.984	88.94
299.214	88.94
299.445	97.94
299.675	81.94
299.905	100.94
300.136	88.94
300.366	79.94
300.597	89.94
300.827	94.94
301.057	95.94
301.288	104.94
301.518	92.94
301.748	69.94
301.979	102.94
302.209	104.94
302.439	79.94
302.669	81.94
302.9	90.94
303.13	91.94
303.36	80.94
303.59	101.94
303.82	108.94
304.051	94.94
304.281	78.94
304.511	90.94
304.741	76.94
304.971	86.94
305.201	91.94
305.431	82.94
305.661	97.94
305.891	85.94
306.121	75.94
306.352	105.94
306.582	85.94
306.812	97.94
307.042	90.94
307.272	88.94
307.502	80.94
307.731	90.94
307.961	89.94
308.191	79.94
308.421	88.94
308.651	82.94
308.881	77.94
309.111	95.94
309.341	90.94
309.571	103.94
309.8	103.94
310.03	96.94
310.26	94.94
310.49	91.94
310.72	97.94
310.949	107.94
311.179	90.94
311.409	101.94
311.639	92.94
311.868	97.94
312.098	98.94
312.328	89.94
312.557	89.94
312.787	92.94
313.017	93.94
313.246	96.94
313.476	102.94
313.706	77.94
313.935	86.94
314.165	90.94
314.394	97.94
314.624	103.94
314.853	95.94
315.083	88.94
315.312	84.94
315.542	85.94
315.771	79.94
316.001	77.94
316.23	89.94
316.46	86.94
316.689	84.94
316.919	96.94
317.148	95.94
317.377	100.94
317.607	85.94
317.836	90.94
318.065	89.94
318.295	89.94
318.524	95.94
318.753	85.94
318.983	94.94
319.212	89.94
319.441	112.94
319.67	111.94
319.9	105.94
320.129	85.94
320.358	80.94
320.587	95.94
320.816	99.94
321.046	103.94
321.275	94.94
321.504	79.94
321.733	88.94
321.962	92.94
322.191	106.94
322.42	99.94
322.649	102.94
322.878	102.94
323.108	98.94
323.337	126.94
323.566	132.94
323.795	143.94
324.024	194.94
324.253	353.94
324.482	711.94
324.71	1462.94
324.939	1905.94
325.168	734.94
325.397	219.94
325.626	144.94
325.855	127.94
326.084	120.94
326.313	114.94
326.542	142.94
326.77	201.94
326.999	381.94
327.228	774.94
327.457	1402.94
327.686	1137.94
327.914	304.94
328.143	182.94
328.372	144.94
328.6	136.94
328.829	105.94
329.058	136.94
329.287	120.94
329.515	107.94
329.744	108.94
329.972	102.94
330.201	122.94
330.43	155.94
330.658	123.94
330.887	143.94
331.115	134.94
331.344	100.94
331.572	100.94
331.801	92.94
332.03	96.94
332.258	88.94
332.486	101.94
332.715	98.94
332.943	88.94
333.172	95.94
333.4	103.94
333.629	112.94
333.857	97.94
334.085	123.94
334.314	106.94
334.542	162.94
334.771	151.94
334.999	102.94
335.227	106.94
335.455	86.94
335.684	86.94
335.912	97.94
336.14	91.94
336.369	100.94
336.597	93.94
336.825	89.94
337.053	86.94
337.281	101.94
337.51	98.94
337.738	96.94
337.966	94.94
338.194	84.94
338.422	95.94
338.65	89.94
338.878	92.94
339.106	107.94
339.334	91.94
339.562	91.94
339.79	71.94
340.018	67.94
340.246	77.94
340.474	100.94
340.702	90.94
340.93	84.94
341.158	81.94
341.386	89.94
341.614	87.94
341.842	86.94
342.07	76.94
342.298	94.94
342.526	81.94
342.754	98.94
342.981	77.94
343.209	84.94
343.437	92.94
343.665	86.94
343.893	92.94
344.12	90.94
344.348	90.94
344.576	90.94
344.804	94.94
345.031	95.94
345.259	92.94
345.487	95.94
345.714	100.94
345.942	89.94
346.17	94.94
346.397	93.94
346.625	94.94
346.853	92.94
347.08	92.94
347.308	92.94
347.535	86.94
347.763	86.94
347.99	104.94
348.218	93.94
348.445	85.94
348.673	102.94
348.9	104.94
349.128	94.94
349.355	90.94
349.583	84.94
349.81	92.94
350.037	87.94
350.265	88.94
350.492	83.94
350.72	96.94
350.947	86.94
351.174	95.94
351.402	103.94
351.629	99.94
351.856	102.94
352.083	99.94
352.311	107.94
352.538	97.94
352.765	97.94
352.992	122.94
353.22	121.94
353.447	106.94
353.674	87.94
353.901	108.94
354.128	93.94
354.355	100.94
354.583	106.94
354.81	97.94
355.037	92.94
355.264	110.94
355.491	86.94
355.718	101.94
355.945	103.94
356.172	93.94
356.399	103.94
356.626	85.94
356.853	98.94
357.08	97.94
357.307	81.94
357.534	83.94
357.761	87.94
357.988	99.94
358.215	90.94
358.441	99.94
358.668	80.94
358.895	80.94
359.122	80.94
359.349	90.94
359.576	93.94
359.802	93.94
360.029	105.94
360.256	116.94
360.483	84.94
360.709	88.94
360.936	89.94
361.163	89.94
361.39	88.94
361.616	87.94
361.843	82.94
362.07	85.94
362.296	99.94
362.523	105.94
362.749	80.94
362.976	84.94
363.203	101.94
363.429	79.94
363.656	90.94
363.882	83.94
364.109	100.94
364.335	86.94
364.562	89.94
364.788	94.94
365.015	101.94
365.241	106.94
365.468	100.94
365.694	98.94
365.92	92.94
366.147	82.94
366.373	80.94
366.599	77.94
366.826	82.94
367.052	72.94
367.278	85.94
367.505	95.94
367.731	86.94
367.957	84.94
368.184	96.94
368.41	100.94
368.636	98.94
368.862	115.94
369.089	110.94
369.315	82.94
369.541	100.94
369.767	79.94
369.993	85.94
370.219	93.94
370.445	81.94
370.672	72.94
370.898	84.94
371.124	67.94
371.35	77.94
371.576	101.94
371.802	95.94
372.028	79.94
372.254	83.94
372.48	81.94
372.706	86.94
372.932	88.94
373.158	66.94
373.384	86.94
373.61	92.94
373.835	89.94
374.061	81.94
374.287	81.94
374.513	89.94
374.739	74.94
374.965	87.94
375.191	83.94
375.416	79.94
375.642	64.94
375.868	94.94
376.094	76.94
376.319	78.94
376.545	89.94
376.771	79.94
376.997	88.94
377.222	84.94
377.448	93.94
377.674	82.94
377.899	73.94
378.125	95.94
378.35	91.94
378.576	86.94
378.802	69.94
379.027	78.94
379.253	92.94
379.478	97.94
379.704	87.94
379.929	86.94
380.155	84.94
380.38	88.94
380.606	82.94
380.831	85.94
381.057	79.94
381.282	88.94
381.507	84.94
381.733	91.94
381.958	101.94
382.184	106.94
382.409	88.94
382.634	88.94
382.86	91.94
383.085	97.94
383.31	95.94
383.535	105.94
383.761	75.94
383.986	92.94
384.211	89.94
384.436	81.94
384.662	87.94
384.887	120.94
385.112	101.94
385.337	94.94
385.562	98.94
385.787	103.94
386.013	92.94
386.238	113.94
386.463	117.94
386.688	99.94
386.913	104.94
387.138	94.94
387.363	94.94
387.588	103.94
387.813	98.94
388.038	116.94
388.263	113.94
388.488	110.94
388.713	100.94
388.938	82.94
389.163	84.94
389.387	91.94
389.612	84.94
389.837	76.94
390.062	97.94
390.287	80.94
390.512	79.94
390.736	93.94
390.961	78.94
391.186	89.94
391.411	90.94
391.636	96.94
391.86	94.94
392.085	71.94
392.31	77.94
392.534	83.94
392.759	80.94
392.984	102.94
393.208	76.94
393.433	90.94
393.658	96.94
393.882	74.94
394.107	87.94
394.331	80.94
394.556	87.94
394.78	88.94
395.005	94.94
395.229	85.94
395.454	84.94
395.678	88.94
395.903	90.94
396.127	86.94
396.352	71.94
396.576	81.94
396.801	89.94
397.025	90.94
397.249	79.94
397.474	88.94
397.698	87.94
397.922	106.94
398.147	81.94
398.371	86.94
398.595	87.94
398.82	82.94
399.044	82.94
399.268	83.94
399.492	92.94
399.717	92.94
399.941	90.94
400.165	82.94
400.389	89.94
400.613	84.94
400.837	85.94
401.062	82.94
401.286	90.94
401.51	99.94
401.734	81.94
401.958	101.94
402.182	129.94
402.406	157.94
402.63	122.94
402.854	94.94
403.078	92.94
403.302	94.94
403.526	69.94
403.75	79.94
403.974	72.94
404.198	81.94
404.422	87.94
404.645	100.94
404.869	92.94
405.093	85.94
405.317	99.94
405.541	117.94
405.765	82.94
405.988	108.94
406.212	180.94
406.436	245.94
406.66	148.94
406.883	104.94
407.107	91.94
407.331	88.94
407.555	84.94
407.778	82.94
408.002	96.94
408.226	90.94
408.449	82.94
408.673	85.94
408.896	84.94
409.12	92.94
409.344	100.94
409.567	72.94
409.791	89.94
410.014	94.94
410.238	91.94
410.461	91.94
410.685	81.94
410.908	93.94
411.132	101.94
411.355	85.94
411.578	92.94
411.802	81.94
412.025	81.94
412.249	80.94
412.472	89.94
412.695	93.94
412.919	76.94
413.142	77.94
413.365	94.94
413.589	91.94
413.812	91.94
414.035	82.94
414.258	87.94
414.482	101.94
414.705	97.94
414.928	91.94
415.151	75.94
415.374	96.94
415.597	88.94
415.821	102.94
416.044	76.94
416.267	86.94
416.49	91.94
416.713	77.94
416.936	73.94
417.159	78.94
417.382	55.94
417.605	84.94
417.828	97.94
418.051	93.94
418.274	73.94
418.497	87.94
418.72	81.94
418.943	89.94
419.166	89.94
419.389	71.94
419.611	97.94
419.834	102.94
420.057	89.94
420.28	77.94
420.503	78.94
420.726	78.94
420.948	81.94
421.171	85.94
421.394	76.94
421.617	96.94
421.839	83.94
422.062	95.94
422.285	89.94
422.507	112.94
422.73	109.94
422.953	101.94
423.175	83.94
423.398	85.94
423.621	75.94
423.843	81.94
424.066	71.94
424.288	81.94
424.511	98.94
424.733	91.94
424.956	110.94
425.178	93.94
425.401	87.94
425.623	90.94
425.846	100.94
426.068	88.94
426.291	88.94
426.513	86.94
426.735	96.94
426.958	88.94
427.18	98.94
427.402	126.94
427.625	165.94
427.847	128.94
428.069	90.94
428.292	89.94
428.514	91.94
428.736	86.94
428.958	79.94
429.181	88.94
429.403	80.94
429.625	85.94
429.847	88.94
430.069	96.94
430.292	75.94
430.514	91.94
430.736	82.94
430.958	69.94
431.18	81.94
431.402	77.94
431.624	98.94
431.846	95.94
432.068	76.94
432.29	68.94
432.512	79.94
432.734	87.94
432.956	89.94
433.178	87.94
433.4	102.94
433.622	95.94
433.844	79.94
434.066	86.94
434.287	85.94
434.509	89.94
434.731	81.94
434.953	80.94
435.175	92.94
435.397	92.94
435.618	95.94
435.84	94.94
436.062	111.94
436.284	108.94
436.505	85.94
436.727	94.94
436.949	89.94
437.17	81.94
437.392	75.94
437.614	94.94
437.835	92.94
438.057	104.94
438.278	98.94
438.5	94.94
438.721	94.94
438.943	81.94
439.165	83.94
439.386	78.94
439.608	98.94
439.829	101.94
440.05	107.94
440.272	119.94
440.493	93.94
440.715	97.94
440.936	93.94
441.158	81.94
441.379	94.94
441.6	96.94
441.822	96.94
442.043	93.94
442.264	85.94
442.486	94.94
442.707	96.94
442.928	99.94
443.149	123.94
443.371	140.94
443.592	102.94
443.813	117.94
444.034	96.94
444.255	86.94
444.476	72.94
444.698	90.94
444.919	80.94
445.14	117.94
445.361	120.94
445.582	109.94
445.803	131.94
446.024	116.94
446.245	119.94
446.466	105.94
446.687	89.94
446.908	93.94
447.129	84.94
447.35	101.94
447.571	93.94
447.792	88.94
448.013	81.94
448.234	100.94
448.455	106.94
448.675	94.94
448.896	102.94
449.117	88.94
449.338	80.94
449.559	118.94
449.779	118.94
450	81.94
450.221	92.94
450.442	88.94
450.662	92.94
450.883	89.94
451.104	119.94
451.324	78.94
451.545	72.94
451.766	81.94
451.986	84.94
452.207	81.94
452.428	92.94
452.648	92.94
452.869	108.94
453.089	121.94
453.31	132.94
453.53	94.94
453.751	88.94
453.971	103.94
454.192	115.94
454.412	111.94
454.633	93.94
454.853	87.94
455.073	81.94
455.294	97.94
455.514	90.94
455.734	80.94
455.955	79.94
456.175	78.94
456.395	85.94
456.616	75.94
456.836	94.94
457.056	88.94
457.276	91.94
457.497	85.94
457.717	86.94
457.937	65.94
458.157	83.94
458.377	73.94
458.598	101.94
458.818	153.94
459.038	158.94
459.258	98.94
459.478	57.94
459.698	82.94
459.918	80.94
460.138	79.94
460.358	90.94
460.578	94.94
460.798	93.94
461.018	78.94
461.238	82.94
461.458	79.94
461.678	83.94
461.898	80.94
462.118	81.94
462.338	78.94
462.558	92.94
462.777	95.94
462.997	90.94
463.217	92.94
463.437	82.94
463.657	88.94
463.876	84.94
464.096	95.94
464.316	79.94
464.536	94.94
464.755	85.94
464.975	98.94
465.195	152.94
465.414	148.94
465.634	91.94
465.854	78.94
466.073	81.94
466.293	81.94
466.512	92.94
466.732	89.94
466.951	92.94
467.171	89.94
467.391	93.94
467.61	82.94
467.829	102.94
468.049	96.94
468.268	113.94
468.488	86.94
468.707	91.94
468.927	73.94
469.146	86.94
469.365	81.94
469.585	96.94
469.804	102.94
470.023	93.94
470.243	91.94
470.462	99.94
470.681	107.94
470.901	82.94
471.12	86.94
471.339	70.94
471.558	85.94
471.777	88.94
471.997	85.94
472.216	140.94
472.435	176.94
472.654	101.94
472.873	90.94
473.092	82.94
473.311	80.94
473.53	78.94
473.749	84.94
473.968	81.94
474.187	102.94
474.406	86.94
474.625	88.94
474.844	81.94
475.063	89.94
475.282	85.94
475.501	78.94
475.72	91.94
475.939	81.94
476.158	87.94
476.377	81.94
476.596	90.94
476.814	92.94
477.033	89.94
477.252	80.94
477.471	87.94
477.69	94.94
477.908	95.94
478.127	74.94
478.346	87.94
478.564	84.94
478.783	89.94
479.002	84.94
479.22	92.94
479.439	93.94
479.658	89.94
479.876	98.94
480.095	96.94
480.313	95.94
480.532	90.94
480.751	98.94
480.969	120.94
481.188	288.94
481.406	209.94
481.624	94.94
481.843	82.94
482.061	82.94
482.28	77.94
482.498	79.94
482.717	80.94
482.935	81.94
483.153	92.94
483.372	90.94
483.59	80.94
483.808	82.94
484.027	73.94
484.245	90.94
484.463	95.94
484.681	93.94
484.9	86.94
485.118	87.94
485.336	98.94
485.554	87.94
485.772	100.94
485.99	101.94
486.209	95.94
486.427	107.94
486.645	109.94
486.863	99.94
487.081	93.94
487.299	102.94
487.517	92.94
487.735	80.94
487.953	94.94
488.171	91.94
488.389	89.94
488.607	87.94
488.825	100.94
489.043	92.94
489.261	86.94
489.479	89.94
489.696	77.94
489.914	93.94
490.132	78.94
490.35	84.94
490.568	75.94
490.786	89.94
491.003	81.94
491.221	83.94
491.439	92.94
491.657	95.94
491.874	80.94
492.092	86.94
492.31	95.94
492.527	85.94
492.745	83.94
492.963	82.94
493.18	86.94
493.398	86.94
493.615	82.94
493.833	82.94
494.05	96.94
494.268	92.94
494.485	80.94
494.703	97.94
494.92	91.94
495.138	101.94
495.355	110.94
495.573	97.94
495.79	87.94
496.008	92.94
496.225	93.94
496.442	88.94
496.66	98.94
496.877	91.94
497.094	97.94
497.312	91.94
497.529	87.94
497.746	88.94
497.963	81.94
498.181	80.94
498.398	98.94
498.615	111.94
498.832	98.94
499.049	86.94
499.267	95.94
499.484	100.94
499.701	97.94
499.918	94.94
500.135	77.94
500.352	95.94
500.569	67.94
500.786	93.94
501.003	71.94
501.22	81.94
501.437	91.94
501.654	88.94
501.871	96.94
502.088	94.94
502.305	88.94
502.522	99.94
502.739	88.94
502.956	77.94
503.172	98.94
503.389	86.94
503.606	109.94
503.823	103.94
504.04	106.94
504.256	88.94
504.473	86.94
504.69	96.94
504.907	94.94
505.123	86.94
505.34	84.94
505.557	90.94
505.773	90.94
505.99	89.94
506.207	80.94
506.423	77.94
506.64	82.94
506.856	93.94
507.073	85.94
507.289	92.94
507.506	99.94
507.722	96.94
507.939	102.94
508.155	84.94
508.372	89.94
508.588	97.94
508.805	83.94
509.021	88.94
509.238	90.94
509.454	98.94
509.67	92.94
509.887	95.94
510.103	120.94
510.319	223.94
510.536	812.94
510.752	2754.94
510.968	758.94
511.184	166.94
511.401	113.94
511.617	87.94
511.833	102.94
512.049	123.94
512.265	100.94
512.481	88.94
512.698	92.94
512.914	91.94
513.13	88.94
513.346	91.94
513.562	91.94
513.778	81.94
513.994	111.94
514.21	100.94
514.426	110.94
514.642	124.94
514.858	126.94
515.074	173.94
515.29	475.94
515.506	1660.94
515.721	611.94
515.937	162.94
516.153	102.94
516.369	95.94
516.585	94.94
516.801	94.94
