Data from Circ_2008_H10_HRD10591_00100.txt Node
Date: Wed Jan 03 10:17:16 EST 2024
User: Yrep
Spectrometer: HR+D1059
Trigger mode: 1
Integration Time (sec): 1.000000E-1
Scans to average: 1
Electric dark correction enabled: true
Nonlinearity correction enabled: false
Boxcar width: 0
XAxis mode: Wavelengths
Number of Pixels in Spectrum: 2048
>>>>>Begin Spectral Data<<<<<
223.165	-2.5
223.4	-2.5
223.635	-2.5
223.869	-24.5
224.104	-26.5
224.338	-18.5
224.573	-32.5
224.808	-8.5
225.042	-14.5
225.277	0.5
225.511	-9.5
225.746	23.5
225.98	0.5
226.215	7.5
226.449	29.5
226.683	19.5
226.918	20.5
227.152	35.5
227.387	37.5
227.621	43.5
227.856	52.5
228.09	64.5
228.324	57.5
228.559	49.5
228.793	56.5
229.027	65.5
229.262	61.5
229.496	66.5
229.73	82.5
229.964	78.5
230.199	75.5
230.433	58.5
230.667	71.5
230.901	61.5
231.136	77.5
231.37	82.5
231.604	76.5
231.838	72.5
232.072	78.5
232.306	90.5
232.541	78.5
232.775	80.5
233.009	73.5
233.243	82.5
233.477	79.5
233.711	88.5
233.945	81.5
234.179	76.5
234.413	80.5
234.647	71.5
234.881	70.5
235.115	68.5
235.349	81.5
235.583	79.5
235.817	72.5
236.051	69.5
236.285	69.5
236.519	77.5
236.753	73.5
236.987	82.5
237.221	70.5
237.455	75.5
237.689	80.5
237.922	74.5
238.156	78.5
238.39	71.5
238.624	86.5
238.858	61.5
239.091	72.5
239.325	67.5
239.559	61.5
239.793	85.5
240.027	84.5
240.26	85.5
240.494	84.5
240.728	83.5
240.961	73.5
241.195	72.5
241.429	82.5
241.662	70.5
241.896	78.5
242.13	69.5
242.363	82.5
242.597	70.5
242.83	68.5
243.064	53.5
243.298	71.5
243.531	79.5
243.765	73.5
243.998	78.5
244.232	76.5
244.465	77.5
244.699	69.5
244.932	77.5
245.166	93.5
245.399	72.5
245.633	78.5
245.866	77.5
246.099	80.5
246.333	78.5
246.566	81.5
246.8	73.5
247.033	78.5
247.266	77.5
247.5	77.5
247.733	79.5
247.966	78.5
248.2	69.5
248.433	75.5
248.666	76.5
248.899	79.5
249.133	84.5
249.366	96.5
249.599	95.5
249.832	76.5
250.066	80.5
250.299	86.5
250.532	74.5
250.765	71.5
250.998	81.5
251.231	65.5
251.465	76.5
251.698	74.5
251.931	92.5
252.164	73.5
252.397	72.5
252.63	77.5
252.863	73.5
253.096	81.5
253.329	79.5
253.562	75.5
253.795	77.5
254.028	73.5
254.261	87.5
254.494	83.5
254.727	72.5
254.96	72.5
255.193	78.5
255.426	76.5
255.659	73.5
255.892	85.5
256.124	64.5
256.357	86.5
256.59	86.5
256.823	71.5
257.056	75.5
257.289	80.5
257.521	72.5
257.754	75.5
257.987	71.5
258.22	88.5
258.452	87.5
258.685	77.5
258.918	70.5
259.151	58.5
259.383	84.5
259.616	71.5
259.849	82.5
260.081	79.5
260.314	86.5
260.547	83.5
260.779	79.5
261.012	80.5
261.244	81.5
261.477	95.5
261.71	84.5
261.942	109.5
262.175	136.5
262.407	92.5
262.64	85.5
262.872	77.5
263.105	89.5
263.337	86.5
263.57	79.5
263.802	88.5
264.035	67.5
264.267	88.5
264.499	94.5
264.732	87.5
264.964	91.5
265.197	80.5
265.429	77.5
265.661	93.5
265.894	76.5
266.126	78.5
266.358	70.5
266.591	85.5
266.823	92.5
267.055	85.5
267.287	86.5
267.52	73.5
267.752	80.5
267.984	91.5
268.216	80.5
268.448	89.5
268.681	86.5
268.913	77.5
269.145	82.5
269.377	88.5
269.609	85.5
269.841	68.5
270.073	80.5
270.306	77.5
270.538	82.5
270.77	83.5
271.002	84.5
271.234	84.5
271.466	82.5
271.698	77.5
271.93	81.5
272.162	82.5
272.394	87.5
272.626	72.5
272.858	81.5
273.09	91.5
273.322	75.5
273.553	78.5
273.785	76.5
274.017	66.5
274.249	95.5
274.481	73.5
274.713	91.5
274.945	85.5
275.176	88.5
275.408	86.5
275.64	59.5
275.872	98.5
276.104	101.5
276.335	97.5
276.567	95.5
276.799	126.5
277.031	121.5
277.262	101.5
277.494	92.5
277.726	85.5
277.957	85.5
278.189	91.5
278.421	87.5
278.652	87.5
278.884	93.5
279.115	82.5
279.347	92.5
279.579	86.5
279.81	88.5
280.042	85.5
280.273	128.5
280.505	85.5
280.736	74.5
280.968	86.5
281.199	86.5
281.431	91.5
281.662	79.5
281.894	90.5
282.125	85.5
282.356	111.5
282.588	145.5
282.819	107.5
283.051	78.5
283.282	78.5
283.513	90.5
283.745	97.5
283.976	93.5
284.207	81.5
284.439	93.5
284.67	79.5
284.901	84.5
285.132	92.5
285.364	102.5
285.595	95.5
285.826	84.5
286.057	84.5
286.288	98.5
286.52	89.5
286.751	76.5
286.982	89.5
287.213	85.5
287.444	77.5
287.675	95.5
287.906	91.5
288.138	100.5
288.369	79.5
288.6	91.5
288.831	77.5
289.062	96.5
289.293	74.5
289.524	88.5
289.755	95.5
289.986	83.5
290.217	91.5
290.448	81.5
290.679	76.5
290.91	81.5
291.141	82.5
291.371	82.5
291.602	81.5
291.833	88.5
292.064	66.5
292.295	94.5
292.526	90.5
292.757	82.5
292.987	104.5
293.218	87.5
293.449	84.5
293.68	90.5
293.91	94.5
294.141	97.5
294.372	89.5
294.603	84.5
294.833	86.5
295.064	94.5
295.295	80.5
295.525	94.5
295.756	88.5
295.987	122.5
296.217	154.5
296.448	140.5
296.679	97.5
296.909	86.5
297.14	84.5
297.37	98.5
297.601	107.5
297.831	83.5
298.062	85.5
298.292	91.5
298.523	104.5
298.753	92.5
298.984	100.5
299.214	94.5
299.445	96.5
299.675	96.5
299.905	101.5
300.136	82.5
300.366	80.5
300.597	96.5
300.827	92.5
301.057	100.5
301.288	108.5
301.518	86.5
301.748	90.5
301.979	108.5
302.209	96.5
302.439	89.5
302.669	96.5
302.9	86.5
303.13	92.5
303.36	101.5
303.59	107.5
303.82	106.5
304.051	90.5
304.281	85.5
304.511	90.5
304.741	91.5
304.971	87.5
305.201	93.5
305.431	70.5
305.661	101.5
305.891	89.5
306.121	96.5
306.352	113.5
306.582	121.5
306.812	101.5
307.042	88.5
307.272	96.5
307.502	100.5
307.731	111.5
307.961	88.5
308.191	96.5
308.421	80.5
308.651	103.5
308.881	93.5
309.111	106.5
309.341	102.5
309.571	98.5
309.8	111.5
310.03	90.5
310.26	93.5
310.49	86.5
310.72	102.5
310.949	93.5
311.179	101.5
311.409	94.5
311.639	88.5
311.868	99.5
312.098	90.5
312.328	94.5
312.557	98.5
312.787	90.5
313.017	108.5
313.246	91.5
313.476	90.5
313.706	77.5
313.935	93.5
314.165	100.5
314.394	89.5
314.624	95.5
314.853	122.5
315.083	91.5
315.312	94.5
315.542	85.5
315.771	99.5
316.001	96.5
316.23	94.5
316.46	95.5
316.689	75.5
316.919	97.5
317.148	99.5
317.377	97.5
317.607	96.5
317.836	103.5
318.065	92.5
318.295	93.5
318.524	86.5
318.753	86.5
318.983	86.5
319.212	98.5
319.441	93.5
319.67	108.5
319.9	101.5
320.129	98.5
320.358	94.5
320.587	104.5
320.816	101.5
321.046	100.5
321.275	94.5
321.504	96.5
321.733	97.5
321.962	90.5
322.191	100.5
322.42	109.5
322.649	107.5
322.878	110.5
323.108	92.5
323.337	125.5
323.566	135.5
323.795	171.5
324.024	234.5
324.253	433.5
324.482	863.5
324.71	1721.5
324.939	2294.5
325.168	841.5
325.397	248.5
325.626	163.5
325.855	130.5
326.084	124.5
326.313	130.5
326.542	154.5
326.77	222.5
326.999	439.5
327.228	927.5
327.457	1680.5
327.686	1336.5
327.914	404.5
328.143	271.5
328.372	226.5
328.6	160.5
328.829	133.5
329.058	132.5
329.287	138.5
329.515	131.5
329.744	122.5
329.972	178.5
330.201	249.5
330.43	334.5
330.658	199.5
330.887	174.5
331.115	132.5
331.344	104.5
331.572	98.5
331.801	105.5
332.03	97.5
332.258	97.5
332.486	98.5
332.715	100.5
332.943	105.5
333.172	95.5
333.4	104.5
333.629	110.5
333.857	128.5
334.085	174.5
334.314	225.5
334.542	394.5
334.771	366.5
334.999	156.5
335.227	109.5
335.455	101.5
335.684	104.5
335.912	96.5
336.14	87.5
336.369	91.5
336.597	109.5
336.825	87.5
337.053	93.5
337.281	96.5
337.51	95.5
337.738	86.5
337.966	101.5
338.194	83.5
338.422	81.5
338.65	90.5
338.878	89.5
339.106	96.5
339.334	95.5
339.562	93.5
339.79	85.5
340.018	86.5
340.246	89.5
340.474	71.5
340.702	103.5
340.93	89.5
341.158	96.5
341.386	103.5
341.614	110.5
341.842	101.5
342.07	97.5
342.298	95.5
342.526	77.5
342.754	91.5
342.981	99.5
343.209	99.5
343.437	97.5
343.665	90.5
343.893	86.5
344.12	89.5
344.348	87.5
344.576	85.5
344.804	80.5
345.031	83.5
345.259	97.5
345.487	100.5
345.714	93.5
345.942	78.5
346.17	81.5
346.397	77.5
346.625	92.5
346.853	91.5
347.08	93.5
347.308	108.5
347.535	113.5
347.763	103.5
347.99	102.5
348.218	93.5
348.445	121.5
348.673	109.5
348.9	97.5
349.128	99.5
349.355	93.5
349.583	88.5
349.81	91.5
350.037	92.5
350.265	85.5
350.492	93.5
350.72	98.5
350.947	92.5
351.174	103.5
351.402	117.5
351.629	106.5
351.856	100.5
352.083	105.5
352.311	103.5
352.538	105.5
352.765	104.5
352.992	126.5
353.22	103.5
353.447	107.5
353.674	96.5
353.901	100.5
354.128	90.5
354.355	103.5
354.583	100.5
354.81	100.5
355.037	92.5
355.264	102.5
355.491	100.5
355.718	86.5
355.945	90.5
356.172	94.5
356.399	86.5
356.626	98.5
356.853	95.5
357.08	97.5
357.307	77.5
357.534	73.5
357.761	77.5
357.988	90.5
358.215	97.5
358.441	89.5
358.668	80.5
358.895	95.5
359.122	83.5
359.349	77.5
359.576	96.5
359.802	82.5
360.029	108.5
360.256	99.5
360.483	92.5
360.709	81.5
360.936	93.5
361.163	87.5
361.39	95.5
361.616	100.5
361.843	89.5
362.07	96.5
362.296	101.5
362.523	111.5
362.749	87.5
362.976	91.5
363.203	82.5
363.429	85.5
363.656	100.5
363.882	63.5
364.109	85.5
364.335	94.5
364.562	95.5
364.788	81.5
365.015	81.5
365.241	102.5
365.468	109.5
365.694	110.5
365.92	113.5
366.147	97.5
366.373	87.5
366.599	94.5
366.826	86.5
367.052	80.5
367.278	87.5
367.505	87.5
367.731	78.5
367.957	87.5
368.184	102.5
368.41	112.5
368.636	122.5
368.862	128.5
369.089	112.5
369.315	92.5
369.541	82.5
369.767	90.5
369.993	78.5
370.219	85.5
370.445	74.5
370.672	90.5
370.898	89.5
371.124	72.5
371.35	86.5
371.576	97.5
371.802	97.5
372.028	96.5
372.254	79.5
372.48	92.5
372.706	71.5
372.932	86.5
373.158	93.5
373.384	100.5
373.61	77.5
373.835	79.5
374.061	86.5
374.287	85.5
374.513	95.5
374.739	81.5
374.965	76.5
375.191	88.5
375.416	89.5
375.642	69.5
375.868	86.5
376.094	76.5
376.319	99.5
376.545	82.5
376.771	87.5
376.997	120.5
377.222	87.5
377.448	94.5
377.674	91.5
377.899	85.5
378.125	69.5
378.35	82.5
378.576	92.5
378.802	88.5
379.027	94.5
379.253	84.5
379.478	70.5
379.704	75.5
379.929	93.5
380.155	86.5
380.38	87.5
380.606	83.5
380.831	86.5
381.057	90.5
381.282	94.5
381.507	88.5
381.733	95.5
381.958	93.5
382.184	101.5
382.409	95.5
382.634	97.5
382.86	100.5
383.085	86.5
383.31	94.5
383.535	107.5
383.761	102.5
383.986	92.5
384.211	94.5
384.436	99.5
384.662	113.5
384.887	101.5
385.112	89.5
385.337	90.5
385.562	100.5
385.787	93.5
386.013	94.5
386.238	98.5
386.463	102.5
386.688	118.5
386.913	106.5
387.138	103.5
387.363	85.5
387.588	105.5
387.813	100.5
388.038	109.5
388.263	101.5
388.488	111.5
388.713	83.5
388.938	89.5
389.163	92.5
389.387	84.5
389.612	88.5
389.837	83.5
390.062	103.5
390.287	93.5
390.512	87.5
390.736	90.5
390.961	74.5
391.186	89.5
391.411	94.5
391.636	97.5
391.86	79.5
392.085	77.5
392.31	82.5
392.534	87.5
392.759	103.5
392.984	80.5
393.208	86.5
393.433	92.5
393.658	97.5
393.882	76.5
394.107	76.5
394.331	96.5
394.556	88.5
394.78	96.5
395.005	88.5
395.229	83.5
395.454	82.5
395.678	87.5
395.903	82.5
396.127	85.5
396.352	91.5
396.576	89.5
396.801	82.5
397.025	86.5
397.249	82.5
397.474	86.5
397.698	80.5
397.922	86.5
398.147	99.5
398.371	76.5
398.595	89.5
398.82	68.5
399.044	85.5
399.268	95.5
399.492	90.5
399.717	78.5
399.941	96.5
400.165	100.5
400.389	97.5
400.613	76.5
400.837	93.5
401.062	80.5
401.286	96.5
401.51	77.5
401.734	89.5
401.958	101.5
402.182	154.5
402.406	189.5
402.63	138.5
402.854	86.5
403.078	85.5
403.302	81.5
403.526	82.5
403.75	86.5
403.974	102.5
404.198	87.5
404.422	77.5
404.645	77.5
404.869	77.5
405.093	87.5
405.317	100.5
405.541	106.5
405.765	93.5
405.988	135.5
406.212	188.5
406.436	287.5
406.66	182.5
406.883	108.5
407.107	99.5
407.331	109.5
407.555	108.5
407.778	97.5
408.002	98.5
408.226	86.5
408.449	90.5
408.673	89.5
408.896	102.5
409.12	105.5
409.344	89.5
409.567	91.5
409.791	74.5
410.014	94.5
410.238	84.5
410.461	95.5
410.685	82.5
410.908	99.5
411.132	88.5
411.355	99.5
411.578	93.5
411.802	91.5
412.025	89.5
412.249	86.5
412.472	87.5
412.695	99.5
412.919	94.5
413.142	96.5
413.365	103.5
413.589	79.5
413.812	91.5
414.035	81.5
414.258	95.5
414.482	70.5
414.705	76.5
414.928	91.5
415.151	92.5
415.374	80.5
415.597	82.5
415.821	73.5
416.044	102.5
416.267	93.5
416.49	86.5
416.713	90.5
416.936	86.5
417.159	86.5
417.382	85.5
417.605	80.5
417.828	102.5
418.051	93.5
418.274	87.5
418.497	81.5
418.72	80.5
418.943	88.5
419.166	79.5
419.389	89.5
419.611	97.5
419.834	84.5
420.057	74.5
420.28	97.5
420.503	74.5
420.726	79.5
420.948	97.5
421.171	89.5
421.394	80.5
421.617	87.5
421.839	73.5
422.062	72.5
422.285	85.5
422.507	92.5
422.73	105.5
422.953	87.5
423.175	79.5
423.398	86.5
423.621	90.5
423.843	91.5
424.066	83.5
424.288	88.5
424.511	75.5
424.733	103.5
424.956	112.5
425.178	95.5
425.401	93.5
425.623	95.5
425.846	106.5
426.068	88.5
426.291	84.5
426.513	91.5
426.735	93.5
426.958	99.5
427.18	108.5
427.402	152.5
427.625	191.5
427.847	147.5
428.069	121.5
428.292	97.5
428.514	85.5
428.736	92.5
428.958	87.5
429.181	89.5
429.403	94.5
429.625	83.5
429.847	88.5
430.069	108.5
430.292	80.5
430.514	79.5
430.736	68.5
430.958	90.5
431.18	92.5
431.402	85.5
431.624	72.5
431.846	86.5
432.068	77.5
432.29	76.5
432.512	87.5
432.734	86.5
432.956	80.5
433.178	93.5
433.4	85.5
433.622	89.5
433.844	87.5
434.066	82.5
434.287	88.5
434.509	80.5
434.731	93.5
434.953	91.5
435.175	80.5
435.397	94.5
435.618	90.5
435.84	115.5
436.062	123.5
436.284	90.5
436.505	109.5
436.727	93.5
436.949	100.5
437.17	86.5
437.392	90.5
437.614	95.5
437.835	120.5
438.057	132.5
438.278	105.5
438.5	105.5
438.721	111.5
438.943	97.5
439.165	96.5
439.386	92.5
439.608	81.5
439.829	85.5
440.05	132.5
440.272	146.5
440.493	100.5
440.715	72.5
440.936	94.5
441.158	99.5
441.379	98.5
441.6	92.5
441.822	97.5
442.043	95.5
442.264	107.5
442.486	89.5
442.707	98.5
442.928	114.5
443.149	140.5
443.371	141.5
443.592	112.5
443.813	112.5
444.034	102.5
444.255	91.5
444.476	91.5
444.698	81.5
444.919	93.5
445.14	116.5
445.361	111.5
445.582	105.5
445.803	135.5
446.024	149.5
446.245	145.5
446.466	101.5
446.687	85.5
446.908	92.5
447.129	72.5
447.35	91.5
447.571	84.5
447.792	88.5
448.013	101.5
448.234	109.5
448.455	98.5
448.675	112.5
448.896	106.5
449.117	82.5
449.338	102.5
449.559	110.5
449.779	129.5
450	99.5
450.221	75.5
450.442	81.5
450.662	88.5
450.883	112.5
451.104	109.5
451.324	88.5
451.545	73.5
451.766	80.5
451.986	87.5
452.207	86.5
452.428	95.5
452.648	93.5
452.869	116.5
453.089	105.5
453.31	119.5
453.53	88.5
453.751	102.5
453.971	108.5
454.192	121.5
454.412	102.5
454.633	88.5
454.853	83.5
455.073	93.5
455.294	90.5
455.514	99.5
455.734	87.5
455.955	78.5
456.175	64.5
456.395	78.5
456.616	87.5
456.836	90.5
457.056	77.5
457.276	70.5
457.497	75.5
457.717	91.5
457.937	87.5
458.157	88.5
458.377	108.5
458.598	106.5
458.818	169.5
459.038	181.5
459.258	121.5
459.478	91.5
459.698	87.5
459.918	94.5
460.138	77.5
460.358	84.5
460.578	77.5
460.798	80.5
461.018	85.5
461.238	88.5
461.458	88.5
461.678	102.5
461.898	80.5
462.118	78.5
462.338	84.5
462.558	85.5
462.777	82.5
462.997	78.5
463.217	81.5
463.437	92.5
463.657	97.5
463.876	80.5
464.096	99.5
464.316	76.5
464.536	93.5
464.755	79.5
464.975	110.5
465.195	204.5
465.414	172.5
465.634	100.5
465.854	89.5
466.073	100.5
466.293	89.5
466.512	93.5
466.732	84.5
466.951	72.5
467.171	86.5
467.391	97.5
467.61	108.5
467.829	106.5
468.049	171.5
468.268	205.5
468.488	99.5
468.707	89.5
468.927	85.5
469.146	78.5
469.365	79.5
469.585	97.5
469.804	99.5
470.023	100.5
470.243	92.5
470.462	107.5
470.681	113.5
470.901	90.5
471.12	84.5
471.339	88.5
471.558	92.5
471.777	93.5
471.997	125.5
472.216	275.5
472.435	530.5
472.654	180.5
472.873	103.5
473.092	84.5
473.311	94.5
473.53	87.5
473.749	92.5
473.968	99.5
474.187	90.5
474.406	105.5
474.625	97.5
474.844	87.5
475.063	62.5
475.282	85.5
475.501	79.5
475.72	65.5
475.939	80.5
476.158	84.5
476.377	79.5
476.596	84.5
476.814	93.5
477.033	101.5
477.252	97.5
477.471	89.5
477.69	83.5
477.908	73.5
478.127	89.5
478.346	72.5
478.564	94.5
478.783	95.5
479.002	82.5
479.22	96.5
479.439	93.5
479.658	121.5
479.876	95.5
480.095	77.5
480.313	93.5
480.532	115.5
480.751	132.5
480.969	269.5
481.188	890.5
481.406	579.5
481.624	140.5
481.843	89.5
482.061	82.5
482.28	87.5
482.498	84.5
482.717	81.5
482.935	85.5
483.153	86.5
483.372	79.5
483.59	70.5
483.808	87.5
484.027	88.5
484.245	86.5
484.463	86.5
484.681	98.5
484.9	94.5
485.118	97.5
485.336	73.5
485.554	95.5
485.772	98.5
485.99	107.5
486.209	106.5
486.427	107.5
486.645	108.5
486.863	113.5
487.081	105.5
487.299	86.5
487.517	104.5
487.735	94.5
487.953	94.5
488.171	93.5
488.389	91.5
488.607	100.5
488.825	82.5
489.043	102.5
489.261	92.5
489.479	87.5
489.696	69.5
489.914	90.5
490.132	92.5
490.35	86.5
490.568	92.5
490.786	105.5
491.003	76.5
491.221	89.5
491.439	76.5
491.657	96.5
491.874	86.5
492.092	75.5
492.31	101.5
492.527	83.5
492.745	100.5
492.963	109.5
493.18	86.5
493.398	95.5
493.615	100.5
493.833	84.5
494.05	89.5
494.268	103.5
494.485	100.5
494.703	91.5
494.92	81.5
495.138	78.5
495.355	96.5
495.573	90.5
495.79	72.5
496.008	72.5
496.225	76.5
496.442	89.5
496.66	92.5
496.877	85.5
497.094	90.5
497.312	92.5
497.529	80.5
497.746	83.5
497.963	85.5
498.181	94.5
498.398	90.5
498.615	104.5
498.832	94.5
499.049	86.5
499.267	82.5
499.484	77.5
499.701	93.5
499.918	90.5
500.135	74.5
500.352	87.5
500.569	90.5
500.786	93.5
501.003	82.5
501.22	91.5
501.437	98.5
501.654	85.5
501.871	92.5
502.088	98.5
502.305	90.5
502.522	90.5
502.739	79.5
502.956	81.5
503.172	84.5
503.389	105.5
503.606	108.5
503.823	91.5
504.04	91.5
504.256	92.5
504.473	74.5
504.69	77.5
504.907	95.5
505.123	74.5
505.34	85.5
505.557	96.5
505.773	100.5
505.99	81.5
506.207	79.5
506.423	84.5
506.64	97.5
506.856	85.5
507.073	98.5
507.289	87.5
507.506	94.5
507.722	124.5
507.939	129.5
508.155	103.5
508.372	92.5
508.588	100.5
508.805	91.5
509.021	100.5
509.238	101.5
509.454	91.5
509.67	104.5
509.887	117.5
510.103	138.5
510.319	259.5
510.536	971.5
510.752	3318.5
510.968	905.5
511.184	175.5
511.401	116.5
511.617	99.5
511.833	86.5
512.049	93.5
512.265	100.5
512.481	86.5
512.698	79.5
512.914	82.5
513.13	89.5
513.346	109.5
513.562	103.5
513.778	89.5
513.994	109.5
514.21	110.5
514.426	130.5
514.642	157.5
514.858	135.5
515.074	204.5
515.29	605.5
515.506	2191.5
515.721	786.5
515.937	190.5
516.153	109.5
516.369	81.5
516.585	99.5
516.801	99.5
517.016	99.5
517.232	88.5
517.448	95.5
517.664	97.5
517.879	103.5
518.095	105.5
518.311	95.5
518.527	84.5
518.742	88.5
518.958	81.5
519.173	98.5
519.389	94.5
519.605	103.5
519.82	107.5
520.036	116.5
520.251	143.5
520.467	121.5
520.682	109.5
520.898	140.5
521.113	128.5
521.329	154.5
521.544	249.5
521.76	762.5
521.975	3654.5
522.19	2159.5
522.406	437.5
522.621	141.5
522.836	90.5
523.052	111.5
523.267	112.5
523.482	102.5
523.698	111.5
523.913	129.5
524.128	104.5
524.343	82.5
524.559	88.5
524.774	84.5
524.989	84.5
525.204	113.5
525.419	90.5
525.634	80.5
525.849	102.5
526.064	93.5
526.28	91.5
526.495	85.5
526.71	77.5
526.925	88.5
527.14	99.5
527.355	89.5
527.57	81.5
527.785	91.5
527.999	78.5
528.214	77.5
528.429	93.5
528.644	88.5
528.859	97.5
529.074	117.5
529.289	124.5
529.503	221.5
529.718	116.5
529.933	85.5
530.148	88.5
530.363	89.5
530.577	88.5
530.792	86.5
531.007	93.5
531.221	85.5
531.436	93.5
531.651	81.5
531.865	97.5
532.08	95.5
532.295	104.5
532.509	101.5
532.724	82.5
532.938	96.5
533.153	102.5
533.367	94.5
533.582	86.5
533.796	91.5
534.011	76.5
534.225	92.5
534.44	79.5
534.654	86.5
534.868	88.5
535.083	98.5
