Data from Circ_2008_H10_HRD10591_00043.txt Node
Date: Wed Jan 03 10:17:04 EST 2024
User: Yrep
Spectrometer: HR+D1059
Trigger mode: 1
Integration Time (sec): 1.000000E-1
Scans to average: 1
Electric dark correction enabled: true
Nonlinearity correction enabled: false
Boxcar width: 0
XAxis mode: Wavelengths
Number of Pixels in Spectrum: 2048
>>>>>Begin Spectral Data<<<<<
223.165	-14.69
223.4	-14.69
223.635	-14.69
223.869	-10.69
224.104	-20.69
224.338	-16.69
224.573	-8.69
224.808	-23.69
225.042	0.31
225.277	-10.69
225.511	0.31
225.746	5.31
225.98	-4.69
226.215	25.31
226.449	13.31
226.683	14.31
226.918	27.31
227.152	24.31
227.387	23.31
227.621	30.31
227.856	40.31
228.09	32.31
228.324	35.31
228.559	51.31
228.793	53.31
229.027	61.31
229.262	71.31
229.496	60.31
229.73	76.31
229.964	84.31
230.199	63.31
230.433	71.31
230.667	64.31
230.901	62.31
231.136	82.31
231.37	80.31
231.604	64.31
231.838	79.31
232.072	77.31
232.306	73.31
232.541	72.31
232.775	78.31
233.009	72.31
233.243	71.31
233.477	87.31
233.711	90.31
233.945	87.31
234.179	71.31
234.413	64.31
234.647	62.31
234.881	72.31
235.115	72.31
235.349	73.31
235.583	82.31
235.817	71.31
236.051	85.31
236.285	78.31
236.519	59.31
236.753	79.31
236.987	72.31
237.221	79.31
237.455	75.31
237.689	83.31
237.922	86.31
238.156	59.31
238.39	74.31
238.624	57.31
238.858	67.31
239.091	75.31
239.325	82.31
239.559	81.31
239.793	81.31
240.027	85.31
240.26	56.31
240.494	79.31
240.728	86.31
240.961	69.31
241.195	72.31
241.429	79.31
241.662	77.31
241.896	75.31
242.13	84.31
242.363	62.31
242.597	65.31
242.83	82.31
243.064	64.31
243.298	91.31
243.531	75.31
243.765	79.31
243.998	74.31
244.232	77.31
244.465	96.31
244.699	76.31
244.932	76.31
245.166	68.31
245.399	71.31
245.633	64.31
245.866	73.31
246.099	71.31
246.333	75.31
246.566	75.31
246.8	84.31
247.033	75.31
247.266	80.31
247.5	89.31
247.733	84.31
247.966	76.31
248.2	84.31
248.433	76.31
248.666	75.31
248.899	81.31
249.133	68.31
249.366	99.31
249.599	82.31
249.832	83.31
250.066	83.31
250.299	68.31
250.532	93.31
250.765	83.31
250.998	73.31
251.231	86.31
251.465	71.31
251.698	73.31
251.931	63.31
252.164	65.31
252.397	76.31
252.63	64.31
252.863	81.31
253.096	73.31
253.329	73.31
253.562	66.31
253.795	71.31
254.028	76.31
254.261	75.31
254.494	85.31
254.727	79.31
254.96	72.31
255.193	85.31
255.426	84.31
255.659	65.31
255.892	78.31
256.124	81.31
256.357	85.31
256.59	77.31
256.823	68.31
257.056	61.31
257.289	72.31
257.521	71.31
257.754	71.31
257.987	80.31
258.22	73.31
258.452	81.31
258.685	80.31
258.918	72.31
259.151	68.31
259.383	60.31
259.616	87.31
259.849	73.31
260.081	81.31
260.314	78.31
260.547	83.31
260.779	74.31
261.012	75.31
261.244	86.31
261.477	74.31
261.71	101.31
261.942	104.31
262.175	104.31
262.407	91.31
262.64	88.31
262.872	75.31
263.105	85.31
263.337	77.31
263.57	66.31
263.802	89.31
264.035	92.31
264.267	73.31
264.499	71.31
264.732	83.31
264.964	61.31
265.197	99.31
265.429	82.31
265.661	80.31
265.894	69.31
266.126	93.31
266.358	79.31
266.591	72.31
266.823	81.31
267.055	91.31
267.287	78.31
267.52	79.31
267.752	73.31
267.984	81.31
268.216	82.31
268.448	71.31
268.681	74.31
268.913	72.31
269.145	83.31
269.377	90.31
269.609	91.31
269.841	82.31
270.073	84.31
270.306	79.31
270.538	93.31
270.77	82.31
271.002	78.31
271.234	77.31
271.466	83.31
271.698	78.31
271.93	92.31
272.162	86.31
272.394	86.31
272.626	78.31
272.858	73.31
273.09	74.31
273.322	89.31
273.553	78.31
273.785	83.31
274.017	79.31
274.249	92.31
274.481	74.31
274.713	85.31
274.945	80.31
275.176	88.31
275.408	89.31
275.64	87.31
275.872	87.31
276.104	92.31
276.335	83.31
276.567	94.31
276.799	107.31
277.031	91.31
277.262	98.31
277.494	93.31
277.726	96.31
277.957	92.31
278.189	77.31
278.421	82.31
278.652	95.31
278.884	83.31
279.115	76.31
279.347	75.31
279.579	81.31
279.81	84.31
280.042	77.31
280.273	81.31
280.505	78.31
280.736	80.31
280.968	87.31
281.199	85.31
281.431	72.31
281.662	93.31
281.894	81.31
282.125	94.31
282.356	100.31
282.588	130.31
282.819	99.31
283.051	96.31
283.282	93.31
283.513	82.31
283.745	77.31
283.976	83.31
284.207	76.31
284.439	78.31
284.67	90.31
284.901	78.31
285.132	85.31
285.364	80.31
285.595	96.31
285.826	84.31
286.057	93.31
286.288	86.31
286.52	89.31
286.751	67.31
286.982	79.31
287.213	91.31
287.444	78.31
287.675	73.31
287.906	87.31
288.138	90.31
288.369	91.31
288.6	82.31
288.831	87.31
289.062	107.31
289.293	73.31
289.524	92.31
289.755	73.31
289.986	78.31
290.217	86.31
290.448	83.31
290.679	75.31
290.91	83.31
291.141	78.31
291.371	86.31
291.602	79.31
291.833	90.31
292.064	81.31
292.295	81.31
292.526	80.31
292.757	80.31
292.987	90.31
293.218	73.31
293.449	78.31
293.68	82.31
293.91	101.31
294.141	88.31
294.372	93.31
294.603	83.31
294.833	83.31
295.064	84.31
295.295	89.31
295.525	97.31
295.756	91.31
295.987	119.31
296.217	138.31
296.448	129.31
296.679	76.31
296.909	84.31
297.14	89.31
297.37	100.31
297.601	80.31
297.831	83.31
298.062	74.31
298.292	78.31
298.523	80.31
298.753	89.31
298.984	85.31
299.214	91.31
299.445	95.31
299.675	94.31
299.905	93.31
300.136	97.31
300.366	87.31
300.597	75.31
300.827	95.31
301.057	86.31
301.288	102.31
301.518	97.31
301.748	90.31
301.979	90.31
302.209	90.31
302.439	81.31
302.669	79.31
302.9	86.31
303.13	85.31
303.36	85.31
303.59	98.31
303.82	110.31
304.051	91.31
304.281	79.31
304.511	87.31
304.741	84.31
304.971	93.31
305.201	98.31
305.431	96.31
305.661	88.31
305.891	87.31
306.121	81.31
306.352	101.31
306.582	97.31
306.812	94.31
307.042	84.31
307.272	107.31
307.502	100.31
307.731	87.31
307.961	87.31
308.191	98.31
308.421	81.31
308.651	92.31
308.881	88.31
309.111	101.31
309.341	92.31
309.571	88.31
309.8	93.31
310.03	99.31
310.26	103.31
310.49	88.31
310.72	79.31
310.949	100.31
311.179	98.31
311.409	75.31
311.639	85.31
311.868	87.31
312.098	98.31
312.328	93.31
312.557	87.31
312.787	110.31
313.017	95.31
313.246	93.31
313.476	98.31
313.706	105.31
313.935	91.31
314.165	98.31
314.394	109.31
314.624	94.31
314.853	83.31
315.083	76.31
315.312	96.31
315.542	79.31
315.771	96.31
316.001	91.31
316.23	90.31
316.46	100.31
316.689	84.31
316.919	96.31
317.148	103.31
317.377	92.31
317.607	85.31
317.836	90.31
318.065	75.31
318.295	102.31
318.524	97.31
318.753	81.31
318.983	84.31
319.212	93.31
319.441	98.31
319.67	106.31
319.9	87.31
320.129	87.31
320.358	87.31
320.587	108.31
320.816	103.31
321.046	102.31
321.275	85.31
321.504	99.31
321.733	86.31
321.962	98.31
322.191	96.31
322.42	97.31
322.649	102.31
322.878	97.31
323.108	115.31
323.337	128.31
323.566	121.31
323.795	141.31
324.024	195.31
324.253	344.31
324.482	670.31
324.71	1373.31
324.939	1799.31
325.168	688.31
325.397	222.31
325.626	151.31
325.855	118.31
326.084	110.31
326.313	112.31
326.542	123.31
326.77	200.31
326.999	367.31
327.228	773.31
327.457	1328.31
327.686	1070.31
327.914	319.31
328.143	173.31
328.372	164.31
328.6	125.31
328.829	105.31
329.058	127.31
329.287	126.31
329.515	119.31
329.744	98.31
329.972	116.31
330.201	139.31
330.43	153.31
330.658	152.31
330.887	125.31
331.115	106.31
331.344	104.31
331.572	97.31
331.801	90.31
332.03	106.31
332.258	88.31
332.486	93.31
332.715	89.31
332.943	81.31
333.172	95.31
333.4	88.31
333.629	104.31
333.857	99.31
334.085	109.31
334.314	140.31
334.542	151.31
334.771	166.31
334.999	108.31
335.227	102.31
335.455	86.31
335.684	87.31
335.912	94.31
336.14	91.31
336.369	85.31
336.597	108.31
336.825	87.31
337.053	86.31
337.281	97.31
337.51	87.31
337.738	92.31
337.966	98.31
338.194	93.31
338.422	101.31
338.65	112.31
338.878	89.31
339.106	102.31
339.334	95.31
339.562	74.31
339.79	83.31
340.018	89.31
340.246	86.31
340.474	93.31
340.702	81.31
340.93	88.31
341.158	87.31
341.386	104.31
341.614	90.31
341.842	84.31
342.07	70.31
342.298	83.31
342.526	85.31
342.754	90.31
342.981	89.31
343.209	97.31
343.437	82.31
343.665	77.31
343.893	82.31
344.12	89.31
344.348	93.31
344.576	81.31
344.804	91.31
345.031	92.31
345.259	84.31
345.487	86.31
345.714	96.31
345.942	93.31
346.17	78.31
346.397	85.31
346.625	91.31
346.853	87.31
347.08	88.31
347.308	96.31
347.535	94.31
347.763	106.31
347.99	104.31
348.218	102.31
348.445	103.31
348.673	103.31
348.9	109.31
349.128	98.31
349.355	90.31
349.583	102.31
349.81	95.31
350.037	90.31
350.265	92.31
350.492	93.31
350.72	89.31
350.947	89.31
351.174	117.31
351.402	111.31
351.629	85.31
351.856	68.31
352.083	100.31
352.311	103.31
352.538	99.31
352.765	107.31
352.992	105.31
353.22	91.31
353.447	85.31
353.674	100.31
353.901	97.31
354.128	91.31
354.355	73.31
354.583	95.31
354.81	88.31
355.037	90.31
355.264	102.31
355.491	89.31
355.718	83.31
355.945	90.31
356.172	84.31
356.399	98.31
356.626	92.31
356.853	89.31
357.08	94.31
357.307	89.31
357.534	81.31
357.761	90.31
357.988	99.31
358.215	95.31
358.441	104.31
358.668	92.31
358.895	89.31
359.122	81.31
359.349	99.31
359.576	78.31
359.802	99.31
360.029	101.31
360.256	111.31
360.483	108.31
360.709	100.31
360.936	84.31
361.163	80.31
361.39	92.31
361.616	98.31
361.843	91.31
362.07	100.31
362.296	92.31
362.523	98.31
362.749	88.31
362.976	72.31
363.203	92.31
363.429	89.31
363.656	84.31
363.882	80.31
364.109	86.31
364.335	82.31
364.562	93.31
364.788	94.31
365.015	83.31
365.241	97.31
365.468	99.31
365.694	106.31
365.92	83.31
366.147	92.31
366.373	98.31
366.599	82.31
366.826	96.31
367.052	80.31
367.278	71.31
367.505	83.31
367.731	79.31
367.957	85.31
368.184	93.31
368.41	94.31
368.636	106.31
368.862	116.31
369.089	93.31
369.315	94.31
369.541	95.31
369.767	94.31
369.993	89.31
370.219	91.31
370.445	103.31
370.672	99.31
370.898	100.31
371.124	85.31
371.35	75.31
371.576	81.31
371.802	60.31
372.028	78.31
372.254	88.31
372.48	79.31
372.706	75.31
372.932	76.31
373.158	92.31
373.384	97.31
373.61	79.31
373.835	92.31
374.061	88.31
374.287	91.31
374.513	78.31
374.739	88.31
374.965	81.31
375.191	86.31
375.416	79.31
375.642	92.31
375.868	85.31
376.094	79.31
376.319	89.31
376.545	87.31
376.771	79.31
376.997	88.31
377.222	98.31
377.448	95.31
377.674	84.31
377.899	90.31
378.125	83.31
378.35	89.31
378.576	93.31
378.802	100.31
379.027	99.31
379.253	89.31
379.478	94.31
379.704	94.31
379.929	86.31
380.155	84.31
380.38	85.31
380.606	98.31
380.831	103.31
381.057	98.31
381.282	99.31
381.507	96.31
381.733	95.31
381.958	87.31
382.184	89.31
382.409	75.31
382.634	106.31
382.86	88.31
383.085	99.31
383.31	90.31
383.535	102.31
383.761	108.31
383.986	93.31
384.211	95.31
384.436	92.31
384.662	90.31
384.887	104.31
385.112	91.31
385.337	106.31
385.562	104.31
385.787	99.31
386.013	112.31
386.238	109.31
386.463	100.31
386.688	94.31
386.913	94.31
387.138	102.31
387.363	90.31
387.588	95.31
387.813	95.31
388.038	111.31
388.263	106.31
388.488	95.31
388.713	107.31
388.938	100.31
389.163	86.31
389.387	88.31
389.612	94.31
389.837	85.31
390.062	107.31
390.287	100.31
390.512	95.31
390.736	85.31
390.961	83.31
391.186	93.31
391.411	103.31
391.636	97.31
391.86	93.31
392.085	65.31
392.31	87.31
392.534	89.31
392.759	80.31
392.984	86.31
393.208	86.31
393.433	100.31
393.658	86.31
393.882	105.31
394.107	80.31
394.331	80.31
394.556	78.31
394.78	88.31
395.005	73.31
395.229	87.31
395.454	90.31
395.678	80.31
395.903	92.31
396.127	86.31
396.352	95.31
396.576	78.31
396.801	91.31
397.025	80.31
397.249	99.31
397.474	87.31
397.698	98.31
397.922	87.31
398.147	88.31
398.371	91.31
398.595	76.31
398.82	79.31
399.044	79.31
399.268	80.31
399.492	80.31
399.717	89.31
399.941	69.31
400.165	92.31
400.389	94.31
400.613	89.31
400.837	72.31
401.062	81.31
401.286	78.31
401.51	89.31
401.734	86.31
401.958	104.31
402.182	113.31
402.406	154.31
402.63	120.31
402.854	101.31
403.078	82.31
403.302	78.31
403.526	82.31
403.75	88.31
403.974	78.31
404.198	89.31
404.422	75.31
404.645	90.31
404.869	102.31
405.093	94.31
405.317	93.31
405.541	93.31
405.765	86.31
405.988	133.31
406.212	167.31
406.436	238.31
406.66	144.31
406.883	97.31
407.107	101.31
407.331	86.31
407.555	89.31
407.778	89.31
408.002	74.31
408.226	86.31
408.449	84.31
408.673	71.31
408.896	84.31
409.12	88.31
409.344	89.31
409.567	87.31
409.791	84.31
410.014	92.31
410.238	82.31
410.461	97.31
410.685	90.31
410.908	83.31
411.132	101.31
411.355	101.31
411.578	101.31
411.802	83.31
412.025	89.31
412.249	85.31
412.472	90.31
412.695	95.31
412.919	70.31
413.142	86.31
413.365	85.31
413.589	87.31
413.812	100.31
414.035	89.31
414.258	88.31
414.482	87.31
414.705	88.31
414.928	77.31
415.151	74.31
415.374	88.31
415.597	75.31
415.821	95.31
416.044	88.31
416.267	82.31
416.49	90.31
416.713	75.31
416.936	87.31
417.159	78.31
417.382	95.31
417.605	85.31
417.828	80.31
418.051	96.31
418.274	85.31
418.497	110.31
418.72	91.31
418.943	85.31
419.166	93.31
419.389	69.31
419.611	90.31
419.834	73.31
420.057	90.31
420.28	90.31
420.503	93.31
420.726	78.31
420.948	76.31
421.171	79.31
421.394	80.31
421.617	92.31
421.839	82.31
422.062	76.31
422.285	80.31
422.507	95.31
422.73	103.31
422.953	85.31
423.175	93.31
423.398	80.31
423.621	86.31
423.843	88.31
424.066	83.31
424.288	85.31
424.511	96.31
424.733	106.31
424.956	94.31
425.178	81.31
425.401	81.31
425.623	91.31
425.846	96.31
426.068	105.31
426.291	97.31
426.513	89.31
426.735	100.31
426.958	101.31
427.18	97.31
427.402	135.31
427.625	151.31
427.847	128.31
428.069	115.31
428.292	90.31
428.514	89.31
428.736	85.31
428.958	71.31
429.181	78.31
429.403	71.31
429.625	84.31
429.847	80.31
430.069	101.31
430.292	87.31
430.514	91.31
430.736	95.31
430.958	76.31
431.18	81.31
431.402	97.31
431.624	92.31
431.846	73.31
432.068	87.31
432.29	92.31
432.512	80.31
432.734	74.31
432.956	88.31
433.178	71.31
433.4	87.31
433.622	80.31
433.844	79.31
434.066	94.31
434.287	100.31
434.509	89.31
434.731	73.31
434.953	78.31
435.175	97.31
435.397	107.31
435.618	88.31
435.84	92.31
436.062	102.31
436.284	115.31
436.505	113.31
436.727	102.31
436.949	90.31
437.17	82.31
437.392	76.31
437.614	77.31
437.835	110.31
438.057	105.31
438.278	111.31
438.5	103.31
438.721	109.31
438.943	81.31
439.165	75.31
439.386	87.31
439.608	84.31
439.829	75.31
440.05	96.31
440.272	125.31
440.493	104.31
440.715	79.31
440.936	86.31
441.158	73.31
441.379	100.31
441.6	88.31
441.822	78.31
442.043	82.31
442.264	90.31
442.486	94.31
442.707	75.31
442.928	97.31
443.149	110.31
443.371	129.31
443.592	106.31
443.813	96.31
444.034	103.31
444.255	84.31
444.476	88.31
444.698	81.31
444.919	83.31
445.14	138.31
445.361	116.31
445.582	104.31
445.803	114.31
446.024	120.31
446.245	121.31
446.466	110.31
446.687	106.31
446.908	101.31
447.129	80.31
447.35	89.31
447.571	86.31
447.792	79.31
448.013	96.31
448.234	99.31
448.455	101.31
448.675	100.31
448.896	105.31
449.117	96.31
449.338	95.31
449.559	110.31
449.779	118.31
450	93.31
450.221	87.31
450.442	92.31
450.662	111.31
450.883	96.31
451.104	112.31
451.324	93.31
451.545	87.31
451.766	93.31
451.986	84.31
452.207	93.31
452.428	91.31
452.648	97.31
452.869	117.31
453.089	108.31
453.31	117.31
453.53	94.31
453.751	83.31
453.971	99.31
454.192	107.31
454.412	80.31
454.633	79.31
454.853	87.31
455.073	63.31
455.294	87.31
455.514	94.31
455.734	74.31
455.955	81.31
456.175	80.31
456.395	85.31
456.616	67.31
456.836	81.31
457.056	83.31
457.276	85.31
457.497	80.31
457.717	85.31
457.937	70.31
458.157	85.31
458.377	75.31
458.598	105.31
458.818	138.31
459.038	158.31
459.258	113.31
459.478	92.31
459.698	78.31
459.918	80.31
460.138	80.31
460.358	89.31
460.578	88.31
460.798	74.31
461.018	75.31
461.238	92.31
461.458	85.31
461.678	68.31
461.898	88.31
462.118	79.31
462.338	66.31
462.558	91.31
462.777	92.31
462.997	93.31
463.217	78.31
463.437	91.31
463.657	92.31
463.876	81.31
464.096	89.31
464.316	82.31
464.536	93.31
464.755	87.31
464.975	93.31
465.195	165.31
465.414	157.31
465.634	94.31
465.854	76.31
466.073	97.31
466.293	80.31
466.512	91.31
466.732	75.31
466.951	89.31
467.171	91.31
467.391	91.31
467.61	107.31
467.829	94.31
468.049	128.31
468.268	106.31
468.488	85.31
468.707	81.31
468.927	85.31
469.146	75.31
469.365	88.31
469.585	93.31
469.804	82.31
470.023	94.31
470.243	90.31
470.462	109.31
470.681	112.31
470.901	85.31
471.12	96.31
471.339	83.31
471.558	87.31
471.777	82.31
471.997	95.31
472.216	130.31
472.435	181.31
472.654	119.31
472.873	81.31
473.092	85.31
473.311	94.31
473.53	78.31
473.749	85.31
473.968	82.31
474.187	107.31
474.406	101.31
474.625	82.31
474.844	89.31
475.063	83.31
475.282	73.31
475.501	85.31
475.72	84.31
475.939	80.31
476.158	97.31
476.377	80.31
476.596	87.31
476.814	82.31
477.033	88.31
477.252	81.31
477.471	79.31
477.69	86.31
477.908	91.31
478.127	94.31
478.346	88.31
478.564	92.31
478.783	101.31
479.002	91.31
479.22	91.31
479.439	84.31
479.658	100.31
479.876	87.31
480.095	80.31
480.313	85.31
480.532	81.31
480.751	85.31
480.969	120.31
481.188	271.31
481.406	194.31
481.624	91.31
481.843	73.31
482.061	85.31
482.28	87.31
482.498	92.31
482.717	76.31
482.935	100.31
483.153	86.31
483.372	83.31
483.59	90.31
483.808	78.31
484.027	88.31
484.245	84.31
484.463	84.31
484.681	82.31
484.9	82.31
485.118	92.31
485.336	79.31
485.554	99.31
485.772	101.31
485.99	94.31
486.209	105.31
486.427	81.31
486.645	104.31
486.863	114.31
487.081	108.31
487.299	98.31
487.517	90.31
487.735	89.31
487.953	90.31
488.171	84.31
488.389	91.31
488.607	89.31
488.825	127.31
489.043	84.31
489.261	96.31
489.479	79.31
489.696	92.31
489.914	91.31
490.132	74.31
490.35	84.31
490.568	80.31
490.786	86.31
491.003	82.31
491.221	75.31
491.439	76.31
491.657	76.31
491.874	100.31
492.092	92.31
492.31	102.31
492.527	81.31
492.745	88.31
492.963	92.31
493.18	102.31
493.398	76.31
493.615	74.31
493.833	85.31
494.05	81.31
494.268	83.31
494.485	89.31
494.703	88.31
494.92	79.31
495.138	90.31
495.355	83.31
495.573	90.31
495.79	79.31
496.008	92.31
496.225	87.31
496.442	76.31
496.66	95.31
496.877	80.31
497.094	86.31
497.312	90.31
497.529	94.31
497.746	84.31
497.963	88.31
498.181	78.31
498.398	81.31
498.615	93.31
498.832	103.31
499.049	79.31
499.267	84.31
499.484	84.31
499.701	78.31
499.918	82.31
500.135	90.31
500.352	87.31
500.569	80.31
500.786	87.31
501.003	70.31
501.22	91.31
501.437	86.31
501.654	69.31
501.871	104.31
502.088	93.31
502.305	92.31
502.522	99.31
502.739	87.31
502.956	89.31
503.172	68.31
503.389	81.31
503.606	88.31
503.823	98.31
504.04	84.31
504.256	93.31
504.473	81.31
504.69	93.31
504.907	90.31
505.123	96.31
505.34	87.31
505.557	90.31
505.773	79.31
505.99	95.31
506.207	88.31
506.423	93.31
506.64	96.31
506.856	90.31
507.073	91.31
507.289	98.31
507.506	104.31
507.722	115.31
507.939	119.31
508.155	96.31
508.372	90.31
508.588	86.31
508.805	83.31
509.021	85.31
509.238	90.31
509.454	85.31
509.67	99.31
509.887	102.31
510.103	133.31
510.319	213.31
510.536	806.31
510.752	2640.31
510.968	743.31
511.184	163.31
511.401	120.31
511.617	96.31
511.833	85.31
512.049	80.31
512.265	87.31
512.481	72.31
512.698	87.31
512.914	71.31
513.13	94.31
513.346	93.31
513.562	78.31
513.778	91.31
513.994	98.31
514.21	100.31
514.426	95.31
514.642	141.31
514.858	110.31
515.074	155.31
515.29	477.31
515.506	1590.31
515.721	604.31
515.937	167.31
516.153	116.31
516.369	99.31
516.585	87.31
