Data from Circ_2008_H10_HRD10591_00071.txt Node
Date: Wed Jan 03 10:17:10 EST 2024
User: Yrep
Spectrometer: HR+D1059
Trigger mode: 1
Integration Time (sec): 1.000000E-1
Scans to average: 1
Electric dark correction enabled: true
Nonlinearity correction enabled: false
Boxcar width: 0
XAxis mode: Wavelengths
Number of Pixels in Spectrum: 2048
>>>>>Begin Spectral Data<<<<<
223.165	-13.75
223.4	-13.75
223.635	-13.75
223.869	-17.75
224.104	-14.75
224.338	-16.75
224.573	-21.75
224.808	-2.75
225.042	-4.75
225.277	-14.75
225.511	-12.75
225.746	-12.75
225.98	24.25
226.215	4.25
226.449	41.25
226.683	21.25
226.918	19.25
227.152	22.25
227.387	34.25
227.621	11.25
227.856	46.25
228.09	46.25
228.324	53.25
228.559	62.25
228.793	67.25
229.027	61.25
229.262	65.25
229.496	63.25
229.73	82.25
229.964	88.25
230.199	84.25
230.433	71.25
230.667	71.25
230.901	82.25
231.136	73.25
231.37	71.25
231.604	68.25
231.838	85.25
232.072	81.25
232.306	89.25
232.541	72.25
232.775	75.25
233.009	79.25
233.243	76.25
233.477	68.25
233.711	82.25
233.945	75.25
234.179	79.25
234.413	80.25
234.647	85.25
234.881	89.25
235.115	85.25
235.349	77.25
235.583	76.25
235.817	97.25
236.051	96.25
236.285	82.25
236.519	77.25
236.753	72.25
236.987	75.25
237.221	94.25
237.455	85.25
237.689	71.25
237.922	72.25
238.156	65.25
238.39	76.25
238.624	66.25
238.858	69.25
239.091	86.25
239.325	87.25
239.559	82.25
239.793	71.25
240.027	85.25
240.26	87.25
240.494	70.25
240.728	63.25
240.961	98.25
241.195	82.25
241.429	88.25
241.662	73.25
241.896	76.25
242.13	74.25
242.363	65.25
242.597	71.25
242.83	64.25
243.064	76.25
243.298	77.25
243.531	69.25
243.765	84.25
243.998	70.25
244.232	76.25
244.465	84.25
244.699	60.25
244.932	84.25
245.166	89.25
245.399	81.25
245.633	95.25
245.866	72.25
246.099	89.25
246.333	81.25
246.566	89.25
246.8	73.25
247.033	82.25
247.266	92.25
247.5	71.25
247.733	75.25
247.966	76.25
248.2	83.25
248.433	85.25
248.666	85.25
248.899	80.25
249.133	88.25
249.366	84.25
249.599	98.25
249.832	95.25
250.066	82.25
250.299	80.25
250.532	81.25
250.765	81.25
250.998	84.25
251.231	78.25
251.465	74.25
251.698	87.25
251.931	85.25
252.164	95.25
252.397	102.25
252.63	59.25
252.863	80.25
253.096	80.25
253.329	73.25
253.562	83.25
253.795	80.25
254.028	79.25
254.261	68.25
254.494	96.25
254.727	76.25
254.96	88.25
255.193	86.25
255.426	80.25
255.659	90.25
255.892	84.25
256.124	84.25
256.357	70.25
256.59	74.25
256.823	81.25
257.056	78.25
257.289	85.25
257.521	88.25
257.754	65.25
257.987	78.25
258.22	77.25
258.452	84.25
258.685	93.25
258.918	85.25
259.151	91.25
259.383	76.25
259.616	84.25
259.849	78.25
260.081	97.25
260.314	86.25
260.547	72.25
260.779	87.25
261.012	84.25
261.244	79.25
261.477	103.25
261.71	87.25
261.942	116.25
262.175	109.25
262.407	98.25
262.64	75.25
262.872	82.25
263.105	91.25
263.337	95.25
263.57	89.25
263.802	67.25
264.035	89.25
264.267	73.25
264.499	81.25
264.732	83.25
264.964	72.25
265.197	83.25
265.429	85.25
265.661	82.25
265.894	83.25
266.126	90.25
266.358	64.25
266.591	84.25
266.823	90.25
267.055	91.25
267.287	94.25
267.52	87.25
267.752	81.25
267.984	89.25
268.216	79.25
268.448	78.25
268.681	82.25
268.913	74.25
269.145	84.25
269.377	79.25
269.609	76.25
269.841	95.25
270.073	71.25
270.306	91.25
270.538	86.25
270.77	93.25
271.002	97.25
271.234	78.25
271.466	90.25
271.698	98.25
271.93	75.25
272.162	83.25
272.394	89.25
272.626	75.25
272.858	84.25
273.09	88.25
273.322	80.25
273.553	67.25
273.785	70.25
274.017	85.25
274.249	90.25
274.481	91.25
274.713	85.25
274.945	83.25
275.176	83.25
275.408	88.25
275.64	100.25
275.872	97.25
276.104	92.25
276.335	94.25
276.567	83.25
276.799	100.25
277.031	98.25
277.262	83.25
277.494	84.25
277.726	83.25
277.957	94.25
278.189	84.25
278.421	93.25
278.652	86.25
278.884	80.25
279.115	75.25
279.347	91.25
279.579	79.25
279.81	82.25
280.042	93.25
280.273	83.25
280.505	77.25
280.736	96.25
280.968	103.25
281.199	87.25
281.431	98.25
281.662	93.25
281.894	103.25
282.125	95.25
282.356	120.25
282.588	147.25
282.819	120.25
283.051	92.25
283.282	86.25
283.513	88.25
283.745	78.25
283.976	85.25
284.207	99.25
284.439	95.25
284.67	92.25
284.901	89.25
285.132	84.25
285.364	67.25
285.595	88.25
285.826	92.25
286.057	100.25
286.288	81.25
286.52	87.25
286.751	90.25
286.982	91.25
287.213	79.25
287.444	85.25
287.675	80.25
287.906	90.25
288.138	83.25
288.369	84.25
288.6	102.25
288.831	84.25
289.062	82.25
289.293	90.25
289.524	98.25
289.755	99.25
289.986	90.25
290.217	84.25
290.448	83.25
290.679	89.25
290.91	96.25
291.141	95.25
291.371	92.25
291.602	85.25
291.833	82.25
292.064	88.25
292.295	92.25
292.526	90.25
292.757	95.25
292.987	88.25
293.218	77.25
293.449	82.25
293.68	93.25
293.91	92.25
294.141	82.25
294.372	82.25
294.603	90.25
294.833	87.25
295.064	86.25
295.295	81.25
295.525	91.25
295.756	107.25
295.987	107.25
296.217	132.25
296.448	133.25
296.679	97.25
296.909	93.25
297.14	85.25
297.37	81.25
297.601	90.25
297.831	100.25
298.062	92.25
298.292	85.25
298.523	95.25
298.753	88.25
298.984	87.25
299.214	96.25
299.445	96.25
299.675	94.25
299.905	86.25
300.136	100.25
300.366	93.25
300.597	82.25
300.827	101.25
301.057	101.25
301.288	98.25
301.518	105.25
301.748	93.25
301.979	87.25
302.209	87.25
302.439	83.25
302.669	100.25
302.9	87.25
303.13	92.25
303.36	106.25
303.59	98.25
303.82	119.25
304.051	103.25
304.281	96.25
304.511	80.25
304.741	78.25
304.971	88.25
305.201	91.25
305.431	91.25
305.661	87.25
305.891	93.25
306.121	95.25
306.352	100.25
306.582	95.25
306.812	98.25
307.042	96.25
307.272	96.25
307.502	94.25
307.731	101.25
307.961	103.25
308.191	89.25
308.421	92.25
308.651	92.25
308.881	96.25
309.111	89.25
309.341	96.25
309.571	88.25
309.8	89.25
310.03	109.25
310.26	98.25
310.49	100.25
310.72	97.25
310.949	119.25
311.179	100.25
311.409	103.25
311.639	95.25
311.868	84.25
312.098	97.25
312.328	100.25
312.557	106.25
312.787	113.25
313.017	115.25
313.246	85.25
313.476	92.25
313.706	97.25
313.935	111.25
314.165	99.25
314.394	103.25
314.624	98.25
314.853	96.25
315.083	95.25
315.312	85.25
315.542	82.25
315.771	99.25
316.001	85.25
316.23	83.25
316.46	95.25
316.689	84.25
316.919	97.25
317.148	91.25
317.377	97.25
317.607	101.25
317.836	95.25
318.065	93.25
318.295	96.25
318.524	92.25
318.753	91.25
318.983	97.25
319.212	95.25
319.441	96.25
319.67	92.25
319.9	95.25
320.129	91.25
320.358	95.25
320.587	103.25
320.816	94.25
321.046	108.25
321.275	96.25
321.504	91.25
321.733	85.25
321.962	99.25
322.191	96.25
322.42	100.25
322.649	109.25
322.878	96.25
323.108	116.25
323.337	121.25
323.566	139.25
323.795	149.25
324.024	185.25
324.253	343.25
324.482	708.25
324.71	1449.25
324.939	1954.25
325.168	724.25
325.397	229.25
325.626	141.25
325.855	132.25
326.084	119.25
326.313	131.25
326.542	144.25
326.77	207.25
326.999	416.25
327.228	788.25
327.457	1420.25
327.686	1176.25
327.914	352.25
328.143	201.25
328.372	175.25
328.6	146.25
328.829	117.25
329.058	147.25
329.287	115.25
329.515	122.25
329.744	95.25
329.972	131.25
330.201	163.25
330.43	191.25
330.658	172.25
330.887	140.25
331.115	114.25
331.344	95.25
331.572	103.25
331.801	99.25
332.03	115.25
332.258	107.25
332.486	100.25
332.715	96.25
332.943	96.25
333.172	93.25
333.4	99.25
333.629	104.25
333.857	134.25
334.085	136.25
334.314	143.25
334.542	227.25
334.771	232.25
334.999	112.25
335.227	108.25
335.455	101.25
335.684	91.25
335.912	108.25
336.14	101.25
336.369	104.25
336.597	95.25
336.825	96.25
337.053	75.25
337.281	93.25
337.51	93.25
337.738	97.25
337.966	92.25
338.194	103.25
338.422	98.25
338.65	103.25
338.878	88.25
339.106	91.25
339.334	100.25
339.562	91.25
339.79	108.25
340.018	84.25
340.246	96.25
340.474	104.25
340.702	83.25
340.93	98.25
341.158	92.25
341.386	95.25
341.614	96.25
341.842	83.25
342.07	100.25
342.298	85.25
342.526	94.25
342.754	84.25
342.981	97.25
343.209	95.25
343.437	92.25
343.665	95.25
343.893	93.25
344.12	92.25
344.348	88.25
344.576	95.25
344.804	97.25
345.031	106.25
345.259	87.25
345.487	107.25
345.714	93.25
345.942	96.25
346.17	88.25
346.397	86.25
346.625	101.25
346.853	83.25
347.08	78.25
347.308	96.25
347.535	103.25
347.763	96.25
347.99	102.25
348.218	100.25
348.445	113.25
348.673	96.25
348.9	91.25
349.128	94.25
349.355	94.25
349.583	93.25
349.81	105.25
350.037	109.25
350.265	89.25
350.492	83.25
350.72	80.25
350.947	94.25
351.174	98.25
351.402	96.25
351.629	104.25
351.856	100.25
352.083	101.25
352.311	100.25
352.538	106.25
352.765	104.25
352.992	99.25
353.22	110.25
353.447	106.25
353.674	104.25
353.901	92.25
354.128	102.25
354.355	100.25
354.583	85.25
354.81	102.25
355.037	95.25
355.264	93.25
355.491	101.25
355.718	97.25
355.945	113.25
356.172	86.25
356.399	100.25
356.626	95.25
356.853	83.25
357.08	88.25
357.307	85.25
357.534	104.25
357.761	93.25
357.988	95.25
358.215	98.25
358.441	88.25
358.668	84.25
358.895	82.25
359.122	100.25
359.349	79.25
359.576	79.25
359.802	94.25
360.029	114.25
360.256	110.25
360.483	95.25
360.709	89.25
360.936	105.25
361.163	88.25
361.39	102.25
361.616	93.25
361.843	101.25
362.07	89.25
362.296	88.25
362.523	101.25
362.749	89.25
362.976	100.25
363.203	98.25
363.429	93.25
363.656	87.25
363.882	90.25
364.109	77.25
364.335	93.25
364.562	83.25
364.788	90.25
365.015	80.25
365.241	108.25
365.468	106.25
365.694	108.25
365.92	91.25
366.147	83.25
366.373	82.25
366.599	87.25
366.826	82.25
367.052	103.25
367.278	82.25
367.505	93.25
367.731	93.25
367.957	93.25
368.184	92.25
368.41	107.25
368.636	93.25
368.862	124.25
369.089	112.25
369.315	101.25
369.541	89.25
369.767	87.25
369.993	87.25
370.219	104.25
370.445	77.25
370.672	90.25
370.898	83.25
371.124	82.25
371.35	89.25
371.576	101.25
371.802	91.25
372.028	84.25
372.254	99.25
372.48	87.25
372.706	94.25
372.932	91.25
373.158	88.25
373.384	105.25
373.61	81.25
373.835	90.25
374.061	101.25
374.287	94.25
374.513	97.25
374.739	89.25
374.965	97.25
375.191	83.25
375.416	87.25
375.642	82.25
375.868	79.25
376.094	84.25
376.319	90.25
376.545	83.25
376.771	82.25
376.997	88.25
377.222	94.25
377.448	81.25
377.674	83.25
377.899	108.25
378.125	95.25
378.35	93.25
378.576	82.25
378.802	90.25
379.027	94.25
379.253	93.25
379.478	94.25
379.704	102.25
379.929	106.25
380.155	83.25
380.38	91.25
380.606	92.25
380.831	92.25
381.057	93.25
381.282	92.25
381.507	93.25
381.733	96.25
381.958	103.25
382.184	104.25
382.409	101.25
382.634	91.25
382.86	90.25
383.085	108.25
383.31	103.25
383.535	88.25
383.761	90.25
383.986	87.25
384.211	93.25
384.436	108.25
384.662	107.25
384.887	111.25
385.112	109.25
385.337	104.25
385.562	106.25
385.787	111.25
386.013	109.25
386.238	124.25
386.463	103.25
386.688	110.25
386.913	111.25
387.138	109.25
387.363	102.25
387.588	106.25
387.813	104.25
388.038	99.25
388.263	115.25
388.488	97.25
388.713	96.25
388.938	101.25
389.163	97.25
389.387	93.25
389.612	104.25
389.837	84.25
390.062	87.25
390.287	89.25
390.512	88.25
390.736	103.25
390.961	98.25
391.186	89.25
391.411	84.25
391.636	100.25
391.86	79.25
392.085	99.25
392.31	90.25
392.534	90.25
392.759	88.25
392.984	95.25
393.208	81.25
393.433	94.25
393.658	104.25
393.882	95.25
394.107	86.25
394.331	92.25
394.556	91.25
394.78	84.25
395.005	85.25
395.229	84.25
395.454	83.25
395.678	85.25
395.903	86.25
396.127	98.25
396.352	93.25
396.576	83.25
396.801	100.25
397.025	85.25
397.249	91.25
397.474	81.25
397.698	96.25
397.922	78.25
398.147	77.25
398.371	96.25
398.595	99.25
398.82	82.25
399.044	84.25
399.268	68.25
399.492	85.25
399.717	79.25
399.941	82.25
400.165	101.25
400.389	93.25
400.613	92.25
400.837	86.25
401.062	97.25
401.286	89.25
401.51	89.25
401.734	87.25
401.958	103.25
402.182	123.25
402.406	153.25
402.63	110.25
402.854	97.25
403.078	91.25
403.302	88.25
403.526	96.25
403.75	84.25
403.974	86.25
404.198	96.25
404.422	104.25
404.645	93.25
404.869	111.25
405.093	89.25
405.317	109.25
405.541	94.25
405.765	99.25
405.988	117.25
406.212	165.25
406.436	244.25
406.66	164.25
406.883	116.25
407.107	75.25
407.331	90.25
407.555	98.25
407.778	87.25
408.002	100.25
408.226	97.25
408.449	101.25
408.673	83.25
408.896	97.25
409.12	94.25
409.344	81.25
409.567	93.25
409.791	97.25
410.014	102.25
410.238	98.25
410.461	88.25
410.685	86.25
410.908	102.25
411.132	80.25
411.355	97.25
411.578	100.25
411.802	92.25
412.025	90.25
412.249	92.25
412.472	87.25
412.695	101.25
412.919	92.25
413.142	92.25
413.365	96.25
413.589	100.25
413.812	93.25
414.035	98.25
414.258	92.25
414.482	93.25
414.705	87.25
414.928	88.25
415.151	83.25
415.374	91.25
415.597	92.25
415.821	81.25
416.044	82.25
416.267	103.25
416.49	92.25
416.713	91.25
416.936	83.25
417.159	84.25
417.382	81.25
417.605	111.25
417.828	113.25
418.051	91.25
418.274	93.25
418.497	99.25
418.72	85.25
418.943	95.25
419.166	88.25
419.389	85.25
419.611	88.25
419.834	96.25
420.057	87.25
420.28	85.25
420.503	98.25
420.726	75.25
420.948	111.25
421.171	93.25
421.394	93.25
421.617	85.25
421.839	83.25
422.062	86.25
422.285	93.25
422.507	104.25
422.73	96.25
422.953	105.25
423.175	96.25
423.398	92.25
423.621	94.25
423.843	92.25
424.066	79.25
424.288	93.25
424.511	92.25
424.733	77.25
424.956	106.25
425.178	96.25
425.401	99.25
425.623	87.25
425.846	99.25
426.068	98.25
426.291	110.25
426.513	112.25
426.735	97.25
426.958	86.25
427.18	111.25
427.402	110.25
427.625	172.25
427.847	120.25
428.069	126.25
428.292	90.25
428.514	80.25
428.736	85.25
428.958	88.25
429.181	85.25
429.403	111.25
429.625	91.25
429.847	92.25
430.069	99.25
430.292	109.25
430.514	75.25
430.736	85.25
430.958	81.25
431.18	88.25
431.402	61.25
431.624	91.25
431.846	82.25
432.068	77.25
432.29	81.25
432.512	96.25
432.734	88.25
432.956	88.25
433.178	108.25
433.4	91.25
433.622	78.25
433.844	77.25
434.066	92.25
434.287	84.25
434.509	87.25
434.731	91.25
434.953	99.25
435.175	92.25
435.397	98.25
435.618	93.25
435.84	105.25
436.062	111.25
436.284	100.25
436.505	104.25
436.727	104.25
436.949	92.25
437.17	85.25
437.392	99.25
437.614	90.25
437.835	99.25
438.057	120.25
438.278	96.25
438.5	92.25
438.721	107.25
438.943	113.25
439.165	86.25
439.386	74.25
439.608	103.25
439.829	93.25
440.05	130.25
440.272	138.25
440.493	96.25
440.715	91.25
440.936	88.25
441.158	89.25
441.379	97.25
441.6	97.25
441.822	93.25
442.043	77.25
442.264	103.25
442.486	99.25
442.707	91.25
442.928	111.25
443.149	121.25
443.371	111.25
443.592	104.25
443.813	112.25
444.034	99.25
444.255	87.25
444.476	88.25
444.698	99.25
444.919	89.25
445.14	146.25
445.361	113.25
445.582	123.25
445.803	116.25
446.024	129.25
446.245	114.25
446.466	105.25
446.687	93.25
446.908	89.25
447.129	80.25
447.35	77.25
447.571	98.25
447.792	88.25
448.013	104.25
448.234	108.25
448.455	92.25
448.675	112.25
448.896	105.25
449.117	103.25
449.338	94.25
449.559	108.25
449.779	131.25
450	96.25
450.221	92.25
450.442	87.25
450.662	113.25
450.883	111.25
451.104	101.25
451.324	86.25
451.545	80.25
451.766	94.25
451.986	83.25
452.207	80.25
452.428	83.25
452.648	88.25
452.869	88.25
453.089	112.25
453.31	120.25
453.53	90.25
453.751	75.25
453.971	114.25
454.192	103.25
454.412	93.25
454.633	81.25
454.853	96.25
455.073	69.25
455.294	90.25
455.514	95.25
455.734	100.25
455.955	84.25
456.175	85.25
456.395	93.25
456.616	78.25
456.836	74.25
457.056	88.25
457.276	72.25
457.497	89.25
457.717	88.25
457.937	91.25
458.157	92.25
458.377	86.25
458.598	96.25
458.818	148.25
459.038	155.25
459.258	112.25
459.478	74.25
459.698	87.25
459.918	83.25
460.138	79.25
460.358	84.25
460.578	97.25
460.798	84.25
461.018	84.25
461.238	77.25
461.458	81.25
461.678	92.25
461.898	81.25
462.118	85.25
462.338	91.25
462.558	79.25
462.777	87.25
462.997	92.25
463.217	85.25
463.437	103.25
463.657	78.25
463.876	87.25
464.096	89.25
464.316	102.25
464.536	87.25
464.755	92.25
464.975	93.25
465.195	166.25
465.414	184.25
465.634	93.25
465.854	101.25
466.073	84.25
466.293	80.25
466.512	78.25
466.732	84.25
466.951	94.25
467.171	107.25
467.391	80.25
467.61	96.25
467.829	124.25
468.049	127.25
468.268	159.25
468.488	80.25
468.707	84.25
468.927	78.25
469.146	83.25
469.365	85.25
469.585	96.25
469.804	82.25
470.023	103.25
470.243	97.25
470.462	106.25
470.681	111.25
470.901	100.25
471.12	93.25
471.339	99.25
471.558	88.25
471.777	92.25
471.997	96.25
472.216	173.25
472.435	285.25
472.654	144.25
472.873	94.25
473.092	79.25
473.311	89.25
473.53	86.25
473.749	74.25
473.968	100.25
474.187	103.25
474.406	96.25
474.625	98.25
474.844	85.25
475.063	70.25
475.282	97.25
475.501	93.25
475.72	93.25
475.939	88.25
476.158	85.25
476.377	83.25
476.596	87.25
476.814	96.25
477.033	90.25
477.252	97.25
477.471	96.25
477.69	86.25
477.908	84.25
478.127	106.25
478.346	87.25
478.564	89.25
478.783	98.25
479.002	99.25
479.22	100.25
479.439	101.25
479.658	84.25
479.876	95.25
480.095	93.25
480.313	87.25
480.532	91.25
480.751	108.25
480.969	182.25
481.188	460.25
481.406	302.25
481.624	100.25
481.843	103.25
482.061	80.25
482.28	76.25
482.498	98.25
482.717	83.25
482.935	94.25
483.153	88.25
483.372	116.25
483.59	94.25
483.808	90.25
484.027	79.25
484.245	98.25
484.463	91.25
484.681	81.25
484.9	92.25
485.118	97.25
485.336	88.25
485.554	95.25
485.772	98.25
485.99	101.25
486.209	97.25
486.427	98.25
486.645	102.25
486.863	89.25
487.081	104.25
487.299	88.25
487.517	92.25
487.735	90.25
487.953	84.25
488.171	87.25
488.389	100.25
488.607	89.25
488.825	89.25
489.043	92.25
489.261	90.25
489.479	88.25
489.696	76.25
489.914	99.25
490.132	81.25
490.35	87.25
490.568	86.25
490.786	95.25
491.003	80.25
491.221	83.25
491.439	109.25
491.657	90.25
491.874	89.25
492.092	95.25
492.31	92.25
492.527	89.25
492.745	99.25
492.963	100.25
493.18	84.25
493.398	100.25
493.615	98.25
493.833	97.25
494.05	97.25
494.268	94.25
494.485	88.25
494.703	91.25
494.92	79.25
495.138	83.25
495.355	101.25
495.573	96.25
495.79	78.25
496.008	90.25
496.225	88.25
496.442	85.25
496.66	94.25
496.877	87.25
497.094	87.25
497.312	103.25
497.529	101.25
497.746	98.25
497.963	102.25
498.181	83.25
498.398	75.25
498.615	106.25
498.832	111.25
499.049	95.25
499.267	101.25
499.484	93.25
499.701	92.25
499.918	94.25
500.135	96.25
500.352	87.25
500.569	89.25
500.786	84.25
501.003	83.25
501.22	92.25
501.437	99.25
501.654	91.25
501.871	108.25
502.088	103.25
502.305	79.25
502.522	77.25
502.739	76.25
502.956	94.25
503.172	97.25
503.389	106.25
503.606	95.25
503.823	96.25
504.04	94.25
504.256	85.25
504.473	92.25
504.69	101.25
504.907	90.25
505.123	78.25
505.34	97.25
505.557	87.25
505.773	88.25
505.99	88.25
506.207	78.25
506.423	79.25
506.64	80.25
506.856	93.25
507.073	93.25
507.289	91.25
507.506	99.25
507.722	111.25
507.939	103.25
508.155	95.25
508.372	92.25
508.588	95.25
508.805	83.25
509.021	99.25
509.238	94.25
509.454	87.25
509.67	101.25
509.887	109.25
510.103	142.25
510.319	219.25
510.536	777.25
510.752	2593.25
510.968	706.25
511.184	168.25
511.401	108.25
511.617	92.25
511.833	78.25
512.049	92.25
512.265	108.25
512.481	95.25
512.698	99.25
512.914	90.25
513.13	89.25
513.346	93.25
513.562	94.25
513.778	97.25
513.994	89.25
514.21	105.25
514.426	110.25
514.642	142.25
514.858	124.25
515.074	173.25
515.29	473.25
515.506	1604.25
