Data from Circ_2008_H10_HRD10591_00075.txt Node
Date: Wed Jan 03 10:17:11 EST 2024
User: Yrep
Spectrometer: HR+D1059
Trigger mode: 1
Integration Time (sec): 1.000000E-1
Scans to average: 1
Electric dark correction enabled: true
Nonlinearity correction enabled: false
Boxcar width: 0
XAxis mode: Wavelengths
Number of Pixels in Spectrum: 2048
>>>>>Begin Spectral Data<<<<<
223.165	-16.06
223.4	-16.06
223.635	-16.06
223.869	-6.06
224.104	-25.06
224.338	-17.06
224.573	-15.06
224.808	-5.06
225.042	-13.06
225.277	-7.06
225.511	0.94
225.746	10.94
225.98	8.94
226.215	13.94
226.449	13.94
226.683	7.94
226.918	19.94
227.152	27.94
227.387	43.94
227.621	41.94
227.856	45.94
228.09	48.94
228.324	48.94
228.559	48.94
228.793	48.94
229.027	61.94
229.262	67.94
229.496	78.94
229.73	88.94
229.964	78.94
230.199	72.94
230.433	77.94
230.667	84.94
230.901	69.94
231.136	81.94
231.37	87.94
231.604	94.94
231.838	90.94
232.072	71.94
232.306	83.94
232.541	90.94
232.775	80.94
233.009	71.94
233.243	96.94
233.477	69.94
233.711	95.94
233.945	82.94
234.179	71.94
234.413	81.94
234.647	87.94
234.881	82.94
235.115	76.94
235.349	76.94
235.583	93.94
235.817	76.94
236.051	85.94
236.285	86.94
236.519	81.94
236.753	80.94
236.987	70.94
237.221	69.94
237.455	82.94
237.689	80.94
237.922	67.94
238.156	65.94
238.39	59.94
238.624	72.94
238.858	65.94
239.091	80.94
239.325	70.94
239.559	87.94
239.793	76.94
240.027	74.94
240.26	81.94
240.494	85.94
240.728	75.94
240.961	79.94
241.195	79.94
241.429	72.94
241.662	62.94
241.896	72.94
242.13	75.94
242.363	72.94
242.597	75.94
242.83	74.94
243.064	78.94
243.298	90.94
243.531	82.94
243.765	75.94
243.998	73.94
244.232	89.94
244.465	79.94
244.699	67.94
244.932	73.94
245.166	75.94
245.399	72.94
245.633	93.94
245.866	86.94
246.099	72.94
246.333	82.94
246.566	75.94
246.8	84.94
247.033	74.94
247.266	71.94
247.5	72.94
247.733	72.94
247.966	78.94
248.2	82.94
248.433	80.94
248.666	74.94
248.899	82.94
249.133	79.94
249.366	94.94
249.599	93.94
249.832	101.94
250.066	70.94
250.299	85.94
250.532	81.94
250.765	64.94
250.998	78.94
251.231	81.94
251.465	72.94
251.698	82.94
251.931	78.94
252.164	79.94
252.397	75.94
252.63	69.94
252.863	60.94
253.096	72.94
253.329	84.94
253.562	76.94
253.795	99.94
254.028	83.94
254.261	74.94
254.494	85.94
254.727	72.94
254.96	85.94
255.193	63.94
255.426	71.94
255.659	90.94
255.892	72.94
256.124	80.94
256.357	89.94
256.59	76.94
256.823	74.94
257.056	71.94
257.289	68.94
257.521	88.94
257.754	84.94
257.987	82.94
258.22	81.94
258.452	89.94
258.685	72.94
258.918	88.94
259.151	79.94
259.383	81.94
259.616	89.94
259.849	77.94
260.081	77.94
260.314	82.94
260.547	82.94
260.779	84.94
261.012	88.94
261.244	90.94
261.477	97.94
261.71	84.94
261.942	111.94
262.175	124.94
262.407	92.94
262.64	85.94
262.872	63.94
263.105	82.94
263.337	82.94
263.57	78.94
263.802	83.94
264.035	70.94
264.267	74.94
264.499	86.94
264.732	83.94
264.964	81.94
265.197	90.94
265.429	91.94
265.661	86.94
265.894	85.94
266.126	73.94
266.358	73.94
266.591	90.94
266.823	86.94
267.055	63.94
267.287	86.94
267.52	68.94
267.752	82.94
267.984	84.94
268.216	89.94
268.448	93.94
268.681	71.94
268.913	92.94
269.145	81.94
269.377	88.94
269.609	65.94
269.841	72.94
270.073	95.94
270.306	101.94
270.538	82.94
270.77	73.94
271.002	76.94
271.234	71.94
271.466	79.94
271.698	76.94
271.93	81.94
272.162	98.94
272.394	84.94
272.626	95.94
272.858	88.94
273.09	78.94
273.322	66.94
273.553	85.94
273.785	80.94
274.017	80.94
274.249	90.94
274.481	89.94
274.713	87.94
274.945	77.94
275.176	82.94
275.408	90.94
275.64	88.94
275.872	85.94
276.104	80.94
276.335	97.94
276.567	97.94
276.799	112.94
277.031	100.94
277.262	85.94
277.494	99.94
277.726	89.94
277.957	75.94
278.189	87.94
278.421	89.94
278.652	86.94
278.884	81.94
279.115	86.94
279.347	89.94
279.579	76.94
279.81	89.94
280.042	73.94
280.273	82.94
280.505	92.94
280.736	82.94
280.968	83.94
281.199	70.94
281.431	93.94
281.662	92.94
281.894	85.94
282.125	99.94
282.356	93.94
282.588	120.94
282.819	112.94
283.051	73.94
283.282	79.94
283.513	92.94
283.745	82.94
283.976	92.94
284.207	85.94
284.439	76.94
284.67	79.94
284.901	89.94
285.132	81.94
285.364	70.94
285.595	78.94
285.826	87.94
286.057	91.94
286.288	80.94
286.52	88.94
286.751	84.94
286.982	70.94
287.213	74.94
287.444	101.94
287.675	88.94
287.906	93.94
288.138	95.94
288.369	92.94
288.6	86.94
288.831	78.94
289.062	92.94
289.293	87.94
289.524	93.94
289.755	84.94
289.986	87.94
290.217	79.94
290.448	68.94
290.679	89.94
290.91	89.94
291.141	80.94
291.371	86.94
291.602	91.94
291.833	84.94
292.064	93.94
292.295	99.94
292.526	93.94
292.757	79.94
292.987	93.94
293.218	86.94
293.449	90.94
293.68	89.94
293.91	87.94
294.141	74.94
294.372	81.94
294.603	68.94
294.833	87.94
295.064	85.94
295.295	97.94
295.525	95.94
295.756	109.94
295.987	120.94
296.217	139.94
296.448	122.94
296.679	90.94
296.909	83.94
297.14	78.94
297.37	89.94
297.601	92.94
297.831	90.94
298.062	104.94
298.292	91.94
298.523	86.94
298.753	95.94
298.984	91.94
299.214	74.94
299.445	89.94
299.675	89.94
299.905	95.94
300.136	85.94
300.366	91.94
300.597	86.94
300.827	83.94
301.057	105.94
301.288	104.94
301.518	99.94
301.748	84.94
301.979	102.94
302.209	98.94
302.439	76.94
302.669	85.94
302.9	85.94
303.13	85.94
303.36	95.94
303.59	96.94
303.82	107.94
304.051	92.94
304.281	77.94
304.511	95.94
304.741	64.94
304.971	93.94
305.201	92.94
305.431	90.94
305.661	89.94
305.891	92.94
306.121	92.94
306.352	99.94
306.582	116.94
306.812	101.94
307.042	95.94
307.272	100.94
307.502	110.94
307.731	101.94
307.961	96.94
308.191	86.94
308.421	102.94
308.651	70.94
308.881	100.94
309.111	87.94
309.341	94.94
309.571	115.94
309.8	101.94
310.03	98.94
310.26	94.94
310.49	79.94
310.72	93.94
310.949	103.94
311.179	88.94
311.409	89.94
311.639	102.94
311.868	108.94
312.098	115.94
312.328	84.94
312.557	94.94
312.787	101.94
313.017	105.94
313.246	96.94
313.476	91.94
313.706	79.94
313.935	90.94
314.165	101.94
314.394	97.94
314.624	89.94
314.853	97.94
315.083	94.94
315.312	92.94
315.542	79.94
315.771	92.94
316.001	86.94
316.23	82.94
316.46	90.94
316.689	78.94
316.919	88.94
317.148	84.94
317.377	84.94
317.607	82.94
317.836	92.94
318.065	86.94
318.295	92.94
318.524	79.94
318.753	86.94
318.983	94.94
319.212	93.94
319.441	116.94
319.67	95.94
319.9	80.94
320.129	91.94
320.358	91.94
320.587	97.94
320.816	91.94
321.046	93.94
321.275	92.94
321.504	89.94
321.733	100.94
321.962	86.94
322.191	93.94
322.42	85.94
322.649	99.94
322.878	97.94
323.108	113.94
323.337	127.94
323.566	119.94
323.795	139.94
324.024	175.94
324.253	356.94
324.482	754.94
324.71	1514.94
324.939	1940.94
325.168	742.94
325.397	239.94
325.626	146.94
325.855	126.94
326.084	126.94
326.313	134.94
326.542	129.94
326.77	203.94
326.999	414.94
327.228	806.94
327.457	1462.94
327.686	1176.94
327.914	344.94
328.143	200.94
328.372	171.94
328.6	138.94
328.829	132.94
329.058	138.94
329.287	120.94
329.515	90.94
329.744	104.94
329.972	125.94
330.201	167.94
330.43	217.94
330.658	167.94
330.887	157.94
331.115	122.94
331.344	91.94
331.572	108.94
331.801	102.94
332.03	93.94
332.258	97.94
332.486	91.94
332.715	68.94
332.943	93.94
333.172	91.94
333.4	95.94
333.629	102.94
333.857	114.94
334.085	135.94
334.314	164.94
334.542	238.94
334.771	232.94
334.999	118.94
335.227	109.94
335.455	93.94
335.684	87.94
335.912	85.94
336.14	78.94
336.369	84.94
336.597	97.94
336.825	97.94
337.053	108.94
337.281	92.94
337.51	84.94
337.738	99.94
337.966	92.94
338.194	94.94
338.422	80.94
338.65	90.94
338.878	92.94
339.106	94.94
339.334	87.94
339.562	86.94
339.79	100.94
340.018	93.94
340.246	95.94
340.474	84.94
340.702	93.94
340.93	84.94
341.158	79.94
341.386	88.94
341.614	87.94
341.842	75.94
342.07	93.94
342.298	90.94
342.526	85.94
342.754	85.94
342.981	95.94
343.209	84.94
343.437	94.94
343.665	85.94
343.893	91.94
344.12	83.94
344.348	96.94
344.576	77.94
344.804	86.94
345.031	103.94
345.259	93.94
345.487	98.94
345.714	91.94
345.942	88.94
346.17	88.94
346.397	99.94
346.625	92.94
346.853	89.94
347.08	92.94
347.308	98.94
347.535	88.94
347.763	88.94
347.99	92.94
348.218	89.94
348.445	88.94
348.673	119.94
348.9	91.94
349.128	82.94
349.355	97.94
349.583	94.94
349.81	87.94
350.037	88.94
350.265	79.94
350.492	79.94
350.72	96.94
350.947	108.94
351.174	98.94
351.402	118.94
351.629	103.94
351.856	99.94
352.083	99.94
352.311	108.94
352.538	99.94
352.765	94.94
352.992	107.94
353.22	114.94
353.447	89.94
353.674	106.94
353.901	80.94
354.128	84.94
354.355	91.94
354.583	88.94
354.81	95.94
355.037	91.94
355.264	92.94
355.491	86.94
355.718	81.94
355.945	96.94
356.172	95.94
356.399	96.94
356.626	86.94
356.853	86.94
357.08	93.94
357.307	90.94
357.534	90.94
357.761	85.94
357.988	84.94
358.215	92.94
358.441	77.94
358.668	79.94
358.895	78.94
359.122	94.94
359.349	74.94
359.576	88.94
359.802	93.94
360.029	106.94
360.256	109.94
360.483	104.94
360.709	84.94
360.936	84.94
361.163	98.94
361.39	92.94
361.616	89.94
361.843	81.94
362.07	84.94
362.296	93.94
362.523	99.94
362.749	93.94
362.976	84.94
363.203	87.94
363.429	92.94
363.656	83.94
363.882	81.94
364.109	92.94
364.335	84.94
364.562	95.94
364.788	82.94
365.015	89.94
365.241	100.94
365.468	99.94
365.694	110.94
365.92	81.94
366.147	75.94
366.373	88.94
366.599	99.94
366.826	98.94
367.052	79.94
367.278	89.94
367.505	90.94
367.731	89.94
367.957	95.94
368.184	91.94
368.41	100.94
368.636	112.94
368.862	105.94
369.089	101.94
369.315	91.94
369.541	90.94
369.767	84.94
369.993	101.94
370.219	81.94
370.445	86.94
370.672	87.94
370.898	82.94
371.124	79.94
371.35	94.94
371.576	88.94
371.802	82.94
372.028	76.94
372.254	84.94
372.48	86.94
372.706	83.94
372.932	74.94
373.158	78.94
373.384	94.94
373.61	86.94
373.835	87.94
374.061	75.94
374.287	90.94
374.513	70.94
374.739	74.94
374.965	88.94
375.191	86.94
375.416	75.94
375.642	79.94
375.868	79.94
376.094	94.94
376.319	102.94
376.545	81.94
376.771	87.94
376.997	83.94
377.222	88.94
377.448	87.94
377.674	83.94
377.899	92.94
378.125	90.94
378.35	82.94
378.576	92.94
378.802	85.94
379.027	89.94
379.253	89.94
379.478	84.94
379.704	92.94
379.929	95.94
380.155	73.94
380.38	103.94
380.606	90.94
380.831	88.94
381.057	100.94
381.282	103.94
381.507	88.94
381.733	109.94
381.958	88.94
382.184	95.94
382.409	94.94
382.634	88.94
382.86	102.94
383.085	101.94
383.31	97.94
383.535	84.94
383.761	101.94
383.986	102.94
384.211	89.94
384.436	104.94
384.662	97.94
384.887	99.94
385.112	94.94
385.337	94.94
385.562	107.94
385.787	104.94
386.013	110.94
386.238	112.94
386.463	104.94
386.688	93.94
386.913	98.94
387.138	97.94
387.363	94.94
387.588	93.94
387.813	92.94
388.038	94.94
388.263	94.94
388.488	107.94
388.713	85.94
388.938	92.94
389.163	87.94
389.387	72.94
389.612	88.94
389.837	91.94
390.062	97.94
390.287	85.94
390.512	90.94
390.736	92.94
390.961	105.94
391.186	89.94
391.411	83.94
391.636	88.94
391.86	94.94
392.085	79.94
392.31	74.94
392.534	94.94
392.759	88.94
392.984	94.94
393.208	93.94
393.433	91.94
393.658	88.94
393.882	69.94
394.107	78.94
394.331	77.94
394.556	91.94
394.78	92.94
395.005	98.94
395.229	74.94
395.454	82.94
395.678	90.94
395.903	92.94
396.127	90.94
396.352	75.94
396.576	81.94
396.801	80.94
397.025	83.94
397.249	76.94
397.474	96.94
397.698	81.94
397.922	88.94
398.147	81.94
398.371	89.94
398.595	94.94
398.82	72.94
399.044	71.94
399.268	91.94
399.492	68.94
399.717	93.94
399.941	86.94
400.165	84.94
400.389	80.94
400.613	97.94
400.837	78.94
401.062	77.94
401.286	87.94
401.51	83.94
401.734	87.94
401.958	94.94
402.182	134.94
402.406	152.94
402.63	124.94
402.854	93.94
403.078	74.94
403.302	79.94
403.526	94.94
403.75	92.94
403.974	82.94
404.198	81.94
404.422	81.94
404.645	86.94
404.869	88.94
405.093	102.94
405.317	110.94
405.541	106.94
405.765	108.94
405.988	112.94
406.212	178.94
406.436	235.94
406.66	145.94
406.883	94.94
407.107	86.94
407.331	99.94
407.555	82.94
407.778	89.94
408.002	83.94
408.226	78.94
408.449	73.94
408.673	93.94
408.896	83.94
409.12	89.94
409.344	74.94
409.567	81.94
409.791	93.94
410.014	85.94
410.238	88.94
410.461	74.94
410.685	85.94
410.908	100.94
411.132	112.94
411.355	89.94
411.578	88.94
411.802	90.94
412.025	82.94
412.249	97.94
412.472	97.94
412.695	95.94
412.919	93.94
413.142	87.94
413.365	91.94
413.589	82.94
413.812	87.94
414.035	96.94
414.258	93.94
414.482	92.94
414.705	73.94
414.928	96.94
415.151	79.94
415.374	85.94
415.597	81.94
415.821	93.94
416.044	86.94
416.267	89.94
416.49	85.94
416.713	85.94
416.936	86.94
417.159	80.94
417.382	84.94
417.605	80.94
417.828	87.94
418.051	92.94
418.274	74.94
418.497	72.94
418.72	75.94
418.943	94.94
419.166	80.94
419.389	89.94
419.611	81.94
419.834	91.94
420.057	89.94
420.28	84.94
420.503	68.94
420.726	86.94
420.948	76.94
421.171	86.94
421.394	96.94
421.617	91.94
421.839	99.94
422.062	104.94
422.285	92.94
422.507	85.94
422.73	108.94
422.953	82.94
423.175	76.94
423.398	84.94
423.621	96.94
423.843	98.94
424.066	97.94
424.288	86.94
424.511	91.94
424.733	86.94
424.956	90.94
425.178	97.94
425.401	102.94
425.623	92.94
425.846	87.94
426.068	82.94
426.291	82.94
426.513	90.94
426.735	93.94
426.958	78.94
427.18	108.94
427.402	136.94
427.625	151.94
427.847	133.94
428.069	99.94
428.292	86.94
428.514	105.94
428.736	82.94
428.958	71.94
429.181	84.94
429.403	74.94
429.625	89.94
429.847	95.94
430.069	92.94
430.292	87.94
430.514	91.94
430.736	78.94
430.958	80.94
431.18	79.94
431.402	84.94
431.624	65.94
431.846	80.94
432.068	82.94
432.29	85.94
432.512	84.94
432.734	84.94
432.956	84.94
433.178	95.94
433.4	82.94
433.622	95.94
433.844	89.94
434.066	91.94
434.287	84.94
434.509	93.94
434.731	84.94
434.953	88.94
435.175	82.94
435.397	82.94
435.618	80.94
435.84	91.94
436.062	122.94
436.284	108.94
436.505	92.94
436.727	93.94
436.949	82.94
437.17	88.94
437.392	96.94
437.614	98.94
437.835	105.94
438.057	117.94
438.278	108.94
438.5	106.94
438.721	119.94
438.943	93.94
439.165	80.94
439.386	86.94
439.608	90.94
439.829	96.94
440.05	118.94
440.272	128.94
440.493	95.94
440.715	78.94
440.936	78.94
441.158	62.94
441.379	85.94
441.6	88.94
441.822	100.94
442.043	96.94
442.264	85.94
442.486	96.94
442.707	88.94
442.928	96.94
443.149	126.94
443.371	139.94
443.592	106.94
443.813	101.94
444.034	97.94
444.255	83.94
444.476	98.94
444.698	89.94
444.919	90.94
445.14	128.94
445.361	106.94
445.582	112.94
445.803	135.94
446.024	121.94
446.245	116.94
446.466	108.94
446.687	83.94
446.908	81.94
447.129	92.94
447.35	86.94
447.571	93.94
447.792	97.94
448.013	98.94
448.234	107.94
448.455	95.94
448.675	96.94
448.896	113.94
449.117	81.94
449.338	104.94
449.559	118.94
449.779	127.94
450	99.94
450.221	81.94
450.442	93.94
450.662	91.94
450.883	108.94
451.104	110.94
451.324	92.94
451.545	93.94
451.766	84.94
451.986	82.94
452.207	61.94
452.428	113.94
452.648	97.94
452.869	111.94
453.089	123.94
453.31	130.94
453.53	88.94
453.751	82.94
453.971	88.94
454.192	103.94
454.412	102.94
454.633	88.94
454.853	81.94
455.073	78.94
455.294	79.94
455.514	95.94
455.734	90.94
455.955	83.94
456.175	77.94
456.395	81.94
456.616	98.94
456.836	95.94
457.056	86.94
457.276	81.94
457.497	89.94
457.717	81.94
457.937	87.94
458.157	75.94
458.377	87.94
458.598	104.94
458.818	163.94
459.038	169.94
459.258	106.94
459.478	74.94
459.698	78.94
459.918	89.94
460.138	68.94
460.358	88.94
460.578	82.94
460.798	84.94
461.018	85.94
461.238	90.94
461.458	87.94
461.678	77.94
461.898	75.94
462.118	95.94
462.338	92.94
462.558	80.94
462.777	96.94
462.997	80.94
463.217	89.94
463.437	83.94
463.657	84.94
463.876	73.94
464.096	90.94
464.316	102.94
464.536	111.94
464.755	105.94
464.975	95.94
465.195	159.94
465.414	164.94
465.634	100.94
465.854	91.94
466.073	94.94
466.293	79.94
466.512	86.94
466.732	86.94
466.951	85.94
467.171	91.94
467.391	88.94
467.61	100.94
467.829	98.94
468.049	135.94
468.268	143.94
468.488	101.94
468.707	79.94
468.927	93.94
469.146	81.94
469.365	81.94
469.585	69.94
469.804	94.94
470.023	92.94
470.243	91.94
470.462	101.94
470.681	114.94
470.901	88.94
471.12	101.94
471.339	77.94
471.558	92.94
471.777	92.94
471.997	127.94
472.216	176.94
472.435	315.94
472.654	130.94
472.873	83.94
473.092	86.94
473.311	89.94
473.53	87.94
473.749	90.94
473.968	103.94
474.187	97.94
474.406	93.94
474.625	100.94
474.844	80.94
475.063	84.94
475.282	81.94
475.501	95.94
475.72	81.94
475.939	82.94
476.158	93.94
476.377	81.94
476.596	88.94
476.814	98.94
477.033	95.94
477.252	97.94
477.471	86.94
477.69	94.94
477.908	106.94
478.127	75.94
478.346	75.94
478.564	90.94
478.783	91.94
479.002	94.94
479.22	87.94
479.439	98.94
479.658	98.94
479.876	87.94
480.095	99.94
480.313	105.94
480.532	89.94
480.751	91.94
480.969	183.94
481.188	479.94
481.406	320.94
481.624	99.94
481.843	80.94
482.061	95.94
482.28	89.94
482.498	92.94
482.717	86.94
482.935	79.94
483.153	76.94
483.372	74.94
483.59	75.94
483.808	73.94
484.027	88.94
484.245	93.94
484.463	79.94
484.681	101.94
484.9	82.94
485.118	90.94
485.336	86.94
485.554	95.94
485.772	81.94
485.99	103.94
486.209	97.94
486.427	97.94
486.645	119.94
486.863	103.94
487.081	104.94
487.299	93.94
487.517	86.94
487.735	89.94
487.953	99.94
488.171	103.94
488.389	85.94
488.607	96.94
488.825	85.94
489.043	101.94
489.261	85.94
489.479	92.94
489.696	69.94
489.914	90.94
490.132	79.94
490.35	91.94
490.568	93.94
490.786	89.94
491.003	73.94
491.221	90.94
491.439	93.94
491.657	90.94
491.874	90.94
492.092	84.94
492.31	84.94
492.527	77.94
492.745	76.94
492.963	79.94
493.18	85.94
493.398	79.94
493.615	93.94
493.833	89.94
494.05	84.94
494.268	104.94
494.485	89.94
494.703	85.94
494.92	94.94
495.138	101.94
495.355	83.94
495.573	100.94
495.79	77.94
496.008	94.94
496.225	72.94
496.442	77.94
496.66	102.94
496.877	88.94
497.094	102.94
497.312	82.94
497.529	89.94
497.746	76.94
497.963	88.94
498.181	79.94
498.398	92.94
498.615	105.94
498.832	102.94
499.049	102.94
499.267	93.94
499.484	93.94
499.701	96.94
499.918	82.94
500.135	81.94
500.352	88.94
500.569	93.94
500.786	87.94
501.003	88.94
501.22	98.94
501.437	101.94
501.654	91.94
501.871	110.94
502.088	91.94
502.305	99.94
502.522	84.94
502.739	83.94
502.956	78.94
503.172	69.94
503.389	102.94
503.606	110.94
503.823	95.94
504.04	100.94
504.256	83.94
504.473	77.94
504.69	87.94
504.907	69.94
505.123	92.94
505.34	88.94
505.557	77.94
505.773	73.94
505.99	81.94
506.207	92.94
506.423	93.94
506.64	89.94
506.856	84.94
507.073	84.94
507.289	88.94
507.506	88.94
507.722	113.94
507.939	126.94
508.155	99.94
508.372	90.94
508.588	88.94
508.805	92.94
509.021	96.94
509.238	100.94
509.454	99.94
509.67	102.94
509.887	113.94
510.103	127.94
510.319	229.94
510.536	834.94
510.752	2812.94
510.968	777.94
511.184	168.94
511.401	109.94
511.617	88.94
511.833	83.94
512.049	107.94
512.265	82.94
512.481	84.94
512.698	100.94
512.914	88.94
513.13	84.94
513.346	88.94
513.562	82.94
513.778	85.94
513.994	86.94
514.21	99.94
514.426	121.94
514.642	136.94
514.858	137.94
515.074	178.94
515.29	513.94
515.506	1769.94
515.721	654.94
515.937	177.94
516.153	109.94
516.369	81.94
516.585	91.94
