Data from Circ_2008_H10_HRD10591_00014.txt Node
Date: Wed Jan 03 10:16:59 EST 2024
User: Yrep
Spectrometer: HR+D1059
Trigger mode: 1
Integration Time (sec): 1.000000E-1
Scans to average: 1
Electric dark correction enabled: true
Nonlinearity correction enabled: false
Boxcar width: 0
XAxis mode: Wavelengths
Number of Pixels in Spectrum: 2048
>>>>>Begin Spectral Data<<<<<
223.165	-20.25
223.4	-20.25
223.635	-20.25
223.869	-19.25
224.104	-17.25
224.338	-23.25
224.573	-13.25
224.808	-21.25
225.042	-3.25
225.277	-6.25
225.511	-1.25
225.746	20.75
225.98	5.75
226.215	13.75
226.449	11.75
226.683	9.75
226.918	41.75
227.152	21.75
227.387	33.75
227.621	35.75
227.856	48.75
228.09	41.75
228.324	43.75
228.559	56.75
228.793	67.75
229.027	58.75
229.262	69.75
229.496	78.75
229.73	95.75
229.964	92.75
230.199	74.75
230.433	77.75
230.667	92.75
230.901	87.75
231.136	53.75
231.37	78.75
231.604	69.75
231.838	79.75
232.072	73.75
232.306	61.75
232.541	82.75
232.775	79.75
233.009	83.75
233.243	80.75
233.477	86.75
233.711	77.75
233.945	73.75
234.179	80.75
234.413	78.75
234.647	70.75
234.881	83.75
235.115	91.75
235.349	81.75
235.583	72.75
235.817	75.75
236.051	68.75
236.285	67.75
236.519	88.75
236.753	84.75
236.987	89.75
237.221	88.75
237.455	86.75
237.689	59.75
237.922	83.75
238.156	71.75
238.39	65.75
238.624	59.75
238.858	74.75
239.091	76.75
239.325	84.75
239.559	77.75
239.793	91.75
240.027	78.75
240.26	65.75
240.494	74.75
240.728	67.75
240.961	75.75
241.195	73.75
241.429	72.75
241.662	59.75
241.896	94.75
242.13	81.75
242.363	67.75
242.597	69.75
242.83	74.75
243.064	75.75
243.298	76.75
243.531	74.75
243.765	78.75
243.998	89.75
244.232	77.75
244.465	99.75
244.699	73.75
244.932	77.75
245.166	83.75
245.399	75.75
245.633	83.75
245.866	78.75
246.099	95.75
246.333	77.75
246.566	85.75
246.8	70.75
247.033	87.75
247.266	76.75
247.5	92.75
247.733	74.75
247.966	73.75
248.2	83.75
248.433	79.75
248.666	74.75
248.899	76.75
249.133	81.75
249.366	104.75
249.599	90.75
249.832	91.75
250.066	80.75
250.299	82.75
250.532	82.75
250.765	73.75
250.998	74.75
251.231	83.75
251.465	93.75
251.698	83.75
251.931	77.75
252.164	80.75
252.397	79.75
252.63	85.75
252.863	70.75
253.096	70.75
253.329	97.75
253.562	85.75
253.795	72.75
254.028	87.75
254.261	77.75
254.494	75.75
254.727	84.75
254.96	97.75
255.193	62.75
255.426	69.75
255.659	83.75
255.892	88.75
256.124	95.75
256.357	79.75
256.59	79.75
256.823	75.75
257.056	81.75
257.289	86.75
257.521	72.75
257.754	72.75
257.987	82.75
258.22	82.75
258.452	80.75
258.685	86.75
258.918	83.75
259.151	77.75
259.383	85.75
259.616	83.75
259.849	77.75
260.081	74.75
260.314	74.75
260.547	88.75
260.779	74.75
261.012	83.75
261.244	75.75
261.477	96.75
261.71	97.75
261.942	132.75
262.175	127.75
262.407	96.75
262.64	69.75
262.872	83.75
263.105	85.75
263.337	83.75
263.57	72.75
263.802	101.75
264.035	84.75
264.267	81.75
264.499	81.75
264.732	80.75
264.964	58.75
265.197	86.75
265.429	77.75
265.661	86.75
265.894	90.75
266.126	86.75
266.358	91.75
266.591	64.75
266.823	72.75
267.055	82.75
267.287	91.75
267.52	82.75
267.752	80.75
267.984	89.75
268.216	66.75
268.448	60.75
268.681	83.75
268.913	87.75
269.145	85.75
269.377	93.75
269.609	73.75
269.841	81.75
270.073	90.75
270.306	90.75
270.538	94.75
270.77	78.75
271.002	70.75
271.234	81.75
271.466	91.75
271.698	82.75
271.93	88.75
272.162	89.75
272.394	86.75
272.626	85.75
272.858	83.75
273.09	86.75
273.322	83.75
273.553	89.75
273.785	79.75
274.017	71.75
274.249	74.75
274.481	89.75
274.713	95.75
274.945	75.75
275.176	64.75
275.408	74.75
275.64	81.75
275.872	84.75
276.104	86.75
276.335	88.75
276.567	105.75
276.799	112.75
277.031	112.75
277.262	98.75
277.494	85.75
277.726	84.75
277.957	77.75
278.189	87.75
278.421	85.75
278.652	93.75
278.884	80.75
279.115	77.75
279.347	88.75
279.579	78.75
279.81	80.75
280.042	86.75
280.273	93.75
280.505	83.75
280.736	76.75
280.968	93.75
281.199	101.75
281.431	102.75
281.662	101.75
281.894	88.75
282.125	105.75
282.356	135.75
282.588	174.75
282.819	122.75
283.051	91.75
283.282	80.75
283.513	94.75
283.745	95.75
283.976	87.75
284.207	97.75
284.439	77.75
284.67	92.75
284.901	81.75
285.132	87.75
285.364	85.75
285.595	102.75
285.826	87.75
286.057	83.75
286.288	78.75
286.52	88.75
286.751	87.75
286.982	86.75
287.213	89.75
287.444	80.75
287.675	101.75
287.906	89.75
288.138	98.75
288.369	98.75
288.6	91.75
288.831	78.75
289.062	79.75
289.293	99.75
289.524	102.75
289.755	90.75
289.986	83.75
290.217	96.75
290.448	96.75
290.679	87.75
290.91	96.75
291.141	84.75
291.371	93.75
291.602	85.75
291.833	82.75
292.064	92.75
292.295	79.75
292.526	98.75
292.757	90.75
292.987	73.75
293.218	97.75
293.449	83.75
293.68	77.75
293.91	90.75
294.141	86.75
294.372	78.75
294.603	90.75
294.833	91.75
295.064	81.75
295.295	75.75
295.525	90.75
295.756	117.75
295.987	129.75
296.217	168.75
296.448	130.75
296.679	95.75
296.909	81.75
297.14	85.75
297.37	87.75
297.601	108.75
297.831	104.75
298.062	90.75
298.292	87.75
298.523	83.75
298.753	93.75
298.984	86.75
299.214	83.75
299.445	95.75
299.675	101.75
299.905	85.75
300.136	93.75
300.366	93.75
300.597	87.75
300.827	98.75
301.057	114.75
301.288	112.75
301.518	89.75
301.748	82.75
301.979	94.75
302.209	74.75
302.439	67.75
302.669	89.75
302.9	86.75
303.13	102.75
303.36	96.75
303.59	107.75
303.82	110.75
304.051	93.75
304.281	95.75
304.511	89.75
304.741	82.75
304.971	91.75
305.201	91.75
305.431	85.75
305.661	98.75
305.891	97.75
306.121	92.75
306.352	98.75
306.582	103.75
306.812	103.75
307.042	97.75
307.272	89.75
307.502	82.75
307.731	99.75
307.961	89.75
308.191	95.75
308.421	93.75
308.651	89.75
308.881	97.75
309.111	87.75
309.341	94.75
309.571	95.75
309.8	102.75
310.03	114.75
310.26	89.75
310.49	104.75
310.72	105.75
310.949	115.75
311.179	100.75
311.409	97.75
311.639	95.75
311.868	90.75
312.098	106.75
312.328	101.75
312.557	106.75
312.787	101.75
313.017	114.75
313.246	89.75
313.476	87.75
313.706	89.75
313.935	109.75
314.165	93.75
314.394	102.75
314.624	93.75
314.853	93.75
315.083	93.75
315.312	94.75
315.542	87.75
315.771	80.75
316.001	98.75
316.23	82.75
316.46	98.75
316.689	97.75
316.919	90.75
317.148	90.75
317.377	108.75
317.607	102.75
317.836	101.75
318.065	90.75
318.295	93.75
318.524	82.75
318.753	100.75
318.983	93.75
319.212	110.75
319.441	125.75
319.67	126.75
319.9	111.75
320.129	81.75
320.358	93.75
320.587	90.75
320.816	98.75
321.046	112.75
321.275	104.75
321.504	84.75
321.733	87.75
321.962	109.75
322.191	101.75
322.42	105.75
322.649	117.75
322.878	109.75
323.108	114.75
323.337	133.75
323.566	143.75
323.795	152.75
324.024	235.75
324.253	449.75
324.482	960.75
324.71	2029.75
324.939	2757.75
325.168	1017.75
325.397	278.75
325.626	159.75
325.855	131.75
326.084	126.75
326.313	148.75
326.542	152.75
326.77	248.75
326.999	496.75
327.228	1042.75
327.457	1954.75
327.686	1595.75
327.914	441.75
328.143	213.75
328.372	177.75
328.6	146.75
328.829	133.75
329.058	138.75
329.287	147.75
329.515	122.75
329.744	98.75
329.972	118.75
330.201	104.75
330.43	143.75
330.658	150.75
330.887	162.75
331.115	140.75
331.344	103.75
331.572	104.75
331.801	113.75
332.03	106.75
332.258	107.75
332.486	91.75
332.715	101.75
332.943	101.75
333.172	97.75
333.4	109.75
333.629	117.75
333.857	114.75
334.085	120.75
334.314	103.75
334.542	113.75
334.771	116.75
334.999	90.75
335.227	88.75
335.455	97.75
335.684	98.75
335.912	85.75
336.14	93.75
336.369	99.75
336.597	104.75
336.825	104.75
337.053	96.75
337.281	97.75
337.51	87.75
337.738	92.75
337.966	93.75
338.194	107.75
338.422	98.75
338.65	89.75
338.878	102.75
339.106	81.75
339.334	75.75
339.562	93.75
339.79	103.75
340.018	93.75
340.246	95.75
340.474	103.75
340.702	108.75
340.93	90.75
341.158	108.75
341.386	83.75
341.614	93.75
341.842	94.75
342.07	114.75
342.298	102.75
342.526	102.75
342.754	83.75
342.981	81.75
343.209	80.75
343.437	94.75
343.665	92.75
343.893	95.75
344.12	101.75
344.348	98.75
344.576	88.75
344.804	82.75
345.031	87.75
345.259	114.75
345.487	105.75
345.714	95.75
345.942	95.75
346.17	92.75
346.397	92.75
346.625	95.75
346.853	83.75
347.08	100.75
347.308	112.75
347.535	104.75
347.763	108.75
347.99	113.75
348.218	113.75
348.445	108.75
348.673	99.75
348.9	103.75
349.128	79.75
349.355	96.75
349.583	114.75
349.81	103.75
350.037	103.75
350.265	93.75
350.492	86.75
350.72	96.75
350.947	108.75
351.174	111.75
351.402	110.75
351.629	112.75
351.856	102.75
352.083	96.75
352.311	101.75
352.538	109.75
352.765	103.75
352.992	117.75
353.22	116.75
353.447	100.75
353.674	102.75
353.901	89.75
354.128	82.75
354.355	94.75
354.583	94.75
354.81	90.75
355.037	96.75
355.264	91.75
355.491	94.75
355.718	90.75
355.945	87.75
356.172	83.75
356.399	91.75
356.626	98.75
356.853	82.75
357.08	91.75
357.307	89.75
357.534	86.75
357.761	83.75
357.988	85.75
358.215	101.75
358.441	102.75
358.668	106.75
358.895	104.75
359.122	92.75
359.349	90.75
359.576	102.75
359.802	99.75
360.029	116.75
360.256	114.75
360.483	110.75
360.709	91.75
360.936	94.75
361.163	92.75
361.39	92.75
361.616	97.75
361.843	94.75
362.07	81.75
362.296	101.75
362.523	96.75
362.749	85.75
362.976	86.75
363.203	93.75
363.429	99.75
363.656	97.75
363.882	99.75
364.109	84.75
364.335	99.75
364.562	104.75
364.788	110.75
365.015	101.75
365.241	104.75
365.468	115.75
365.694	95.75
365.92	91.75
366.147	90.75
366.373	94.75
366.599	71.75
366.826	73.75
367.052	86.75
367.278	96.75
367.505	87.75
367.731	89.75
367.957	90.75
368.184	104.75
368.41	93.75
368.636	106.75
368.862	137.75
369.089	104.75
369.315	93.75
369.541	96.75
369.767	103.75
369.993	92.75
370.219	89.75
370.445	76.75
370.672	80.75
370.898	84.75
371.124	78.75
371.35	68.75
371.576	93.75
371.802	89.75
372.028	96.75
372.254	87.75
372.48	95.75
372.706	96.75
372.932	72.75
373.158	95.75
373.384	101.75
373.61	90.75
373.835	89.75
374.061	89.75
374.287	100.75
374.513	83.75
374.739	85.75
374.965	85.75
375.191	95.75
375.416	102.75
375.642	86.75
375.868	96.75
376.094	90.75
376.319	75.75
376.545	93.75
376.771	88.75
376.997	98.75
377.222	90.75
377.448	110.75
377.674	89.75
377.899	103.75
378.125	102.75
378.35	103.75
378.576	94.75
378.802	103.75
379.027	90.75
379.253	86.75
379.478	88.75
379.704	91.75
379.929	91.75
380.155	104.75
380.38	100.75
380.606	96.75
380.831	91.75
381.057	95.75
381.282	90.75
381.507	106.75
381.733	86.75
381.958	112.75
382.184	100.75
382.409	111.75
382.634	118.75
382.86	87.75
383.085	109.75
383.31	102.75
383.535	108.75
383.761	110.75
383.986	111.75
384.211	96.75
384.436	107.75
384.662	90.75
384.887	101.75
385.112	103.75
385.337	124.75
385.562	120.75
385.787	113.75
386.013	106.75
386.238	125.75
386.463	117.75
386.688	99.75
386.913	104.75
387.138	121.75
387.363	109.75
387.588	81.75
387.813	103.75
388.038	123.75
388.263	112.75
388.488	113.75
388.713	96.75
388.938	97.75
389.163	86.75
389.387	98.75
389.612	106.75
389.837	97.75
390.062	91.75
390.287	90.75
390.512	103.75
390.736	97.75
390.961	76.75
391.186	93.75
391.411	87.75
391.636	94.75
391.86	88.75
392.085	86.75
392.31	83.75
392.534	82.75
392.759	78.75
392.984	87.75
393.208	102.75
393.433	113.75
393.658	101.75
393.882	88.75
394.107	83.75
394.331	62.75
394.556	85.75
394.78	85.75
395.005	93.75
395.229	86.75
395.454	104.75
395.678	87.75
395.903	94.75
396.127	82.75
396.352	86.75
396.576	78.75
396.801	92.75
397.025	75.75
397.249	89.75
397.474	93.75
397.698	80.75
397.922	72.75
398.147	90.75
398.371	83.75
398.595	89.75
398.82	91.75
399.044	89.75
399.268	81.75
399.492	88.75
399.717	78.75
399.941	93.75
400.165	80.75
400.389	74.75
400.613	91.75
400.837	91.75
401.062	80.75
401.286	86.75
401.51	79.75
401.734	96.75
401.958	93.75
402.182	127.75
402.406	186.75
402.63	144.75
402.854	93.75
403.078	83.75
403.302	88.75
403.526	89.75
403.75	88.75
403.974	72.75
404.198	101.75
404.422	80.75
404.645	91.75
404.869	87.75
405.093	99.75
405.317	91.75
405.541	106.75
405.765	95.75
405.988	122.75
406.212	204.75
406.436	304.75
406.66	168.75
406.883	100.75
407.107	100.75
407.331	94.75
407.555	89.75
407.778	87.75
408.002	89.75
408.226	87.75
408.449	87.75
408.673	87.75
408.896	94.75
409.12	95.75
409.344	101.75
409.567	93.75
409.791	82.75
410.014	91.75
410.238	94.75
410.461	96.75
410.685	82.75
410.908	91.75
411.132	97.75
411.355	94.75
411.578	93.75
411.802	85.75
412.025	90.75
412.249	83.75
412.472	101.75
412.695	80.75
412.919	94.75
413.142	98.75
413.365	84.75
413.589	83.75
413.812	87.75
414.035	87.75
414.258	88.75
414.482	90.75
414.705	100.75
414.928	76.75
415.151	80.75
415.374	86.75
415.597	83.75
415.821	84.75
416.044	93.75
416.267	84.75
416.49	76.75
416.713	97.75
416.936	75.75
417.159	88.75
417.382	97.75
417.605	98.75
417.828	105.75
418.051	97.75
418.274	106.75
418.497	95.75
418.72	100.75
418.943	90.75
419.166	91.75
419.389	91.75
419.611	94.75
419.834	79.75
420.057	81.75
420.28	98.75
420.503	96.75
420.726	88.75
420.948	82.75
421.171	89.75
421.394	83.75
421.617	93.75
421.839	85.75
422.062	92.75
422.285	85.75
422.507	102.75
422.73	105.75
422.953	93.75
423.175	84.75
423.398	97.75
423.621	74.75
423.843	81.75
424.066	79.75
424.288	97.75
424.511	87.75
424.733	95.75
424.956	89.75
425.178	87.75
425.401	99.75
425.623	94.75
425.846	72.75
426.068	82.75
426.291	102.75
426.513	80.75
426.735	85.75
426.958	100.75
427.18	96.75
427.402	148.75
427.625	185.75
427.847	145.75
428.069	109.75
428.292	85.75
428.514	77.75
428.736	80.75
428.958	85.75
429.181	81.75
429.403	83.75
429.625	97.75
429.847	84.75
430.069	103.75
430.292	77.75
430.514	75.75
430.736	98.75
430.958	83.75
431.18	70.75
431.402	77.75
431.624	76.75
431.846	82.75
432.068	93.75
432.29	83.75
432.512	79.75
432.734	83.75
432.956	92.75
433.178	108.75
433.4	94.75
433.622	94.75
433.844	87.75
434.066	106.75
434.287	103.75
434.509	92.75
434.731	83.75
434.953	89.75
435.175	96.75
435.397	86.75
435.618	90.75
435.84	105.75
436.062	123.75
436.284	120.75
436.505	98.75
436.727	99.75
436.949	106.75
437.17	81.75
437.392	83.75
437.614	83.75
437.835	102.75
438.057	111.75
438.278	99.75
438.5	88.75
438.721	97.75
438.943	92.75
439.165	82.75
439.386	105.75
439.608	87.75
439.829	97.75
440.05	116.75
440.272	150.75
440.493	98.75
440.715	106.75
440.936	85.75
441.158	85.75
441.379	83.75
441.6	93.75
441.822	101.75
442.043	98.75
442.264	86.75
442.486	112.75
442.707	90.75
442.928	106.75
443.149	157.75
443.371	138.75
443.592	116.75
443.813	117.75
444.034	110.75
444.255	95.75
444.476	96.75
444.698	81.75
444.919	90.75
445.14	117.75
445.361	127.75
445.582	118.75
445.803	139.75
446.024	151.75
446.245	141.75
446.466	96.75
446.687	93.75
446.908	90.75
447.129	81.75
447.35	104.75
447.571	89.75
447.792	89.75
448.013	92.75
448.234	109.75
448.455	101.75
448.675	128.75
448.896	131.75
449.117	103.75
449.338	89.75
449.559	110.75
449.779	123.75
450	95.75
450.221	84.75
450.442	78.75
450.662	86.75
450.883	98.75
451.104	120.75
451.324	98.75
451.545	89.75
451.766	81.75
451.986	90.75
452.207	93.75
452.428	84.75
452.648	89.75
452.869	117.75
453.089	111.75
453.31	135.75
453.53	82.75
453.751	90.75
453.971	113.75
454.192	114.75
454.412	88.75
454.633	88.75
454.853	98.75
455.073	98.75
455.294	72.75
455.514	89.75
455.734	89.75
455.955	83.75
456.175	85.75
456.395	82.75
456.616	78.75
456.836	103.75
457.056	82.75
457.276	95.75
457.497	86.75
457.717	85.75
457.937	89.75
458.157	86.75
458.377	96.75
458.598	117.75
458.818	171.75
459.038	192.75
459.258	149.75
459.478	102.75
459.698	82.75
459.918	90.75
460.138	79.75
460.358	87.75
460.578	97.75
460.798	89.75
461.018	69.75
461.238	83.75
461.458	74.75
461.678	75.75
461.898	95.75
462.118	92.75
462.338	99.75
462.558	90.75
462.777	87.75
462.997	79.75
463.217	89.75
463.437	78.75
463.657	77.75
463.876	83.75
464.096	92.75
464.316	92.75
464.536	98.75
464.755	99.75
464.975	106.75
465.195	183.75
465.414	183.75
465.634	101.75
465.854	101.75
466.073	81.75
466.293	75.75
466.512	78.75
466.732	79.75
466.951	94.75
467.171	90.75
467.391	93.75
467.61	109.75
467.829	98.75
468.049	93.75
468.268	102.75
468.488	92.75
468.707	87.75
468.927	91.75
469.146	90.75
469.365	78.75
469.585	85.75
469.804	89.75
470.023	104.75
470.243	92.75
470.462	85.75
470.681	113.75
470.901	89.75
471.12	91.75
471.339	82.75
471.558	83.75
471.777	86.75
471.997	77.75
472.216	100.75
472.435	107.75
472.654	90.75
472.873	88.75
473.092	94.75
473.311	99.75
473.53	88.75
473.749	85.75
473.968	81.75
474.187	97.75
474.406	94.75
474.625	73.75
474.844	82.75
475.063	80.75
475.282	75.75
475.501	92.75
475.72	85.75
475.939	91.75
476.158	83.75
476.377	86.75
476.596	81.75
476.814	98.75
477.033	107.75
477.252	108.75
477.471	88.75
477.69	82.75
477.908	77.75
478.127	89.75
478.346	82.75
478.564	94.75
478.783	96.75
479.002	111.75
479.22	111.75
479.439	102.75
479.658	132.75
479.876	100.75
480.095	84.75
480.313	82.75
480.532	93.75
480.751	90.75
480.969	114.75
481.188	156.75
481.406	124.75
481.624	96.75
481.843	81.75
482.061	79.75
482.28	73.75
482.498	93.75
482.717	90.75
482.935	87.75
483.153	98.75
483.372	85.75
483.59	100.75
483.808	103.75
484.027	83.75
484.245	86.75
484.463	85.75
484.681	95.75
484.9	74.75
485.118	89.75
485.336	77.75
485.554	86.75
485.772	91.75
485.99	96.75
486.209	101.75
486.427	111.75
486.645	121.75
486.863	114.75
487.081	110.75
487.299	86.75
487.517	101.75
487.735	96.75
487.953	94.75
488.171	82.75
488.389	92.75
488.607	107.75
488.825	96.75
489.043	93.75
489.261	78.75
489.479	81.75
489.696	92.75
489.914	89.75
490.132	79.75
490.35	83.75
490.568	86.75
490.786	90.75
491.003	87.75
491.221	82.75
491.439	99.75
491.657	89.75
491.874	98.75
492.092	81.75
492.31	91.75
492.527	82.75
492.745	76.75
492.963	98.75
493.18	88.75
493.398	81.75
493.615	112.75
493.833	89.75
494.05	99.75
494.268	93.75
494.485	95.75
494.703	80.75
494.92	85.75
495.138	97.75
495.355	87.75
495.573	86.75
495.79	93.75
496.008	85.75
496.225	90.75
496.442	86.75
496.66	92.75
496.877	87.75
497.094	87.75
497.312	85.75
497.529	90.75
497.746	85.75
497.963	75.75
498.181	94.75
498.398	105.75
498.615	107.75
498.832	98.75
499.049	92.75
499.267	90.75
499.484	77.75
499.701	81.75
499.918	100.75
500.135	72.75
500.352	97.75
500.569	80.75
500.786	103.75
501.003	67.75
501.22	80.75
501.437	84.75
501.654	105.75
501.871	121.75
502.088	114.75
502.305	102.75
502.522	91.75
502.739	90.75
502.956	94.75
503.172	82.75
503.389	94.75
503.606	117.75
503.823	104.75
504.04	95.75
504.256	85.75
504.473	95.75
504.69	83.75
504.907	92.75
505.123	89.75
505.34	97.75
505.557	93.75
505.773	82.75
505.99	95.75
506.207	86.75
506.423	98.75
506.64	89.75
506.856	96.75
507.073	90.75
507.289	83.75
507.506	98.75
507.722	122.75
507.939	115.75
508.155	96.75
508.372	80.75
508.588	96.75
508.805	101.75
509.021	90.75
509.238	102.75
509.454	96.75
509.67	97.75
509.887	117.75
510.103	149.75
510.319	234.75
510.536	1005.75
510.752	3547.75
510.968	969.75
511.184	196.75
511.401	129.75
511.617	92.75
511.833	89.75
512.049	91.75
512.265	91.75
512.481	89.75
512.698	83.75
512.914	88.75
513.13	96.75
513.346	81.75
513.562	94.75
513.778	119.75
513.994	88.75
514.21	122.75
514.426	126.75
514.642	159.75
514.858	149.75
515.074	202.75
515.29	610.75
