Data from Circ_2008_H10_HRD10591_00055.txt Node
Date: Wed Jan 03 10:17:07 EST 2024
User: Yrep
Spectrometer: HR+D1059
Trigger mode: 1
Integration Time (sec): 1.000000E-1
Scans to average: 1
Electric dark correction enabled: true
Nonlinearity correction enabled: false
Boxcar width: 0
XAxis mode: Wavelengths
Number of Pixels in Spectrum: 2048
>>>>>Begin Spectral Data<<<<<
223.165	-6
223.4	-6
223.635	-6
223.869	-37
224.104	-24
224.338	-6
224.573	-10
224.808	-11
225.042	-7
225.277	-11
225.511	15
225.746	-4
225.98	9
226.215	2
226.449	10
226.683	23
226.918	29
227.152	28
227.387	43
227.621	33
227.856	49
228.09	48
228.324	51
228.559	58
228.793	54
229.027	71
229.262	61
229.496	69
229.73	91
229.964	79
230.199	65
230.433	85
230.667	79
230.901	79
231.136	82
231.37	82
231.604	78
231.838	70
232.072	97
232.306	68
232.541	82
232.775	90
233.009	82
233.243	65
233.477	75
233.711	90
233.945	59
234.179	78
234.413	82
234.647	74
234.881	65
235.115	80
235.349	81
235.583	90
235.817	82
236.051	83
236.285	64
236.519	76
236.753	79
236.987	81
237.221	75
237.455	83
237.689	80
237.922	81
238.156	57
238.39	77
238.624	78
238.858	73
239.091	79
239.325	84
239.559	82
239.793	81
240.027	73
240.26	60
240.494	72
240.728	84
240.961	86
241.195	62
241.429	78
241.662	68
241.896	74
242.13	80
242.363	75
242.597	96
242.83	71
243.064	72
243.298	75
243.531	71
243.765	72
243.998	91
244.232	65
244.465	62
244.699	80
244.932	72
245.166	67
245.399	81
245.633	91
245.866	84
246.099	77
246.333	79
246.566	69
246.8	76
247.033	70
247.266	72
247.5	68
247.733	84
247.966	75
248.2	78
248.433	76
248.666	79
248.899	91
249.133	89
249.366	79
249.599	105
249.832	85
250.066	86
250.299	71
250.532	82
250.765	71
250.998	88
251.231	74
251.465	83
251.698	72
251.931	81
252.164	74
252.397	77
252.63	74
252.863	95
253.096	85
253.329	73
253.562	81
253.795	86
254.028	75
254.261	76
254.494	74
254.727	72
254.96	69
255.193	86
255.426	69
255.659	76
255.892	83
256.124	78
256.357	90
256.59	66
256.823	72
257.056	87
257.289	81
257.521	74
257.754	75
257.987	81
258.22	86
258.452	70
258.685	75
258.918	88
259.151	94
259.383	73
259.616	93
259.849	78
260.081	78
260.314	82
260.547	82
260.779	97
261.012	89
261.244	76
261.477	85
261.71	89
261.942	105
262.175	117
262.407	95
262.64	86
262.872	72
263.105	76
263.337	79
263.57	81
263.802	81
264.035	77
264.267	78
264.499	67
264.732	86
264.964	77
265.197	91
265.429	82
265.661	78
265.894	83
266.126	79
266.358	83
266.591	83
266.823	83
267.055	83
267.287	86
267.52	91
267.752	78
267.984	73
268.216	95
268.448	89
268.681	69
268.913	91
269.145	85
269.377	68
269.609	81
269.841	83
270.073	70
270.306	83
270.538	88
270.77	79
271.002	85
271.234	92
271.466	72
271.698	82
271.93	81
272.162	88
272.394	81
272.626	70
272.858	72
273.09	77
273.322	79
273.553	93
273.785	78
274.017	72
274.249	84
274.481	87
274.713	72
274.945	89
275.176	74
275.408	91
275.64	85
275.872	88
276.104	82
276.335	101
276.567	82
276.799	104
277.031	97
277.262	92
277.494	83
277.726	85
277.957	74
278.189	82
278.421	97
278.652	83
278.884	80
279.115	79
279.347	93
279.579	89
279.81	83
280.042	80
280.273	98
280.505	88
280.736	82
280.968	80
281.199	100
281.431	63
281.662	86
281.894	85
282.125	101
282.356	96
282.588	143
282.819	110
283.051	97
283.282	96
283.513	76
283.745	93
283.976	79
284.207	79
284.439	70
284.67	81
284.901	74
285.132	81
285.364	77
285.595	85
285.826	78
286.057	80
286.288	85
286.52	85
286.751	80
286.982	71
287.213	82
287.444	82
287.675	86
287.906	84
288.138	93
288.369	98
288.6	84
288.831	93
289.062	87
289.293	72
289.524	82
289.755	88
289.986	79
290.217	72
290.448	98
290.679	87
290.91	73
291.141	85
291.371	95
291.602	88
291.833	71
292.064	96
292.295	80
292.526	95
292.757	85
292.987	98
293.218	83
293.449	91
293.68	105
293.91	89
294.141	82
294.372	94
294.603	79
294.833	84
295.064	89
295.295	95
295.525	87
295.756	109
295.987	109
296.217	134
296.448	127
296.679	87
296.909	85
297.14	92
297.37	90
297.601	88
297.831	100
298.062	71
298.292	88
298.523	84
298.753	80
298.984	90
299.214	86
299.445	98
299.675	98
299.905	85
300.136	87
300.366	75
300.597	83
300.827	88
301.057	96
301.288	87
301.518	75
301.748	79
301.979	94
302.209	79
302.439	82
302.669	104
302.9	86
303.13	89
303.36	101
303.59	97
303.82	91
304.051	103
304.281	74
304.511	89
304.741	80
304.971	75
305.201	101
305.431	88
305.661	83
305.891	87
306.121	92
306.352	95
306.582	90
306.812	79
307.042	77
307.272	84
307.502	97
307.731	91
307.961	72
308.191	89
308.421	91
308.651	95
308.881	96
309.111	72
309.341	84
309.571	95
309.8	92
310.03	76
310.26	80
310.49	97
310.72	96
310.949	111
311.179	97
311.409	91
311.639	86
311.868	98
312.098	83
312.328	95
312.557	101
312.787	101
313.017	104
313.246	92
313.476	88
313.706	98
313.935	86
314.165	88
314.394	87
314.624	101
314.853	83
315.083	98
315.312	86
315.542	71
315.771	94
316.001	87
316.23	102
316.46	71
316.689	102
316.919	82
317.148	88
317.377	90
317.607	90
317.836	89
318.065	82
318.295	92
318.524	77
318.753	92
318.983	109
319.212	90
319.441	110
319.67	103
319.9	89
320.129	87
320.358	84
320.587	88
320.816	78
321.046	104
321.275	83
321.504	93
321.733	94
321.962	105
322.191	92
322.42	98
322.649	94
322.878	88
323.108	106
323.337	113
323.566	120
323.795	144
324.024	164
324.253	338
324.482	681
324.71	1334
324.939	1825
325.168	697
325.397	221
325.626	131
325.855	123
326.084	126
326.313	123
326.542	139
326.77	200
326.999	387
327.228	737
327.457	1352
327.686	1069
327.914	329
328.143	184
328.372	160
328.6	123
328.829	111
329.058	135
329.287	129
329.515	118
329.744	95
329.972	113
330.201	138
330.43	158
330.658	121
330.887	121
331.115	122
331.344	97
331.572	91
331.801	104
332.03	88
332.258	93
332.486	98
332.715	113
332.943	94
333.172	98
333.4	112
333.629	99
333.857	109
334.085	109
334.314	135
334.542	187
334.771	178
334.999	99
335.227	85
335.455	103
335.684	95
335.912	94
336.14	88
336.369	90
336.597	86
336.825	100
337.053	104
337.281	76
337.51	94
337.738	80
337.966	87
338.194	91
338.422	102
338.65	85
338.878	94
339.106	79
339.334	86
339.562	105
339.79	78
340.018	90
340.246	87
340.474	98
340.702	95
340.93	86
341.158	87
341.386	74
341.614	100
341.842	86
342.07	86
342.298	87
342.526	90
342.754	92
342.981	91
343.209	92
343.437	90
343.665	74
343.893	89
344.12	92
344.348	87
344.576	86
344.804	94
345.031	89
345.259	89
345.487	101
345.714	101
345.942	91
346.17	92
346.397	86
346.625	78
346.853	95
347.08	93
347.308	89
347.535	87
347.763	92
347.99	88
348.218	107
348.445	96
348.673	103
348.9	98
349.128	86
349.355	77
349.583	97
349.81	104
350.037	95
350.265	98
350.492	94
350.72	97
350.947	89
351.174	107
351.402	112
351.629	108
351.856	94
352.083	91
352.311	106
352.538	94
352.765	119
352.992	122
353.22	109
353.447	85
353.674	86
353.901	103
354.128	99
354.355	82
354.583	96
354.81	99
355.037	94
355.264	91
355.491	91
355.718	94
355.945	92
356.172	82
356.399	93
356.626	84
356.853	99
357.08	100
357.307	89
357.534	83
357.761	93
357.988	90
358.215	96
358.441	93
358.668	92
358.895	108
359.122	83
359.349	93
359.576	91
359.802	96
360.029	115
360.256	99
360.483	100
360.709	92
360.936	87
361.163	80
361.39	87
361.616	82
361.843	92
362.07	95
362.296	94
362.523	82
362.749	84
362.976	83
363.203	79
363.429	77
363.656	83
363.882	92
364.109	96
364.335	70
364.562	82
364.788	83
365.015	96
365.241	99
365.468	105
365.694	101
365.92	105
366.147	90
366.373	96
366.599	76
366.826	90
367.052	102
367.278	80
367.505	85
367.731	106
367.957	88
368.184	87
368.41	87
368.636	97
368.862	115
369.089	99
369.315	93
369.541	97
369.767	92
369.993	97
370.219	89
370.445	92
370.672	90
370.898	86
371.124	82
371.35	88
371.576	86
371.802	87
372.028	79
372.254	86
372.48	89
372.706	74
372.932	62
373.158	79
373.384	77
373.61	96
373.835	92
374.061	82
374.287	93
374.513	89
374.739	79
374.965	90
375.191	100
375.416	83
375.642	82
375.868	97
376.094	95
376.319	86
376.545	96
376.771	80
376.997	83
377.222	73
377.448	80
377.674	77
377.899	90
378.125	89
378.35	91
378.576	81
378.802	94
379.027	98
379.253	84
379.478	85
379.704	84
379.929	83
380.155	96
380.38	93
380.606	82
380.831	85
381.057	85
381.282	88
381.507	97
381.733	88
381.958	102
382.184	107
382.409	98
382.634	105
382.86	102
383.085	98
383.31	105
383.535	99
383.761	77
383.986	83
384.211	104
384.436	98
384.662	97
384.887	100
385.112	109
385.337	104
385.562	106
385.787	98
386.013	115
386.238	119
386.463	92
386.688	112
386.913	95
387.138	95
387.363	97
387.588	102
387.813	99
388.038	114
388.263	114
388.488	116
388.713	83
388.938	107
389.163	102
389.387	94
389.612	91
389.837	74
390.062	110
390.287	93
390.512	98
390.736	98
390.961	81
391.186	80
391.411	96
391.636	74
391.86	87
392.085	87
392.31	86
392.534	97
392.759	74
392.984	82
393.208	74
393.433	79
393.658	101
393.882	89
394.107	89
394.331	89
394.556	79
394.78	85
395.005	81
395.229	94
395.454	85
395.678	74
395.903	86
396.127	104
396.352	83
396.576	80
396.801	64
397.025	104
397.249	89
397.474	84
397.698	75
397.922	81
398.147	83
398.371	67
398.595	83
398.82	82
399.044	84
399.268	77
399.492	90
399.717	91
399.941	88
400.165	95
400.389	78
400.613	74
400.837	74
401.062	94
401.286	89
401.51	88
401.734	83
401.958	104
402.182	102
402.406	158
402.63	112
402.854	96
403.078	95
403.302	95
403.526	101
403.75	90
403.974	90
404.198	89
404.422	96
404.645	83
404.869	105
405.093	85
405.317	111
405.541	88
405.765	92
405.988	118
406.212	169
406.436	230
406.66	153
406.883	95
407.107	91
407.331	94
407.555	99
407.778	102
408.002	93
408.226	91
408.449	100
408.673	91
408.896	87
409.12	101
409.344	96
409.567	77
409.791	75
410.014	82
410.238	90
410.461	89
410.685	81
410.908	81
411.132	94
411.355	72
411.578	80
411.802	89
412.025	91
412.249	77
412.472	96
412.695	96
412.919	80
413.142	91
413.365	87
413.589	90
413.812	81
414.035	87
414.258	93
414.482	89
414.705	78
414.928	93
415.151	102
415.374	101
415.597	89
415.821	71
416.044	74
416.267	89
416.49	88
416.713	81
416.936	89
417.159	82
417.382	102
417.605	78
417.828	85
418.051	73
418.274	93
418.497	86
418.72	90
418.943	87
419.166	86
419.389	83
419.611	87
419.834	86
420.057	103
420.28	72
420.503	96
420.726	77
420.948	86
421.171	102
421.394	83
421.617	79
421.839	86
422.062	86
422.285	90
422.507	93
422.73	106
422.953	95
423.175	100
423.398	92
423.621	95
423.843	89
424.066	81
424.288	83
424.511	86
424.733	104
424.956	98
425.178	91
425.401	90
425.623	90
425.846	81
426.068	101
426.291	97
426.513	83
426.735	82
426.958	94
427.18	96
427.402	121
427.625	165
427.847	137
428.069	112
428.292	89
428.514	89
428.736	86
428.958	82
429.181	89
429.403	77
429.625	86
429.847	77
430.069	86
430.292	90
430.514	93
430.736	85
430.958	81
431.18	69
431.402	81
431.624	71
431.846	80
432.068	76
432.29	87
432.512	83
432.734	81
432.956	97
433.178	89
433.4	91
433.622	87
433.844	94
434.066	100
434.287	90
434.509	101
434.731	88
434.953	93
435.175	77
435.397	95
435.618	83
435.84	80
436.062	106
436.284	99
436.505	109
436.727	102
436.949	89
437.17	80
437.392	89
437.614	82
437.835	94
438.057	93
438.278	104
438.5	85
438.721	118
438.943	102
439.165	84
439.386	83
439.608	91
439.829	96
440.05	107
440.272	117
440.493	106
440.715	89
440.936	85
441.158	83
441.379	88
441.6	88
441.822	94
442.043	88
442.264	101
442.486	77
442.707	88
442.928	99
443.149	112
443.371	121
443.592	117
443.813	104
444.034	100
444.255	80
444.476	82
444.698	88
444.919	86
445.14	144
445.361	115
445.582	106
445.803	134
446.024	130
446.245	117
446.466	82
446.687	77
446.908	80
447.129	91
447.35	85
447.571	69
447.792	95
448.013	84
448.234	104
448.455	106
448.675	101
448.896	112
449.117	92
449.338	99
449.559	117
449.779	118
450	99
450.221	89
450.442	86
450.662	83
450.883	102
451.104	90
451.324	103
451.545	84
451.766	96
451.986	103
452.207	79
452.428	97
452.648	83
452.869	100
453.089	112
453.31	103
453.53	87
453.751	94
453.971	88
454.192	94
454.412	101
454.633	91
454.853	104
455.073	80
455.294	74
455.514	87
455.734	94
455.955	88
456.175	79
456.395	85
456.616	81
456.836	86
457.056	83
457.276	82
457.497	79
457.717	69
457.937	74
458.157	87
458.377	94
458.598	99
458.818	135
459.038	133
459.258	106
459.478	107
459.698	83
459.918	87
460.138	90
460.358	83
460.578	96
460.798	95
461.018	87
461.238	83
461.458	76
461.678	78
461.898	87
462.118	89
462.338	81
462.558	78
462.777	77
462.997	89
463.217	63
463.437	81
463.657	79
463.876	80
464.096	98
464.316	88
464.536	93
464.755	84
464.975	105
465.195	155
465.414	155
465.634	91
465.854	90
466.073	68
466.293	87
466.512	81
466.732	91
466.951	94
467.171	79
467.391	88
467.61	111
467.829	94
468.049	120
468.268	116
468.488	87
468.707	85
468.927	86
469.146	84
469.365	78
469.585	86
469.804	97
470.023	84
470.243	84
470.462	98
470.681	107
470.901	101
471.12	82
471.339	84
471.558	87
471.777	85
471.997	94
472.216	157
472.435	213
472.654	104
472.873	87
473.092	84
473.311	88
473.53	83
473.749	89
473.968	92
474.187	96
474.406	88
474.625	87
474.844	84
475.063	78
475.282	87
475.501	93
475.72	100
475.939	82
476.158	87
476.377	83
476.596	74
476.814	85
477.033	75
477.252	92
477.471	89
477.69	87
477.908	81
478.127	99
478.346	100
478.564	89
478.783	93
479.002	88
479.22	104
479.439	95
479.658	101
479.876	82
480.095	71
480.313	81
480.532	89
480.751	107
480.969	155
481.188	327
481.406	227
481.624	104
481.843	78
482.061	85
482.28	85
482.498	90
482.717	91
482.935	83
483.153	87
483.372	83
483.59	89
483.808	91
484.027	82
484.245	95
484.463	80
484.681	99
484.9	103
485.118	72
485.336	86
485.554	86
485.772	104
485.99	99
486.209	92
486.427	83
486.645	101
486.863	100
487.081	96
487.299	93
487.517	96
487.735	89
487.953	74
488.171	81
488.389	99
488.607	89
488.825	108
489.043	85
489.261	87
489.479	91
489.696	89
489.914	81
490.132	88
490.35	82
490.568	90
490.786	89
491.003	72
491.221	87
491.439	99
491.657	106
491.874	85
492.092	90
492.31	99
492.527	78
492.745	78
492.963	87
493.18	103
493.398	102
493.615	96
493.833	90
494.05	86
494.268	100
494.485	78
494.703	91
494.92	79
495.138	93
495.355	92
495.573	82
495.79	80
496.008	98
496.225	85
496.442	93
496.66	89
496.877	90
497.094	92
497.312	95
497.529	92
497.746	93
497.963	95
498.181	83
498.398	97
498.615	110
498.832	107
499.049	101
499.267	100
499.484	98
499.701	89
499.918	98
500.135	83
500.352	108
500.569	91
500.786	87
501.003	104
501.22	97
501.437	96
501.654	97
501.871	102
502.088	91
502.305	91
502.522	88
502.739	79
502.956	79
503.172	91
503.389	89
503.606	117
503.823	101
504.04	96
504.256	96
504.473	74
504.69	72
504.907	89
505.123	76
505.34	93
505.557	95
505.773	100
505.99	83
506.207	77
506.423	94
506.64	93
506.856	78
507.073	83
507.289	96
507.506	103
507.722	101
507.939	101
508.155	93
508.372	82
508.588	87
508.805	88
509.021	99
509.238	85
509.454	96
509.67	96
509.887	114
510.103	143
510.319	224
510.536	801
510.752	2526
510.968	713
511.184	158
511.401	110
511.617	90
511.833	91
512.049	86
512.265	91
512.481	75
512.698	85
512.914	83
513.13	90
513.346	94
513.562	104
513.778	83
513.994	92
514.21	94
514.426	112
514.642	120
514.858	125
515.074	160
515.29	462
515.506	1539
515.721	595
515.937	163
516.153	98
516.369	98
516.585	93
516.801	82
517.016	87
517.232	89
517.448	90
517.664	98
517.879	83
518.095	91
518.311	78
518.527	98
518.742	103
518.958	85
519.173	89
519.389	100
519.605	101
519.82	87
520.036	98
520.251	125
520.467	101
520.682	94
520.898	104
521.113	114
521.329	139
521.544	208
521.76	546
521.975	2491
522.19	1509
522.406	319
522.621	133
522.836	97
523.052	96
523.267	96
523.482	94
523.698	103
523.913	113
524.128	98
524.343	92
524.559	86
524.774	91
524.989	88
525.204	106
525.419	83
525.634	82
525.849	101
526.064	86
526.28	87
526.495	96
526.71	91
526.925	85
527.14	102
527.355	86
527.57	87
527.785	76
527.999	88
528.214	96
528.429	84
528.644	97
528.859	98
529.074	90
529.289	109
529.503	171
529.718	83
529.933	87
530.148	92
530.363	87
530.577	88
530.792	77
531.007	98
531.221	102
531.436	99
531.651	93
531.865	86
532.08	91
532.295	98
532.509	98
532.724	80
532.938	77
533.153	90
533.367	81
533.582	91
533.796	87
534.011	94
534.225	103
534.44	79
534.654	79
534.868	74
535.083	59
535.297	81
535.511	101
535.726	95
535.94	101
536.154	91
536.369	83
536.583	86
536.797	83
537.011	99
537.225	88
537.44	91
537.654	83
537.868	74
538.082	95
538.296	88
538.51	99
538.724	89
538.938	90
539.153	90
539.367	101
539.581	97
539.795	95
540.009	90
540.222	85
540.436	88
540.65	86
540.864	90
541.078	92
541.292	80
541.506	92
541.72	97
541.934	90
542.147	77
542.361	84
542.575	84
542.789	93
543.002	77
543.216	89
543.43	80
543.644	89
543.857	98
544.071	80
544.285	102
544.498	79
544.712	95
544.925	89
545.139	91
545.352	85
545.566	83
545.779	88
545.993	88
546.206	78
546.42	89
546.633	101
546.847	91
547.06	91
547.274	100
547.487	86
547.7	85
547.914	82
548.127	87
548.34	91
548.554	88
548.767	91
548.98	86
549.193	79
549.407	86
549.62	87
549.833	81
550.046	90
550.259	86
550.473	81
550.686	92
550.899	86
551.112	100
551.325	79
551.538	79
551.751	94
551.964	86
552.177	87
552.39	95
552.603	80
552.816	77
553.029	92
553.242	89
553.455	99
553.667	96
553.88	99
554.093	92
554.306	95
554.519	90
554.732	84
554.944	78
555.157	85
555.37	97
555.583	99
555.795	88
556.008	80
556.221	82
556.433	89
556.646	76
556.859	92
557.071	83
557.284	97
557.496	89
557.709	83
557.921	98
558.134	85
558.346	75
558.559	78
558.771	81
558.984	82
559.196	91
559.409	103
559.621	97
559.833	76
560.046	100
560.258	96
560.47	80
560.683	89
560.895	83
561.107	98
561.32	76
561.532	94
561.744	83
561.956	92
562.168	98
562.381	81
562.593	96
562.805	87
563.017	102
563.229	85
563.441	86
563.653	87
563.865	70
564.077	83
564.289	73
564.501	89
564.713	78
564.925	100
565.137	110
565.349	94
565.561	82
565.773	86
565.985	97
566.197	94
566.408	86
566.62	75
566.832	99
567.044	85
567.255	93
567.467	88
567.679	73
567.891	87
568.102	88
568.314	87
568.526	91
568.737	91
568.949	82
569.161	70
569.372	82
569.584	98
569.795	99
570.007	110
570.218	257
570.43	129
570.641	87
570.853	77
571.064	94
571.276	95
571.487	82
571.698	78
571.91	82
572.121	64
572.333	83
572.544	83
572.755	87
572.966	88
573.178	81
573.389	78
573.6	77
573.811	97
574.023	84
574.234	80
574.445	88
574.656	93
574.867	96
575.078	89
575.289	86
575.501	87
575.712	89
575.923	78
576.134	73
576.345	89
576.556	79
576.767	82
576.978	88
577.188	77
577.399	92
577.61	82
577.821	97
578.032	112
578.243	298
578.454	812
578.665	217
578.875	110
579.086	110
579.297	90
579.508	81
579.718	95
579.929	80
580.14	80
580.35	102
580.561	82
580.772	84
580.982	88
581.193	92
581.403	80
581.614	78
581.825	75
582.035	80
582.246	75
582.456	74
582.667	79
582.877	85
583.087	86
583.298	90
583.508	86
583.719	80
583.929	70
584.139	81
584.35	97
584.56	74
584.77	85
584.981	81
585.191	92
585.401	81
585.611	78
