Data from Circ_2008_H10_HRD10591_00042.txt Node
Date: Wed Jan 03 10:17:04 EST 2024
User: Yrep
Spectrometer: HR+D1059
Trigger mode: 1
Integration Time (sec): 1.000000E-1
Scans to average: 1
Electric dark correction enabled: true
Nonlinearity correction enabled: false
Boxcar width: 0
XAxis mode: Wavelengths
Number of Pixels in Spectrum: 2048
>>>>>Begin Spectral Data<<<<<
223.165	-26.44
223.4	-26.44
223.635	-26.44
223.869	-20.44
224.104	-21.44
224.338	-18.44
224.573	-23.44
224.808	-24.44
225.042	-8.44
225.277	-14.44
225.511	-7.44
225.746	18.56
225.98	4.56
226.215	25.56
226.449	22.56
226.683	24.56
226.918	35.56
227.152	33.56
227.387	31.56
227.621	42.56
227.856	32.56
228.09	40.56
228.324	57.56
228.559	42.56
228.793	44.56
229.027	58.56
229.262	58.56
229.496	66.56
229.73	78.56
229.964	68.56
230.199	80.56
230.433	80.56
230.667	76.56
230.901	72.56
231.136	78.56
231.37	77.56
231.604	81.56
231.838	87.56
232.072	83.56
232.306	92.56
232.541	84.56
232.775	65.56
233.009	70.56
233.243	88.56
233.477	75.56
233.711	74.56
233.945	70.56
234.179	73.56
234.413	64.56
234.647	71.56
234.881	77.56
235.115	78.56
235.349	75.56
235.583	77.56
235.817	72.56
236.051	81.56
236.285	82.56
236.519	70.56
236.753	85.56
236.987	63.56
237.221	76.56
237.455	70.56
237.689	93.56
237.922	84.56
238.156	60.56
238.39	71.56
238.624	65.56
238.858	82.56
239.091	75.56
239.325	87.56
239.559	69.56
239.793	81.56
240.027	74.56
240.26	73.56
240.494	77.56
240.728	60.56
240.961	77.56
241.195	75.56
241.429	75.56
241.662	74.56
241.896	80.56
242.13	79.56
242.363	69.56
242.597	77.56
242.83	72.56
243.064	82.56
243.298	77.56
243.531	93.56
243.765	78.56
243.998	70.56
244.232	69.56
244.465	73.56
244.699	76.56
244.932	71.56
245.166	82.56
245.399	66.56
245.633	65.56
245.866	85.56
246.099	75.56
246.333	57.56
246.566	84.56
246.8	74.56
247.033	65.56
247.266	74.56
247.5	75.56
247.733	92.56
247.966	81.56
248.2	75.56
248.433	62.56
248.666	78.56
248.899	76.56
249.133	77.56
249.366	88.56
249.599	94.56
249.832	74.56
250.066	65.56
250.299	66.56
250.532	59.56
250.765	77.56
250.998	79.56
251.231	85.56
251.465	65.56
251.698	79.56
251.931	78.56
252.164	76.56
252.397	74.56
252.63	72.56
252.863	81.56
253.096	86.56
253.329	83.56
253.562	82.56
253.795	86.56
254.028	85.56
254.261	85.56
254.494	68.56
254.727	71.56
254.96	92.56
255.193	85.56
255.426	73.56
255.659	81.56
255.892	72.56
256.124	73.56
256.357	82.56
256.59	72.56
256.823	87.56
257.056	78.56
257.289	66.56
257.521	73.56
257.754	69.56
257.987	85.56
258.22	89.56
258.452	80.56
258.685	79.56
258.918	86.56
259.151	82.56
259.383	83.56
259.616	77.56
259.849	76.56
260.081	83.56
260.314	80.56
260.547	70.56
260.779	93.56
261.012	79.56
261.244	85.56
261.477	88.56
261.71	93.56
261.942	107.56
262.175	99.56
262.407	77.56
262.64	77.56
262.872	83.56
263.105	78.56
263.337	78.56
263.57	81.56
263.802	84.56
264.035	87.56
264.267	73.56
264.499	76.56
264.732	94.56
264.964	69.56
265.197	84.56
265.429	69.56
265.661	75.56
265.894	84.56
266.126	101.56
266.358	84.56
266.591	80.56
266.823	60.56
267.055	94.56
267.287	71.56
267.52	76.56
267.752	87.56
267.984	77.56
268.216	81.56
268.448	85.56
268.681	92.56
268.913	80.56
269.145	81.56
269.377	77.56
269.609	96.56
269.841	84.56
270.073	81.56
270.306	75.56
270.538	82.56
270.77	65.56
271.002	76.56
271.234	78.56
271.466	91.56
271.698	86.56
271.93	79.56
272.162	93.56
272.394	84.56
272.626	90.56
272.858	91.56
273.09	89.56
273.322	86.56
273.553	86.56
273.785	69.56
274.017	75.56
274.249	86.56
274.481	98.56
274.713	81.56
274.945	86.56
275.176	94.56
275.408	79.56
275.64	86.56
275.872	85.56
276.104	84.56
276.335	87.56
276.567	97.56
276.799	88.56
277.031	95.56
277.262	76.56
277.494	95.56
277.726	92.56
277.957	82.56
278.189	72.56
278.421	93.56
278.652	79.56
278.884	88.56
279.115	80.56
279.347	103.56
279.579	88.56
279.81	81.56
280.042	69.56
280.273	93.56
280.505	86.56
280.736	95.56
280.968	90.56
281.199	89.56
281.431	95.56
281.662	83.56
281.894	91.56
282.125	101.56
282.356	117.56
282.588	136.56
282.819	106.56
283.051	80.56
283.282	75.56
283.513	86.56
283.745	88.56
283.976	87.56
284.207	80.56
284.439	89.56
284.67	87.56
284.901	82.56
285.132	103.56
285.364	86.56
285.595	85.56
285.826	84.56
286.057	89.56
286.288	88.56
286.52	68.56
286.751	80.56
286.982	74.56
287.213	93.56
287.444	80.56
287.675	90.56
287.906	100.56
288.138	95.56
288.369	89.56
288.6	74.56
288.831	90.56
289.062	84.56
289.293	93.56
289.524	92.56
289.755	88.56
289.986	87.56
290.217	90.56
290.448	77.56
290.679	66.56
290.91	87.56
291.141	92.56
291.371	81.56
291.602	83.56
291.833	77.56
292.064	81.56
292.295	71.56
292.526	80.56
292.757	91.56
292.987	78.56
293.218	86.56
293.449	74.56
293.68	99.56
293.91	92.56
294.141	82.56
294.372	77.56
294.603	87.56
294.833	86.56
295.064	76.56
295.295	85.56
295.525	85.56
295.756	92.56
295.987	120.56
296.217	133.56
296.448	118.56
296.679	93.56
296.909	91.56
297.14	81.56
297.37	98.56
297.601	98.56
297.831	96.56
298.062	91.56
298.292	80.56
298.523	86.56
298.753	88.56
298.984	97.56
299.214	99.56
299.445	96.56
299.675	85.56
299.905	85.56
300.136	83.56
300.366	92.56
300.597	82.56
300.827	84.56
301.057	93.56
301.288	89.56
301.518	88.56
301.748	83.56
301.979	96.56
302.209	87.56
302.439	80.56
302.669	81.56
302.9	75.56
303.13	96.56
303.36	92.56
303.59	92.56
303.82	108.56
304.051	101.56
304.281	86.56
304.511	91.56
304.741	90.56
304.971	89.56
305.201	86.56
305.431	89.56
305.661	82.56
305.891	99.56
306.121	94.56
306.352	100.56
306.582	93.56
306.812	79.56
307.042	94.56
307.272	101.56
307.502	93.56
307.731	101.56
307.961	89.56
308.191	86.56
308.421	95.56
308.651	89.56
308.881	93.56
309.111	95.56
309.341	100.56
309.571	96.56
309.8	85.56
310.03	78.56
310.26	100.56
310.49	90.56
310.72	92.56
310.949	94.56
311.179	89.56
311.409	94.56
311.639	94.56
311.868	111.56
312.098	93.56
312.328	88.56
312.557	96.56
312.787	84.56
313.017	89.56
313.246	113.56
313.476	81.56
313.706	98.56
313.935	87.56
314.165	103.56
314.394	103.56
314.624	77.56
314.853	94.56
315.083	88.56
315.312	83.56
315.542	95.56
315.771	94.56
316.001	87.56
316.23	97.56
316.46	82.56
316.689	91.56
316.919	90.56
317.148	103.56
317.377	86.56
317.607	100.56
317.836	95.56
318.065	97.56
318.295	94.56
318.524	95.56
318.753	84.56
318.983	101.56
319.212	120.56
319.441	103.56
319.67	95.56
319.9	88.56
320.129	87.56
320.358	88.56
320.587	100.56
320.816	107.56
321.046	96.56
321.275	101.56
321.504	79.56
321.733	90.56
321.962	97.56
322.191	101.56
322.42	104.56
322.649	115.56
322.878	102.56
323.108	109.56
323.337	112.56
323.566	130.56
323.795	141.56
324.024	181.56
324.253	368.56
324.482	692.56
324.71	1425.56
324.939	1888.56
325.168	717.56
325.397	236.56
325.626	129.56
325.855	118.56
326.084	106.56
326.313	111.56
326.542	138.56
326.77	219.56
326.999	410.56
327.228	820.56
327.457	1429.56
327.686	1097.56
327.914	300.56
328.143	153.56
328.372	140.56
328.6	117.56
328.829	105.56
329.058	125.56
329.287	107.56
329.515	116.56
329.744	105.56
329.972	110.56
330.201	125.56
330.43	145.56
330.658	125.56
330.887	126.56
331.115	120.56
331.344	88.56
331.572	79.56
331.801	111.56
332.03	103.56
332.258	84.56
332.486	86.56
332.715	82.56
332.943	101.56
333.172	97.56
333.4	93.56
333.629	111.56
333.857	104.56
334.085	116.56
334.314	124.56
334.542	150.56
334.771	148.56
334.999	114.56
335.227	108.56
335.455	105.56
335.684	96.56
335.912	101.56
336.14	93.56
336.369	91.56
336.597	88.56
336.825	87.56
337.053	79.56
337.281	97.56
337.51	90.56
337.738	89.56
337.966	88.56
338.194	75.56
338.422	81.56
338.65	100.56
338.878	92.56
339.106	78.56
339.334	92.56
339.562	107.56
339.79	96.56
340.018	100.56
340.246	90.56
340.474	92.56
340.702	92.56
340.93	90.56
341.158	102.56
341.386	84.56
341.614	100.56
341.842	92.56
342.07	81.56
342.298	102.56
342.526	84.56
342.754	94.56
342.981	86.56
343.209	94.56
343.437	87.56
343.665	86.56
343.893	82.56
344.12	76.56
344.348	85.56
344.576	94.56
344.804	90.56
345.031	81.56
345.259	102.56
345.487	98.56
345.714	90.56
345.942	82.56
346.17	85.56
346.397	79.56
346.625	99.56
346.853	104.56
347.08	81.56
347.308	103.56
347.535	98.56
347.763	103.56
347.99	102.56
348.218	83.56
348.445	89.56
348.673	89.56
348.9	90.56
349.128	90.56
349.355	97.56
349.583	95.56
349.81	94.56
350.037	93.56
350.265	93.56
350.492	89.56
350.72	92.56
350.947	93.56
351.174	99.56
351.402	105.56
351.629	107.56
351.856	102.56
352.083	99.56
352.311	100.56
352.538	107.56
352.765	98.56
352.992	99.56
353.22	98.56
353.447	97.56
353.674	102.56
353.901	93.56
354.128	97.56
354.355	88.56
354.583	99.56
354.81	98.56
355.037	98.56
355.264	99.56
355.491	98.56
355.718	95.56
355.945	94.56
356.172	91.56
356.399	82.56
356.626	90.56
356.853	90.56
357.08	90.56
357.307	84.56
357.534	91.56
357.761	97.56
357.988	95.56
358.215	100.56
358.441	101.56
358.668	103.56
358.895	93.56
359.122	92.56
359.349	92.56
359.576	95.56
359.802	91.56
360.029	101.56
360.256	113.56
360.483	107.56
360.709	91.56
360.936	107.56
361.163	103.56
361.39	93.56
361.616	86.56
361.843	79.56
362.07	100.56
362.296	107.56
362.523	99.56
362.749	82.56
362.976	70.56
363.203	90.56
363.429	66.56
363.656	68.56
363.882	92.56
364.109	105.56
364.335	84.56
364.562	92.56
364.788	88.56
365.015	89.56
365.241	93.56
365.468	101.56
365.694	89.56
365.92	102.56
366.147	82.56
366.373	90.56
366.599	85.56
366.826	82.56
367.052	77.56
367.278	84.56
367.505	95.56
367.731	98.56
367.957	91.56
368.184	92.56
368.41	90.56
368.636	95.56
368.862	119.56
369.089	107.56
369.315	80.56
369.541	92.56
369.767	101.56
369.993	103.56
370.219	97.56
370.445	85.56
370.672	76.56
370.898	80.56
371.124	84.56
371.35	84.56
371.576	92.56
371.802	95.56
372.028	104.56
372.254	97.56
372.48	85.56
372.706	81.56
372.932	78.56
373.158	82.56
373.384	92.56
373.61	80.56
373.835	97.56
374.061	84.56
374.287	88.56
374.513	88.56
374.739	85.56
374.965	92.56
375.191	82.56
375.416	84.56
375.642	82.56
375.868	80.56
376.094	106.56
376.319	86.56
376.545	89.56
376.771	89.56
376.997	82.56
377.222	83.56
377.448	89.56
377.674	87.56
377.899	87.56
378.125	87.56
378.35	86.56
378.576	93.56
378.802	86.56
379.027	91.56
379.253	87.56
379.478	86.56
379.704	79.56
379.929	86.56
380.155	101.56
380.38	103.56
380.606	100.56
380.831	83.56
381.057	73.56
381.282	87.56
381.507	84.56
381.733	88.56
381.958	93.56
382.184	96.56
382.409	83.56
382.634	101.56
382.86	93.56
383.085	107.56
383.31	92.56
383.535	110.56
383.761	99.56
383.986	99.56
384.211	94.56
384.436	95.56
384.662	96.56
384.887	104.56
385.112	105.56
385.337	114.56
385.562	105.56
385.787	110.56
386.013	93.56
386.238	118.56
386.463	98.56
386.688	107.56
386.913	105.56
387.138	103.56
387.363	96.56
387.588	97.56
387.813	96.56
388.038	98.56
388.263	106.56
388.488	111.56
388.713	98.56
388.938	97.56
389.163	89.56
389.387	92.56
389.612	99.56
389.837	82.56
390.062	105.56
390.287	95.56
390.512	85.56
390.736	72.56
390.961	80.56
391.186	95.56
391.411	96.56
391.636	91.56
391.86	97.56
392.085	87.56
392.31	76.56
392.534	74.56
392.759	80.56
392.984	77.56
393.208	81.56
393.433	86.56
393.658	88.56
393.882	85.56
394.107	71.56
394.331	84.56
394.556	88.56
394.78	85.56
395.005	75.56
395.229	78.56
395.454	100.56
395.678	97.56
395.903	103.56
396.127	92.56
396.352	78.56
396.576	78.56
396.801	83.56
397.025	91.56
397.249	81.56
397.474	89.56
397.698	86.56
397.922	94.56
398.147	73.56
398.371	90.56
398.595	85.56
398.82	92.56
399.044	79.56
399.268	78.56
399.492	89.56
399.717	82.56
399.941	81.56
400.165	89.56
400.389	87.56
400.613	92.56
400.837	86.56
401.062	86.56
401.286	95.56
401.51	92.56
401.734	82.56
401.958	93.56
402.182	120.56
402.406	138.56
402.63	115.56
402.854	95.56
403.078	92.56
403.302	84.56
403.526	92.56
403.75	90.56
403.974	75.56
404.198	82.56
404.422	81.56
404.645	72.56
404.869	71.56
405.093	93.56
405.317	92.56
405.541	80.56
405.765	81.56
405.988	100.56
406.212	156.56
406.436	230.56
406.66	136.56
406.883	88.56
407.107	87.56
407.331	88.56
407.555	93.56
407.778	101.56
408.002	73.56
408.226	81.56
408.449	92.56
408.673	88.56
408.896	105.56
409.12	78.56
409.344	98.56
409.567	88.56
409.791	90.56
410.014	90.56
410.238	81.56
410.461	81.56
410.685	94.56
410.908	82.56
411.132	91.56
411.355	77.56
411.578	83.56
411.802	96.56
412.025	94.56
412.249	104.56
412.472	107.56
412.695	89.56
412.919	78.56
413.142	92.56
413.365	91.56
413.589	81.56
413.812	77.56
414.035	86.56
414.258	84.56
414.482	84.56
414.705	103.56
414.928	83.56
415.151	82.56
415.374	91.56
415.597	90.56
415.821	89.56
416.044	76.56
416.267	80.56
416.49	74.56
416.713	98.56
416.936	85.56
417.159	82.56
417.382	87.56
417.605	78.56
417.828	91.56
418.051	86.56
418.274	88.56
418.497	96.56
418.72	86.56
418.943	76.56
419.166	77.56
419.389	92.56
419.611	89.56
419.834	92.56
420.057	89.56
420.28	94.56
420.503	87.56
420.726	83.56
420.948	71.56
421.171	96.56
421.394	81.56
421.617	74.56
421.839	76.56
422.062	80.56
422.285	87.56
422.507	89.56
422.73	106.56
422.953	101.56
423.175	93.56
423.398	93.56
423.621	72.56
423.843	82.56
424.066	86.56
424.288	84.56
424.511	88.56
424.733	90.56
424.956	95.56
425.178	101.56
425.401	93.56
425.623	84.56
425.846	69.56
426.068	97.56
426.291	100.56
426.513	96.56
426.735	95.56
426.958	102.56
427.18	88.56
427.402	128.56
427.625	158.56
427.847	112.56
428.069	94.56
428.292	76.56
428.514	89.56
428.736	89.56
428.958	89.56
429.181	92.56
429.403	89.56
429.625	82.56
429.847	99.56
430.069	89.56
430.292	92.56
430.514	91.56
430.736	75.56
430.958	80.56
431.18	77.56
431.402	87.56
431.624	78.56
431.846	83.56
432.068	79.56
432.29	84.56
432.512	84.56
432.734	85.56
432.956	81.56
433.178	85.56
433.4	94.56
433.622	92.56
433.844	95.56
434.066	88.56
434.287	76.56
434.509	80.56
434.731	85.56
434.953	88.56
435.175	76.56
435.397	85.56
435.618	94.56
435.84	79.56
436.062	105.56
436.284	96.56
436.505	93.56
436.727	95.56
436.949	86.56
437.17	80.56
437.392	98.56
437.614	86.56
437.835	85.56
438.057	111.56
438.278	96.56
438.5	97.56
438.721	96.56
438.943	80.56
439.165	95.56
439.386	78.56
439.608	88.56
439.829	94.56
440.05	96.56
440.272	127.56
440.493	98.56
440.715	80.56
440.936	79.56
441.158	81.56
441.379	92.56
441.6	86.56
441.822	79.56
442.043	90.56
442.264	91.56
442.486	90.56
442.707	70.56
442.928	97.56
443.149	120.56
443.371	123.56
443.592	109.56
443.813	98.56
444.034	94.56
444.255	80.56
444.476	81.56
444.698	85.56
444.919	79.56
445.14	130.56
445.361	110.56
445.582	113.56
445.803	128.56
446.024	126.56
446.245	115.56
446.466	107.56
446.687	84.56
446.908	87.56
447.129	71.56
447.35	85.56
447.571	70.56
447.792	105.56
448.013	82.56
448.234	114.56
448.455	108.56
448.675	104.56
448.896	108.56
449.117	79.56
449.338	94.56
449.559	118.56
449.779	117.56
450	97.56
450.221	77.56
450.442	81.56
450.662	94.56
450.883	98.56
451.104	113.56
451.324	101.56
451.545	95.56
451.766	87.56
451.986	72.56
452.207	66.56
452.428	104.56
452.648	100.56
452.869	87.56
453.089	109.56
453.31	107.56
453.53	87.56
453.751	89.56
453.971	101.56
454.192	86.56
454.412	81.56
454.633	94.56
454.853	79.56
455.073	75.56
455.294	91.56
455.514	92.56
455.734	92.56
455.955	87.56
456.175	86.56
456.395	83.56
456.616	84.56
456.836	72.56
457.056	81.56
457.276	92.56
457.497	97.56
457.717	84.56
457.937	92.56
458.157	88.56
458.377	82.56
458.598	109.56
458.818	149.56
459.038	140.56
459.258	116.56
459.478	90.56
459.698	76.56
459.918	81.56
460.138	100.56
460.358	93.56
460.578	77.56
460.798	87.56
461.018	81.56
461.238	89.56
461.458	87.56
461.678	92.56
461.898	76.56
462.118	77.56
462.338	76.56
462.558	90.56
462.777	74.56
462.997	72.56
463.217	63.56
463.437	74.56
463.657	71.56
463.876	80.56
464.096	82.56
464.316	102.56
464.536	92.56
464.755	94.56
464.975	98.56
465.195	149.56
465.414	146.56
465.634	97.56
465.854	79.56
466.073	82.56
466.293	81.56
466.512	79.56
466.732	87.56
466.951	76.56
467.171	80.56
467.391	89.56
467.61	99.56
467.829	84.56
468.049	95.56
468.268	104.56
468.488	78.56
468.707	75.56
468.927	81.56
469.146	78.56
469.365	83.56
469.585	85.56
469.804	96.56
470.023	90.56
470.243	80.56
470.462	101.56
470.681	106.56
470.901	79.56
471.12	76.56
471.339	78.56
471.558	81.56
471.777	69.56
471.997	69.56
472.216	124.56
472.435	176.56
472.654	116.56
472.873	98.56
473.092	74.56
473.311	94.56
473.53	81.56
473.749	74.56
473.968	90.56
474.187	75.56
474.406	91.56
474.625	86.56
474.844	90.56
475.063	81.56
475.282	86.56
475.501	81.56
475.72	96.56
475.939	82.56
476.158	82.56
476.377	73.56
476.596	68.56
476.814	84.56
477.033	85.56
477.252	82.56
477.471	88.56
477.69	89.56
477.908	80.56
478.127	105.56
478.346	100.56
478.564	92.56
478.783	90.56
479.002	88.56
479.22	94.56
479.439	108.56
479.658	98.56
479.876	95.56
480.095	82.56
480.313	104.56
480.532	77.56
480.751	99.56
480.969	134.56
481.188	248.56
481.406	190.56
481.624	96.56
481.843	90.56
482.061	76.56
482.28	81.56
482.498	89.56
482.717	98.56
482.935	80.56
483.153	68.56
483.372	98.56
483.59	88.56
483.808	85.56
484.027	82.56
484.245	89.56
484.463	102.56
484.681	101.56
484.9	96.56
485.118	82.56
485.336	86.56
485.554	75.56
485.772	93.56
485.99	91.56
486.209	103.56
486.427	103.56
486.645	89.56
486.863	109.56
487.081	101.56
487.299	76.56
487.517	89.56
487.735	90.56
487.953	94.56
488.171	98.56
488.389	93.56
488.607	102.56
488.825	88.56
489.043	92.56
489.261	88.56
489.479	103.56
489.696	89.56
489.914	88.56
490.132	86.56
490.35	77.56
490.568	88.56
490.786	79.56
491.003	88.56
491.221	89.56
491.439	81.56
491.657	94.56
491.874	88.56
492.092	89.56
492.31	85.56
492.527	88.56
492.745	90.56
492.963	97.56
493.18	100.56
493.398	88.56
493.615	88.56
493.833	82.56
494.05	82.56
494.268	64.56
494.485	94.56
494.703	89.56
494.92	77.56
495.138	101.56
495.355	94.56
495.573	88.56
495.79	93.56
496.008	91.56
496.225	82.56
496.442	80.56
496.66	77.56
496.877	84.56
497.094	88.56
497.312	80.56
497.529	79.56
497.746	76.56
497.963	98.56
498.181	83.56
498.398	96.56
498.615	100.56
498.832	97.56
499.049	88.56
499.267	95.56
499.484	94.56
499.701	90.56
499.918	89.56
500.135	81.56
500.352	82.56
500.569	88.56
500.786	93.56
501.003	91.56
501.22	74.56
501.437	103.56
501.654	92.56
501.871	103.56
502.088	81.56
502.305	76.56
502.522	74.56
502.739	78.56
502.956	83.56
503.172	80.56
503.389	84.56
503.606	100.56
503.823	92.56
504.04	100.56
504.256	89.56
504.473	86.56
504.69	82.56
504.907	92.56
505.123	85.56
505.34	89.56
505.557	76.56
505.773	91.56
505.99	74.56
506.207	92.56
506.423	73.56
506.64	69.56
506.856	97.56
507.073	96.56
507.289	82.56
507.506	97.56
507.722	111.56
507.939	95.56
508.155	98.56
508.372	87.56
508.588	78.56
508.805	93.56
509.021	94.56
509.238	90.56
509.454	106.56
509.67	97.56
509.887	96.56
510.103	122.56
510.319	190.56
510.536	778.56
510.752	2543.56
510.968	694.56
511.184	148.56
511.401	111.56
511.617	94.56
511.833	87.56
512.049	85.56
512.265	79.56
512.481	90.56
512.698	91.56
512.914	81.56
513.13	92.56
513.346	79.56
513.562	90.56
513.778	84.56
513.994	84.56
514.21	93.56
514.426	112.56
514.642	129.56
514.858	115.56
515.074	153.56
515.29	422.56
515.506	1517.56
515.721	571.56
515.937	145.56
516.153	106.56
516.369	99.56
516.585	85.56
