Data from Circ_2008_H10_HRD10591_00065.txt Node
Date: Wed Jan 03 10:17:09 EST 2024
User: Yrep
Spectrometer: HR+D1059
Trigger mode: 1
Integration Time (sec): 1.000000E-1
Scans to average: 1
Electric dark correction enabled: true
Nonlinearity correction enabled: false
Boxcar width: 0
XAxis mode: Wavelengths
Number of Pixels in Spectrum: 2048
>>>>>Begin Spectral Data<<<<<
223.165	-5.75
223.4	-5.75
223.635	-5.75
223.869	-20.75
224.104	-22.75
224.338	-23.75
224.573	-16.75
224.808	-15.75
225.042	-8.75
225.277	-16.75
225.511	3.25
225.746	13.25
225.98	1.25
226.215	8.25
226.449	19.25
226.683	14.25
226.918	36.25
227.152	35.25
227.387	34.25
227.621	37.25
227.856	49.25
228.09	48.25
228.324	55.25
228.559	53.25
228.793	48.25
229.027	64.25
229.262	49.25
229.496	83.25
229.73	83.25
229.964	80.25
230.199	89.25
230.433	55.25
230.667	77.25
230.901	65.25
231.136	83.25
231.37	81.25
231.604	80.25
231.838	77.25
232.072	84.25
232.306	92.25
232.541	81.25
232.775	78.25
233.009	75.25
233.243	73.25
233.477	77.25
233.711	70.25
233.945	80.25
234.179	72.25
234.413	71.25
234.647	74.25
234.881	75.25
235.115	74.25
235.349	55.25
235.583	65.25
235.817	81.25
236.051	84.25
236.285	85.25
236.519	86.25
236.753	89.25
236.987	78.25
237.221	81.25
237.455	91.25
237.689	77.25
237.922	70.25
238.156	63.25
238.39	68.25
238.624	69.25
238.858	66.25
239.091	63.25
239.325	76.25
239.559	71.25
239.793	82.25
240.027	75.25
240.26	73.25
240.494	59.25
240.728	79.25
240.961	65.25
241.195	76.25
241.429	78.25
241.662	66.25
241.896	65.25
242.13	82.25
242.363	90.25
242.597	61.25
242.83	66.25
243.064	70.25
243.298	72.25
243.531	83.25
243.765	78.25
243.998	79.25
244.232	69.25
244.465	66.25
244.699	75.25
244.932	87.25
245.166	90.25
245.399	82.25
245.633	80.25
245.866	73.25
246.099	73.25
246.333	74.25
246.566	67.25
246.8	80.25
247.033	78.25
247.266	88.25
247.5	77.25
247.733	75.25
247.966	70.25
248.2	70.25
248.433	78.25
248.666	93.25
248.899	84.25
249.133	89.25
249.366	98.25
249.599	84.25
249.832	67.25
250.066	95.25
250.299	83.25
250.532	76.25
250.765	76.25
250.998	86.25
251.231	71.25
251.465	71.25
251.698	67.25
251.931	74.25
252.164	75.25
252.397	81.25
252.63	76.25
252.863	76.25
253.096	72.25
253.329	89.25
253.562	90.25
253.795	78.25
254.028	69.25
254.261	74.25
254.494	79.25
254.727	74.25
254.96	74.25
255.193	80.25
255.426	80.25
255.659	79.25
255.892	83.25
256.124	91.25
256.357	74.25
256.59	74.25
256.823	78.25
257.056	89.25
257.289	80.25
257.521	93.25
257.754	81.25
257.987	84.25
258.22	81.25
258.452	77.25
258.685	78.25
258.918	87.25
259.151	81.25
259.383	92.25
259.616	88.25
259.849	81.25
260.081	98.25
260.314	86.25
260.547	69.25
260.779	82.25
261.012	81.25
261.244	72.25
261.477	96.25
261.71	89.25
261.942	112.25
262.175	107.25
262.407	92.25
262.64	83.25
262.872	86.25
263.105	78.25
263.337	88.25
263.57	81.25
263.802	85.25
264.035	74.25
264.267	79.25
264.499	81.25
264.732	90.25
264.964	89.25
265.197	91.25
265.429	78.25
265.661	75.25
265.894	74.25
266.126	83.25
266.358	98.25
266.591	82.25
266.823	78.25
267.055	91.25
267.287	88.25
267.52	92.25
267.752	77.25
267.984	83.25
268.216	85.25
268.448	87.25
268.681	70.25
268.913	75.25
269.145	88.25
269.377	90.25
269.609	73.25
269.841	83.25
270.073	77.25
270.306	79.25
270.538	91.25
270.77	72.25
271.002	84.25
271.234	83.25
271.466	88.25
271.698	70.25
271.93	86.25
272.162	97.25
272.394	81.25
272.626	72.25
272.858	92.25
273.09	93.25
273.322	90.25
273.553	83.25
273.785	79.25
274.017	70.25
274.249	80.25
274.481	86.25
274.713	80.25
274.945	73.25
275.176	89.25
275.408	85.25
275.64	77.25
275.872	82.25
276.104	89.25
276.335	97.25
276.567	109.25
276.799	101.25
277.031	98.25
277.262	82.25
277.494	91.25
277.726	88.25
277.957	75.25
278.189	84.25
278.421	85.25
278.652	78.25
278.884	73.25
279.115	85.25
279.347	95.25
279.579	86.25
279.81	98.25
280.042	91.25
280.273	75.25
280.505	96.25
280.736	84.25
280.968	82.25
281.199	79.25
281.431	91.25
281.662	78.25
281.894	79.25
282.125	95.25
282.356	118.25
282.588	139.25
282.819	113.25
283.051	85.25
283.282	108.25
283.513	82.25
283.745	79.25
283.976	72.25
284.207	89.25
284.439	90.25
284.67	79.25
284.901	89.25
285.132	91.25
285.364	88.25
285.595	87.25
285.826	81.25
286.057	95.25
286.288	82.25
286.52	91.25
286.751	94.25
286.982	86.25
287.213	97.25
287.444	88.25
287.675	83.25
287.906	82.25
288.138	88.25
288.369	85.25
288.6	87.25
288.831	88.25
289.062	82.25
289.293	88.25
289.524	80.25
289.755	80.25
289.986	97.25
290.217	89.25
290.448	84.25
290.679	97.25
290.91	87.25
291.141	87.25
291.371	78.25
291.602	70.25
291.833	80.25
292.064	86.25
292.295	92.25
292.526	85.25
292.757	91.25
292.987	94.25
293.218	93.25
293.449	81.25
293.68	90.25
293.91	85.25
294.141	103.25
294.372	87.25
294.603	69.25
294.833	87.25
295.064	76.25
295.295	91.25
295.525	88.25
295.756	98.25
295.987	120.25
296.217	154.25
296.448	131.25
296.679	99.25
296.909	77.25
297.14	85.25
297.37	81.25
297.601	81.25
297.831	82.25
298.062	82.25
298.292	84.25
298.523	102.25
298.753	96.25
298.984	93.25
299.214	90.25
299.445	91.25
299.675	90.25
299.905	88.25
300.136	82.25
300.366	82.25
300.597	88.25
300.827	83.25
301.057	98.25
301.288	109.25
301.518	104.25
301.748	89.25
301.979	101.25
302.209	85.25
302.439	96.25
302.669	89.25
302.9	95.25
303.13	91.25
303.36	102.25
303.59	105.25
303.82	102.25
304.051	95.25
304.281	82.25
304.511	83.25
304.741	95.25
304.971	87.25
305.201	82.25
305.431	87.25
305.661	85.25
305.891	85.25
306.121	100.25
306.352	97.25
306.582	102.25
306.812	101.25
307.042	88.25
307.272	87.25
307.502	95.25
307.731	95.25
307.961	74.25
308.191	88.25
308.421	90.25
308.651	101.25
308.881	87.25
309.111	75.25
309.341	89.25
309.571	105.25
309.8	90.25
310.03	91.25
310.26	81.25
310.49	97.25
310.72	100.25
310.949	102.25
311.179	101.25
311.409	100.25
311.639	86.25
311.868	74.25
312.098	91.25
312.328	96.25
312.557	92.25
312.787	114.25
313.017	112.25
313.246	102.25
313.476	85.25
313.706	100.25
313.935	94.25
314.165	102.25
314.394	103.25
314.624	92.25
314.853	89.25
315.083	77.25
315.312	99.25
315.542	89.25
315.771	71.25
316.001	87.25
316.23	86.25
316.46	85.25
316.689	83.25
316.919	94.25
317.148	88.25
317.377	90.25
317.607	78.25
317.836	66.25
318.065	79.25
318.295	90.25
318.524	86.25
318.753	76.25
318.983	102.25
319.212	97.25
319.441	116.25
319.67	112.25
319.9	91.25
320.129	82.25
320.358	90.25
320.587	88.25
320.816	103.25
321.046	96.25
321.275	95.25
321.504	90.25
321.733	90.25
321.962	92.25
322.191	83.25
322.42	102.25
322.649	115.25
322.878	103.25
323.108	101.25
323.337	109.25
323.566	136.25
323.795	159.25
324.024	204.25
324.253	375.25
324.482	746.25
324.71	1525.25
324.939	2015.25
325.168	769.25
325.397	219.25
325.626	151.25
325.855	137.25
326.084	109.25
326.313	121.25
326.542	149.25
326.77	213.25
326.999	400.25
327.228	829.25
327.457	1486.25
327.686	1202.25
327.914	339.25
328.143	200.25
328.372	167.25
328.6	121.25
328.829	124.25
329.058	130.25
329.287	137.25
329.515	110.25
329.744	112.25
329.972	133.25
330.201	146.25
330.43	173.25
330.658	150.25
330.887	158.25
331.115	131.25
331.344	87.25
331.572	90.25
331.801	92.25
332.03	100.25
332.258	98.25
332.486	106.25
332.715	86.25
332.943	89.25
333.172	102.25
333.4	99.25
333.629	110.25
333.857	120.25
334.085	119.25
334.314	153.25
334.542	201.25
334.771	189.25
334.999	115.25
335.227	109.25
335.455	98.25
335.684	90.25
335.912	105.25
336.14	90.25
336.369	97.25
336.597	94.25
336.825	89.25
337.053	80.25
337.281	95.25
337.51	85.25
337.738	94.25
337.966	83.25
338.194	96.25
338.422	108.25
338.65	95.25
338.878	90.25
339.106	84.25
339.334	95.25
339.562	96.25
339.79	96.25
340.018	91.25
340.246	88.25
340.474	96.25
340.702	104.25
340.93	73.25
341.158	89.25
341.386	84.25
341.614	91.25
341.842	103.25
342.07	93.25
342.298	91.25
342.526	99.25
342.754	101.25
342.981	78.25
343.209	87.25
343.437	107.25
343.665	76.25
343.893	75.25
344.12	96.25
344.348	91.25
344.576	81.25
344.804	92.25
345.031	93.25
345.259	95.25
345.487	86.25
345.714	100.25
345.942	79.25
346.17	92.25
346.397	93.25
346.625	86.25
346.853	89.25
347.08	79.25
347.308	90.25
347.535	96.25
347.763	101.25
347.99	99.25
348.218	110.25
348.445	97.25
348.673	115.25
348.9	94.25
349.128	94.25
349.355	85.25
349.583	83.25
349.81	96.25
350.037	90.25
350.265	85.25
350.492	82.25
350.72	91.25
350.947	109.25
351.174	108.25
351.402	110.25
351.629	100.25
351.856	107.25
352.083	104.25
352.311	95.25
352.538	113.25
352.765	110.25
352.992	107.25
353.22	102.25
353.447	108.25
353.674	88.25
353.901	79.25
354.128	82.25
354.355	99.25
354.583	81.25
354.81	89.25
355.037	89.25
355.264	80.25
355.491	94.25
355.718	87.25
355.945	103.25
356.172	99.25
356.399	100.25
356.626	81.25
356.853	94.25
357.08	93.25
357.307	75.25
357.534	89.25
357.761	91.25
357.988	83.25
358.215	90.25
358.441	94.25
358.668	89.25
358.895	92.25
359.122	75.25
359.349	82.25
359.576	95.25
359.802	98.25
360.029	117.25
360.256	111.25
360.483	101.25
360.709	86.25
360.936	81.25
361.163	80.25
361.39	94.25
361.616	90.25
361.843	82.25
362.07	87.25
362.296	97.25
362.523	90.25
362.749	87.25
362.976	80.25
363.203	93.25
363.429	78.25
363.656	89.25
363.882	91.25
364.109	89.25
364.335	86.25
364.562	93.25
364.788	80.25
365.015	89.25
365.241	94.25
365.468	116.25
365.694	97.25
365.92	102.25
366.147	88.25
366.373	90.25
366.599	89.25
366.826	73.25
367.052	89.25
367.278	85.25
367.505	85.25
367.731	98.25
367.957	102.25
368.184	90.25
368.41	89.25
368.636	109.25
368.862	110.25
369.089	95.25
369.315	97.25
369.541	89.25
369.767	84.25
369.993	89.25
370.219	97.25
370.445	87.25
370.672	93.25
370.898	95.25
371.124	73.25
371.35	86.25
371.576	90.25
371.802	83.25
372.028	82.25
372.254	80.25
372.48	81.25
372.706	69.25
372.932	86.25
373.158	83.25
373.384	77.25
373.61	82.25
373.835	81.25
374.061	94.25
374.287	89.25
374.513	76.25
374.739	87.25
374.965	80.25
375.191	79.25
375.416	94.25
375.642	96.25
375.868	77.25
376.094	90.25
376.319	95.25
376.545	67.25
376.771	79.25
376.997	84.25
377.222	70.25
377.448	82.25
377.674	82.25
377.899	92.25
378.125	90.25
378.35	94.25
378.576	85.25
378.802	89.25
379.027	83.25
379.253	84.25
379.478	89.25
379.704	96.25
379.929	95.25
380.155	93.25
380.38	90.25
380.606	86.25
380.831	99.25
381.057	109.25
381.282	95.25
381.507	112.25
381.733	114.25
381.958	89.25
382.184	83.25
382.409	93.25
382.634	99.25
382.86	98.25
383.085	104.25
383.31	113.25
383.535	97.25
383.761	98.25
383.986	77.25
384.211	98.25
384.436	97.25
384.662	91.25
384.887	90.25
385.112	107.25
385.337	99.25
385.562	108.25
385.787	106.25
386.013	114.25
386.238	110.25
386.463	92.25
386.688	92.25
386.913	99.25
387.138	112.25
387.363	80.25
387.588	95.25
387.813	94.25
388.038	104.25
388.263	110.25
388.488	108.25
388.713	87.25
388.938	94.25
389.163	88.25
389.387	98.25
389.612	95.25
389.837	91.25
390.062	89.25
390.287	95.25
390.512	88.25
390.736	76.25
390.961	94.25
391.186	94.25
391.411	89.25
391.636	87.25
391.86	87.25
392.085	82.25
392.31	89.25
392.534	75.25
392.759	90.25
392.984	82.25
393.208	86.25
393.433	85.25
393.658	88.25
393.882	84.25
394.107	77.25
394.331	77.25
394.556	82.25
394.78	82.25
395.005	81.25
395.229	87.25
395.454	84.25
395.678	92.25
395.903	86.25
396.127	87.25
396.352	72.25
396.576	77.25
396.801	95.25
397.025	83.25
397.249	79.25
397.474	84.25
397.698	82.25
397.922	76.25
398.147	75.25
398.371	91.25
398.595	79.25
398.82	83.25
399.044	86.25
399.268	91.25
399.492	88.25
399.717	82.25
399.941	87.25
400.165	86.25
400.389	77.25
400.613	67.25
400.837	90.25
401.062	75.25
401.286	102.25
401.51	86.25
401.734	89.25
401.958	99.25
402.182	130.25
402.406	178.25
402.63	119.25
402.854	99.25
403.078	91.25
403.302	87.25
403.526	86.25
403.75	88.25
403.974	83.25
404.198	76.25
404.422	81.25
404.645	87.25
404.869	79.25
405.093	94.25
405.317	90.25
405.541	97.25
405.765	100.25
405.988	118.25
406.212	178.25
406.436	252.25
406.66	153.25
406.883	91.25
407.107	82.25
407.331	97.25
407.555	84.25
407.778	89.25
408.002	77.25
408.226	80.25
408.449	81.25
408.673	86.25
408.896	92.25
409.12	89.25
409.344	80.25
409.567	82.25
409.791	86.25
410.014	87.25
410.238	96.25
410.461	85.25
410.685	79.25
410.908	82.25
411.132	91.25
411.355	95.25
411.578	85.25
411.802	83.25
412.025	99.25
412.249	106.25
412.472	88.25
412.695	109.25
412.919	73.25
413.142	85.25
413.365	75.25
413.589	83.25
413.812	86.25
414.035	88.25
414.258	99.25
414.482	108.25
414.705	93.25
414.928	96.25
415.151	85.25
415.374	92.25
415.597	88.25
415.821	87.25
416.044	73.25
416.267	98.25
416.49	71.25
416.713	76.25
416.936	84.25
417.159	85.25
417.382	91.25
417.605	89.25
417.828	96.25
418.051	93.25
418.274	90.25
418.497	95.25
418.72	100.25
418.943	96.25
419.166	75.25
419.389	82.25
419.611	93.25
419.834	89.25
420.057	90.25
420.28	97.25
420.503	75.25
420.726	94.25
420.948	103.25
421.171	93.25
421.394	95.25
421.617	90.25
421.839	89.25
422.062	82.25
422.285	99.25
422.507	101.25
422.73	92.25
422.953	80.25
423.175	76.25
423.398	88.25
423.621	86.25
423.843	95.25
424.066	85.25
424.288	82.25
424.511	71.25
424.733	89.25
424.956	115.25
425.178	97.25
425.401	95.25
425.623	91.25
425.846	81.25
426.068	85.25
426.291	80.25
426.513	77.25
426.735	97.25
426.958	97.25
427.18	99.25
427.402	135.25
427.625	191.25
427.847	146.25
428.069	108.25
428.292	92.25
428.514	71.25
428.736	80.25
428.958	93.25
429.181	95.25
429.403	78.25
429.625	93.25
429.847	88.25
430.069	97.25
430.292	82.25
430.514	81.25
430.736	76.25
430.958	75.25
431.18	91.25
431.402	80.25
431.624	75.25
431.846	92.25
432.068	79.25
432.29	84.25
432.512	76.25
432.734	86.25
432.956	74.25
433.178	88.25
433.4	98.25
433.622	94.25
433.844	95.25
434.066	88.25
434.287	79.25
434.509	85.25
434.731	87.25
434.953	92.25
435.175	93.25
435.397	78.25
435.618	93.25
435.84	87.25
436.062	113.25
436.284	101.25
436.505	96.25
436.727	90.25
436.949	98.25
437.17	85.25
437.392	89.25
437.614	86.25
437.835	115.25
438.057	109.25
438.278	100.25
438.5	83.25
438.721	136.25
438.943	95.25
439.165	95.25
439.386	81.25
439.608	89.25
439.829	99.25
440.05	116.25
440.272	132.25
440.493	93.25
440.715	77.25
440.936	78.25
441.158	89.25
441.379	93.25
441.6	88.25
441.822	87.25
442.043	87.25
442.264	77.25
442.486	101.25
442.707	94.25
442.928	111.25
443.149	140.25
443.371	133.25
443.592	102.25
443.813	103.25
444.034	99.25
444.255	84.25
444.476	84.25
444.698	91.25
444.919	97.25
445.14	122.25
445.361	113.25
445.582	120.25
445.803	127.25
446.024	125.25
446.245	125.25
446.466	99.25
446.687	103.25
446.908	92.25
447.129	82.25
447.35	97.25
447.571	90.25
447.792	87.25
448.013	102.25
448.234	101.25
448.455	88.25
448.675	105.25
448.896	124.25
449.117	104.25
449.338	118.25
449.559	129.25
449.779	116.25
450	86.25
450.221	75.25
450.442	86.25
450.662	94.25
450.883	120.25
451.104	120.25
451.324	89.25
451.545	89.25
451.766	101.25
451.986	86.25
452.207	93.25
452.428	96.25
452.648	99.25
452.869	97.25
453.089	107.25
453.31	118.25
453.53	88.25
453.751	86.25
453.971	105.25
454.192	97.25
454.412	79.25
454.633	81.25
454.853	86.25
455.073	92.25
455.294	91.25
455.514	108.25
455.734	97.25
455.955	89.25
456.175	101.25
456.395	98.25
456.616	80.25
456.836	95.25
457.056	88.25
457.276	79.25
457.497	70.25
457.717	65.25
457.937	89.25
458.157	79.25
458.377	87.25
458.598	107.25
458.818	160.25
459.038	161.25
459.258	122.25
459.478	90.25
459.698	64.25
459.918	106.25
460.138	91.25
460.358	84.25
460.578	78.25
460.798	87.25
461.018	90.25
461.238	77.25
461.458	71.25
461.678	82.25
461.898	88.25
462.118	95.25
462.338	92.25
462.558	76.25
462.777	70.25
462.997	93.25
463.217	93.25
463.437	88.25
463.657	86.25
463.876	91.25
464.096	79.25
464.316	92.25
464.536	106.25
464.755	105.25
464.975	132.25
465.195	172.25
465.414	145.25
465.634	108.25
465.854	82.25
466.073	74.25
466.293	92.25
466.512	77.25
466.732	96.25
466.951	97.25
467.171	90.25
467.391	83.25
467.61	117.25
467.829	98.25
468.049	119.25
468.268	129.25
468.488	94.25
468.707	78.25
468.927	70.25
469.146	72.25
469.365	93.25
469.585	91.25
469.804	98.25
470.023	92.25
470.243	100.25
470.462	104.25
470.681	113.25
470.901	90.25
471.12	81.25
471.339	86.25
471.558	97.25
471.777	85.25
471.997	97.25
472.216	181.25
472.435	254.25
472.654	113.25
472.873	83.25
473.092	90.25
473.311	99.25
473.53	72.25
473.749	87.25
473.968	106.25
474.187	102.25
474.406	94.25
474.625	83.25
474.844	106.25
475.063	81.25
475.282	84.25
475.501	92.25
475.72	105.25
475.939	86.25
476.158	92.25
476.377	86.25
476.596	91.25
476.814	102.25
477.033	94.25
477.252	81.25
477.471	95.25
477.69	72.25
477.908	95.25
478.127	77.25
478.346	70.25
478.564	87.25
478.783	83.25
479.002	91.25
479.22	85.25
479.439	114.25
479.658	117.25
479.876	83.25
480.095	92.25
480.313	99.25
480.532	86.25
480.751	96.25
480.969	159.25
481.188	412.25
481.406	276.25
481.624	124.25
481.843	86.25
482.061	81.25
482.28	86.25
482.498	87.25
482.717	106.25
482.935	77.25
483.153	85.25
483.372	89.25
483.59	94.25
483.808	94.25
484.027	74.25
484.245	82.25
484.463	76.25
484.681	84.25
484.9	88.25
485.118	90.25
485.336	93.25
485.554	104.25
485.772	101.25
485.99	113.25
486.209	117.25
486.427	99.25
486.645	106.25
486.863	102.25
487.081	97.25
487.299	82.25
487.517	81.25
487.735	90.25
487.953	84.25
488.171	84.25
488.389	94.25
488.607	112.25
488.825	95.25
489.043	79.25
489.261	96.25
489.479	74.25
489.696	94.25
489.914	87.25
490.132	90.25
490.35	87.25
490.568	91.25
490.786	94.25
491.003	86.25
491.221	88.25
491.439	86.25
491.657	84.25
491.874	97.25
492.092	93.25
492.31	94.25
492.527	95.25
492.745	86.25
492.963	89.25
493.18	91.25
493.398	97.25
493.615	83.25
493.833	92.25
494.05	92.25
494.268	93.25
494.485	87.25
494.703	82.25
494.92	87.25
495.138	80.25
495.355	95.25
495.573	88.25
495.79	80.25
496.008	82.25
496.225	89.25
496.442	82.25
496.66	94.25
496.877	89.25
497.094	81.25
497.312	93.25
497.529	86.25
497.746	96.25
497.963	94.25
498.181	83.25
498.398	109.25
498.615	107.25
498.832	91.25
499.049	90.25
499.267	94.25
499.484	80.25
499.701	89.25
499.918	88.25
500.135	74.25
500.352	83.25
500.569	79.25
500.786	91.25
501.003	72.25
501.22	92.25
501.437	87.25
501.654	97.25
501.871	104.25
502.088	103.25
502.305	90.25
502.522	81.25
502.739	82.25
502.956	83.25
503.172	91.25
503.389	95.25
503.606	99.25
503.823	101.25
504.04	91.25
504.256	86.25
504.473	94.25
504.69	82.25
504.907	93.25
505.123	86.25
505.34	91.25
505.557	91.25
505.773	105.25
505.99	97.25
506.207	90.25
506.423	97.25
506.64	83.25
506.856	81.25
507.073	77.25
507.289	85.25
507.506	98.25
507.722	96.25
507.939	108.25
508.155	77.25
508.372	82.25
508.588	71.25
508.805	80.25
509.021	91.25
509.238	86.25
509.454	95.25
509.67	103.25
509.887	118.25
510.103	125.25
510.319	230.25
510.536	880.25
510.752	2916.25
510.968	809.25
511.184	183.25
511.401	134.25
511.617	103.25
511.833	105.25
512.049	94.25
512.265	88.25
512.481	78.25
512.698	83.25
512.914	81.25
513.13	96.25
513.346	88.25
513.562	82.25
513.778	109.25
513.994	86.25
514.21	102.25
514.426	121.25
514.642	146.25
514.858	121.25
515.074	191.25
515.29	520.25
515.506	1819.25
515.721	683.25
515.937	183.25
516.153	135.25
516.369	103.25
