Data from StdD_HRD10591_059.txt Node
Date: Fri May 16 15:31:50 EDT 2025
User: Yrep
Spectrometer: HR+D1059
Trigger mode: 1
Integration Time (sec): 1.000000E-1
Scans to average: 1
Electric dark correction enabled: true
Nonlinearity correction enabled: false
Boxcar width: 0
XAxis mode: Wavelengths
Number of Pixels in Spectrum: 2048
>>>>>Begin Spectral Data<<<<<
223.165	-4.12
223.4	-4.12
223.635	-4.12
223.869	-23.12
224.104	-32.12
224.338	-17.12
224.573	-20.12
224.808	-15.12
225.042	-1.12
225.277	-2.12
225.511	6.88
225.746	11.88
225.98	8.88
226.215	11.88
226.449	6.88
226.683	12.88
226.918	30.88
227.152	24.88
227.387	28.88
227.621	44.88
227.856	47.88
228.09	47.88
228.324	50.88
228.559	69.88
228.793	62.88
229.027	64.88
229.262	57.88
229.496	60.88
229.73	73.88
229.964	64.88
230.199	76.88
230.433	74.88
230.667	80.88
230.901	72.88
231.136	78.88
231.37	77.88
231.604	63.88
231.838	90.88
232.072	93.88
232.306	92.88
232.541	69.88
232.775	76.88
233.009	87.88
233.243	71.88
233.477	92.88
233.711	80.88
233.945	72.88
234.179	78.88
234.413	64.88
234.647	78.88
234.881	88.88
235.115	81.88
235.349	82.88
235.583	67.88
235.817	69.88
236.051	77.88
236.285	70.88
236.519	64.88
236.753	80.88
236.987	68.88
237.221	78.88
237.455	66.88
237.689	71.88
237.922	88.88
238.156	73.88
238.39	89.88
238.624	57.88
238.858	69.88
239.091	88.88
239.325	94.88
239.559	70.88
239.793	76.88
240.027	71.88
240.26	61.88
240.494	76.88
240.728	69.88
240.961	94.88
241.195	76.88
241.429	76.88
241.662	74.88
241.896	78.88
242.13	79.88
242.363	82.88
242.597	75.88
242.83	74.88
243.064	65.88
243.298	73.88
243.531	82.88
243.765	84.88
243.998	75.88
244.232	90.88
244.465	65.88
244.699	68.88
244.932	66.88
245.166	70.88
245.399	77.88
245.633	81.88
245.866	70.88
246.099	81.88
246.333	84.88
246.566	68.88
246.8	82.88
247.033	76.88
247.266	56.88
247.5	74.88
247.733	64.88
247.966	77.88
248.2	84.88
248.433	64.88
248.666	80.88
248.899	86.88
249.133	76.88
249.366	75.88
249.599	70.88
249.832	72.88
250.066	73.88
250.299	80.88
250.532	68.88
250.765	70.88
250.998	68.88
251.231	65.88
251.465	76.88
251.698	84.88
251.931	67.88
252.164	80.88
252.397	86.88
252.63	77.88
252.863	66.88
253.096	64.88
253.329	75.88
253.562	84.88
253.795	83.88
254.028	85.88
254.261	61.88
254.494	82.88
254.727	73.88
254.96	61.88
255.193	91.88
255.426	69.88
255.659	76.88
255.892	72.88
256.124	75.88
256.357	82.88
256.59	82.88
256.823	71.88
257.056	85.88
257.289	63.88
257.521	65.88
257.754	78.88
257.987	80.88
258.22	69.88
258.452	72.88
258.685	61.88
258.918	82.88
259.151	80.88
259.383	82.88
259.616	80.88
259.849	81.88
260.081	83.88
260.314	88.88
260.547	85.88
260.779	84.88
261.012	66.88
261.244	80.88
261.477	84.88
261.71	70.88
261.942	70.88
262.175	79.88
262.407	68.88
262.64	80.88
262.872	93.88
263.105	79.88
263.337	86.88
263.57	66.88
263.802	60.88
264.035	82.88
264.267	67.88
264.499	82.88
264.732	76.88
264.964	89.88
265.197	73.88
265.429	72.88
265.661	76.88
265.894	92.88
266.126	80.88
266.358	83.88
266.591	92.88
266.823	87.88
267.055	68.88
267.287	101.88
267.52	80.88
267.752	82.88
267.984	72.88
268.216	77.88
268.448	96.88
268.681	80.88
268.913	81.88
269.145	102.88
269.377	89.88
269.609	72.88
269.841	91.88
270.073	70.88
270.306	72.88
270.538	74.88
270.77	70.88
271.002	89.88
271.234	77.88
271.466	81.88
271.698	60.88
271.93	78.88
272.162	86.88
272.394	75.88
272.626	76.88
272.858	81.88
273.09	92.88
273.322	79.88
273.553	85.88
273.785	78.88
274.017	77.88
274.249	93.88
274.481	75.88
274.713	80.88
274.945	86.88
275.176	93.88
275.408	79.88
275.64	74.88
275.872	71.88
276.104	64.88
276.335	69.88
276.567	80.88
276.799	70.88
277.031	76.88
277.262	77.88
277.494	80.88
277.726	86.88
277.957	86.88
278.189	81.88
278.421	72.88
278.652	82.88
278.884	87.88
279.115	90.88
279.347	87.88
279.579	84.88
279.81	78.88
280.042	90.88
280.273	91.88
280.505	88.88
280.736	76.88
280.968	90.88
281.199	70.88
281.431	81.88
281.662	86.88
281.894	85.88
282.125	71.88
282.356	78.88
282.588	72.88
282.819	94.88
283.051	100.88
283.282	76.88
283.513	86.88
283.745	85.88
283.976	90.88
284.207	78.88
284.439	71.88
284.67	76.88
284.901	85.88
285.132	86.88
285.364	87.88
285.595	80.88
285.826	88.88
286.057	90.88
286.288	96.88
286.52	78.88
286.751	78.88
286.982	92.88
287.213	93.88
287.444	89.88
287.675	78.88
287.906	96.88
288.138	91.88
288.369	78.88
288.6	92.88
288.831	78.88
289.062	69.88
289.293	82.88
289.524	80.88
289.755	82.88
289.986	86.88
290.217	85.88
290.448	76.88
290.679	68.88
290.91	87.88
291.141	82.88
291.371	92.88
291.602	89.88
291.833	78.88
292.064	75.88
292.295	78.88
292.526	89.88
292.757	80.88
292.987	88.88
293.218	92.88
293.449	76.88
293.68	77.88
293.91	95.88
294.141	87.88
294.372	74.88
294.603	61.88
294.833	69.88
295.064	74.88
295.295	74.88
295.525	82.88
295.756	85.88
295.987	83.88
296.217	77.88
296.448	92.88
296.679	85.88
296.909	80.88
297.14	86.88
297.37	92.88
297.601	81.88
297.831	84.88
298.062	82.88
298.292	75.88
298.523	81.88
298.753	72.88
298.984	88.88
299.214	86.88
299.445	81.88
299.675	84.88
299.905	73.88
300.136	84.88
300.366	80.88
300.597	77.88
300.827	82.88
301.057	69.88
301.288	77.88
301.518	81.88
301.748	85.88
301.979	82.88
302.209	84.88
302.439	95.88
302.669	102.88
302.9	67.88
303.13	87.88
303.36	90.88
303.59	87.88
303.82	84.88
304.051	100.88
304.281	73.88
304.511	94.88
304.741	82.88
304.971	76.88
305.201	89.88
305.431	81.88
305.661	72.88
305.891	73.88
306.121	74.88
306.352	76.88
306.582	83.88
306.812	82.88
307.042	77.88
307.272	79.88
307.502	90.88
307.731	82.88
307.961	64.88
308.191	98.88
308.421	90.88
308.651	75.88
308.881	80.88
309.111	79.88
309.341	77.88
309.571	80.88
309.8	89.88
310.03	91.88
310.26	78.88
310.49	76.88
310.72	88.88
310.949	93.88
311.179	70.88
311.409	80.88
311.639	77.88
311.868	73.88
312.098	86.88
312.328	84.88
312.557	95.88
312.787	73.88
313.017	84.88
313.246	77.88
313.476	86.88
313.706	86.88
313.935	71.88
314.165	85.88
314.394	95.88
314.624	78.88
314.853	92.88
315.083	90.88
315.312	84.88
315.542	87.88
315.771	73.88
316.001	79.88
316.23	80.88
316.46	78.88
316.689	82.88
316.919	81.88
317.148	97.88
317.377	85.88
317.607	94.88
317.836	92.88
318.065	65.88
318.295	88.88
318.524	79.88
318.753	72.88
318.983	83.88
319.212	78.88
319.441	80.88
319.67	87.88
319.9	81.88
320.129	84.88
320.358	70.88
320.587	87.88
320.816	79.88
321.046	80.88
321.275	75.88
321.504	71.88
321.733	80.88
321.962	77.88
322.191	84.88
322.42	72.88
322.649	69.88
322.878	83.88
323.108	84.88
323.337	85.88
323.566	74.88
323.795	73.88
324.024	83.88
324.253	87.88
324.482	81.88
324.71	97.88
324.939	88.88
325.168	86.88
325.397	79.88
325.626	80.88
325.855	81.88
326.084	84.88
326.313	88.88
326.542	89.88
326.77	80.88
326.999	88.88
327.228	79.88
327.457	91.88
327.686	77.88
327.914	79.88
328.143	94.88
328.372	84.88
328.6	76.88
328.829	87.88
329.058	89.88
329.287	88.88
329.515	90.88
329.744	80.88
329.972	87.88
330.201	90.88
330.43	86.88
330.658	88.88
330.887	84.88
331.115	84.88
331.344	83.88
331.572	87.88
331.801	72.88
332.03	76.88
332.258	76.88
332.486	90.88
332.715	94.88
332.943	82.88
333.172	80.88
333.4	79.88
333.629	86.88
333.857	80.88
334.085	84.88
334.314	71.88
334.542	84.88
334.771	70.88
334.999	89.88
335.227	75.88
335.455	90.88
335.684	78.88
335.912	90.88
336.14	93.88
336.369	76.88
336.597	80.88
336.825	88.88
337.053	82.88
337.281	77.88
337.51	85.88
337.738	74.88
337.966	78.88
338.194	78.88
338.422	85.88
338.65	80.88
338.878	70.88
339.106	78.88
339.334	85.88
339.562	87.88
339.79	96.88
340.018	81.88
340.246	76.88
340.474	87.88
340.702	78.88
340.93	83.88
341.158	84.88
341.386	89.88
341.614	95.88
341.842	85.88
342.07	66.88
342.298	88.88
342.526	80.88
342.754	79.88
342.981	81.88
343.209	73.88
343.437	92.88
343.665	103.88
343.893	91.88
344.12	89.88
344.348	82.88
344.576	93.88
344.804	88.88
345.031	71.88
345.259	88.88
345.487	75.88
345.714	73.88
345.942	87.88
346.17	88.88
346.397	81.88
346.625	80.88
346.853	87.88
347.08	91.88
347.308	78.88
347.535	87.88
347.763	72.88
347.99	78.88
348.218	90.88
348.445	85.88
348.673	86.88
348.9	85.88
349.128	93.88
349.355	88.88
349.583	78.88
349.81	64.88
350.037	72.88
350.265	93.88
350.492	81.88
350.72	81.88
350.947	72.88
351.174	68.88
351.402	70.88
351.629	81.88
351.856	72.88
352.083	70.88
352.311	87.88
352.538	76.88
352.765	89.88
352.992	87.88
353.22	73.88
353.447	73.88
353.674	82.88
353.901	84.88
354.128	83.88
354.355	76.88
354.583	92.88
354.81	98.88
355.037	77.88
355.264	82.88
355.491	83.88
355.718	88.88
355.945	70.88
356.172	91.88
356.399	79.88
356.626	78.88
356.853	86.88
357.08	96.88
357.307	77.88
357.534	76.88
357.761	93.88
357.988	74.88
358.215	79.88
358.441	87.88
358.668	75.88
358.895	81.88
359.122	91.88
359.349	81.88
359.576	70.88
359.802	80.88
360.029	78.88
360.256	72.88
360.483	73.88
360.709	86.88
360.936	95.88
361.163	100.88
361.39	75.88
361.616	68.88
361.843	82.88
362.07	75.88
362.296	76.88
362.523	80.88
362.749	80.88
362.976	78.88
363.203	81.88
363.429	72.88
363.656	88.88
363.882	65.88
364.109	79.88
364.335	92.88
364.562	84.88
364.788	78.88
365.015	80.88
365.241	81.88
365.468	93.88
365.694	88.88
365.92	86.88
366.147	80.88
366.373	84.88
366.599	90.88
366.826	81.88
367.052	91.88
367.278	85.88
367.505	96.88
367.731	88.88
367.957	81.88
368.184	84.88
368.41	70.88
368.636	82.88
368.862	75.88
369.089	92.88
369.315	94.88
369.541	79.88
369.767	80.88
369.993	75.88
370.219	78.88
370.445	70.88
370.672	78.88
370.898	85.88
371.124	68.88
371.35	93.88
371.576	86.88
371.802	80.88
372.028	95.88
372.254	78.88
372.48	78.88
372.706	74.88
372.932	90.88
373.158	83.88
373.384	84.88
373.61	78.88
373.835	77.88
374.061	81.88
374.287	76.88
374.513	93.88
374.739	74.88
374.965	80.88
375.191	80.88
375.416	85.88
375.642	88.88
375.868	79.88
376.094	77.88
376.319	79.88
376.545	74.88
376.771	82.88
376.997	82.88
377.222	84.88
377.448	99.88
377.674	94.88
377.899	72.88
378.125	70.88
378.35	86.88
378.576	81.88
378.802	91.88
379.027	73.88
379.253	69.88
379.478	82.88
379.704	88.88
379.929	77.88
380.155	65.88
380.38	87.88
380.606	81.88
380.831	86.88
381.057	73.88
381.282	59.88
381.507	79.88
381.733	87.88
381.958	81.88
382.184	76.88
382.409	94.88
382.634	87.88
382.86	89.88
383.085	66.88
383.31	82.88
383.535	76.88
383.761	82.88
383.986	62.88
384.211	85.88
384.436	79.88
384.662	82.88
384.887	81.88
385.112	90.88
385.337	80.88
385.562	84.88
385.787	76.88
386.013	82.88
386.238	81.88
386.463	75.88
386.688	82.88
386.913	79.88
387.138	74.88
387.363	74.88
387.588	73.88
387.813	83.88
388.038	79.88
388.263	91.88
388.488	85.88
388.713	85.88
388.938	72.88
389.163	86.88
389.387	80.88
389.612	90.88
389.837	84.88
390.062	70.88
390.287	71.88
390.512	74.88
390.736	70.88
390.961	85.88
391.186	92.88
391.411	87.88
391.636	79.88
391.86	78.88
392.085	71.88
392.31	86.88
392.534	81.88
392.759	81.88
392.984	89.88
393.208	92.88
393.433	84.88
393.658	71.88
393.882	70.88
394.107	88.88
394.331	69.88
394.556	80.88
394.78	84.88
395.005	86.88
395.229	84.88
395.454	74.88
395.678	76.88
395.903	81.88
396.127	59.88
396.352	86.88
396.576	93.88
396.801	80.88
397.025	80.88
397.249	87.88
397.474	86.88
397.698	84.88
397.922	88.88
398.147	92.88
398.371	80.88
398.595	80.88
398.82	90.88
399.044	67.88
399.268	82.88
399.492	87.88
399.717	84.88
399.941	89.88
400.165	84.88
400.389	94.88
400.613	83.88
400.837	83.88
401.062	82.88
401.286	85.88
401.51	88.88
401.734	78.88
401.958	80.88
402.182	78.88
402.406	74.88
402.63	78.88
402.854	77.88
403.078	83.88
403.302	88.88
403.526	95.88
403.75	80.88
403.974	76.88
404.198	70.88
404.422	59.88
404.645	72.88
404.869	81.88
405.093	90.88
405.317	76.88
405.541	93.88
405.765	72.88
405.988	89.88
406.212	89.88
406.436	88.88
406.66	78.88
406.883	84.88
407.107	77.88
407.331	80.88
407.555	76.88
407.778	96.88
408.002	83.88
408.226	87.88
408.449	84.88
408.673	72.88
408.896	71.88
409.12	78.88
409.344	90.88
409.567	79.88
409.791	86.88
410.014	73.88
410.238	79.88
410.461	80.88
410.685	78.88
410.908	73.88
411.132	71.88
411.355	84.88
411.578	78.88
411.802	84.88
412.025	75.88
412.249	74.88
412.472	97.88
412.695	80.88
412.919	81.88
413.142	88.88
413.365	82.88
413.589	87.88
413.812	76.88
414.035	94.88
414.258	94.88
414.482	73.88
414.705	82.88
414.928	78.88
415.151	69.88
415.374	75.88
415.597	86.88
415.821	76.88
416.044	66.88
416.267	79.88
416.49	71.88
416.713	78.88
416.936	80.88
417.159	72.88
417.382	77.88
417.605	79.88
417.828	74.88
418.051	75.88
418.274	75.88
418.497	71.88
418.72	77.88
418.943	86.88
419.166	75.88
419.389	89.88
419.611	85.88
419.834	66.88
420.057	82.88
420.28	61.88
420.503	78.88
420.726	72.88
420.948	78.88
421.171	84.88
421.394	88.88
421.617	84.88
421.839	84.88
422.062	73.88
422.285	81.88
422.507	77.88
422.73	71.88
422.953	78.88
423.175	78.88
423.398	71.88
423.621	77.88
423.843	77.88
424.066	81.88
424.288	80.88
424.511	73.88
424.733	72.88
424.956	85.88
425.178	75.88
425.401	95.88
425.623	87.88
425.846	81.88
426.068	91.88
426.291	87.88
426.513	82.88
426.735	80.88
426.958	73.88
427.18	74.88
427.402	74.88
427.625	82.88
427.847	67.88
428.069	84.88
428.292	95.88
428.514	84.88
428.736	78.88
428.958	96.88
429.181	75.88
429.403	80.88
429.625	82.88
429.847	79.88
430.069	96.88
430.292	77.88
430.514	78.88
430.736	94.88
430.958	84.88
431.18	81.88
431.402	84.88
431.624	76.88
431.846	74.88
432.068	70.88
432.29	67.88
432.512	87.88
432.734	86.88
432.956	75.88
433.178	88.88
433.4	92.88
433.622	90.88
433.844	66.88
434.066	78.88
434.287	64.88
434.509	69.88
434.731	90.88
434.953	81.88
435.175	75.88
435.397	99.88
435.618	89.88
435.84	84.88
436.062	66.88
436.284	88.88
436.505	83.88
436.727	84.88
436.949	67.88
437.17	82.88
437.392	73.88
437.614	71.88
437.835	78.88
438.057	78.88
438.278	74.88
438.5	89.88
438.721	78.88
438.943	78.88
439.165	63.88
439.386	68.88
439.608	74.88
439.829	81.88
440.05	85.88
440.272	90.88
440.493	84.88
440.715	70.88
440.936	68.88
441.158	73.88
441.379	84.88
441.6	68.88
441.822	67.88
442.043	80.88
442.264	58.88
442.486	81.88
442.707	78.88
442.928	75.88
443.149	69.88
443.371	79.88
443.592	75.88
443.813	80.88
444.034	81.88
444.255	89.88
444.476	86.88
444.698	64.88
444.919	92.88
445.14	160.88
445.361	113.88
445.582	81.88
445.803	70.88
446.024	70.88
446.245	72.88
446.466	82.88
446.687	81.88
446.908	78.88
447.129	72.88
447.35	69.88
447.571	70.88
447.792	77.88
448.013	83.88
448.234	84.88
448.455	84.88
448.675	70.88
448.896	81.88
449.117	61.88
449.338	88.88
449.559	88.88
449.779	71.88
450	83.88
450.221	81.88
450.442	77.88
450.662	75.88
450.883	87.88
451.104	85.88
451.324	77.88
451.545	69.88
451.766	80.88
451.986	89.88
452.207	81.88
452.428	76.88
452.648	71.88
452.869	66.88
453.089	66.88
453.31	78.88
453.53	79.88
453.751	68.88
453.971	65.88
454.192	71.88
454.412	103.88
454.633	97.88
454.853	81.88
455.073	93.88
455.294	77.88
455.514	88.88
455.734	65.88
455.955	84.88
456.175	84.88
456.395	68.88
456.616	86.88
456.836	92.88
457.056	66.88
457.276	67.88
457.497	76.88
457.717	82.88
457.937	78.88
458.157	84.88
458.377	76.88
458.598	84.88
458.818	89.88
459.038	63.88
459.258	88.88
459.478	74.88
459.698	85.88
459.918	79.88
460.138	90.88
460.358	98.88
460.578	97.88
460.798	62.88
461.018	79.88
461.238	77.88
461.458	65.88
461.678	89.88
461.898	91.88
462.118	84.88
462.338	72.88
462.558	67.88
462.777	83.88
462.997	74.88
463.217	82.88
463.437	85.88
463.657	69.88
463.876	89.88
464.096	86.88
464.316	79.88
464.536	78.88
464.755	86.88
464.975	80.88
465.195	73.88
465.414	85.88
465.634	76.88
465.854	78.88
466.073	84.88
466.293	74.88
466.512	79.88
466.732	76.88
466.951	86.88
467.171	84.88
467.391	78.88
467.61	88.88
467.829	72.88
468.049	84.88
468.268	78.88
468.488	66.88
468.707	81.88
468.927	81.88
469.146	73.88
469.365	83.88
469.585	76.88
469.804	87.88
470.023	95.88
470.243	81.88
470.462	92.88
470.681	90.88
470.901	76.88
471.12	79.88
471.339	83.88
471.558	92.88
471.777	73.88
471.997	84.88
472.216	77.88
472.435	71.88
472.654	84.88
472.873	98.88
473.092	80.88
473.311	88.88
473.53	70.88
473.749	67.88
473.968	80.88
474.187	66.88
474.406	95.88
474.625	93.88
474.844	82.88
475.063	79.88
475.282	75.88
475.501	80.88
475.72	84.88
475.939	85.88
476.158	73.88
476.377	80.88
476.596	84.88
476.814	78.88
477.033	77.88
477.252	81.88
477.471	78.88
477.69	90.88
477.908	82.88
478.127	79.88
478.346	83.88
478.564	93.88
478.783	67.88
479.002	82.88
479.22	87.88
479.439	72.88
479.658	77.88
479.876	77.88
480.095	71.88
480.313	84.88
480.532	74.88
480.751	90.88
480.969	76.88
481.188	87.88
481.406	84.88
481.624	85.88
481.843	72.88
482.061	66.88
482.28	83.88
482.498	81.88
482.717	81.88
482.935	72.88
483.153	77.88
483.372	66.88
483.59	83.88
483.808	76.88
484.027	83.88
484.245	90.88
484.463	79.88
484.681	88.88
484.9	72.88
485.118	77.88
485.336	84.88
485.554	78.88
485.772	81.88
485.99	84.88
486.209	84.88
486.427	88.88
486.645	78.88
486.863	74.88
487.081	91.88
487.299	76.88
487.517	80.88
487.735	76.88
487.953	75.88
488.171	92.88
488.389	87.88
488.607	77.88
488.825	70.88
489.043	83.88
489.261	85.88
489.479	76.88
489.696	87.88
489.914	84.88
490.132	85.88
490.35	97.88
490.568	94.88
490.786	66.88
491.003	81.88
491.221	77.88
491.439	85.88
491.657	92.88
491.874	106.88
492.092	86.88
492.31	96.88
492.527	86.88
492.745	89.88
492.963	91.88
493.18	80.88
493.398	86.88
493.615	93.88
493.833	87.88
494.05	75.88
494.268	97.88
494.485	84.88
494.703	65.88
494.92	82.88
495.138	82.88
495.355	82.88
495.573	89.88
495.79	90.88
496.008	84.88
496.225	79.88
496.442	85.88
496.66	93.88
496.877	81.88
497.094	93.88
497.312	86.88
497.529	104.88
497.746	84.88
497.963	69.88
498.181	74.88
498.398	65.88
498.615	97.88
498.832	92.88
499.049	90.88
499.267	77.88
499.484	81.88
499.701	73.88
499.918	80.88
500.135	99.88
500.352	82.88
500.569	78.88
500.786	86.88
501.003	88.88
501.22	93.88
501.437	96.88
501.654	84.88
501.871	90.88
502.088	89.88
502.305	96.88
502.522	75.88
502.739	87.88
502.956	91.88
503.172	94.88
503.389	77.88
503.606	80.88
503.823	81.88
504.04	93.88
504.256	78.88
504.473	80.88
504.69	78.88
504.907	76.88
505.123	80.88
505.34	81.88
505.557	93.88
505.773	101.88
505.99	72.88
506.207	79.88
506.423	71.88
506.64	66.88
506.856	81.88
507.073	86.88
507.289	85.88
507.506	93.88
507.722	84.88
507.939	69.88
508.155	82.88
508.372	77.88
508.588	91.88
508.805	91.88
509.021	88.88
509.238	89.88
509.454	92.88
509.67	81.88
509.887	79.88
510.103	91.88
510.319	78.88
510.536	78.88
510.752	70.88
510.968	76.88
511.184	85.88
511.401	75.88
511.617	80.88
511.833	84.88
512.049	81.88
512.265	84.88
512.481	81.88
512.698	87.88
512.914	85.88
513.13	80.88
513.346	73.88
513.562	84.88
513.778	101.88
513.994	85.88
514.21	84.88
514.426	82.88
514.642	76.88
514.858	92.88
515.074	90.88
515.29	77.88
515.506	79.88
515.721	84.88
515.937	68.88
516.153	69.88
516.369	78.88
516.585	76.88
516.801	81.88
517.016	66.88
517.232	70.88
517.448	82.88
517.664	72.88
517.879	79.88
518.095	79.88
518.311	89.88
518.527	85.88
518.742	78.88
518.958	88.88
519.173	66.88
519.389	78.88
519.605	80.88
519.82	77.88
520.036	80.88
520.251	72.88
