Data from StdD_HRD10591_048.txt Node
Date: Fri May 16 15:31:45 EDT 2025
User: Yrep
Spectrometer: HR+D1059
Trigger mode: 1
Integration Time (sec): 1.000000E-1
Scans to average: 1
Electric dark correction enabled: true
Nonlinearity correction enabled: false
Boxcar width: 0
XAxis mode: Wavelengths
Number of Pixels in Spectrum: 2048
>>>>>Begin Spectral Data<<<<<
223.165	-27.31
223.4	-27.31
223.635	-27.31
223.869	-4.31
224.104	-17.31
224.338	-25.31
224.573	-16.31
224.808	-9.31
225.042	-1.31
225.277	3.69
225.511	-6.31
225.746	-1.31
225.98	1.69
226.215	10.69
226.449	20.69
226.683	28.69
226.918	17.69
227.152	25.69
227.387	28.69
227.621	35.69
227.856	41.69
228.09	40.69
228.324	33.69
228.559	44.69
228.793	51.69
229.027	58.69
229.262	66.69
229.496	80.69
229.73	76.69
229.964	72.69
230.199	81.69
230.433	79.69
230.667	69.69
230.901	82.69
231.136	71.69
231.37	71.69
231.604	78.69
231.838	63.69
232.072	83.69
232.306	77.69
232.541	88.69
232.775	90.69
233.009	82.69
233.243	83.69
233.477	81.69
233.711	72.69
233.945	76.69
234.179	77.69
234.413	87.69
234.647	84.69
234.881	77.69
235.115	81.69
235.349	82.69
235.583	69.69
235.817	79.69
236.051	88.69
236.285	64.69
236.519	68.69
236.753	69.69
236.987	69.69
237.221	81.69
237.455	76.69
237.689	79.69
237.922	77.69
238.156	70.69
238.39	73.69
238.624	75.69
238.858	78.69
239.091	85.69
239.325	77.69
239.559	75.69
239.793	90.69
240.027	81.69
240.26	91.69
240.494	72.69
240.728	70.69
240.961	69.69
241.195	81.69
241.429	78.69
241.662	71.69
241.896	92.69
242.13	83.69
242.363	85.69
242.597	70.69
242.83	78.69
243.064	79.69
243.298	85.69
243.531	89.69
243.765	83.69
243.998	79.69
244.232	86.69
244.465	81.69
244.699	72.69
244.932	76.69
245.166	82.69
245.399	83.69
245.633	94.69
245.866	80.69
246.099	95.69
246.333	92.69
246.566	84.69
246.8	72.69
247.033	78.69
247.266	80.69
247.5	75.69
247.733	85.69
247.966	80.69
248.2	68.69
248.433	82.69
248.666	81.69
248.899	76.69
249.133	65.69
249.366	74.69
249.599	69.69
249.832	77.69
250.066	94.69
250.299	85.69
250.532	76.69
250.765	71.69
250.998	64.69
251.231	76.69
251.465	88.69
251.698	71.69
251.931	83.69
252.164	77.69
252.397	77.69
252.63	74.69
252.863	88.69
253.096	59.69
253.329	76.69
253.562	77.69
253.795	82.69
254.028	80.69
254.261	77.69
254.494	73.69
254.727	87.69
254.96	77.69
255.193	79.69
255.426	79.69
255.659	81.69
255.892	80.69
256.124	77.69
256.357	71.69
256.59	79.69
256.823	84.69
257.056	73.69
257.289	81.69
257.521	99.69
257.754	87.69
257.987	92.69
258.22	68.69
258.452	79.69
258.685	73.69
258.918	65.69
259.151	75.69
259.383	84.69
259.616	80.69
259.849	87.69
260.081	83.69
260.314	79.69
260.547	81.69
260.779	89.69
261.012	80.69
261.244	83.69
261.477	83.69
261.71	74.69
261.942	76.69
262.175	82.69
262.407	84.69
262.64	88.69
262.872	83.69
263.105	84.69
263.337	90.69
263.57	90.69
263.802	88.69
264.035	82.69
264.267	74.69
264.499	76.69
264.732	75.69
264.964	88.69
265.197	92.69
265.429	67.69
265.661	71.69
265.894	73.69
266.126	84.69
266.358	79.69
266.591	84.69
266.823	84.69
267.055	69.69
267.287	65.69
267.52	75.69
267.752	79.69
267.984	85.69
268.216	81.69
268.448	92.69
268.681	74.69
268.913	91.69
269.145	66.69
269.377	78.69
269.609	83.69
269.841	94.69
270.073	76.69
270.306	81.69
270.538	91.69
270.77	89.69
271.002	91.69
271.234	90.69
271.466	81.69
271.698	86.69
271.93	84.69
272.162	81.69
272.394	91.69
272.626	75.69
272.858	90.69
273.09	80.69
273.322	85.69
273.553	90.69
273.785	77.69
274.017	84.69
274.249	82.69
274.481	81.69
274.713	89.69
274.945	82.69
275.176	79.69
275.408	73.69
275.64	90.69
275.872	79.69
276.104	84.69
276.335	85.69
276.567	87.69
276.799	93.69
277.031	74.69
277.262	81.69
277.494	100.69
277.726	90.69
277.957	88.69
278.189	72.69
278.421	83.69
278.652	76.69
278.884	89.69
279.115	88.69
279.347	87.69
279.579	78.69
279.81	86.69
280.042	88.69
280.273	85.69
280.505	84.69
280.736	84.69
280.968	99.69
281.199	69.69
281.431	93.69
281.662	90.69
281.894	72.69
282.125	82.69
282.356	77.69
282.588	95.69
282.819	70.69
283.051	82.69
283.282	80.69
283.513	87.69
283.745	89.69
283.976	81.69
284.207	85.69
284.439	77.69
284.67	82.69
284.901	85.69
285.132	80.69
285.364	73.69
285.595	84.69
285.826	87.69
286.057	81.69
286.288	84.69
286.52	74.69
286.751	83.69
286.982	78.69
287.213	77.69
287.444	85.69
287.675	84.69
287.906	89.69
288.138	94.69
288.369	99.69
288.6	74.69
288.831	75.69
289.062	80.69
289.293	74.69
289.524	83.69
289.755	83.69
289.986	91.69
290.217	82.69
290.448	79.69
290.679	88.69
290.91	96.69
291.141	82.69
291.371	78.69
291.602	84.69
291.833	66.69
292.064	84.69
292.295	80.69
292.526	92.69
292.757	99.69
292.987	85.69
293.218	89.69
293.449	91.69
293.68	93.69
293.91	81.69
294.141	83.69
294.372	87.69
294.603	88.69
294.833	88.69
295.064	88.69
295.295	91.69
295.525	96.69
295.756	87.69
295.987	77.69
296.217	85.69
296.448	81.69
296.679	80.69
296.909	88.69
297.14	77.69
297.37	72.69
297.601	79.69
297.831	82.69
298.062	89.69
298.292	86.69
298.523	98.69
298.753	89.69
298.984	91.69
299.214	96.69
299.445	97.69
299.675	89.69
299.905	69.69
300.136	87.69
300.366	88.69
300.597	72.69
300.827	72.69
301.057	95.69
301.288	90.69
301.518	73.69
301.748	80.69
301.979	82.69
302.209	84.69
302.439	88.69
302.669	79.69
302.9	75.69
303.13	90.69
303.36	92.69
303.59	86.69
303.82	68.69
304.051	84.69
304.281	68.69
304.511	97.69
304.741	67.69
304.971	82.69
305.201	78.69
305.431	72.69
305.661	76.69
305.891	89.69
306.121	92.69
306.352	87.69
306.582	93.69
306.812	74.69
307.042	84.69
307.272	77.69
307.502	84.69
307.731	80.69
307.961	101.69
308.191	81.69
308.421	79.69
308.651	82.69
308.881	73.69
309.111	73.69
309.341	83.69
309.571	73.69
309.8	91.69
310.03	82.69
310.26	83.69
310.49	77.69
310.72	94.69
310.949	82.69
311.179	80.69
311.409	78.69
311.639	83.69
311.868	85.69
312.098	77.69
312.328	76.69
312.557	93.69
312.787	82.69
313.017	79.69
313.246	73.69
313.476	78.69
313.706	91.69
313.935	78.69
314.165	82.69
314.394	91.69
314.624	98.69
314.853	81.69
315.083	76.69
315.312	85.69
315.542	87.69
315.771	62.69
316.001	77.69
316.23	78.69
316.46	85.69
316.689	82.69
316.919	85.69
317.148	96.69
317.377	90.69
317.607	79.69
317.836	81.69
318.065	80.69
318.295	86.69
318.524	93.69
318.753	83.69
318.983	91.69
319.212	94.69
319.441	76.69
319.67	84.69
319.9	93.69
320.129	93.69
320.358	83.69
320.587	95.69
320.816	81.69
321.046	81.69
321.275	82.69
321.504	88.69
321.733	77.69
321.962	83.69
322.191	88.69
322.42	108.69
322.649	91.69
322.878	87.69
323.108	89.69
323.337	83.69
323.566	93.69
323.795	88.69
324.024	81.69
324.253	84.69
324.482	83.69
324.71	79.69
324.939	92.69
325.168	81.69
325.397	78.69
325.626	89.69
325.855	92.69
326.084	99.69
326.313	88.69
326.542	71.69
326.77	84.69
326.999	78.69
327.228	70.69
327.457	75.69
327.686	79.69
327.914	87.69
328.143	82.69
328.372	89.69
328.6	89.69
328.829	87.69
329.058	76.69
329.287	84.69
329.515	81.69
329.744	86.69
329.972	79.69
330.201	83.69
330.43	86.69
330.658	86.69
330.887	83.69
331.115	77.69
331.344	100.69
331.572	80.69
331.801	87.69
332.03	101.69
332.258	75.69
332.486	78.69
332.715	88.69
332.943	68.69
333.172	72.69
333.4	68.69
333.629	92.69
333.857	78.69
334.085	83.69
334.314	95.69
334.542	97.69
334.771	88.69
334.999	86.69
335.227	65.69
335.455	64.69
335.684	81.69
335.912	81.69
336.14	78.69
336.369	85.69
336.597	86.69
336.825	73.69
337.053	80.69
337.281	83.69
337.51	74.69
337.738	79.69
337.966	87.69
338.194	79.69
338.422	76.69
338.65	77.69
338.878	89.69
339.106	68.69
339.334	87.69
339.562	78.69
339.79	95.69
340.018	91.69
340.246	80.69
340.474	70.69
340.702	84.69
340.93	81.69
341.158	79.69
341.386	91.69
341.614	79.69
341.842	90.69
342.07	89.69
342.298	87.69
342.526	85.69
342.754	98.69
342.981	80.69
343.209	89.69
343.437	88.69
343.665	84.69
343.893	96.69
344.12	84.69
344.348	83.69
344.576	88.69
344.804	83.69
345.031	89.69
345.259	75.69
345.487	67.69
345.714	90.69
345.942	81.69
346.17	80.69
346.397	84.69
346.625	71.69
346.853	79.69
347.08	96.69
347.308	88.69
347.535	82.69
347.763	83.69
347.99	72.69
348.218	76.69
348.445	89.69
348.673	91.69
348.9	79.69
349.128	79.69
349.355	88.69
349.583	76.69
349.81	80.69
350.037	83.69
350.265	85.69
350.492	88.69
350.72	81.69
350.947	80.69
351.174	98.69
351.402	90.69
351.629	79.69
351.856	92.69
352.083	86.69
352.311	79.69
352.538	86.69
352.765	80.69
352.992	85.69
353.22	90.69
353.447	75.69
353.674	76.69
353.901	91.69
354.128	94.69
354.355	73.69
354.583	92.69
354.81	88.69
355.037	84.69
355.264	65.69
355.491	67.69
355.718	90.69
355.945	78.69
356.172	83.69
356.399	74.69
356.626	87.69
356.853	96.69
357.08	82.69
357.307	91.69
357.534	91.69
357.761	74.69
357.988	94.69
358.215	79.69
358.441	66.69
358.668	73.69
358.895	97.69
359.122	93.69
359.349	73.69
359.576	86.69
359.802	77.69
360.029	96.69
360.256	89.69
360.483	81.69
360.709	90.69
360.936	97.69
361.163	88.69
361.39	97.69
361.616	98.69
361.843	80.69
362.07	96.69
362.296	79.69
362.523	81.69
362.749	79.69
362.976	91.69
363.203	69.69
363.429	80.69
363.656	81.69
363.882	62.69
364.109	80.69
364.335	81.69
364.562	74.69
364.788	76.69
365.015	70.69
365.241	88.69
365.468	93.69
365.694	84.69
365.92	79.69
366.147	90.69
366.373	71.69
366.599	83.69
366.826	69.69
367.052	79.69
367.278	81.69
367.505	88.69
367.731	76.69
367.957	73.69
368.184	88.69
368.41	81.69
368.636	80.69
368.862	83.69
369.089	80.69
369.315	68.69
369.541	77.69
369.767	75.69
369.993	70.69
370.219	68.69
370.445	86.69
370.672	85.69
370.898	79.69
371.124	92.69
371.35	75.69
371.576	73.69
371.802	89.69
372.028	81.69
372.254	76.69
372.48	93.69
372.706	76.69
372.932	86.69
373.158	87.69
373.384	85.69
373.61	81.69
373.835	73.69
374.061	75.69
374.287	91.69
374.513	92.69
374.739	89.69
374.965	77.69
375.191	77.69
375.416	76.69
375.642	73.69
375.868	81.69
376.094	72.69
376.319	84.69
376.545	85.69
376.771	79.69
376.997	70.69
377.222	71.69
377.448	70.69
377.674	77.69
377.899	87.69
378.125	78.69
378.35	86.69
378.576	73.69
378.802	84.69
379.027	83.69
379.253	76.69
379.478	79.69
379.704	77.69
379.929	77.69
380.155	91.69
380.38	99.69
380.606	78.69
380.831	93.69
381.057	94.69
381.282	81.69
381.507	91.69
381.733	88.69
381.958	88.69
382.184	77.69
382.409	84.69
382.634	81.69
382.86	83.69
383.085	89.69
383.31	70.69
383.535	81.69
383.761	78.69
383.986	69.69
384.211	91.69
384.436	84.69
384.662	82.69
384.887	75.69
385.112	82.69
385.337	78.69
385.562	75.69
385.787	86.69
386.013	83.69
386.238	64.69
386.463	84.69
386.688	97.69
386.913	89.69
387.138	67.69
387.363	69.69
387.588	93.69
387.813	87.69
388.038	82.69
388.263	83.69
388.488	75.69
388.713	81.69
388.938	77.69
389.163	87.69
389.387	94.69
389.612	85.69
389.837	74.69
390.062	91.69
390.287	64.69
390.512	74.69
390.736	79.69
390.961	68.69
391.186	89.69
391.411	91.69
391.636	79.69
391.86	89.69
392.085	84.69
392.31	95.69
392.534	71.69
392.759	88.69
392.984	79.69
393.208	75.69
393.433	81.69
393.658	73.69
393.882	85.69
394.107	80.69
394.331	82.69
394.556	68.69
394.78	81.69
395.005	64.69
395.229	75.69
395.454	101.69
395.678	71.69
395.903	88.69
396.127	81.69
396.352	82.69
396.576	70.69
396.801	82.69
397.025	71.69
397.249	72.69
397.474	85.69
397.698	86.69
397.922	74.69
398.147	74.69
398.371	84.69
398.595	85.69
398.82	67.69
399.044	71.69
399.268	79.69
399.492	86.69
399.717	73.69
399.941	84.69
400.165	92.69
400.389	77.69
400.613	77.69
400.837	87.69
401.062	86.69
401.286	100.69
401.51	85.69
401.734	81.69
401.958	75.69
402.182	81.69
402.406	74.69
402.63	87.69
402.854	88.69
403.078	89.69
403.302	71.69
403.526	75.69
403.75	83.69
403.974	80.69
404.198	79.69
404.422	94.69
404.645	76.69
404.869	83.69
405.093	81.69
405.317	92.69
405.541	82.69
405.765	71.69
405.988	86.69
406.212	82.69
406.436	77.69
406.66	76.69
406.883	70.69
407.107	83.69
407.331	77.69
407.555	87.69
407.778	88.69
408.002	80.69
408.226	82.69
408.449	86.69
408.673	83.69
408.896	88.69
409.12	84.69
409.344	77.69
409.567	97.69
409.791	67.69
410.014	69.69
410.238	75.69
410.461	77.69
410.685	87.69
410.908	87.69
411.132	83.69
411.355	82.69
411.578	88.69
411.802	79.69
412.025	71.69
412.249	95.69
412.472	81.69
412.695	77.69
412.919	96.69
413.142	81.69
413.365	83.69
413.589	74.69
413.812	66.69
414.035	71.69
414.258	92.69
414.482	85.69
414.705	78.69
414.928	83.69
415.151	72.69
415.374	81.69
415.597	79.69
415.821	77.69
416.044	80.69
416.267	75.69
416.49	91.69
416.713	81.69
416.936	79.69
417.159	73.69
417.382	93.69
417.605	89.69
417.828	91.69
418.051	77.69
418.274	82.69
418.497	78.69
418.72	88.69
418.943	88.69
419.166	76.69
419.389	72.69
419.611	75.69
419.834	93.69
420.057	78.69
420.28	89.69
420.503	77.69
420.726	74.69
420.948	87.69
421.171	91.69
421.394	80.69
421.617	92.69
421.839	80.69
422.062	90.69
422.285	76.69
422.507	90.69
422.73	75.69
422.953	77.69
423.175	69.69
423.398	67.69
423.621	76.69
423.843	79.69
424.066	83.69
424.288	75.69
424.511	67.69
424.733	74.69
424.956	73.69
425.178	81.69
425.401	88.69
425.623	84.69
425.846	87.69
426.068	74.69
426.291	81.69
426.513	73.69
426.735	100.69
426.958	92.69
427.18	83.69
427.402	97.69
427.625	82.69
427.847	89.69
428.069	77.69
428.292	84.69
428.514	77.69
428.736	85.69
428.958	84.69
429.181	75.69
429.403	85.69
429.625	84.69
429.847	83.69
430.069	70.69
430.292	88.69
430.514	76.69
430.736	90.69
430.958	92.69
431.18	85.69
431.402	92.69
431.624	82.69
431.846	72.69
432.068	83.69
432.29	83.69
432.512	82.69
432.734	77.69
432.956	81.69
433.178	86.69
433.4	76.69
433.622	89.69
433.844	92.69
434.066	80.69
434.287	68.69
434.509	83.69
434.731	85.69
434.953	87.69
435.175	70.69
435.397	79.69
435.618	76.69
435.84	86.69
436.062	91.69
436.284	87.69
436.505	98.69
436.727	81.69
436.949	80.69
437.17	90.69
437.392	73.69
437.614	78.69
437.835	78.69
438.057	74.69
438.278	77.69
438.5	91.69
438.721	87.69
438.943	74.69
439.165	87.69
439.386	100.69
439.608	91.69
439.829	78.69
440.05	99.69
440.272	99.69
440.493	84.69
440.715	87.69
440.936	70.69
441.158	89.69
441.379	82.69
441.6	69.69
441.822	82.69
442.043	99.69
442.264	98.69
442.486	80.69
442.707	80.69
442.928	79.69
443.149	91.69
443.371	92.69
443.592	73.69
443.813	75.69
444.034	79.69
444.255	85.69
444.476	86.69
444.698	87.69
444.919	96.69
445.14	160.69
445.361	116.69
445.582	92.69
445.803	79.69
446.024	74.69
446.245	74.69
446.466	87.69
446.687	91.69
446.908	87.69
447.129	90.69
447.35	80.69
447.571	81.69
447.792	96.69
448.013	88.69
448.234	76.69
448.455	86.69
448.675	83.69
448.896	72.69
449.117	98.69
449.338	91.69
449.559	70.69
449.779	75.69
450	88.69
450.221	83.69
450.442	80.69
450.662	89.69
450.883	85.69
451.104	82.69
451.324	88.69
451.545	71.69
451.766	74.69
451.986	74.69
452.207	71.69
452.428	78.69
452.648	91.69
452.869	89.69
453.089	80.69
453.31	73.69
453.53	84.69
453.751	81.69
453.971	85.69
454.192	80.69
454.412	85.69
454.633	79.69
454.853	88.69
455.073	105.69
455.294	70.69
455.514	63.69
455.734	79.69
455.955	83.69
456.175	85.69
456.395	72.69
456.616	91.69
456.836	76.69
457.056	95.69
457.276	87.69
457.497	87.69
457.717	84.69
457.937	88.69
458.157	74.69
458.377	82.69
458.598	78.69
458.818	91.69
459.038	84.69
459.258	79.69
459.478	67.69
459.698	81.69
459.918	89.69
460.138	76.69
460.358	88.69
460.578	105.69
460.798	84.69
461.018	88.69
461.238	97.69
461.458	93.69
461.678	74.69
461.898	83.69
462.118	76.69
462.338	98.69
462.558	91.69
462.777	89.69
462.997	74.69
463.217	79.69
463.437	84.69
463.657	76.69
463.876	93.69
464.096	84.69
464.316	92.69
464.536	83.69
464.755	89.69
464.975	91.69
465.195	83.69
465.414	78.69
465.634	76.69
465.854	87.69
466.073	84.69
466.293	76.69
466.512	92.69
466.732	80.69
466.951	75.69
467.171	96.69
467.391	88.69
467.61	87.69
467.829	73.69
468.049	80.69
468.268	76.69
468.488	69.69
468.707	75.69
468.927	81.69
469.146	87.69
469.365	75.69
469.585	77.69
469.804	83.69
470.023	83.69
470.243	89.69
470.462	79.69
470.681	89.69
470.901	68.69
471.12	85.69
471.339	76.69
471.558	88.69
471.777	76.69
471.997	98.69
472.216	85.69
472.435	87.69
472.654	73.69
472.873	84.69
473.092	95.69
473.311	85.69
473.53	81.69
473.749	84.69
473.968	73.69
474.187	94.69
474.406	89.69
474.625	92.69
474.844	74.69
475.063	74.69
475.282	80.69
475.501	84.69
475.72	75.69
475.939	64.69
476.158	81.69
476.377	82.69
476.596	86.69
476.814	89.69
477.033	90.69
477.252	95.69
477.471	93.69
477.69	84.69
477.908	89.69
478.127	73.69
478.346	89.69
478.564	85.69
478.783	88.69
479.002	97.69
479.22	87.69
479.439	75.69
479.658	75.69
479.876	74.69
480.095	78.69
480.313	76.69
480.532	83.69
480.751	95.69
480.969	81.69
481.188	75.69
481.406	79.69
481.624	70.69
481.843	72.69
482.061	94.69
482.28	93.69
482.498	84.69
482.717	74.69
482.935	67.69
483.153	87.69
483.372	83.69
483.59	84.69
483.808	87.69
484.027	89.69
484.245	73.69
484.463	89.69
484.681	86.69
484.9	85.69
485.118	88.69
485.336	82.69
485.554	69.69
485.772	88.69
485.99	87.69
486.209	79.69
486.427	87.69
486.645	78.69
486.863	89.69
487.081	80.69
487.299	94.69
487.517	80.69
487.735	95.69
487.953	91.69
488.171	107.69
488.389	84.69
488.607	83.69
488.825	92.69
489.043	98.69
489.261	98.69
489.479	94.69
489.696	88.69
489.914	84.69
490.132	100.69
490.35	88.69
490.568	90.69
490.786	87.69
491.003	92.69
491.221	93.69
491.439	76.69
491.657	84.69
491.874	94.69
492.092	85.69
492.31	79.69
492.527	81.69
492.745	85.69
492.963	90.69
493.18	86.69
493.398	81.69
493.615	90.69
493.833	81.69
494.05	92.69
494.268	100.69
494.485	88.69
494.703	79.69
494.92	78.69
495.138	88.69
495.355	93.69
495.573	103.69
495.79	90.69
496.008	87.69
496.225	96.69
496.442	77.69
496.66	90.69
496.877	78.69
497.094	75.69
497.312	99.69
497.529	74.69
497.746	83.69
497.963	77.69
498.181	87.69
498.398	90.69
498.615	83.69
498.832	74.69
499.049	90.69
499.267	91.69
499.484	84.69
499.701	92.69
499.918	76.69
500.135	79.69
500.352	74.69
500.569	89.69
500.786	98.69
501.003	88.69
501.22	79.69
501.437	81.69
501.654	85.69
501.871	81.69
502.088	82.69
502.305	87.69
502.522	89.69
502.739	92.69
502.956	87.69
503.172	93.69
503.389	93.69
503.606	84.69
503.823	83.69
504.04	85.69
504.256	84.69
504.473	89.69
504.69	82.69
504.907	96.69
505.123	87.69
505.34	87.69
505.557	81.69
505.773	86.69
505.99	97.69
506.207	80.69
506.423	94.69
506.64	88.69
506.856	80.69
507.073	101.69
507.289	88.69
507.506	76.69
507.722	87.69
507.939	81.69
508.155	79.69
508.372	79.69
508.588	75.69
508.805	109.69
509.021	92.69
509.238	89.69
509.454	78.69
509.67	76.69
509.887	95.69
510.103	99.69
510.319	92.69
510.536	97.69
510.752	82.69
510.968	91.69
511.184	86.69
511.401	80.69
511.617	88.69
511.833	76.69
512.049	76.69
512.265	86.69
512.481	88.69
512.698	81.69
512.914	92.69
513.13	93.69
513.346	79.69
513.562	79.69
513.778	82.69
513.994	83.69
514.21	66.69
514.426	78.69
514.642	75.69
514.858	97.69
515.074	97.69
515.29	92.69
515.506	84.69
515.721	82.69
515.937	77.69
516.153	74.69
516.369	92.69
516.585	80.69
516.801	75.69
517.016	82.69
517.232	89.69
517.448	82.69
517.664	86.69
517.879	79.69
518.095	80.69
518.311	68.69
518.527	94.69
518.742	80.69
518.958	84.69
519.173	96.69
519.389	78.69
519.605	84.69
519.82	74.69
520.036	82.69
