Data from StdD_HRD10591_027.txt Node
Date: Fri May 16 15:31:34 EDT 2025
User: Yrep
Spectrometer: HR+D1059
Trigger mode: 1
Integration Time (sec): 1.000000E-1
Scans to average: 1
Electric dark correction enabled: true
Nonlinearity correction enabled: false
Boxcar width: 0
XAxis mode: Wavelengths
Number of Pixels in Spectrum: 2048
>>>>>Begin Spectral Data<<<<<
223.165	-13.12
223.4	-13.12
223.635	-13.12
223.869	-14.12
224.104	-26.12
224.338	-8.12
224.573	-17.12
224.808	-20.12
225.042	-7.12
225.277	-0.12
225.511	-2.12
225.746	6.88
225.98	5.88
226.215	15.88
226.449	16.88
226.683	11.88
226.918	13.88
227.152	36.88
227.387	33.88
227.621	52.88
227.856	48.88
228.09	43.88
228.324	43.88
228.559	50.88
228.793	61.88
229.027	50.88
229.262	60.88
229.496	56.88
229.73	66.88
229.964	79.88
230.199	75.88
230.433	81.88
230.667	80.88
230.901	81.88
231.136	76.88
231.37	69.88
231.604	90.88
231.838	67.88
232.072	81.88
232.306	83.88
232.541	80.88
232.775	82.88
233.009	77.88
233.243	84.88
233.477	76.88
233.711	89.88
233.945	71.88
234.179	76.88
234.413	83.88
234.647	73.88
234.881	76.88
235.115	71.88
235.349	86.88
235.583	71.88
235.817	73.88
236.051	67.88
236.285	71.88
236.519	70.88
236.753	84.88
236.987	74.88
237.221	68.88
237.455	69.88
237.689	77.88
237.922	77.88
238.156	69.88
238.39	73.88
238.624	86.88
238.858	57.88
239.091	70.88
239.325	76.88
239.559	70.88
239.793	76.88
240.027	69.88
240.26	76.88
240.494	78.88
240.728	71.88
240.961	60.88
241.195	72.88
241.429	79.88
241.662	73.88
241.896	70.88
242.13	65.88
242.363	63.88
242.597	79.88
242.83	86.88
243.064	80.88
243.298	95.88
243.531	72.88
243.765	80.88
243.998	90.88
244.232	76.88
244.465	62.88
244.699	64.88
244.932	58.88
245.166	69.88
245.399	81.88
245.633	86.88
245.866	62.88
246.099	84.88
246.333	70.88
246.566	74.88
246.8	68.88
247.033	82.88
247.266	73.88
247.5	78.88
247.733	81.88
247.966	85.88
248.2	73.88
248.433	80.88
248.666	74.88
248.899	79.88
249.133	77.88
249.366	74.88
249.599	80.88
249.832	81.88
250.066	79.88
250.299	78.88
250.532	80.88
250.765	80.88
250.998	85.88
251.231	72.88
251.465	87.88
251.698	72.88
251.931	86.88
252.164	80.88
252.397	79.88
252.63	84.88
252.863	91.88
253.096	79.88
253.329	84.88
253.562	78.88
253.795	86.88
254.028	82.88
254.261	64.88
254.494	78.88
254.727	81.88
254.96	89.88
255.193	62.88
255.426	86.88
255.659	75.88
255.892	80.88
256.124	88.88
256.357	72.88
256.59	89.88
256.823	70.88
257.056	73.88
257.289	73.88
257.521	82.88
257.754	87.88
257.987	70.88
258.22	74.88
258.452	84.88
258.685	80.88
258.918	85.88
259.151	81.88
259.383	85.88
259.616	74.88
259.849	75.88
260.081	93.88
260.314	78.88
260.547	81.88
260.779	69.88
261.012	78.88
261.244	71.88
261.477	88.88
261.71	92.88
261.942	89.88
262.175	71.88
262.407	84.88
262.64	85.88
262.872	76.88
263.105	78.88
263.337	88.88
263.57	79.88
263.802	76.88
264.035	62.88
264.267	63.88
264.499	90.88
264.732	76.88
264.964	83.88
265.197	88.88
265.429	68.88
265.661	83.88
265.894	80.88
266.126	89.88
266.358	74.88
266.591	72.88
266.823	78.88
267.055	89.88
267.287	74.88
267.52	76.88
267.752	81.88
267.984	84.88
268.216	102.88
268.448	68.88
268.681	75.88
268.913	82.88
269.145	82.88
269.377	71.88
269.609	89.88
269.841	81.88
270.073	77.88
270.306	78.88
270.538	81.88
270.77	85.88
271.002	72.88
271.234	69.88
271.466	82.88
271.698	78.88
271.93	76.88
272.162	87.88
272.394	72.88
272.626	73.88
272.858	93.88
273.09	80.88
273.322	54.88
273.553	78.88
273.785	70.88
274.017	77.88
274.249	84.88
274.481	75.88
274.713	76.88
274.945	73.88
275.176	76.88
275.408	63.88
275.64	78.88
275.872	79.88
276.104	87.88
276.335	77.88
276.567	65.88
276.799	75.88
277.031	89.88
277.262	64.88
277.494	78.88
277.726	80.88
277.957	85.88
278.189	82.88
278.421	86.88
278.652	87.88
278.884	68.88
279.115	68.88
279.347	84.88
279.579	84.88
279.81	88.88
280.042	97.88
280.273	79.88
280.505	67.88
280.736	69.88
280.968	76.88
281.199	88.88
281.431	86.88
281.662	76.88
281.894	79.88
282.125	81.88
282.356	88.88
282.588	92.88
282.819	85.88
283.051	84.88
283.282	71.88
283.513	80.88
283.745	84.88
283.976	96.88
284.207	72.88
284.439	76.88
284.67	82.88
284.901	89.88
285.132	81.88
285.364	80.88
285.595	81.88
285.826	75.88
286.057	73.88
286.288	64.88
286.52	93.88
286.751	92.88
286.982	84.88
287.213	70.88
287.444	63.88
287.675	72.88
287.906	80.88
288.138	88.88
288.369	81.88
288.6	63.88
288.831	82.88
289.062	84.88
289.293	86.88
289.524	90.88
289.755	83.88
289.986	87.88
290.217	72.88
290.448	80.88
290.679	89.88
290.91	74.88
291.141	81.88
291.371	83.88
291.602	74.88
291.833	77.88
292.064	77.88
292.295	77.88
292.526	86.88
292.757	83.88
292.987	93.88
293.218	90.88
293.449	84.88
293.68	75.88
293.91	66.88
294.141	96.88
294.372	78.88
294.603	76.88
294.833	84.88
295.064	102.88
295.295	79.88
295.525	85.88
295.756	97.88
295.987	76.88
296.217	82.88
296.448	79.88
296.679	79.88
296.909	83.88
297.14	76.88
297.37	81.88
297.601	73.88
297.831	81.88
298.062	85.88
298.292	79.88
298.523	75.88
298.753	97.88
298.984	83.88
299.214	72.88
299.445	68.88
299.675	74.88
299.905	80.88
300.136	85.88
300.366	83.88
300.597	82.88
300.827	88.88
301.057	82.88
301.288	79.88
301.518	83.88
301.748	84.88
301.979	98.88
302.209	77.88
302.439	90.88
302.669	76.88
302.9	79.88
303.13	77.88
303.36	87.88
303.59	84.88
303.82	89.88
304.051	91.88
304.281	81.88
304.511	79.88
304.741	88.88
304.971	85.88
305.201	88.88
305.431	80.88
305.661	89.88
305.891	89.88
306.121	92.88
306.352	88.88
306.582	102.88
306.812	86.88
307.042	83.88
307.272	82.88
307.502	82.88
307.731	74.88
307.961	76.88
308.191	74.88
308.421	82.88
308.651	85.88
308.881	87.88
309.111	93.88
309.341	87.88
309.571	86.88
309.8	77.88
310.03	77.88
310.26	88.88
310.49	76.88
310.72	75.88
310.949	85.88
311.179	90.88
311.409	73.88
311.639	88.88
311.868	91.88
312.098	75.88
312.328	79.88
312.557	96.88
312.787	75.88
313.017	74.88
313.246	90.88
313.476	88.88
313.706	72.88
313.935	79.88
314.165	80.88
314.394	83.88
314.624	87.88
314.853	94.88
315.083	82.88
315.312	84.88
315.542	74.88
315.771	79.88
316.001	91.88
316.23	74.88
316.46	83.88
316.689	89.88
316.919	88.88
317.148	82.88
317.377	84.88
317.607	93.88
317.836	76.88
318.065	84.88
318.295	61.88
318.524	79.88
318.753	82.88
318.983	75.88
319.212	93.88
319.441	87.88
319.67	87.88
319.9	86.88
320.129	86.88
320.358	74.88
320.587	81.88
320.816	84.88
321.046	84.88
321.275	78.88
321.504	88.88
321.733	78.88
321.962	69.88
322.191	86.88
322.42	77.88
322.649	85.88
322.878	81.88
323.108	87.88
323.337	71.88
323.566	85.88
323.795	95.88
324.024	96.88
324.253	76.88
324.482	88.88
324.71	105.88
324.939	85.88
325.168	76.88
325.397	72.88
325.626	87.88
325.855	77.88
326.084	79.88
326.313	85.88
326.542	77.88
326.77	86.88
326.999	76.88
327.228	80.88
327.457	81.88
327.686	89.88
327.914	85.88
328.143	88.88
328.372	90.88
328.6	86.88
328.829	80.88
329.058	79.88
329.287	81.88
329.515	110.88
329.744	93.88
329.972	84.88
330.201	80.88
330.43	87.88
330.658	93.88
330.887	78.88
331.115	84.88
331.344	86.88
331.572	80.88
331.801	100.88
332.03	71.88
332.258	76.88
332.486	88.88
332.715	91.88
332.943	72.88
333.172	80.88
333.4	89.88
333.629	77.88
333.857	91.88
334.085	82.88
334.314	72.88
334.542	70.88
334.771	86.88
334.999	97.88
335.227	82.88
335.455	80.88
335.684	93.88
335.912	87.88
336.14	92.88
336.369	76.88
336.597	80.88
336.825	83.88
337.053	85.88
337.281	78.88
337.51	88.88
337.738	86.88
337.966	74.88
338.194	76.88
338.422	88.88
338.65	81.88
338.878	75.88
339.106	76.88
339.334	98.88
339.562	72.88
339.79	85.88
340.018	80.88
340.246	74.88
340.474	77.88
340.702	80.88
340.93	97.88
341.158	90.88
341.386	91.88
341.614	76.88
341.842	84.88
342.07	76.88
342.298	77.88
342.526	80.88
342.754	86.88
342.981	89.88
343.209	75.88
343.437	85.88
343.665	77.88
343.893	84.88
344.12	72.88
344.348	84.88
344.576	70.88
344.804	79.88
345.031	87.88
345.259	75.88
345.487	85.88
345.714	80.88
345.942	90.88
346.17	63.88
346.397	70.88
346.625	74.88
346.853	84.88
347.08	73.88
347.308	88.88
347.535	87.88
347.763	74.88
347.99	88.88
348.218	95.88
348.445	71.88
348.673	69.88
348.9	85.88
349.128	90.88
349.355	76.88
349.583	72.88
349.81	93.88
350.037	88.88
350.265	89.88
350.492	78.88
350.72	82.88
350.947	91.88
351.174	81.88
351.402	69.88
351.629	78.88
351.856	96.88
352.083	81.88
352.311	89.88
352.538	82.88
352.765	83.88
352.992	80.88
353.22	80.88
353.447	93.88
353.674	84.88
353.901	88.88
354.128	91.88
354.355	75.88
354.583	77.88
354.81	76.88
355.037	81.88
355.264	77.88
355.491	86.88
355.718	80.88
355.945	92.88
356.172	82.88
356.399	79.88
356.626	84.88
356.853	82.88
357.08	96.88
357.307	93.88
357.534	84.88
357.761	76.88
357.988	79.88
358.215	92.88
358.441	60.88
358.668	91.88
358.895	89.88
359.122	76.88
359.349	80.88
359.576	86.88
359.802	84.88
360.029	80.88
360.256	85.88
360.483	67.88
360.709	78.88
360.936	92.88
361.163	89.88
361.39	83.88
361.616	84.88
361.843	80.88
362.07	99.88
362.296	75.88
362.523	82.88
362.749	73.88
362.976	81.88
363.203	77.88
363.429	78.88
363.656	90.88
363.882	83.88
364.109	81.88
364.335	71.88
364.562	74.88
364.788	77.88
365.015	88.88
365.241	84.88
365.468	103.88
365.694	87.88
365.92	81.88
366.147	81.88
366.373	62.88
366.599	74.88
366.826	85.88
367.052	80.88
367.278	76.88
367.505	87.88
367.731	92.88
367.957	96.88
368.184	95.88
368.41	74.88
368.636	78.88
368.862	98.88
369.089	74.88
369.315	86.88
369.541	92.88
369.767	83.88
369.993	85.88
370.219	84.88
370.445	78.88
370.672	74.88
370.898	67.88
371.124	71.88
371.35	92.88
371.576	82.88
371.802	73.88
372.028	92.88
372.254	94.88
372.48	94.88
372.706	70.88
372.932	77.88
373.158	83.88
373.384	74.88
373.61	82.88
373.835	81.88
374.061	68.88
374.287	71.88
374.513	94.88
374.739	79.88
374.965	63.88
375.191	71.88
375.416	92.88
375.642	83.88
375.868	93.88
376.094	82.88
376.319	96.88
376.545	85.88
376.771	73.88
376.997	71.88
377.222	80.88
377.448	93.88
377.674	82.88
377.899	78.88
378.125	81.88
378.35	72.88
378.576	84.88
378.802	92.88
379.027	91.88
379.253	82.88
379.478	89.88
379.704	78.88
379.929	67.88
380.155	81.88
380.38	84.88
380.606	78.88
380.831	74.88
381.057	94.88
381.282	82.88
381.507	78.88
381.733	79.88
381.958	96.88
382.184	84.88
382.409	88.88
382.634	87.88
382.86	83.88
383.085	64.88
383.31	83.88
383.535	78.88
383.761	89.88
383.986	86.88
384.211	91.88
384.436	81.88
384.662	88.88
384.887	82.88
385.112	75.88
385.337	85.88
385.562	68.88
385.787	73.88
386.013	75.88
386.238	65.88
386.463	89.88
386.688	102.88
386.913	84.88
387.138	92.88
387.363	99.88
387.588	93.88
387.813	93.88
388.038	89.88
388.263	83.88
388.488	88.88
388.713	72.88
388.938	68.88
389.163	89.88
389.387	89.88
389.612	79.88
389.837	80.88
390.062	95.88
390.287	76.88
390.512	86.88
390.736	96.88
390.961	62.88
391.186	80.88
391.411	78.88
391.636	80.88
391.86	70.88
392.085	91.88
392.31	79.88
392.534	86.88
392.759	85.88
392.984	80.88
393.208	79.88
393.433	76.88
393.658	88.88
393.882	76.88
394.107	89.88
394.331	82.88
394.556	89.88
394.78	75.88
395.005	71.88
395.229	70.88
395.454	81.88
395.678	72.88
395.903	79.88
396.127	86.88
396.352	83.88
396.576	81.88
396.801	85.88
397.025	85.88
397.249	79.88
397.474	100.88
397.698	80.88
397.922	73.88
398.147	78.88
398.371	87.88
398.595	76.88
398.82	80.88
399.044	76.88
399.268	84.88
399.492	80.88
399.717	78.88
399.941	78.88
400.165	79.88
400.389	90.88
400.613	91.88
400.837	89.88
401.062	80.88
401.286	74.88
401.51	90.88
401.734	87.88
401.958	88.88
402.182	80.88
402.406	79.88
402.63	74.88
402.854	89.88
403.078	88.88
403.302	78.88
403.526	97.88
403.75	88.88
403.974	70.88
404.198	87.88
404.422	91.88
404.645	80.88
404.869	78.88
405.093	82.88
405.317	97.88
405.541	84.88
405.765	85.88
405.988	85.88
406.212	93.88
406.436	84.88
406.66	69.88
406.883	92.88
407.107	91.88
407.331	75.88
407.555	68.88
407.778	80.88
408.002	81.88
408.226	75.88
408.449	76.88
408.673	74.88
408.896	84.88
409.12	77.88
409.344	82.88
409.567	77.88
409.791	92.88
410.014	84.88
410.238	69.88
410.461	83.88
410.685	80.88
410.908	81.88
411.132	78.88
411.355	73.88
411.578	85.88
411.802	81.88
412.025	91.88
412.249	84.88
412.472	83.88
412.695	82.88
412.919	77.88
413.142	84.88
413.365	88.88
413.589	80.88
413.812	79.88
414.035	100.88
414.258	82.88
414.482	76.88
414.705	60.88
414.928	88.88
415.151	70.88
415.374	87.88
415.597	71.88
415.821	88.88
416.044	81.88
416.267	74.88
416.49	84.88
416.713	85.88
416.936	84.88
417.159	72.88
417.382	76.88
417.605	78.88
417.828	88.88
418.051	93.88
418.274	77.88
418.497	79.88
418.72	80.88
418.943	78.88
419.166	77.88
419.389	93.88
419.611	83.88
419.834	73.88
420.057	88.88
420.28	89.88
420.503	84.88
420.726	77.88
420.948	82.88
421.171	78.88
421.394	90.88
421.617	84.88
421.839	67.88
422.062	79.88
422.285	77.88
422.507	87.88
422.73	79.88
422.953	75.88
423.175	77.88
423.398	70.88
423.621	86.88
423.843	94.88
424.066	76.88
424.288	84.88
424.511	81.88
424.733	77.88
424.956	74.88
425.178	66.88
425.401	71.88
425.623	72.88
425.846	77.88
426.068	76.88
426.291	84.88
426.513	78.88
426.735	88.88
426.958	74.88
427.18	83.88
427.402	77.88
427.625	80.88
427.847	80.88
428.069	72.88
428.292	77.88
428.514	79.88
428.736	83.88
428.958	69.88
429.181	90.88
429.403	75.88
429.625	79.88
429.847	74.88
430.069	84.88
430.292	82.88
430.514	69.88
430.736	76.88
430.958	82.88
431.18	60.88
431.402	84.88
431.624	84.88
431.846	87.88
432.068	77.88
432.29	75.88
432.512	80.88
432.734	79.88
432.956	93.88
433.178	87.88
433.4	84.88
433.622	87.88
433.844	69.88
434.066	84.88
434.287	86.88
434.509	82.88
434.731	87.88
434.953	67.88
435.175	77.88
435.397	77.88
435.618	77.88
435.84	93.88
436.062	87.88
436.284	78.88
436.505	76.88
436.727	76.88
436.949	90.88
437.17	86.88
437.392	71.88
437.614	78.88
437.835	82.88
438.057	77.88
438.278	89.88
438.5	80.88
438.721	89.88
438.943	78.88
439.165	72.88
439.386	90.88
439.608	87.88
439.829	80.88
440.05	82.88
440.272	76.88
440.493	106.88
440.715	80.88
440.936	93.88
441.158	92.88
441.379	97.88
441.6	86.88
441.822	90.88
442.043	88.88
442.264	78.88
442.486	77.88
442.707	77.88
442.928	71.88
443.149	82.88
443.371	82.88
443.592	89.88
443.813	98.88
444.034	73.88
444.255	90.88
444.476	79.88
444.698	94.88
444.919	81.88
445.14	169.88
445.361	123.88
445.582	76.88
445.803	98.88
446.024	73.88
446.245	81.88
446.466	89.88
446.687	76.88
446.908	86.88
447.129	80.88
447.35	77.88
447.571	89.88
447.792	67.88
448.013	86.88
448.234	80.88
448.455	80.88
448.675	78.88
448.896	85.88
449.117	75.88
449.338	92.88
449.559	85.88
449.779	82.88
450	66.88
450.221	89.88
450.442	81.88
450.662	82.88
450.883	93.88
451.104	86.88
451.324	75.88
451.545	73.88
451.766	75.88
451.986	81.88
452.207	70.88
452.428	95.88
452.648	84.88
452.869	77.88
453.089	85.88
453.31	92.88
453.53	82.88
453.751	74.88
453.971	85.88
454.192	76.88
454.412	85.88
454.633	78.88
454.853	79.88
455.073	74.88
455.294	89.88
455.514	73.88
455.734	77.88
455.955	77.88
456.175	72.88
456.395	85.88
456.616	84.88
456.836	78.88
457.056	86.88
457.276	75.88
457.497	80.88
457.717	77.88
457.937	79.88
458.157	77.88
458.377	90.88
458.598	75.88
458.818	70.88
459.038	84.88
459.258	79.88
459.478	70.88
459.698	62.88
459.918	74.88
460.138	67.88
460.358	75.88
460.578	81.88
460.798	89.88
461.018	75.88
461.238	83.88
461.458	86.88
461.678	83.88
461.898	98.88
462.118	73.88
462.338	90.88
462.558	88.88
462.777	83.88
462.997	81.88
463.217	72.88
463.437	82.88
463.657	82.88
463.876	68.88
464.096	80.88
464.316	87.88
464.536	82.88
464.755	85.88
464.975	86.88
465.195	85.88
465.414	89.88
465.634	72.88
465.854	79.88
466.073	79.88
466.293	80.88
466.512	82.88
466.732	82.88
466.951	97.88
467.171	78.88
467.391	64.88
467.61	90.88
467.829	87.88
468.049	92.88
468.268	81.88
468.488	72.88
468.707	79.88
468.927	88.88
469.146	85.88
469.365	62.88
469.585	82.88
469.804	94.88
470.023	88.88
470.243	100.88
470.462	81.88
470.681	65.88
470.901	76.88
471.12	89.88
471.339	74.88
471.558	82.88
471.777	78.88
471.997	77.88
472.216	88.88
472.435	80.88
472.654	70.88
472.873	82.88
473.092	70.88
473.311	89.88
473.53	78.88
473.749	81.88
473.968	87.88
474.187	90.88
474.406	82.88
474.625	95.88
474.844	81.88
475.063	78.88
475.282	74.88
475.501	87.88
475.72	76.88
475.939	78.88
476.158	85.88
476.377	74.88
476.596	89.88
476.814	68.88
477.033	76.88
477.252	86.88
477.471	89.88
477.69	81.88
477.908	84.88
478.127	81.88
478.346	85.88
478.564	86.88
478.783	81.88
479.002	78.88
479.22	91.88
479.439	93.88
479.658	79.88
479.876	83.88
480.095	88.88
480.313	79.88
480.532	94.88
480.751	73.88
480.969	92.88
481.188	80.88
481.406	78.88
481.624	87.88
481.843	91.88
482.061	79.88
482.28	78.88
482.498	73.88
482.717	77.88
482.935	77.88
483.153	95.88
483.372	84.88
483.59	94.88
483.808	76.88
484.027	73.88
484.245	82.88
484.463	82.88
484.681	85.88
484.9	77.88
485.118	88.88
485.336	77.88
485.554	72.88
485.772	80.88
485.99	76.88
486.209	93.88
486.427	87.88
486.645	85.88
486.863	82.88
487.081	72.88
487.299	87.88
487.517	82.88
487.735	89.88
487.953	93.88
488.171	103.88
488.389	87.88
488.607	83.88
488.825	83.88
489.043	67.88
489.261	76.88
489.479	84.88
489.696	87.88
489.914	77.88
490.132	88.88
490.35	83.88
490.568	85.88
490.786	89.88
491.003	87.88
491.221	84.88
491.439	68.88
491.657	93.88
491.874	86.88
492.092	92.88
492.31	84.88
492.527	83.88
492.745	96.88
492.963	88.88
493.18	85.88
493.398	89.88
493.615	80.88
493.833	82.88
494.05	81.88
494.268	92.88
494.485	79.88
494.703	96.88
494.92	90.88
495.138	85.88
495.355	85.88
495.573	86.88
495.79	79.88
496.008	77.88
496.225	95.88
496.442	92.88
496.66	94.88
496.877	82.88
497.094	79.88
497.312	87.88
497.529	93.88
497.746	79.88
497.963	87.88
498.181	75.88
498.398	79.88
498.615	86.88
498.832	71.88
499.049	85.88
499.267	74.88
499.484	95.88
499.701	82.88
499.918	79.88
500.135	91.88
500.352	81.88
500.569	84.88
500.786	72.88
501.003	85.88
501.22	82.88
501.437	69.88
501.654	67.88
501.871	78.88
502.088	82.88
502.305	77.88
502.522	90.88
502.739	77.88
502.956	78.88
503.172	90.88
503.389	92.88
503.606	75.88
503.823	84.88
504.04	81.88
504.256	77.88
504.473	87.88
504.69	84.88
504.907	88.88
505.123	93.88
505.34	78.88
505.557	70.88
505.773	84.88
505.99	77.88
506.207	88.88
506.423	73.88
506.64	80.88
506.856	72.88
507.073	97.88
507.289	86.88
507.506	84.88
507.722	92.88
507.939	96.88
508.155	78.88
508.372	90.88
508.588	81.88
508.805	83.88
509.021	88.88
509.238	69.88
509.454	76.88
509.67	70.88
509.887	74.88
510.103	80.88
510.319	80.88
510.536	88.88
510.752	74.88
510.968	70.88
511.184	80.88
511.401	66.88
511.617	83.88
511.833	80.88
512.049	88.88
512.265	82.88
512.481	87.88
512.698	79.88
512.914	87.88
513.13	75.88
513.346	85.88
513.562	93.88
513.778	87.88
513.994	91.88
514.21	82.88
514.426	72.88
514.642	57.88
514.858	95.88
515.074	72.88
515.29	84.88
515.506	91.88
515.721	86.88
515.937	84.88
516.153	63.88
516.369	75.88
516.585	80.88
516.801	78.88
517.016	84.88
517.232	68.88
517.448	84.88
517.664	86.88
517.879	73.88
518.095	82.88
518.311	94.88
518.527	82.88
518.742	74.88
518.958	69.88
519.173	79.88
519.389	78.88
519.605	86.88
519.82	77.88
520.036	95.88
520.251	110.88
