Data from StdD_HRD10591_054.txt Node
Date: Fri May 16 15:31:48 EDT 2025
User: Yrep
Spectrometer: HR+D1059
Trigger mode: 1
Integration Time (sec): 1.000000E-1
Scans to average: 1
Electric dark correction enabled: true
Nonlinearity correction enabled: false
Boxcar width: 0
XAxis mode: Wavelengths
Number of Pixels in Spectrum: 2048
>>>>>Begin Spectral Data<<<<<
223.165	-4.56
223.4	-4.56
223.635	-4.56
223.869	-22.56
224.104	-13.56
224.338	-2.56
224.573	-20.56
224.808	-20.56
225.042	-12.56
225.277	-16.56
225.511	-3.56
225.746	11.44
225.98	6.44
226.215	15.44
226.449	11.44
226.683	22.44
226.918	25.44
227.152	24.44
227.387	31.44
227.621	35.44
227.856	31.44
228.09	42.44
228.324	46.44
228.559	57.44
228.793	63.44
229.027	69.44
229.262	58.44
229.496	67.44
229.73	67.44
229.964	77.44
230.199	85.44
230.433	67.44
230.667	92.44
230.901	67.44
231.136	74.44
231.37	81.44
231.604	88.44
231.838	79.44
232.072	64.44
232.306	82.44
232.541	88.44
232.775	78.44
233.009	82.44
233.243	73.44
233.477	75.44
233.711	77.44
233.945	60.44
234.179	74.44
234.413	98.44
234.647	94.44
234.881	87.44
235.115	88.44
235.349	68.44
235.583	75.44
235.817	75.44
236.051	80.44
236.285	92.44
236.519	79.44
236.753	64.44
236.987	81.44
237.221	76.44
237.455	68.44
237.689	82.44
237.922	70.44
238.156	62.44
238.39	77.44
238.624	63.44
238.858	84.44
239.091	66.44
239.325	86.44
239.559	67.44
239.793	80.44
240.027	83.44
240.26	76.44
240.494	65.44
240.728	77.44
240.961	70.44
241.195	67.44
241.429	80.44
241.662	64.44
241.896	82.44
242.13	77.44
242.363	84.44
242.597	84.44
242.83	71.44
243.064	85.44
243.298	78.44
243.531	74.44
243.765	81.44
243.998	100.44
244.232	83.44
244.465	88.44
244.699	84.44
244.932	74.44
245.166	79.44
245.399	80.44
245.633	87.44
245.866	70.44
246.099	71.44
246.333	68.44
246.566	74.44
246.8	93.44
247.033	77.44
247.266	84.44
247.5	78.44
247.733	87.44
247.966	77.44
248.2	81.44
248.433	82.44
248.666	81.44
248.899	78.44
249.133	71.44
249.366	75.44
249.599	89.44
249.832	76.44
250.066	95.44
250.299	89.44
250.532	82.44
250.765	92.44
250.998	75.44
251.231	98.44
251.465	90.44
251.698	65.44
251.931	88.44
252.164	74.44
252.397	80.44
252.63	68.44
252.863	77.44
253.096	84.44
253.329	88.44
253.562	66.44
253.795	81.44
254.028	84.44
254.261	77.44
254.494	87.44
254.727	84.44
254.96	83.44
255.193	88.44
255.426	95.44
255.659	78.44
255.892	72.44
256.124	90.44
256.357	86.44
256.59	91.44
256.823	89.44
257.056	73.44
257.289	90.44
257.521	92.44
257.754	83.44
257.987	88.44
258.22	88.44
258.452	75.44
258.685	76.44
258.918	82.44
259.151	69.44
259.383	77.44
259.616	74.44
259.849	86.44
260.081	81.44
260.314	90.44
260.547	90.44
260.779	81.44
261.012	81.44
261.244	81.44
261.477	83.44
261.71	104.44
261.942	80.44
262.175	82.44
262.407	81.44
262.64	93.44
262.872	73.44
263.105	82.44
263.337	89.44
263.57	80.44
263.802	85.44
264.035	95.44
264.267	87.44
264.499	88.44
264.732	89.44
264.964	90.44
265.197	93.44
265.429	89.44
265.661	80.44
265.894	90.44
266.126	78.44
266.358	81.44
266.591	78.44
266.823	82.44
267.055	82.44
267.287	79.44
267.52	72.44
267.752	88.44
267.984	95.44
268.216	72.44
268.448	91.44
268.681	77.44
268.913	86.44
269.145	78.44
269.377	97.44
269.609	74.44
269.841	93.44
270.073	75.44
270.306	82.44
270.538	84.44
270.77	89.44
271.002	92.44
271.234	85.44
271.466	83.44
271.698	76.44
271.93	68.44
272.162	79.44
272.394	88.44
272.626	88.44
272.858	77.44
273.09	72.44
273.322	84.44
273.553	86.44
273.785	99.44
274.017	80.44
274.249	94.44
274.481	88.44
274.713	90.44
274.945	85.44
275.176	82.44
275.408	91.44
275.64	72.44
275.872	79.44
276.104	87.44
276.335	78.44
276.567	72.44
276.799	83.44
277.031	71.44
277.262	92.44
277.494	79.44
277.726	82.44
277.957	80.44
278.189	81.44
278.421	91.44
278.652	85.44
278.884	81.44
279.115	85.44
279.347	74.44
279.579	76.44
279.81	88.44
280.042	81.44
280.273	80.44
280.505	86.44
280.736	87.44
280.968	86.44
281.199	88.44
281.431	85.44
281.662	97.44
281.894	100.44
282.125	80.44
282.356	83.44
282.588	94.44
282.819	80.44
283.051	77.44
283.282	76.44
283.513	83.44
283.745	88.44
283.976	87.44
284.207	96.44
284.439	86.44
284.67	84.44
284.901	88.44
285.132	88.44
285.364	79.44
285.595	91.44
285.826	86.44
286.057	86.44
286.288	99.44
286.52	88.44
286.751	95.44
286.982	83.44
287.213	82.44
287.444	79.44
287.675	82.44
287.906	84.44
288.138	82.44
288.369	92.44
288.6	84.44
288.831	96.44
289.062	88.44
289.293	83.44
289.524	82.44
289.755	86.44
289.986	87.44
290.217	75.44
290.448	94.44
290.679	102.44
290.91	83.44
291.141	82.44
291.371	89.44
291.602	81.44
291.833	87.44
292.064	83.44
292.295	90.44
292.526	106.44
292.757	84.44
292.987	75.44
293.218	76.44
293.449	96.44
293.68	72.44
293.91	78.44
294.141	86.44
294.372	88.44
294.603	88.44
294.833	87.44
295.064	73.44
295.295	85.44
295.525	88.44
295.756	74.44
295.987	70.44
296.217	90.44
296.448	84.44
296.679	90.44
296.909	89.44
297.14	71.44
297.37	69.44
297.601	83.44
297.831	86.44
298.062	99.44
298.292	86.44
298.523	76.44
298.753	82.44
298.984	77.44
299.214	90.44
299.445	82.44
299.675	82.44
299.905	92.44
300.136	81.44
300.366	82.44
300.597	91.44
300.827	98.44
301.057	78.44
301.288	67.44
301.518	95.44
301.748	87.44
301.979	114.44
302.209	92.44
302.439	82.44
302.669	89.44
302.9	87.44
303.13	85.44
303.36	87.44
303.59	84.44
303.82	90.44
304.051	84.44
304.281	94.44
304.511	92.44
304.741	87.44
304.971	89.44
305.201	75.44
305.431	77.44
305.661	87.44
305.891	80.44
306.121	99.44
306.352	86.44
306.582	86.44
306.812	74.44
307.042	84.44
307.272	82.44
307.502	84.44
307.731	77.44
307.961	95.44
308.191	84.44
308.421	72.44
308.651	82.44
308.881	84.44
309.111	91.44
309.341	93.44
309.571	88.44
309.8	80.44
310.03	80.44
310.26	79.44
310.49	80.44
310.72	105.44
310.949	68.44
311.179	86.44
311.409	109.44
311.639	80.44
311.868	81.44
312.098	95.44
312.328	94.44
312.557	75.44
312.787	87.44
313.017	92.44
313.246	95.44
313.476	94.44
313.706	92.44
313.935	93.44
314.165	101.44
314.394	91.44
314.624	90.44
314.853	81.44
315.083	82.44
315.312	85.44
315.542	98.44
315.771	98.44
316.001	81.44
316.23	83.44
316.46	81.44
316.689	87.44
316.919	100.44
317.148	91.44
317.377	113.44
317.607	84.44
317.836	89.44
318.065	97.44
318.295	97.44
318.524	99.44
318.753	103.44
318.983	91.44
319.212	102.44
319.441	82.44
319.67	79.44
319.9	95.44
320.129	72.44
320.358	83.44
320.587	87.44
320.816	93.44
321.046	91.44
321.275	74.44
321.504	79.44
321.733	86.44
321.962	84.44
322.191	91.44
322.42	92.44
322.649	75.44
322.878	83.44
323.108	88.44
323.337	82.44
323.566	86.44
323.795	90.44
324.024	89.44
324.253	88.44
324.482	80.44
324.71	84.44
324.939	91.44
325.168	89.44
325.397	75.44
325.626	91.44
325.855	80.44
326.084	80.44
326.313	78.44
326.542	71.44
326.77	98.44
326.999	82.44
327.228	91.44
327.457	92.44
327.686	89.44
327.914	96.44
328.143	76.44
328.372	74.44
328.6	76.44
328.829	96.44
329.058	70.44
329.287	84.44
329.515	89.44
329.744	79.44
329.972	91.44
330.201	86.44
330.43	95.44
330.658	90.44
330.887	88.44
331.115	87.44
331.344	92.44
331.572	94.44
331.801	94.44
332.03	74.44
332.258	84.44
332.486	100.44
332.715	82.44
332.943	88.44
333.172	93.44
333.4	85.44
333.629	95.44
333.857	97.44
334.085	86.44
334.314	87.44
334.542	87.44
334.771	87.44
334.999	81.44
335.227	78.44
335.455	78.44
335.684	78.44
335.912	74.44
336.14	76.44
336.369	90.44
336.597	89.44
336.825	90.44
337.053	79.44
337.281	94.44
337.51	93.44
337.738	84.44
337.966	73.44
338.194	74.44
338.422	78.44
338.65	87.44
338.878	83.44
339.106	92.44
339.334	83.44
339.562	85.44
339.79	106.44
340.018	80.44
340.246	81.44
340.474	78.44
340.702	83.44
340.93	77.44
341.158	91.44
341.386	74.44
341.614	92.44
341.842	83.44
342.07	78.44
342.298	84.44
342.526	71.44
342.754	93.44
342.981	86.44
343.209	86.44
343.437	100.44
343.665	92.44
343.893	80.44
344.12	103.44
344.348	89.44
344.576	98.44
344.804	89.44
345.031	93.44
345.259	83.44
345.487	86.44
345.714	77.44
345.942	76.44
346.17	86.44
346.397	83.44
346.625	80.44
346.853	102.44
347.08	95.44
347.308	83.44
347.535	94.44
347.763	81.44
347.99	72.44
348.218	84.44
348.445	79.44
348.673	84.44
348.9	79.44
349.128	84.44
349.355	73.44
349.583	88.44
349.81	82.44
350.037	96.44
350.265	91.44
350.492	93.44
350.72	86.44
350.947	93.44
351.174	76.44
351.402	80.44
351.629	84.44
351.856	89.44
352.083	88.44
352.311	90.44
352.538	87.44
352.765	80.44
352.992	88.44
353.22	92.44
353.447	94.44
353.674	75.44
353.901	86.44
354.128	88.44
354.355	72.44
354.583	86.44
354.81	104.44
355.037	94.44
355.264	96.44
355.491	104.44
355.718	88.44
355.945	89.44
356.172	86.44
356.399	78.44
356.626	78.44
356.853	87.44
357.08	75.44
357.307	70.44
357.534	84.44
357.761	88.44
357.988	86.44
358.215	81.44
358.441	76.44
358.668	85.44
358.895	84.44
359.122	91.44
359.349	100.44
359.576	91.44
359.802	81.44
360.029	78.44
360.256	90.44
360.483	71.44
360.709	81.44
360.936	96.44
361.163	102.44
361.39	90.44
361.616	87.44
361.843	69.44
362.07	97.44
362.296	80.44
362.523	97.44
362.749	97.44
362.976	74.44
363.203	86.44
363.429	83.44
363.656	86.44
363.882	76.44
364.109	88.44
364.335	88.44
364.562	89.44
364.788	93.44
365.015	74.44
365.241	86.44
365.468	82.44
365.694	78.44
365.92	78.44
366.147	92.44
366.373	86.44
366.599	77.44
366.826	81.44
367.052	78.44
367.278	79.44
367.505	89.44
367.731	83.44
367.957	88.44
368.184	91.44
368.41	67.44
368.636	69.44
368.862	82.44
369.089	86.44
369.315	89.44
369.541	90.44
369.767	72.44
369.993	87.44
370.219	92.44
370.445	78.44
370.672	75.44
370.898	80.44
371.124	82.44
371.35	79.44
371.576	89.44
371.802	82.44
372.028	80.44
372.254	75.44
372.48	83.44
372.706	71.44
372.932	80.44
373.158	86.44
373.384	90.44
373.61	90.44
373.835	81.44
374.061	77.44
374.287	78.44
374.513	78.44
374.739	75.44
374.965	73.44
375.191	88.44
375.416	83.44
375.642	88.44
375.868	82.44
376.094	95.44
376.319	100.44
376.545	86.44
376.771	72.44
376.997	80.44
377.222	86.44
377.448	92.44
377.674	83.44
377.899	93.44
378.125	94.44
378.35	86.44
378.576	81.44
378.802	79.44
379.027	90.44
379.253	88.44
379.478	72.44
379.704	76.44
379.929	85.44
380.155	96.44
380.38	82.44
380.606	82.44
380.831	88.44
381.057	86.44
381.282	71.44
381.507	81.44
381.733	84.44
381.958	85.44
382.184	76.44
382.409	77.44
382.634	88.44
382.86	98.44
383.085	93.44
383.31	89.44
383.535	98.44
383.761	87.44
383.986	91.44
384.211	90.44
384.436	78.44
384.662	82.44
384.887	63.44
385.112	90.44
385.337	94.44
385.562	87.44
385.787	75.44
386.013	98.44
386.238	96.44
386.463	96.44
386.688	83.44
386.913	104.44
387.138	99.44
387.363	86.44
387.588	82.44
387.813	90.44
388.038	88.44
388.263	75.44
388.488	86.44
388.713	87.44
388.938	75.44
389.163	84.44
389.387	90.44
389.612	84.44
389.837	81.44
390.062	84.44
390.287	79.44
390.512	82.44
390.736	80.44
390.961	82.44
391.186	77.44
391.411	81.44
391.636	89.44
391.86	91.44
392.085	94.44
392.31	90.44
392.534	91.44
392.759	82.44
392.984	64.44
393.208	78.44
393.433	96.44
393.658	87.44
393.882	75.44
394.107	86.44
394.331	76.44
394.556	76.44
394.78	87.44
395.005	77.44
395.229	82.44
395.454	87.44
395.678	80.44
395.903	65.44
396.127	76.44
396.352	90.44
396.576	89.44
396.801	88.44
397.025	70.44
397.249	80.44
397.474	83.44
397.698	86.44
397.922	86.44
398.147	86.44
398.371	81.44
398.595	83.44
398.82	92.44
399.044	76.44
399.268	99.44
399.492	95.44
399.717	86.44
399.941	81.44
400.165	95.44
400.389	90.44
400.613	80.44
400.837	83.44
401.062	92.44
401.286	90.44
401.51	89.44
401.734	90.44
401.958	89.44
402.182	83.44
402.406	83.44
402.63	76.44
402.854	76.44
403.078	72.44
403.302	76.44
403.526	86.44
403.75	69.44
403.974	85.44
404.198	88.44
404.422	88.44
404.645	91.44
404.869	69.44
405.093	73.44
405.317	76.44
405.541	95.44
405.765	82.44
405.988	82.44
406.212	94.44
406.436	84.44
406.66	98.44
406.883	87.44
407.107	81.44
407.331	74.44
407.555	78.44
407.778	92.44
408.002	70.44
408.226	90.44
408.449	80.44
408.673	90.44
408.896	86.44
409.12	74.44
409.344	84.44
409.567	87.44
409.791	77.44
410.014	88.44
410.238	79.44
410.461	85.44
410.685	76.44
410.908	83.44
411.132	80.44
411.355	80.44
411.578	92.44
411.802	78.44
412.025	80.44
412.249	87.44
412.472	75.44
412.695	81.44
412.919	87.44
413.142	81.44
413.365	97.44
413.589	75.44
413.812	86.44
414.035	78.44
414.258	89.44
414.482	75.44
414.705	93.44
414.928	83.44
415.151	75.44
415.374	69.44
415.597	83.44
415.821	72.44
416.044	74.44
416.267	82.44
416.49	73.44
416.713	74.44
416.936	86.44
417.159	88.44
417.382	75.44
417.605	80.44
417.828	87.44
418.051	85.44
418.274	75.44
418.497	91.44
418.72	79.44
418.943	80.44
419.166	90.44
419.389	88.44
419.611	80.44
419.834	95.44
420.057	99.44
420.28	74.44
420.503	81.44
420.726	91.44
420.948	89.44
421.171	80.44
421.394	66.44
421.617	86.44
421.839	90.44
422.062	91.44
422.285	100.44
422.507	88.44
422.73	102.44
422.953	71.44
423.175	67.44
423.398	84.44
423.621	92.44
423.843	68.44
424.066	78.44
424.288	84.44
424.511	88.44
424.733	88.44
424.956	92.44
425.178	85.44
425.401	74.44
425.623	94.44
425.846	77.44
426.068	83.44
426.291	86.44
426.513	85.44
426.735	78.44
426.958	79.44
427.18	84.44
427.402	74.44
427.625	94.44
427.847	78.44
428.069	84.44
428.292	76.44
428.514	80.44
428.736	77.44
428.958	88.44
429.181	91.44
429.403	94.44
429.625	89.44
429.847	81.44
430.069	88.44
430.292	91.44
430.514	82.44
430.736	80.44
430.958	76.44
431.18	80.44
431.402	62.44
431.624	86.44
431.846	81.44
432.068	84.44
432.29	83.44
432.512	98.44
432.734	84.44
432.956	92.44
433.178	91.44
433.4	70.44
433.622	83.44
433.844	80.44
434.066	92.44
434.287	84.44
434.509	91.44
434.731	84.44
434.953	82.44
435.175	77.44
435.397	82.44
435.618	84.44
435.84	91.44
436.062	83.44
436.284	94.44
436.505	72.44
436.727	78.44
436.949	89.44
437.17	80.44
437.392	76.44
437.614	98.44
437.835	78.44
438.057	82.44
438.278	83.44
438.5	62.44
438.721	92.44
438.943	72.44
439.165	78.44
439.386	91.44
439.608	71.44
439.829	88.44
440.05	83.44
440.272	83.44
440.493	78.44
440.715	64.44
440.936	80.44
441.158	79.44
441.379	79.44
441.6	80.44
441.822	82.44
442.043	82.44
442.264	76.44
442.486	84.44
442.707	91.44
442.928	82.44
443.149	82.44
443.371	84.44
443.592	82.44
443.813	97.44
444.034	82.44
444.255	86.44
444.476	81.44
444.698	79.44
444.919	98.44
445.14	158.44
445.361	123.44
445.582	90.44
445.803	88.44
446.024	86.44
446.245	78.44
446.466	100.44
446.687	65.44
446.908	86.44
447.129	95.44
447.35	90.44
447.571	84.44
447.792	82.44
448.013	90.44
448.234	94.44
448.455	103.44
448.675	70.44
448.896	84.44
449.117	78.44
449.338	74.44
449.559	81.44
449.779	80.44
450	78.44
450.221	95.44
450.442	79.44
450.662	83.44
450.883	85.44
451.104	83.44
451.324	74.44
451.545	90.44
451.766	81.44
451.986	77.44
452.207	86.44
452.428	91.44
452.648	82.44
452.869	86.44
453.089	81.44
453.31	91.44
453.53	77.44
453.751	91.44
453.971	94.44
454.192	81.44
454.412	92.44
454.633	87.44
454.853	85.44
455.073	78.44
455.294	81.44
455.514	90.44
455.734	81.44
455.955	77.44
456.175	93.44
456.395	93.44
456.616	90.44
456.836	82.44
457.056	84.44
457.276	88.44
457.497	73.44
457.717	73.44
457.937	94.44
458.157	86.44
458.377	76.44
458.598	95.44
458.818	82.44
459.038	78.44
459.258	79.44
459.478	68.44
459.698	90.44
459.918	86.44
460.138	83.44
460.358	95.44
460.578	89.44
460.798	86.44
461.018	86.44
461.238	90.44
461.458	88.44
461.678	95.44
461.898	94.44
462.118	85.44
462.338	80.44
462.558	80.44
462.777	81.44
462.997	79.44
463.217	98.44
463.437	89.44
463.657	83.44
463.876	102.44
464.096	96.44
464.316	90.44
464.536	72.44
464.755	87.44
464.975	77.44
465.195	67.44
465.414	86.44
465.634	90.44
465.854	80.44
466.073	92.44
466.293	78.44
466.512	98.44
466.732	89.44
466.951	86.44
467.171	79.44
467.391	80.44
467.61	80.44
467.829	82.44
468.049	86.44
468.268	75.44
468.488	84.44
468.707	74.44
468.927	82.44
469.146	89.44
469.365	74.44
469.585	87.44
469.804	72.44
470.023	82.44
470.243	89.44
470.462	68.44
470.681	85.44
470.901	82.44
471.12	88.44
471.339	94.44
471.558	82.44
471.777	68.44
471.997	83.44
472.216	81.44
472.435	73.44
472.654	90.44
472.873	96.44
473.092	81.44
473.311	86.44
473.53	72.44
473.749	82.44
473.968	91.44
474.187	79.44
474.406	73.44
474.625	81.44
474.844	90.44
475.063	91.44
475.282	76.44
475.501	84.44
475.72	67.44
475.939	95.44
476.158	83.44
476.377	93.44
476.596	78.44
476.814	90.44
477.033	85.44
477.252	86.44
477.471	78.44
477.69	98.44
477.908	73.44
478.127	95.44
478.346	80.44
478.564	97.44
478.783	87.44
479.002	86.44
479.22	82.44
479.439	76.44
479.658	74.44
479.876	76.44
480.095	84.44
480.313	84.44
480.532	96.44
480.751	93.44
480.969	82.44
481.188	86.44
481.406	97.44
481.624	80.44
481.843	82.44
482.061	97.44
482.28	87.44
482.498	81.44
482.717	90.44
482.935	78.44
483.153	72.44
483.372	83.44
483.59	99.44
483.808	70.44
484.027	93.44
484.245	97.44
484.463	82.44
484.681	91.44
484.9	80.44
485.118	88.44
485.336	82.44
485.554	74.44
485.772	65.44
485.99	86.44
486.209	84.44
486.427	84.44
486.645	80.44
486.863	92.44
487.081	95.44
487.299	83.44
487.517	87.44
487.735	87.44
487.953	64.44
488.171	90.44
488.389	81.44
488.607	66.44
488.825	80.44
489.043	79.44
489.261	92.44
489.479	92.44
489.696	82.44
489.914	86.44
490.132	75.44
490.35	93.44
490.568	91.44
490.786	79.44
491.003	88.44
491.221	83.44
491.439	81.44
491.657	90.44
491.874	86.44
492.092	86.44
492.31	96.44
492.527	92.44
492.745	96.44
492.963	91.44
493.18	75.44
493.398	82.44
493.615	87.44
493.833	86.44
494.05	80.44
494.268	77.44
494.485	94.44
494.703	90.44
494.92	78.44
495.138	78.44
495.355	66.44
495.573	86.44
495.79	85.44
496.008	93.44
496.225	93.44
496.442	94.44
496.66	109.44
496.877	74.44
497.094	82.44
497.312	87.44
497.529	80.44
497.746	91.44
497.963	84.44
498.181	90.44
498.398	94.44
498.615	91.44
498.832	94.44
499.049	75.44
499.267	76.44
499.484	87.44
499.701	84.44
499.918	78.44
500.135	92.44
500.352	79.44
500.569	84.44
500.786	79.44
501.003	79.44
501.22	93.44
501.437	77.44
501.654	86.44
501.871	90.44
502.088	94.44
502.305	89.44
502.522	82.44
502.739	71.44
502.956	88.44
503.172	92.44
503.389	83.44
503.606	90.44
503.823	94.44
504.04	102.44
504.256	89.44
504.473	79.44
504.69	86.44
504.907	75.44
505.123	89.44
505.34	85.44
505.557	93.44
505.773	78.44
505.99	76.44
506.207	79.44
506.423	83.44
506.64	88.44
506.856	82.44
507.073	84.44
507.289	84.44
507.506	76.44
507.722	88.44
507.939	89.44
508.155	81.44
508.372	81.44
508.588	81.44
508.805	87.44
509.021	82.44
509.238	94.44
509.454	103.44
509.67	80.44
509.887	76.44
510.103	86.44
510.319	78.44
510.536	86.44
510.752	85.44
510.968	86.44
511.184	82.44
511.401	88.44
511.617	85.44
511.833	75.44
512.049	93.44
512.265	81.44
512.481	90.44
512.698	83.44
512.914	80.44
513.13	90.44
513.346	79.44
513.562	80.44
513.778	67.44
513.994	80.44
514.21	81.44
514.426	86.44
514.642	89.44
514.858	88.44
515.074	67.44
515.29	80.44
515.506	98.44
515.721	84.44
515.937	78.44
516.153	94.44
516.369	90.44
516.585	86.44
516.801	82.44
517.016	80.44
517.232	92.44
517.448	84.44
517.664	91.44
517.879	63.44
518.095	80.44
518.311	92.44
518.527	82.44
518.742	76.44
518.958	87.44
519.173	66.44
519.389	84.44
519.605	98.44
519.82	87.44
