Data from StdD_HRD10591_039.txt Node
Date: Fri May 16 15:31:40 EDT 2025
User: Yrep
Spectrometer: HR+D1059
Trigger mode: 1
Integration Time (sec): 1.000000E-1
Scans to average: 1
Electric dark correction enabled: true
Nonlinearity correction enabled: false
Boxcar width: 0
XAxis mode: Wavelengths
Number of Pixels in Spectrum: 2048
>>>>>Begin Spectral Data<<<<<
223.165	-20.62
223.4	-20.62
223.635	-20.62
223.869	-27.62
224.104	-19.62
224.338	-12.62
224.573	-7.62
224.808	-13.62
225.042	-10.62
225.277	-8.62
225.511	-5.62
225.746	7.38
225.98	-0.62
226.215	12.38
226.449	16.38
226.683	21.38
226.918	24.38
227.152	45.38
227.387	33.38
227.621	38.38
227.856	34.38
228.09	44.38
228.324	49.38
228.559	60.38
228.793	69.38
229.027	66.38
229.262	65.38
229.496	71.38
229.73	70.38
229.964	84.38
230.199	68.38
230.433	72.38
230.667	74.38
230.901	77.38
231.136	79.38
231.37	78.38
231.604	68.38
231.838	88.38
232.072	76.38
232.306	70.38
232.541	86.38
232.775	84.38
233.009	84.38
233.243	80.38
233.477	78.38
233.711	69.38
233.945	80.38
234.179	76.38
234.413	68.38
234.647	76.38
234.881	82.38
235.115	77.38
235.349	82.38
235.583	60.38
235.817	76.38
236.051	83.38
236.285	76.38
236.519	76.38
236.753	71.38
236.987	66.38
237.221	70.38
237.455	82.38
237.689	84.38
237.922	82.38
238.156	72.38
238.39	77.38
238.624	74.38
238.858	80.38
239.091	70.38
239.325	83.38
239.559	78.38
239.793	78.38
240.027	77.38
240.26	62.38
240.494	76.38
240.728	89.38
240.961	64.38
241.195	84.38
241.429	74.38
241.662	82.38
241.896	79.38
242.13	77.38
242.363	77.38
242.597	72.38
242.83	76.38
243.064	75.38
243.298	67.38
243.531	85.38
243.765	75.38
243.998	80.38
244.232	70.38
244.465	79.38
244.699	77.38
244.932	83.38
245.166	76.38
245.399	67.38
245.633	80.38
245.866	81.38
246.099	68.38
246.333	66.38
246.566	57.38
246.8	74.38
247.033	69.38
247.266	76.38
247.5	84.38
247.733	73.38
247.966	75.38
248.2	87.38
248.433	80.38
248.666	76.38
248.899	70.38
249.133	86.38
249.366	87.38
249.599	66.38
249.832	78.38
250.066	85.38
250.299	72.38
250.532	88.38
250.765	71.38
250.998	80.38
251.231	80.38
251.465	74.38
251.698	76.38
251.931	85.38
252.164	77.38
252.397	73.38
252.63	73.38
252.863	72.38
253.096	91.38
253.329	94.38
253.562	78.38
253.795	65.38
254.028	73.38
254.261	80.38
254.494	84.38
254.727	74.38
254.96	66.38
255.193	77.38
255.426	79.38
255.659	77.38
255.892	85.38
256.124	70.38
256.357	61.38
256.59	78.38
256.823	87.38
257.056	80.38
257.289	81.38
257.521	82.38
257.754	85.38
257.987	80.38
258.22	85.38
258.452	87.38
258.685	67.38
258.918	82.38
259.151	72.38
259.383	75.38
259.616	80.38
259.849	84.38
260.081	76.38
260.314	73.38
260.547	81.38
260.779	73.38
261.012	92.38
261.244	74.38
261.477	97.38
261.71	72.38
261.942	80.38
262.175	65.38
262.407	72.38
262.64	79.38
262.872	88.38
263.105	86.38
263.337	91.38
263.57	85.38
263.802	74.38
264.035	90.38
264.267	72.38
264.499	68.38
264.732	84.38
264.964	82.38
265.197	76.38
265.429	88.38
265.661	85.38
265.894	63.38
266.126	82.38
266.358	74.38
266.591	61.38
266.823	81.38
267.055	78.38
267.287	79.38
267.52	78.38
267.752	79.38
267.984	81.38
268.216	68.38
268.448	84.38
268.681	79.38
268.913	73.38
269.145	87.38
269.377	86.38
269.609	88.38
269.841	78.38
270.073	93.38
270.306	70.38
270.538	83.38
270.77	85.38
271.002	76.38
271.234	70.38
271.466	80.38
271.698	78.38
271.93	74.38
272.162	88.38
272.394	82.38
272.626	87.38
272.858	76.38
273.09	71.38
273.322	92.38
273.553	73.38
273.785	75.38
274.017	77.38
274.249	82.38
274.481	93.38
274.713	80.38
274.945	78.38
275.176	88.38
275.408	66.38
275.64	85.38
275.872	78.38
276.104	88.38
276.335	81.38
276.567	87.38
276.799	92.38
277.031	74.38
277.262	86.38
277.494	80.38
277.726	101.38
277.957	86.38
278.189	74.38
278.421	58.38
278.652	95.38
278.884	74.38
279.115	75.38
279.347	71.38
279.579	83.38
279.81	92.38
280.042	83.38
280.273	72.38
280.505	82.38
280.736	80.38
280.968	88.38
281.199	79.38
281.431	84.38
281.662	93.38
281.894	87.38
282.125	78.38
282.356	92.38
282.588	78.38
282.819	84.38
283.051	86.38
283.282	73.38
283.513	82.38
283.745	87.38
283.976	90.38
284.207	79.38
284.439	66.38
284.67	98.38
284.901	74.38
285.132	77.38
285.364	82.38
285.595	80.38
285.826	73.38
286.057	89.38
286.288	89.38
286.52	77.38
286.751	73.38
286.982	72.38
287.213	79.38
287.444	97.38
287.675	84.38
287.906	96.38
288.138	80.38
288.369	72.38
288.6	80.38
288.831	79.38
289.062	85.38
289.293	81.38
289.524	74.38
289.755	78.38
289.986	77.38
290.217	77.38
290.448	83.38
290.679	70.38
290.91	71.38
291.141	95.38
291.371	92.38
291.602	72.38
291.833	90.38
292.064	88.38
292.295	78.38
292.526	74.38
292.757	72.38
292.987	77.38
293.218	88.38
293.449	84.38
293.68	90.38
293.91	84.38
294.141	87.38
294.372	92.38
294.603	88.38
294.833	91.38
295.064	79.38
295.295	76.38
295.525	77.38
295.756	91.38
295.987	78.38
296.217	84.38
296.448	92.38
296.679	78.38
296.909	77.38
297.14	75.38
297.37	92.38
297.601	90.38
297.831	88.38
298.062	88.38
298.292	79.38
298.523	85.38
298.753	83.38
298.984	74.38
299.214	76.38
299.445	75.38
299.675	65.38
299.905	78.38
300.136	81.38
300.366	74.38
300.597	76.38
300.827	91.38
301.057	91.38
301.288	80.38
301.518	77.38
301.748	90.38
301.979	93.38
302.209	102.38
302.439	90.38
302.669	77.38
302.9	74.38
303.13	89.38
303.36	89.38
303.59	84.38
303.82	85.38
304.051	86.38
304.281	76.38
304.511	96.38
304.741	87.38
304.971	78.38
305.201	84.38
305.431	75.38
305.661	89.38
305.891	88.38
306.121	72.38
306.352	92.38
306.582	73.38
306.812	88.38
307.042	79.38
307.272	89.38
307.502	88.38
307.731	82.38
307.961	75.38
308.191	95.38
308.421	69.38
308.651	100.38
308.881	87.38
309.111	73.38
309.341	85.38
309.571	79.38
309.8	98.38
310.03	74.38
310.26	87.38
310.49	85.38
310.72	82.38
310.949	92.38
311.179	79.38
311.409	85.38
311.639	75.38
311.868	80.38
312.098	76.38
312.328	76.38
312.557	89.38
312.787	87.38
313.017	84.38
313.246	89.38
313.476	78.38
313.706	62.38
313.935	78.38
314.165	87.38
314.394	79.38
314.624	65.38
314.853	72.38
315.083	81.38
315.312	80.38
315.542	80.38
315.771	82.38
316.001	84.38
316.23	77.38
316.46	80.38
316.689	89.38
316.919	88.38
317.148	78.38
317.377	84.38
317.607	84.38
317.836	80.38
318.065	91.38
318.295	76.38
318.524	89.38
318.753	91.38
318.983	74.38
319.212	76.38
319.441	94.38
319.67	87.38
319.9	78.38
320.129	74.38
320.358	67.38
320.587	77.38
320.816	88.38
321.046	77.38
321.275	74.38
321.504	93.38
321.733	82.38
321.962	81.38
322.191	90.38
322.42	78.38
322.649	83.38
322.878	90.38
323.108	82.38
323.337	77.38
323.566	84.38
323.795	89.38
324.024	87.38
324.253	82.38
324.482	76.38
324.71	81.38
324.939	82.38
325.168	86.38
325.397	87.38
325.626	90.38
325.855	67.38
326.084	89.38
326.313	69.38
326.542	83.38
326.77	82.38
326.999	65.38
327.228	70.38
327.457	81.38
327.686	88.38
327.914	93.38
328.143	90.38
328.372	85.38
328.6	66.38
328.829	73.38
329.058	81.38
329.287	67.38
329.515	73.38
329.744	87.38
329.972	75.38
330.201	87.38
330.43	92.38
330.658	70.38
330.887	78.38
331.115	95.38
331.344	81.38
331.572	74.38
331.801	76.38
332.03	91.38
332.258	84.38
332.486	77.38
332.715	88.38
332.943	82.38
333.172	76.38
333.4	83.38
333.629	84.38
333.857	79.38
334.085	66.38
334.314	76.38
334.542	100.38
334.771	88.38
334.999	78.38
335.227	72.38
335.455	72.38
335.684	75.38
335.912	84.38
336.14	84.38
336.369	84.38
336.597	84.38
336.825	75.38
337.053	85.38
337.281	73.38
337.51	78.38
337.738	96.38
337.966	76.38
338.194	60.38
338.422	82.38
338.65	74.38
338.878	85.38
339.106	85.38
339.334	94.38
339.562	86.38
339.79	92.38
340.018	88.38
340.246	82.38
340.474	93.38
340.702	78.38
340.93	69.38
341.158	66.38
341.386	77.38
341.614	83.38
341.842	85.38
342.07	80.38
342.298	84.38
342.526	88.38
342.754	87.38
342.981	93.38
343.209	101.38
343.437	92.38
343.665	67.38
343.893	87.38
344.12	90.38
344.348	80.38
344.576	76.38
344.804	72.38
345.031	85.38
345.259	79.38
345.487	80.38
345.714	79.38
345.942	86.38
346.17	76.38
346.397	93.38
346.625	70.38
346.853	82.38
347.08	94.38
347.308	86.38
347.535	99.38
347.763	81.38
347.99	91.38
348.218	68.38
348.445	81.38
348.673	87.38
348.9	92.38
349.128	101.38
349.355	74.38
349.583	75.38
349.81	84.38
350.037	79.38
350.265	90.38
350.492	77.38
350.72	86.38
350.947	84.38
351.174	63.38
351.402	79.38
351.629	100.38
351.856	93.38
352.083	72.38
352.311	81.38
352.538	92.38
352.765	84.38
352.992	89.38
353.22	71.38
353.447	86.38
353.674	85.38
353.901	87.38
354.128	71.38
354.355	78.38
354.583	85.38
354.81	70.38
355.037	77.38
355.264	89.38
355.491	85.38
355.718	73.38
355.945	74.38
356.172	69.38
356.399	86.38
356.626	78.38
356.853	84.38
357.08	74.38
357.307	82.38
357.534	75.38
357.761	77.38
357.988	91.38
358.215	81.38
358.441	84.38
358.668	79.38
358.895	88.38
359.122	75.38
359.349	82.38
359.576	80.38
359.802	85.38
360.029	80.38
360.256	78.38
360.483	76.38
360.709	90.38
360.936	95.38
361.163	81.38
361.39	75.38
361.616	76.38
361.843	86.38
362.07	71.38
362.296	82.38
362.523	75.38
362.749	78.38
362.976	70.38
363.203	84.38
363.429	87.38
363.656	87.38
363.882	95.38
364.109	85.38
364.335	82.38
364.562	87.38
364.788	85.38
365.015	88.38
365.241	78.38
365.468	92.38
365.694	88.38
365.92	87.38
366.147	86.38
366.373	80.38
366.599	89.38
366.826	90.38
367.052	81.38
367.278	84.38
367.505	85.38
367.731	92.38
367.957	85.38
368.184	86.38
368.41	76.38
368.636	89.38
368.862	86.38
369.089	77.38
369.315	78.38
369.541	86.38
369.767	89.38
369.993	80.38
370.219	78.38
370.445	72.38
370.672	80.38
370.898	82.38
371.124	58.38
371.35	78.38
371.576	93.38
371.802	75.38
372.028	79.38
372.254	101.38
372.48	87.38
372.706	79.38
372.932	82.38
373.158	83.38
373.384	76.38
373.61	94.38
373.835	87.38
374.061	74.38
374.287	86.38
374.513	83.38
374.739	82.38
374.965	93.38
375.191	92.38
375.416	74.38
375.642	70.38
375.868	85.38
376.094	84.38
376.319	81.38
376.545	82.38
376.771	80.38
376.997	84.38
377.222	84.38
377.448	84.38
377.674	75.38
377.899	82.38
378.125	90.38
378.35	72.38
378.576	81.38
378.802	75.38
379.027	96.38
379.253	74.38
379.478	79.38
379.704	80.38
379.929	75.38
380.155	75.38
380.38	84.38
380.606	88.38
380.831	85.38
381.057	94.38
381.282	91.38
381.507	73.38
381.733	72.38
381.958	72.38
382.184	71.38
382.409	88.38
382.634	84.38
382.86	81.38
383.085	86.38
383.31	74.38
383.535	94.38
383.761	84.38
383.986	84.38
384.211	81.38
384.436	78.38
384.662	79.38
384.887	77.38
385.112	81.38
385.337	88.38
385.562	79.38
385.787	84.38
386.013	86.38
386.238	71.38
386.463	79.38
386.688	106.38
386.913	86.38
387.138	86.38
387.363	82.38
387.588	99.38
387.813	83.38
388.038	95.38
388.263	83.38
388.488	75.38
388.713	79.38
388.938	82.38
389.163	79.38
389.387	92.38
389.612	81.38
389.837	79.38
390.062	74.38
390.287	74.38
390.512	87.38
390.736	66.38
390.961	77.38
391.186	76.38
391.411	91.38
391.636	86.38
391.86	82.38
392.085	83.38
392.31	76.38
392.534	68.38
392.759	87.38
392.984	92.38
393.208	76.38
393.433	79.38
393.658	88.38
393.882	92.38
394.107	77.38
394.331	75.38
394.556	84.38
394.78	98.38
395.005	85.38
395.229	66.38
395.454	98.38
395.678	63.38
395.903	77.38
396.127	90.38
396.352	70.38
396.576	77.38
396.801	88.38
397.025	84.38
397.249	82.38
397.474	84.38
397.698	69.38
397.922	84.38
398.147	91.38
398.371	89.38
398.595	83.38
398.82	67.38
399.044	82.38
399.268	68.38
399.492	89.38
399.717	69.38
399.941	80.38
400.165	84.38
400.389	74.38
400.613	81.38
400.837	71.38
401.062	88.38
401.286	75.38
401.51	80.38
401.734	103.38
401.958	79.38
402.182	78.38
402.406	77.38
402.63	70.38
402.854	88.38
403.078	77.38
403.302	81.38
403.526	90.38
403.75	79.38
403.974	80.38
404.198	81.38
404.422	96.38
404.645	79.38
404.869	77.38
405.093	93.38
405.317	70.38
405.541	80.38
405.765	76.38
405.988	85.38
406.212	66.38
406.436	75.38
406.66	72.38
406.883	75.38
407.107	89.38
407.331	72.38
407.555	80.38
407.778	71.38
408.002	73.38
408.226	77.38
408.449	76.38
408.673	84.38
408.896	76.38
409.12	74.38
409.344	86.38
409.567	87.38
409.791	65.38
410.014	86.38
410.238	69.38
410.461	80.38
410.685	75.38
410.908	76.38
411.132	89.38
411.355	76.38
411.578	82.38
411.802	80.38
412.025	71.38
412.249	74.38
412.472	85.38
412.695	74.38
412.919	100.38
413.142	91.38
413.365	70.38
413.589	77.38
413.812	86.38
414.035	73.38
414.258	94.38
414.482	86.38
414.705	77.38
414.928	86.38
415.151	87.38
415.374	76.38
415.597	81.38
415.821	76.38
416.044	89.38
416.267	84.38
416.49	92.38
416.713	85.38
416.936	74.38
417.159	78.38
417.382	81.38
417.605	83.38
417.828	66.38
418.051	72.38
418.274	82.38
418.497	90.38
418.72	69.38
418.943	70.38
419.166	91.38
419.389	85.38
419.611	86.38
419.834	73.38
420.057	75.38
420.28	84.38
420.503	97.38
420.726	77.38
420.948	84.38
421.171	92.38
421.394	77.38
421.617	88.38
421.839	76.38
422.062	78.38
422.285	77.38
422.507	73.38
422.73	73.38
422.953	83.38
423.175	79.38
423.398	85.38
423.621	85.38
423.843	81.38
424.066	72.38
424.288	89.38
424.511	81.38
424.733	75.38
424.956	85.38
425.178	70.38
425.401	76.38
425.623	84.38
425.846	65.38
426.068	86.38
426.291	75.38
426.513	89.38
426.735	90.38
426.958	80.38
427.18	76.38
427.402	89.38
427.625	78.38
427.847	77.38
428.069	84.38
428.292	71.38
428.514	70.38
428.736	84.38
428.958	93.38
429.181	81.38
429.403	78.38
429.625	86.38
429.847	84.38
430.069	82.38
430.292	66.38
430.514	79.38
430.736	72.38
430.958	83.38
431.18	70.38
431.402	86.38
431.624	71.38
431.846	76.38
432.068	76.38
432.29	84.38
432.512	76.38
432.734	74.38
432.956	89.38
433.178	81.38
433.4	87.38
433.622	82.38
433.844	85.38
434.066	79.38
434.287	80.38
434.509	70.38
434.731	74.38
434.953	70.38
435.175	85.38
435.397	79.38
435.618	85.38
435.84	76.38
436.062	82.38
436.284	93.38
436.505	94.38
436.727	82.38
436.949	82.38
437.17	77.38
437.392	69.38
437.614	85.38
437.835	81.38
438.057	79.38
438.278	82.38
438.5	79.38
438.721	71.38
438.943	82.38
439.165	74.38
439.386	86.38
439.608	77.38
439.829	81.38
440.05	87.38
440.272	76.38
440.493	86.38
440.715	95.38
440.936	99.38
441.158	81.38
441.379	66.38
441.6	80.38
441.822	76.38
442.043	83.38
442.264	86.38
442.486	94.38
442.707	82.38
442.928	82.38
443.149	69.38
443.371	82.38
443.592	75.38
443.813	82.38
444.034	80.38
444.255	77.38
444.476	80.38
444.698	81.38
444.919	77.38
445.14	150.38
445.361	104.38
445.582	83.38
445.803	76.38
446.024	80.38
446.245	81.38
446.466	80.38
446.687	75.38
446.908	84.38
447.129	70.38
447.35	87.38
447.571	75.38
447.792	75.38
448.013	74.38
448.234	71.38
448.455	85.38
448.675	80.38
448.896	81.38
449.117	83.38
449.338	65.38
449.559	91.38
449.779	86.38
450	81.38
450.221	82.38
450.442	66.38
450.662	77.38
450.883	76.38
451.104	75.38
451.324	74.38
451.545	76.38
451.766	67.38
451.986	74.38
452.207	80.38
452.428	81.38
452.648	90.38
452.869	80.38
453.089	76.38
453.31	77.38
453.53	64.38
453.751	78.38
453.971	89.38
454.192	80.38
454.412	80.38
454.633	81.38
454.853	84.38
455.073	80.38
455.294	72.38
455.514	81.38
455.734	79.38
455.955	87.38
456.175	64.38
456.395	80.38
456.616	92.38
456.836	76.38
457.056	84.38
457.276	64.38
457.497	89.38
457.717	72.38
457.937	77.38
458.157	83.38
458.377	83.38
458.598	77.38
458.818	75.38
459.038	79.38
459.258	82.38
459.478	74.38
459.698	80.38
459.918	77.38
460.138	79.38
460.358	77.38
460.578	84.38
460.798	73.38
461.018	75.38
461.238	79.38
461.458	97.38
461.678	77.38
461.898	69.38
462.118	81.38
462.338	76.38
462.558	76.38
462.777	76.38
462.997	78.38
463.217	88.38
463.437	81.38
463.657	87.38
463.876	83.38
464.096	71.38
464.316	82.38
464.536	83.38
464.755	69.38
464.975	73.38
465.195	65.38
465.414	76.38
465.634	66.38
465.854	75.38
466.073	85.38
466.293	87.38
466.512	87.38
466.732	85.38
466.951	97.38
467.171	80.38
467.391	77.38
467.61	79.38
467.829	85.38
468.049	92.38
468.268	76.38
468.488	88.38
468.707	81.38
468.927	88.38
469.146	74.38
469.365	80.38
469.585	80.38
469.804	93.38
470.023	77.38
470.243	76.38
470.462	76.38
470.681	85.38
470.901	83.38
471.12	85.38
471.339	81.38
471.558	72.38
471.777	70.38
471.997	91.38
472.216	91.38
472.435	79.38
472.654	81.38
472.873	83.38
473.092	75.38
473.311	81.38
473.53	77.38
473.749	71.38
473.968	77.38
474.187	74.38
474.406	70.38
474.625	84.38
474.844	81.38
475.063	81.38
475.282	74.38
475.501	89.38
475.72	72.38
475.939	85.38
476.158	92.38
476.377	75.38
476.596	76.38
476.814	91.38
477.033	85.38
477.252	74.38
477.471	93.38
477.69	72.38
477.908	94.38
478.127	94.38
478.346	77.38
478.564	83.38
478.783	80.38
479.002	72.38
479.22	76.38
479.439	84.38
479.658	95.38
479.876	89.38
480.095	80.38
480.313	81.38
480.532	87.38
480.751	87.38
480.969	69.38
481.188	74.38
481.406	80.38
481.624	73.38
481.843	86.38
482.061	84.38
482.28	75.38
482.498	84.38
482.717	93.38
482.935	84.38
483.153	77.38
483.372	80.38
483.59	77.38
483.808	85.38
484.027	86.38
484.245	89.38
484.463	82.38
484.681	93.38
484.9	82.38
485.118	88.38
485.336	92.38
485.554	59.38
485.772	82.38
485.99	78.38
486.209	70.38
486.427	76.38
486.645	66.38
486.863	87.38
487.081	76.38
487.299	82.38
487.517	78.38
487.735	79.38
487.953	93.38
488.171	84.38
488.389	67.38
488.607	76.38
488.825	76.38
489.043	90.38
489.261	89.38
489.479	97.38
489.696	88.38
489.914	81.38
490.132	84.38
490.35	88.38
490.568	74.38
490.786	67.38
491.003	94.38
491.221	100.38
491.439	84.38
491.657	94.38
491.874	86.38
492.092	87.38
492.31	84.38
492.527	82.38
492.745	87.38
492.963	88.38
493.18	91.38
493.398	85.38
493.615	89.38
493.833	96.38
494.05	77.38
494.268	78.38
494.485	79.38
494.703	74.38
494.92	87.38
495.138	88.38
495.355	90.38
495.573	93.38
495.79	84.38
496.008	94.38
496.225	68.38
496.442	93.38
496.66	87.38
496.877	66.38
497.094	81.38
497.312	80.38
497.529	94.38
497.746	89.38
497.963	84.38
498.181	64.38
498.398	74.38
498.615	66.38
498.832	82.38
499.049	71.38
499.267	84.38
499.484	81.38
499.701	80.38
499.918	83.38
500.135	70.38
500.352	86.38
500.569	88.38
500.786	78.38
501.003	68.38
501.22	81.38
501.437	94.38
501.654	82.38
501.871	87.38
502.088	87.38
502.305	87.38
502.522	87.38
502.739	83.38
502.956	82.38
503.172	85.38
503.389	89.38
503.606	71.38
503.823	74.38
504.04	78.38
504.256	85.38
504.473	82.38
504.69	78.38
504.907	83.38
505.123	94.38
505.34	83.38
505.557	87.38
505.773	73.38
505.99	78.38
506.207	74.38
506.423	75.38
506.64	67.38
506.856	83.38
507.073	78.38
507.289	99.38
507.506	92.38
507.722	85.38
507.939	93.38
508.155	80.38
508.372	79.38
508.588	78.38
508.805	90.38
509.021	79.38
509.238	77.38
509.454	73.38
509.67	87.38
509.887	85.38
510.103	74.38
510.319	86.38
510.536	84.38
510.752	79.38
510.968	66.38
511.184	71.38
511.401	70.38
511.617	85.38
511.833	72.38
512.049	92.38
512.265	78.38
512.481	80.38
512.698	78.38
512.914	88.38
513.13	74.38
513.346	81.38
513.562	76.38
513.778	78.38
513.994	89.38
514.21	79.38
514.426	92.38
514.642	79.38
514.858	83.38
515.074	92.38
515.29	81.38
515.506	87.38
515.721	72.38
515.937	87.38
516.153	80.38
516.369	94.38
516.585	77.38
516.801	70.38
517.016	76.38
517.232	79.38
517.448	88.38
517.664	71.38
517.879	68.38
518.095	86.38
518.311	87.38
518.527	76.38
518.742	82.38
518.958	82.38
519.173	69.38
519.389	89.38
519.605	68.38
519.82	86.38
520.036	85.38
520.251	83.38
