Data from StdD_HRD10591_057.txt Node
Date: Fri May 16 15:31:49 EDT 2025
User: Yrep
Spectrometer: HR+D1059
Trigger mode: 1
Integration Time (sec): 1.000000E-1
Scans to average: 1
Electric dark correction enabled: true
Nonlinearity correction enabled: false
Boxcar width: 0
XAxis mode: Wavelengths
Number of Pixels in Spectrum: 2048
>>>>>Begin Spectral Data<<<<<
223.165	-28.38
223.4	-28.38
223.635	-28.38
223.869	-14.38
224.104	-18.38
224.338	-11.38
224.573	-2.38
224.808	-3.38
225.042	-12.38
225.277	-9.38
225.511	-3.38
225.746	1.62
225.98	15.62
226.215	12.62
226.449	14.62
226.683	9.62
226.918	19.62
227.152	29.62
227.387	27.62
227.621	30.62
227.856	42.62
228.09	45.62
228.324	42.62
228.559	55.62
228.793	46.62
229.027	50.62
229.262	76.62
229.496	59.62
229.73	69.62
229.964	72.62
230.199	66.62
230.433	71.62
230.667	86.62
230.901	70.62
231.136	67.62
231.37	77.62
231.604	86.62
231.838	85.62
232.072	89.62
232.306	77.62
232.541	76.62
232.775	76.62
233.009	76.62
233.243	83.62
233.477	74.62
233.711	72.62
233.945	64.62
234.179	76.62
234.413	85.62
234.647	67.62
234.881	76.62
235.115	85.62
235.349	69.62
235.583	83.62
235.817	84.62
236.051	69.62
236.285	73.62
236.519	85.62
236.753	77.62
236.987	83.62
237.221	78.62
237.455	65.62
237.689	67.62
237.922	72.62
238.156	73.62
238.39	80.62
238.624	69.62
238.858	84.62
239.091	81.62
239.325	68.62
239.559	68.62
239.793	70.62
240.027	74.62
240.26	80.62
240.494	77.62
240.728	58.62
240.961	68.62
241.195	75.62
241.429	76.62
241.662	63.62
241.896	70.62
242.13	88.62
242.363	73.62
242.597	77.62
242.83	76.62
243.064	74.62
243.298	70.62
243.531	72.62
243.765	80.62
243.998	71.62
244.232	65.62
244.465	80.62
244.699	73.62
244.932	87.62
245.166	69.62
245.399	83.62
245.633	73.62
245.866	75.62
246.099	62.62
246.333	58.62
246.566	69.62
246.8	72.62
247.033	69.62
247.266	67.62
247.5	82.62
247.733	63.62
247.966	79.62
248.2	81.62
248.433	76.62
248.666	70.62
248.899	84.62
249.133	74.62
249.366	76.62
249.599	87.62
249.832	64.62
250.066	87.62
250.299	84.62
250.532	82.62
250.765	69.62
250.998	82.62
251.231	76.62
251.465	82.62
251.698	76.62
251.931	72.62
252.164	56.62
252.397	76.62
252.63	75.62
252.863	74.62
253.096	84.62
253.329	65.62
253.562	70.62
253.795	87.62
254.028	63.62
254.261	68.62
254.494	81.62
254.727	88.62
254.96	86.62
255.193	66.62
255.426	63.62
255.659	58.62
255.892	82.62
256.124	78.62
256.357	78.62
256.59	78.62
256.823	75.62
257.056	69.62
257.289	84.62
257.521	69.62
257.754	81.62
257.987	72.62
258.22	81.62
258.452	74.62
258.685	71.62
258.918	81.62
259.151	69.62
259.383	67.62
259.616	79.62
259.849	69.62
260.081	75.62
260.314	79.62
260.547	68.62
260.779	84.62
261.012	73.62
261.244	66.62
261.477	89.62
261.71	75.62
261.942	76.62
262.175	77.62
262.407	74.62
262.64	80.62
262.872	81.62
263.105	74.62
263.337	77.62
263.57	83.62
263.802	70.62
264.035	86.62
264.267	82.62
264.499	66.62
264.732	84.62
264.964	67.62
265.197	87.62
265.429	68.62
265.661	84.62
265.894	82.62
266.126	90.62
266.358	88.62
266.591	76.62
266.823	63.62
267.055	71.62
267.287	73.62
267.52	75.62
267.752	83.62
267.984	70.62
268.216	70.62
268.448	70.62
268.681	69.62
268.913	78.62
269.145	82.62
269.377	87.62
269.609	78.62
269.841	68.62
270.073	78.62
270.306	72.62
270.538	68.62
270.77	80.62
271.002	69.62
271.234	87.62
271.466	78.62
271.698	77.62
271.93	79.62
272.162	83.62
272.394	78.62
272.626	69.62
272.858	73.62
273.09	81.62
273.322	84.62
273.553	93.62
273.785	87.62
274.017	88.62
274.249	86.62
274.481	80.62
274.713	87.62
274.945	79.62
275.176	60.62
275.408	76.62
275.64	74.62
275.872	87.62
276.104	77.62
276.335	81.62
276.567	83.62
276.799	76.62
277.031	89.62
277.262	82.62
277.494	78.62
277.726	84.62
277.957	73.62
278.189	82.62
278.421	78.62
278.652	72.62
278.884	69.62
279.115	79.62
279.347	66.62
279.579	85.62
279.81	71.62
280.042	77.62
280.273	91.62
280.505	83.62
280.736	82.62
280.968	81.62
281.199	76.62
281.431	77.62
281.662	76.62
281.894	81.62
282.125	64.62
282.356	76.62
282.588	87.62
282.819	83.62
283.051	77.62
283.282	73.62
283.513	82.62
283.745	62.62
283.976	77.62
284.207	86.62
284.439	77.62
284.67	87.62
284.901	60.62
285.132	86.62
285.364	83.62
285.595	70.62
285.826	80.62
286.057	87.62
286.288	97.62
286.52	81.62
286.751	68.62
286.982	84.62
287.213	74.62
287.444	74.62
287.675	77.62
287.906	85.62
288.138	74.62
288.369	82.62
288.6	83.62
288.831	78.62
289.062	75.62
289.293	79.62
289.524	90.62
289.755	75.62
289.986	73.62
290.217	85.62
290.448	84.62
290.679	88.62
290.91	76.62
291.141	87.62
291.371	78.62
291.602	77.62
291.833	86.62
292.064	77.62
292.295	80.62
292.526	91.62
292.757	82.62
292.987	70.62
293.218	81.62
293.449	74.62
293.68	75.62
293.91	83.62
294.141	86.62
294.372	72.62
294.603	78.62
294.833	86.62
295.064	103.62
295.295	83.62
295.525	85.62
295.756	82.62
295.987	83.62
296.217	78.62
296.448	76.62
296.679	74.62
296.909	83.62
297.14	73.62
297.37	72.62
297.601	69.62
297.831	81.62
298.062	83.62
298.292	77.62
298.523	86.62
298.753	84.62
298.984	68.62
299.214	84.62
299.445	67.62
299.675	69.62
299.905	89.62
300.136	85.62
300.366	69.62
300.597	87.62
300.827	86.62
301.057	87.62
301.288	79.62
301.518	84.62
301.748	80.62
301.979	83.62
302.209	73.62
302.439	79.62
302.669	83.62
302.9	80.62
303.13	86.62
303.36	78.62
303.59	72.62
303.82	83.62
304.051	73.62
304.281	88.62
304.511	86.62
304.741	96.62
304.971	88.62
305.201	80.62
305.431	86.62
305.661	70.62
305.891	84.62
306.121	78.62
306.352	84.62
306.582	82.62
306.812	81.62
307.042	70.62
307.272	71.62
307.502	91.62
307.731	74.62
307.961	77.62
308.191	84.62
308.421	94.62
308.651	77.62
308.881	79.62
309.111	74.62
309.341	79.62
309.571	86.62
309.8	71.62
310.03	67.62
310.26	77.62
310.49	74.62
310.72	82.62
310.949	82.62
311.179	84.62
311.409	77.62
311.639	85.62
311.868	80.62
312.098	78.62
312.328	86.62
312.557	76.62
312.787	80.62
313.017	95.62
313.246	73.62
313.476	77.62
313.706	93.62
313.935	83.62
314.165	59.62
314.394	77.62
314.624	82.62
314.853	78.62
315.083	93.62
315.312	85.62
315.542	79.62
315.771	81.62
316.001	81.62
316.23	91.62
316.46	78.62
316.689	87.62
316.919	78.62
317.148	78.62
317.377	86.62
317.607	93.62
317.836	84.62
318.065	75.62
318.295	69.62
318.524	85.62
318.753	81.62
318.983	78.62
319.212	86.62
319.441	86.62
319.67	68.62
319.9	81.62
320.129	83.62
320.358	63.62
320.587	89.62
320.816	86.62
321.046	76.62
321.275	81.62
321.504	81.62
321.733	84.62
321.962	87.62
322.191	84.62
322.42	74.62
322.649	86.62
322.878	84.62
323.108	75.62
323.337	87.62
323.566	87.62
323.795	92.62
324.024	85.62
324.253	81.62
324.482	79.62
324.71	82.62
324.939	77.62
325.168	65.62
325.397	78.62
325.626	85.62
325.855	68.62
326.084	77.62
326.313	63.62
326.542	66.62
326.77	85.62
326.999	76.62
327.228	82.62
327.457	85.62
327.686	67.62
327.914	74.62
328.143	92.62
328.372	74.62
328.6	82.62
328.829	82.62
329.058	70.62
329.287	77.62
329.515	83.62
329.744	82.62
329.972	71.62
330.201	81.62
330.43	69.62
330.658	74.62
330.887	72.62
331.115	84.62
331.344	87.62
331.572	91.62
331.801	90.62
332.03	79.62
332.258	68.62
332.486	89.62
332.715	93.62
332.943	72.62
333.172	83.62
333.4	84.62
333.629	76.62
333.857	75.62
334.085	78.62
334.314	81.62
334.542	77.62
334.771	70.62
334.999	70.62
335.227	69.62
335.455	84.62
335.684	68.62
335.912	85.62
336.14	97.62
336.369	75.62
336.597	75.62
336.825	69.62
337.053	83.62
337.281	89.62
337.51	84.62
337.738	78.62
337.966	88.62
338.194	69.62
338.422	87.62
338.65	87.62
338.878	89.62
339.106	75.62
339.334	95.62
339.562	88.62
339.79	82.62
340.018	77.62
340.246	81.62
340.474	87.62
340.702	86.62
340.93	87.62
341.158	90.62
341.386	71.62
341.614	83.62
341.842	72.62
342.07	87.62
342.298	89.62
342.526	86.62
342.754	81.62
342.981	97.62
343.209	86.62
343.437	85.62
343.665	59.62
343.893	68.62
344.12	79.62
344.348	83.62
344.576	73.62
344.804	72.62
345.031	80.62
345.259	77.62
345.487	77.62
345.714	95.62
345.942	93.62
346.17	93.62
346.397	63.62
346.625	92.62
346.853	85.62
347.08	70.62
347.308	69.62
347.535	61.62
347.763	86.62
347.99	81.62
348.218	83.62
348.445	80.62
348.673	84.62
348.9	83.62
349.128	83.62
349.355	78.62
349.583	91.62
349.81	60.62
350.037	86.62
350.265	87.62
350.492	86.62
350.72	77.62
350.947	73.62
351.174	77.62
351.402	67.62
351.629	72.62
351.856	79.62
352.083	79.62
352.311	76.62
352.538	87.62
352.765	78.62
352.992	82.62
353.22	75.62
353.447	88.62
353.674	83.62
353.901	81.62
354.128	78.62
354.355	74.62
354.583	80.62
354.81	85.62
355.037	93.62
355.264	73.62
355.491	85.62
355.718	83.62
355.945	74.62
356.172	68.62
356.399	66.62
356.626	79.62
356.853	58.62
357.08	83.62
357.307	87.62
357.534	88.62
357.761	87.62
357.988	74.62
358.215	81.62
358.441	93.62
358.668	77.62
358.895	83.62
359.122	73.62
359.349	71.62
359.576	69.62
359.802	84.62
360.029	83.62
360.256	84.62
360.483	62.62
360.709	81.62
360.936	74.62
361.163	82.62
361.39	76.62
361.616	91.62
361.843	88.62
362.07	77.62
362.296	79.62
362.523	60.62
362.749	77.62
362.976	81.62
363.203	74.62
363.429	69.62
363.656	70.62
363.882	99.62
364.109	83.62
364.335	79.62
364.562	83.62
364.788	87.62
365.015	79.62
365.241	67.62
365.468	81.62
365.694	71.62
365.92	91.62
366.147	81.62
366.373	66.62
366.599	71.62
366.826	81.62
367.052	67.62
367.278	87.62
367.505	76.62
367.731	77.62
367.957	76.62
368.184	87.62
368.41	83.62
368.636	86.62
368.862	72.62
369.089	71.62
369.315	85.62
369.541	75.62
369.767	79.62
369.993	70.62
370.219	81.62
370.445	77.62
370.672	82.62
370.898	84.62
371.124	76.62
371.35	75.62
371.576	88.62
371.802	74.62
372.028	81.62
372.254	92.62
372.48	91.62
372.706	75.62
372.932	70.62
373.158	83.62
373.384	79.62
373.61	84.62
373.835	84.62
374.061	81.62
374.287	76.62
374.513	75.62
374.739	82.62
374.965	76.62
375.191	72.62
375.416	74.62
375.642	93.62
375.868	91.62
376.094	79.62
376.319	77.62
376.545	70.62
376.771	77.62
376.997	79.62
377.222	76.62
377.448	81.62
377.674	81.62
377.899	84.62
378.125	93.62
378.35	83.62
378.576	78.62
378.802	81.62
379.027	70.62
379.253	81.62
379.478	75.62
379.704	72.62
379.929	88.62
380.155	77.62
380.38	88.62
380.606	93.62
380.831	90.62
381.057	70.62
381.282	75.62
381.507	74.62
381.733	81.62
381.958	73.62
382.184	72.62
382.409	78.62
382.634	87.62
382.86	76.62
383.085	78.62
383.31	71.62
383.535	77.62
383.761	90.62
383.986	85.62
384.211	87.62
384.436	87.62
384.662	89.62
384.887	66.62
385.112	85.62
385.337	88.62
385.562	88.62
385.787	72.62
386.013	78.62
386.238	81.62
386.463	78.62
386.688	85.62
386.913	75.62
387.138	73.62
387.363	80.62
387.588	76.62
387.813	90.62
388.038	85.62
388.263	85.62
388.488	84.62
388.713	89.62
388.938	69.62
389.163	83.62
389.387	72.62
389.612	77.62
389.837	59.62
390.062	77.62
390.287	92.62
390.512	79.62
390.736	78.62
390.961	88.62
391.186	80.62
391.411	76.62
391.636	101.62
391.86	77.62
392.085	72.62
392.31	76.62
392.534	85.62
392.759	69.62
392.984	74.62
393.208	87.62
393.433	82.62
393.658	70.62
393.882	75.62
394.107	76.62
394.331	77.62
394.556	87.62
394.78	86.62
395.005	75.62
395.229	83.62
395.454	81.62
395.678	64.62
395.903	65.62
396.127	75.62
396.352	62.62
396.576	86.62
396.801	85.62
397.025	72.62
397.249	63.62
397.474	75.62
397.698	82.62
397.922	80.62
398.147	81.62
398.371	83.62
398.595	89.62
398.82	84.62
399.044	76.62
399.268	78.62
399.492	83.62
399.717	85.62
399.941	84.62
400.165	79.62
400.389	75.62
400.613	75.62
400.837	88.62
401.062	80.62
401.286	78.62
401.51	61.62
401.734	78.62
401.958	71.62
402.182	68.62
402.406	73.62
402.63	69.62
402.854	78.62
403.078	79.62
403.302	60.62
403.526	82.62
403.75	90.62
403.974	89.62
404.198	92.62
404.422	71.62
404.645	81.62
404.869	77.62
405.093	65.62
405.317	77.62
405.541	81.62
405.765	80.62
405.988	71.62
406.212	77.62
406.436	84.62
406.66	83.62
406.883	60.62
407.107	72.62
407.331	75.62
407.555	86.62
407.778	69.62
408.002	79.62
408.226	83.62
408.449	91.62
408.673	77.62
408.896	81.62
409.12	88.62
409.344	81.62
409.567	81.62
409.791	71.62
410.014	78.62
410.238	80.62
410.461	78.62
410.685	84.62
410.908	72.62
411.132	76.62
411.355	75.62
411.578	75.62
411.802	69.62
412.025	63.62
412.249	92.62
412.472	73.62
412.695	77.62
412.919	79.62
413.142	78.62
413.365	76.62
413.589	70.62
413.812	64.62
414.035	79.62
414.258	75.62
414.482	68.62
414.705	81.62
414.928	72.62
415.151	83.62
415.374	87.62
415.597	81.62
415.821	79.62
416.044	71.62
416.267	82.62
416.49	82.62
416.713	90.62
416.936	82.62
417.159	83.62
417.382	61.62
417.605	85.62
417.828	66.62
418.051	87.62
418.274	82.62
418.497	70.62
418.72	77.62
418.943	81.62
419.166	75.62
419.389	78.62
419.611	77.62
419.834	95.62
420.057	70.62
420.28	66.62
420.503	71.62
420.726	74.62
420.948	86.62
421.171	79.62
421.394	79.62
421.617	80.62
421.839	68.62
422.062	84.62
422.285	83.62
422.507	85.62
422.73	86.62
422.953	78.62
423.175	70.62
423.398	84.62
423.621	75.62
423.843	82.62
424.066	73.62
424.288	82.62
424.511	81.62
424.733	77.62
424.956	68.62
425.178	71.62
425.401	76.62
425.623	83.62
425.846	73.62
426.068	73.62
426.291	93.62
426.513	78.62
426.735	94.62
426.958	81.62
427.18	72.62
427.402	84.62
427.625	58.62
427.847	58.62
428.069	87.62
428.292	61.62
428.514	77.62
428.736	77.62
428.958	68.62
429.181	77.62
429.403	85.62
429.625	75.62
429.847	63.62
430.069	75.62
430.292	81.62
430.514	64.62
430.736	56.62
430.958	81.62
431.18	77.62
431.402	79.62
431.624	75.62
431.846	86.62
432.068	67.62
432.29	84.62
432.512	69.62
432.734	81.62
432.956	63.62
433.178	73.62
433.4	72.62
433.622	93.62
433.844	70.62
434.066	78.62
434.287	68.62
434.509	73.62
434.731	77.62
434.953	79.62
435.175	86.62
435.397	93.62
435.618	70.62
435.84	69.62
436.062	83.62
436.284	94.62
436.505	82.62
436.727	74.62
436.949	82.62
437.17	58.62
437.392	82.62
437.614	81.62
437.835	85.62
438.057	83.62
438.278	84.62
438.5	85.62
438.721	75.62
438.943	79.62
439.165	77.62
439.386	78.62
439.608	87.62
439.829	79.62
440.05	83.62
440.272	91.62
440.493	84.62
440.715	85.62
440.936	94.62
441.158	77.62
441.379	73.62
441.6	81.62
441.822	88.62
442.043	88.62
442.264	101.62
442.486	77.62
442.707	73.62
442.928	82.62
443.149	80.62
443.371	72.62
443.592	69.62
443.813	79.62
444.034	79.62
444.255	75.62
444.476	78.62
444.698	76.62
444.919	84.62
445.14	164.62
445.361	110.62
445.582	83.62
445.803	85.62
446.024	61.62
446.245	83.62
446.466	90.62
446.687	80.62
446.908	72.62
447.129	77.62
447.35	84.62
447.571	68.62
447.792	83.62
448.013	73.62
448.234	99.62
448.455	75.62
448.675	80.62
448.896	85.62
449.117	74.62
449.338	74.62
449.559	86.62
449.779	63.62
450	83.62
450.221	88.62
450.442	71.62
450.662	85.62
450.883	72.62
451.104	75.62
451.324	69.62
451.545	78.62
451.766	77.62
451.986	74.62
452.207	85.62
452.428	73.62
452.648	77.62
452.869	69.62
453.089	77.62
453.31	80.62
453.53	70.62
453.751	76.62
453.971	87.62
454.192	90.62
454.412	80.62
454.633	82.62
454.853	81.62
455.073	72.62
455.294	69.62
455.514	84.62
455.734	54.62
455.955	87.62
456.175	74.62
456.395	72.62
456.616	94.62
456.836	76.62
457.056	74.62
457.276	75.62
457.497	72.62
457.717	65.62
457.937	72.62
458.157	82.62
458.377	77.62
458.598	78.62
458.818	64.62
459.038	70.62
459.258	75.62
459.478	76.62
459.698	72.62
459.918	84.62
460.138	74.62
460.358	81.62
460.578	63.62
460.798	69.62
461.018	73.62
461.238	91.62
461.458	81.62
461.678	79.62
461.898	74.62
462.118	70.62
462.338	76.62
462.558	90.62
462.777	80.62
462.997	81.62
463.217	83.62
463.437	75.62
463.657	72.62
463.876	87.62
464.096	92.62
464.316	74.62
464.536	63.62
464.755	78.62
464.975	69.62
465.195	92.62
465.414	87.62
465.634	61.62
465.854	71.62
466.073	81.62
466.293	78.62
466.512	85.62
466.732	81.62
466.951	85.62
467.171	78.62
467.391	91.62
467.61	62.62
467.829	76.62
468.049	78.62
468.268	73.62
468.488	76.62
468.707	73.62
468.927	77.62
469.146	74.62
469.365	89.62
469.585	58.62
469.804	78.62
470.023	85.62
470.243	85.62
470.462	77.62
470.681	84.62
470.901	78.62
471.12	76.62
471.339	79.62
471.558	98.62
471.777	91.62
471.997	89.62
472.216	77.62
472.435	66.62
472.654	59.62
472.873	94.62
473.092	73.62
473.311	89.62
473.53	78.62
473.749	92.62
473.968	82.62
474.187	81.62
474.406	69.62
474.625	85.62
474.844	63.62
475.063	79.62
475.282	89.62
475.501	88.62
475.72	85.62
475.939	99.62
476.158	83.62
476.377	77.62
476.596	68.62
476.814	77.62
477.033	73.62
477.252	90.62
477.471	81.62
477.69	86.62
477.908	78.62
478.127	82.62
478.346	78.62
478.564	79.62
478.783	84.62
479.002	89.62
479.22	84.62
479.439	71.62
479.658	83.62
479.876	72.62
480.095	76.62
480.313	76.62
480.532	69.62
480.751	81.62
480.969	70.62
481.188	78.62
481.406	89.62
481.624	90.62
481.843	70.62
482.061	73.62
482.28	72.62
482.498	78.62
482.717	76.62
482.935	72.62
483.153	78.62
483.372	82.62
483.59	78.62
483.808	90.62
484.027	82.62
484.245	87.62
484.463	79.62
484.681	76.62
484.9	89.62
485.118	81.62
485.336	76.62
485.554	83.62
485.772	79.62
485.99	76.62
486.209	79.62
486.427	76.62
486.645	78.62
486.863	95.62
487.081	91.62
487.299	89.62
487.517	84.62
487.735	68.62
487.953	89.62
488.171	77.62
488.389	86.62
488.607	84.62
488.825	73.62
489.043	67.62
489.261	70.62
489.479	82.62
489.696	77.62
489.914	89.62
490.132	73.62
490.35	74.62
490.568	83.62
490.786	63.62
491.003	83.62
491.221	87.62
491.439	87.62
491.657	79.62
491.874	88.62
492.092	78.62
492.31	76.62
492.527	70.62
492.745	89.62
492.963	95.62
493.18	84.62
493.398	85.62
493.615	86.62
493.833	85.62
494.05	80.62
494.268	80.62
494.485	85.62
494.703	84.62
494.92	81.62
495.138	77.62
495.355	89.62
495.573	83.62
495.79	73.62
496.008	76.62
496.225	93.62
496.442	81.62
496.66	97.62
496.877	90.62
497.094	97.62
497.312	68.62
497.529	72.62
497.746	83.62
497.963	79.62
498.181	83.62
498.398	84.62
498.615	89.62
498.832	86.62
499.049	78.62
499.267	89.62
499.484	73.62
499.701	93.62
499.918	89.62
500.135	77.62
500.352	88.62
500.569	79.62
500.786	91.62
501.003	106.62
501.22	96.62
501.437	70.62
501.654	77.62
501.871	80.62
502.088	83.62
502.305	90.62
502.522	76.62
502.739	81.62
502.956	79.62
503.172	90.62
503.389	66.62
503.606	86.62
503.823	84.62
504.04	85.62
504.256	78.62
504.473	73.62
504.69	84.62
504.907	81.62
505.123	87.62
505.34	79.62
505.557	85.62
505.773	70.62
505.99	87.62
506.207	88.62
506.423	83.62
506.64	75.62
506.856	83.62
507.073	91.62
507.289	93.62
507.506	86.62
507.722	89.62
507.939	77.62
508.155	100.62
508.372	77.62
508.588	75.62
508.805	82.62
509.021	99.62
509.238	86.62
509.454	87.62
509.67	88.62
509.887	75.62
510.103	82.62
510.319	82.62
510.536	84.62
510.752	101.62
510.968	81.62
511.184	83.62
511.401	78.62
511.617	87.62
511.833	72.62
512.049	83.62
512.265	81.62
512.481	85.62
512.698	85.62
512.914	78.62
513.13	83.62
513.346	94.62
513.562	72.62
513.778	79.62
513.994	81.62
514.21	77.62
514.426	77.62
514.642	74.62
514.858	71.62
515.074	72.62
515.29	83.62
515.506	92.62
515.721	80.62
515.937	89.62
516.153	73.62
516.369	81.62
516.585	77.62
516.801	76.62
517.016	83.62
517.232	92.62
517.448	93.62
517.664	84.62
517.879	76.62
518.095	84.62
518.311	82.62
518.527	86.62
518.742	73.62
518.958	70.62
519.173	69.62
519.389	71.62
519.605	78.62
519.82	76.62
520.036	82.62
520.251	77.62
