Data from StdD_HRD10591_033.txt Node
Date: Fri May 16 15:31:37 EDT 2025
User: Yrep
Spectrometer: HR+D1059
Trigger mode: 1
Integration Time (sec): 1.000000E-1
Scans to average: 1
Electric dark correction enabled: true
Nonlinearity correction enabled: false
Boxcar width: 0
XAxis mode: Wavelengths
Number of Pixels in Spectrum: 2048
>>>>>Begin Spectral Data<<<<<
223.165	-23.62
223.4	-23.62
223.635	-23.62
223.869	-13.62
224.104	-9.62
224.338	-28.62
224.573	-13.62
224.808	-22.62
225.042	3.38
225.277	13.38
225.511	-9.62
225.746	5.38
225.98	4.38
226.215	13.38
226.449	23.38
226.683	14.38
226.918	22.38
227.152	21.38
227.387	45.38
227.621	49.38
227.856	40.38
228.09	43.38
228.324	41.38
228.559	55.38
228.793	51.38
229.027	62.38
229.262	53.38
229.496	59.38
229.73	68.38
229.964	70.38
230.199	70.38
230.433	77.38
230.667	75.38
230.901	72.38
231.136	79.38
231.37	74.38
231.604	76.38
231.838	79.38
232.072	75.38
232.306	88.38
232.541	76.38
232.775	73.38
233.009	63.38
233.243	78.38
233.477	56.38
233.711	87.38
233.945	80.38
234.179	81.38
234.413	73.38
234.647	78.38
234.881	75.38
235.115	74.38
235.349	72.38
235.583	68.38
235.817	76.38
236.051	71.38
236.285	74.38
236.519	70.38
236.753	73.38
236.987	66.38
237.221	68.38
237.455	83.38
237.689	68.38
237.922	82.38
238.156	81.38
238.39	67.38
238.624	53.38
238.858	85.38
239.091	79.38
239.325	72.38
239.559	79.38
239.793	80.38
240.027	69.38
240.26	72.38
240.494	71.38
240.728	79.38
240.961	62.38
241.195	69.38
241.429	67.38
241.662	77.38
241.896	65.38
242.13	70.38
242.363	73.38
242.597	61.38
242.83	75.38
243.064	84.38
243.298	75.38
243.531	60.38
243.765	81.38
243.998	67.38
244.232	62.38
244.465	83.38
244.699	74.38
244.932	74.38
245.166	69.38
245.399	69.38
245.633	71.38
245.866	79.38
246.099	69.38
246.333	73.38
246.566	70.38
246.8	80.38
247.033	78.38
247.266	73.38
247.5	57.38
247.733	76.38
247.966	80.38
248.2	73.38
248.433	84.38
248.666	85.38
248.899	70.38
249.133	72.38
249.366	70.38
249.599	63.38
249.832	63.38
250.066	92.38
250.299	74.38
250.532	83.38
250.765	81.38
250.998	80.38
251.231	77.38
251.465	85.38
251.698	83.38
251.931	78.38
252.164	81.38
252.397	75.38
252.63	69.38
252.863	75.38
253.096	69.38
253.329	86.38
253.562	69.38
253.795	74.38
254.028	75.38
254.261	76.38
254.494	85.38
254.727	80.38
254.96	84.38
255.193	66.38
255.426	69.38
255.659	69.38
255.892	77.38
256.124	60.38
256.357	74.38
256.59	71.38
256.823	74.38
257.056	76.38
257.289	70.38
257.521	70.38
257.754	67.38
257.987	60.38
258.22	73.38
258.452	69.38
258.685	74.38
258.918	63.38
259.151	81.38
259.383	80.38
259.616	62.38
259.849	82.38
260.081	69.38
260.314	62.38
260.547	76.38
260.779	79.38
261.012	87.38
261.244	85.38
261.477	79.38
261.71	75.38
261.942	78.38
262.175	62.38
262.407	75.38
262.64	81.38
262.872	83.38
263.105	74.38
263.337	68.38
263.57	78.38
263.802	74.38
264.035	77.38
264.267	70.38
264.499	81.38
264.732	75.38
264.964	86.38
265.197	70.38
265.429	72.38
265.661	77.38
265.894	87.38
266.126	61.38
266.358	84.38
266.591	69.38
266.823	87.38
267.055	63.38
267.287	87.38
267.52	74.38
267.752	81.38
267.984	62.38
268.216	97.38
268.448	79.38
268.681	74.38
268.913	87.38
269.145	63.38
269.377	79.38
269.609	87.38
269.841	71.38
270.073	83.38
270.306	86.38
270.538	74.38
270.77	83.38
271.002	68.38
271.234	91.38
271.466	97.38
271.698	85.38
271.93	81.38
272.162	63.38
272.394	76.38
272.626	68.38
272.858	73.38
273.09	78.38
273.322	72.38
273.553	71.38
273.785	91.38
274.017	72.38
274.249	75.38
274.481	63.38
274.713	63.38
274.945	83.38
275.176	89.38
275.408	76.38
275.64	76.38
275.872	69.38
276.104	94.38
276.335	75.38
276.567	64.38
276.799	83.38
277.031	74.38
277.262	69.38
277.494	81.38
277.726	71.38
277.957	69.38
278.189	86.38
278.421	78.38
278.652	73.38
278.884	85.38
279.115	91.38
279.347	74.38
279.579	86.38
279.81	84.38
280.042	101.38
280.273	91.38
280.505	73.38
280.736	65.38
280.968	85.38
281.199	86.38
281.431	69.38
281.662	81.38
281.894	83.38
282.125	67.38
282.356	86.38
282.588	91.38
282.819	79.38
283.051	85.38
283.282	74.38
283.513	93.38
283.745	83.38
283.976	70.38
284.207	83.38
284.439	76.38
284.67	81.38
284.901	69.38
285.132	75.38
285.364	77.38
285.595	78.38
285.826	85.38
286.057	88.38
286.288	89.38
286.52	71.38
286.751	80.38
286.982	74.38
287.213	85.38
287.444	78.38
287.675	84.38
287.906	81.38
288.138	74.38
288.369	84.38
288.6	84.38
288.831	87.38
289.062	72.38
289.293	76.38
289.524	79.38
289.755	76.38
289.986	79.38
290.217	72.38
290.448	80.38
290.679	75.38
290.91	91.38
291.141	78.38
291.371	89.38
291.602	83.38
291.833	94.38
292.064	94.38
292.295	81.38
292.526	73.38
292.757	85.38
292.987	73.38
293.218	65.38
293.449	79.38
293.68	75.38
293.91	90.38
294.141	82.38
294.372	93.38
294.603	73.38
294.833	74.38
295.064	80.38
295.295	91.38
295.525	78.38
295.756	87.38
295.987	86.38
296.217	87.38
296.448	77.38
296.679	79.38
296.909	89.38
297.14	89.38
297.37	67.38
297.601	78.38
297.831	91.38
298.062	101.38
298.292	71.38
298.523	75.38
298.753	77.38
298.984	70.38
299.214	77.38
299.445	72.38
299.675	84.38
299.905	77.38
300.136	74.38
300.366	83.38
300.597	84.38
300.827	75.38
301.057	87.38
301.288	82.38
301.518	61.38
301.748	82.38
301.979	87.38
302.209	77.38
302.439	89.38
302.669	90.38
302.9	84.38
303.13	85.38
303.36	88.38
303.59	76.38
303.82	83.38
304.051	99.38
304.281	73.38
304.511	79.38
304.741	82.38
304.971	79.38
305.201	77.38
305.431	76.38
305.661	76.38
305.891	71.38
306.121	79.38
306.352	87.38
306.582	75.38
306.812	71.38
307.042	87.38
307.272	74.38
307.502	79.38
307.731	97.38
307.961	65.38
308.191	83.38
308.421	77.38
308.651	92.38
308.881	89.38
309.111	75.38
309.341	89.38
309.571	85.38
309.8	65.38
310.03	91.38
310.26	79.38
310.49	73.38
310.72	72.38
310.949	86.38
311.179	79.38
311.409	82.38
311.639	69.38
311.868	79.38
312.098	77.38
312.328	72.38
312.557	88.38
312.787	69.38
313.017	63.38
313.246	90.38
313.476	88.38
313.706	82.38
313.935	75.38
314.165	87.38
314.394	77.38
314.624	75.38
314.853	88.38
315.083	76.38
315.312	79.38
315.542	77.38
315.771	88.38
316.001	86.38
316.23	77.38
316.46	72.38
316.689	73.38
316.919	74.38
317.148	74.38
317.377	94.38
317.607	76.38
317.836	89.38
318.065	79.38
318.295	69.38
318.524	90.38
318.753	73.38
318.983	87.38
319.212	88.38
319.441	79.38
319.67	79.38
319.9	75.38
320.129	75.38
320.358	84.38
320.587	79.38
320.816	92.38
321.046	91.38
321.275	89.38
321.504	88.38
321.733	73.38
321.962	79.38
322.191	82.38
322.42	86.38
322.649	97.38
322.878	95.38
323.108	73.38
323.337	90.38
323.566	75.38
323.795	85.38
324.024	84.38
324.253	76.38
324.482	80.38
324.71	92.38
324.939	75.38
325.168	79.38
325.397	81.38
325.626	79.38
325.855	83.38
326.084	91.38
326.313	79.38
326.542	87.38
326.77	94.38
326.999	73.38
327.228	83.38
327.457	77.38
327.686	83.38
327.914	76.38
328.143	102.38
328.372	73.38
328.6	85.38
328.829	78.38
329.058	74.38
329.287	73.38
329.515	85.38
329.744	85.38
329.972	99.38
330.201	91.38
330.43	83.38
330.658	74.38
330.887	85.38
331.115	79.38
331.344	87.38
331.572	94.38
331.801	85.38
332.03	81.38
332.258	82.38
332.486	83.38
332.715	67.38
332.943	97.38
333.172	99.38
333.4	78.38
333.629	85.38
333.857	75.38
334.085	63.38
334.314	73.38
334.542	70.38
334.771	89.38
334.999	94.38
335.227	73.38
335.455	78.38
335.684	86.38
335.912	84.38
336.14	81.38
336.369	81.38
336.597	83.38
336.825	94.38
337.053	74.38
337.281	81.38
337.51	94.38
337.738	80.38
337.966	81.38
338.194	77.38
338.422	82.38
338.65	67.38
338.878	79.38
339.106	79.38
339.334	81.38
339.562	78.38
339.79	90.38
340.018	69.38
340.246	89.38
340.474	78.38
340.702	80.38
340.93	73.38
341.158	91.38
341.386	67.38
341.614	75.38
341.842	74.38
342.07	79.38
342.298	88.38
342.526	79.38
342.754	89.38
342.981	67.38
343.209	85.38
343.437	92.38
343.665	89.38
343.893	90.38
344.12	71.38
344.348	81.38
344.576	82.38
344.804	73.38
345.031	85.38
345.259	72.38
345.487	90.38
345.714	89.38
345.942	82.38
346.17	81.38
346.397	73.38
346.625	77.38
346.853	79.38
347.08	77.38
347.308	77.38
347.535	81.38
347.763	71.38
347.99	88.38
348.218	89.38
348.445	93.38
348.673	89.38
348.9	86.38
349.128	81.38
349.355	78.38
349.583	77.38
349.81	90.38
350.037	73.38
350.265	76.38
350.492	69.38
350.72	83.38
350.947	87.38
351.174	82.38
351.402	71.38
351.629	77.38
351.856	75.38
352.083	81.38
352.311	77.38
352.538	67.38
352.765	70.38
352.992	83.38
353.22	81.38
353.447	77.38
353.674	89.38
353.901	77.38
354.128	89.38
354.355	76.38
354.583	89.38
354.81	86.38
355.037	89.38
355.264	87.38
355.491	74.38
355.718	79.38
355.945	89.38
356.172	78.38
356.399	68.38
356.626	64.38
356.853	72.38
357.08	62.38
357.307	86.38
357.534	82.38
357.761	81.38
357.988	82.38
358.215	80.38
358.441	77.38
358.668	75.38
358.895	74.38
359.122	88.38
359.349	83.38
359.576	78.38
359.802	87.38
360.029	82.38
360.256	72.38
360.483	77.38
360.709	63.38
360.936	79.38
361.163	84.38
361.39	81.38
361.616	91.38
361.843	74.38
362.07	81.38
362.296	82.38
362.523	71.38
362.749	76.38
362.976	81.38
363.203	79.38
363.429	80.38
363.656	71.38
363.882	85.38
364.109	64.38
364.335	83.38
364.562	82.38
364.788	69.38
365.015	75.38
365.241	82.38
365.468	93.38
365.694	73.38
365.92	84.38
366.147	79.38
366.373	74.38
366.599	86.38
366.826	78.38
367.052	85.38
367.278	70.38
367.505	84.38
367.731	83.38
367.957	79.38
368.184	79.38
368.41	72.38
368.636	70.38
368.862	78.38
369.089	83.38
369.315	79.38
369.541	87.38
369.767	69.38
369.993	81.38
370.219	77.38
370.445	66.38
370.672	77.38
370.898	93.38
371.124	78.38
371.35	80.38
371.576	83.38
371.802	86.38
372.028	81.38
372.254	90.38
372.48	85.38
372.706	95.38
372.932	71.38
373.158	86.38
373.384	80.38
373.61	78.38
373.835	77.38
374.061	69.38
374.287	64.38
374.513	79.38
374.739	65.38
374.965	88.38
375.191	83.38
375.416	77.38
375.642	89.38
375.868	75.38
376.094	71.38
376.319	72.38
376.545	62.38
376.771	79.38
376.997	79.38
377.222	71.38
377.448	70.38
377.674	73.38
377.899	81.38
378.125	81.38
378.35	75.38
378.576	84.38
378.802	72.38
379.027	64.38
379.253	80.38
379.478	74.38
379.704	83.38
379.929	78.38
380.155	73.38
380.38	82.38
380.606	79.38
380.831	79.38
381.057	83.38
381.282	67.38
381.507	86.38
381.733	67.38
381.958	80.38
382.184	84.38
382.409	74.38
382.634	75.38
382.86	81.38
383.085	71.38
383.31	61.38
383.535	84.38
383.761	74.38
383.986	73.38
384.211	72.38
384.436	79.38
384.662	74.38
384.887	73.38
385.112	76.38
385.337	81.38
385.562	76.38
385.787	81.38
386.013	83.38
386.238	73.38
386.463	69.38
386.688	85.38
386.913	84.38
387.138	75.38
387.363	82.38
387.588	73.38
387.813	70.38
388.038	91.38
388.263	87.38
388.488	67.38
388.713	81.38
388.938	85.38
389.163	70.38
389.387	72.38
389.612	77.38
389.837	90.38
390.062	75.38
390.287	76.38
390.512	78.38
390.736	77.38
390.961	73.38
391.186	90.38
391.411	83.38
391.636	88.38
391.86	74.38
392.085	71.38
392.31	73.38
392.534	84.38
392.759	77.38
392.984	70.38
393.208	82.38
393.433	73.38
393.658	76.38
393.882	77.38
394.107	79.38
394.331	77.38
394.556	59.38
394.78	68.38
395.005	78.38
395.229	77.38
395.454	89.38
395.678	62.38
395.903	78.38
396.127	63.38
396.352	76.38
396.576	76.38
396.801	67.38
397.025	73.38
397.249	69.38
397.474	67.38
397.698	83.38
397.922	77.38
398.147	72.38
398.371	77.38
398.595	70.38
398.82	71.38
399.044	69.38
399.268	67.38
399.492	74.38
399.717	81.38
399.941	76.38
400.165	64.38
400.389	80.38
400.613	87.38
400.837	73.38
401.062	77.38
401.286	79.38
401.51	83.38
401.734	59.38
401.958	79.38
402.182	83.38
402.406	74.38
402.63	77.38
402.854	64.38
403.078	83.38
403.302	66.38
403.526	82.38
403.75	83.38
403.974	80.38
404.198	77.38
404.422	78.38
404.645	89.38
404.869	67.38
405.093	74.38
405.317	78.38
405.541	76.38
405.765	64.38
405.988	85.38
406.212	75.38
406.436	65.38
406.66	87.38
406.883	71.38
407.107	71.38
407.331	88.38
407.555	71.38
407.778	89.38
408.002	75.38
408.226	89.38
408.449	69.38
408.673	73.38
408.896	77.38
409.12	79.38
409.344	90.38
409.567	79.38
409.791	64.38
410.014	80.38
410.238	67.38
410.461	84.38
410.685	71.38
410.908	70.38
411.132	88.38
411.355	67.38
411.578	81.38
411.802	81.38
412.025	81.38
412.249	87.38
412.472	74.38
412.695	66.38
412.919	77.38
413.142	77.38
413.365	82.38
413.589	90.38
413.812	62.38
414.035	84.38
414.258	68.38
414.482	75.38
414.705	76.38
414.928	86.38
415.151	91.38
415.374	73.38
415.597	82.38
415.821	71.38
416.044	81.38
416.267	76.38
416.49	84.38
416.713	82.38
416.936	72.38
417.159	93.38
417.382	85.38
417.605	73.38
417.828	60.38
418.051	76.38
418.274	84.38
418.497	85.38
418.72	72.38
418.943	81.38
419.166	82.38
419.389	69.38
419.611	63.38
419.834	83.38
420.057	81.38
420.28	83.38
420.503	65.38
420.726	69.38
420.948	76.38
421.171	60.38
421.394	70.38
421.617	86.38
421.839	89.38
422.062	79.38
422.285	62.38
422.507	76.38
422.73	66.38
422.953	69.38
423.175	73.38
423.398	78.38
423.621	71.38
423.843	70.38
424.066	68.38
424.288	68.38
424.511	82.38
424.733	81.38
424.956	79.38
425.178	86.38
425.401	81.38
425.623	94.38
425.846	69.38
426.068	69.38
426.291	74.38
426.513	84.38
426.735	91.38
426.958	73.38
427.18	86.38
427.402	79.38
427.625	61.38
427.847	80.38
428.069	85.38
428.292	77.38
428.514	74.38
428.736	77.38
428.958	66.38
429.181	81.38
429.403	81.38
429.625	78.38
429.847	63.38
430.069	77.38
430.292	75.38
430.514	69.38
430.736	74.38
430.958	91.38
431.18	88.38
431.402	67.38
431.624	79.38
431.846	73.38
432.068	75.38
432.29	75.38
432.512	72.38
432.734	77.38
432.956	77.38
433.178	74.38
433.4	77.38
433.622	65.38
433.844	82.38
434.066	100.38
434.287	63.38
434.509	74.38
434.731	77.38
434.953	70.38
435.175	60.38
435.397	84.38
435.618	75.38
435.84	74.38
436.062	73.38
436.284	63.38
436.505	65.38
436.727	77.38
436.949	73.38
437.17	78.38
437.392	83.38
437.614	79.38
437.835	75.38
438.057	76.38
438.278	74.38
438.5	80.38
438.721	82.38
438.943	68.38
439.165	75.38
439.386	74.38
439.608	90.38
439.829	85.38
440.05	84.38
440.272	73.38
440.493	73.38
440.715	87.38
440.936	85.38
441.158	80.38
441.379	85.38
441.6	67.38
441.822	69.38
442.043	77.38
442.264	63.38
442.486	78.38
442.707	79.38
442.928	85.38
443.149	77.38
443.371	78.38
443.592	81.38
443.813	81.38
444.034	75.38
444.255	85.38
444.476	63.38
444.698	74.38
444.919	76.38
445.14	165.38
445.361	122.38
445.582	75.38
445.803	81.38
446.024	72.38
446.245	82.38
446.466	93.38
446.687	73.38
446.908	80.38
447.129	67.38
447.35	81.38
447.571	78.38
447.792	85.38
448.013	86.38
448.234	70.38
448.455	81.38
448.675	77.38
448.896	79.38
449.117	82.38
449.338	72.38
449.559	87.38
449.779	70.38
450	72.38
450.221	69.38
450.442	86.38
450.662	65.38
450.883	79.38
451.104	85.38
451.324	83.38
451.545	82.38
451.766	82.38
451.986	81.38
452.207	88.38
452.428	53.38
452.648	73.38
452.869	63.38
453.089	70.38
453.31	80.38
453.53	84.38
453.751	69.38
453.971	74.38
454.192	69.38
454.412	73.38
454.633	72.38
454.853	74.38
455.073	73.38
455.294	64.38
455.514	85.38
455.734	80.38
455.955	85.38
456.175	90.38
456.395	64.38
456.616	77.38
456.836	75.38
457.056	73.38
457.276	68.38
457.497	76.38
457.717	75.38
457.937	61.38
458.157	79.38
458.377	69.38
458.598	81.38
458.818	80.38
459.038	82.38
459.258	84.38
459.478	81.38
459.698	89.38
459.918	96.38
460.138	87.38
460.358	69.38
460.578	76.38
460.798	81.38
461.018	77.38
461.238	78.38
461.458	77.38
461.678	74.38
461.898	65.38
462.118	85.38
462.338	69.38
462.558	82.38
462.777	74.38
462.997	76.38
463.217	66.38
463.437	75.38
463.657	69.38
463.876	81.38
464.096	69.38
464.316	76.38
464.536	74.38
464.755	79.38
464.975	70.38
465.195	85.38
465.414	83.38
465.634	96.38
465.854	81.38
466.073	74.38
466.293	70.38
466.512	75.38
466.732	61.38
466.951	83.38
467.171	92.38
467.391	78.38
467.61	84.38
467.829	76.38
468.049	78.38
468.268	84.38
468.488	78.38
468.707	89.38
468.927	99.38
469.146	79.38
469.365	70.38
469.585	84.38
469.804	72.38
470.023	74.38
470.243	85.38
470.462	91.38
470.681	84.38
470.901	86.38
471.12	89.38
471.339	81.38
471.558	86.38
471.777	67.38
471.997	91.38
472.216	77.38
472.435	75.38
472.654	73.38
472.873	81.38
473.092	81.38
473.311	78.38
473.53	83.38
473.749	87.38
473.968	88.38
474.187	68.38
474.406	73.38
474.625	69.38
474.844	83.38
475.063	85.38
475.282	85.38
475.501	68.38
475.72	74.38
475.939	78.38
476.158	74.38
476.377	63.38
476.596	73.38
476.814	79.38
477.033	86.38
477.252	87.38
477.471	67.38
477.69	65.38
477.908	77.38
478.127	89.38
478.346	87.38
478.564	83.38
478.783	80.38
479.002	71.38
479.22	86.38
479.439	88.38
479.658	81.38
479.876	74.38
480.095	90.38
480.313	93.38
480.532	77.38
480.751	72.38
480.969	81.38
481.188	85.38
481.406	69.38
481.624	60.38
481.843	83.38
482.061	79.38
482.28	86.38
482.498	89.38
482.717	76.38
482.935	79.38
483.153	79.38
483.372	90.38
483.59	69.38
483.808	75.38
484.027	83.38
484.245	88.38
484.463	77.38
484.681	76.38
484.9	67.38
485.118	81.38
485.336	81.38
485.554	90.38
485.772	70.38
485.99	75.38
486.209	77.38
486.427	86.38
486.645	67.38
486.863	70.38
487.081	76.38
487.299	88.38
487.517	81.38
487.735	73.38
487.953	74.38
488.171	87.38
488.389	84.38
488.607	78.38
488.825	86.38
489.043	83.38
489.261	98.38
489.479	71.38
489.696	86.38
489.914	74.38
490.132	77.38
490.35	73.38
490.568	77.38
490.786	78.38
491.003	90.38
491.221	80.38
491.439	78.38
491.657	95.38
491.874	74.38
492.092	80.38
492.31	85.38
492.527	86.38
492.745	90.38
492.963	90.38
493.18	72.38
493.398	73.38
493.615	71.38
493.833	83.38
494.05	86.38
494.268	81.38
494.485	88.38
494.703	70.38
494.92	86.38
495.138	87.38
495.355	71.38
495.573	67.38
495.79	62.38
496.008	78.38
496.225	90.38
496.442	77.38
496.66	63.38
496.877	87.38
497.094	67.38
497.312	73.38
497.529	76.38
497.746	88.38
497.963	77.38
498.181	79.38
498.398	97.38
498.615	79.38
498.832	76.38
499.049	83.38
499.267	75.38
499.484	75.38
499.701	73.38
499.918	66.38
500.135	78.38
500.352	95.38
500.569	75.38
500.786	95.38
501.003	89.38
501.22	71.38
501.437	64.38
501.654	73.38
501.871	82.38
502.088	85.38
502.305	85.38
502.522	93.38
502.739	90.38
502.956	73.38
503.172	73.38
503.389	93.38
503.606	93.38
503.823	82.38
504.04	79.38
504.256	76.38
504.473	75.38
504.69	64.38
504.907	80.38
505.123	86.38
505.34	73.38
505.557	76.38
505.773	88.38
505.99	74.38
506.207	81.38
506.423	61.38
506.64	79.38
506.856	71.38
507.073	77.38
507.289	83.38
507.506	70.38
507.722	79.38
507.939	85.38
508.155	77.38
508.372	83.38
508.588	76.38
508.805	92.38
509.021	75.38
509.238	83.38
509.454	77.38
509.67	63.38
509.887	86.38
510.103	65.38
510.319	77.38
510.536	86.38
510.752	83.38
510.968	75.38
511.184	70.38
511.401	64.38
511.617	63.38
511.833	71.38
512.049	71.38
512.265	74.38
512.481	75.38
512.698	73.38
512.914	66.38
513.13	79.38
513.346	69.38
513.562	85.38
513.778	78.38
513.994	89.38
514.21	71.38
514.426	75.38
514.642	83.38
514.858	84.38
515.074	75.38
515.29	73.38
515.506	63.38
515.721	62.38
515.937	82.38
516.153	75.38
516.369	64.38
516.585	81.38
516.801	82.38
517.016	84.38
517.232	81.38
517.448	76.38
517.664	99.38
517.879	81.38
518.095	83.38
518.311	88.38
518.527	75.38
518.742	78.38
518.958	76.38
519.173	91.38
519.389	80.38
519.605	89.38
519.82	90.38
520.036	80.38
520.251	76.38
