Data from StdD_HRD10591_097.txt Node
Date: Fri May 16 15:32:09 EDT 2025
User: Yrep
Spectrometer: HR+D1059
Trigger mode: 1
Integration Time (sec): 1.000000E-1
Scans to average: 1
Electric dark correction enabled: true
Nonlinearity correction enabled: false
Boxcar width: 0
XAxis mode: Wavelengths
Number of Pixels in Spectrum: 2048
>>>>>Begin Spectral Data<<<<<
223.165	-27.69
223.4	-27.69
223.635	-27.69
223.869	-22.69
224.104	-18.69
224.338	-9.69
224.573	-25.69
224.808	-9.69
225.042	-8.69
225.277	-1.69
225.511	-2.69
225.746	-0.69
225.98	12.31
226.215	17.31
226.449	10.31
226.683	21.31
226.918	27.31
227.152	39.31
227.387	30.31
227.621	36.31
227.856	42.31
228.09	57.31
228.324	54.31
228.559	52.31
228.793	61.31
229.027	64.31
229.262	59.31
229.496	52.31
229.73	63.31
229.964	57.31
230.199	72.31
230.433	71.31
230.667	81.31
230.901	85.31
231.136	72.31
231.37	64.31
231.604	72.31
231.838	80.31
232.072	79.31
232.306	86.31
232.541	64.31
232.775	70.31
233.009	93.31
233.243	88.31
233.477	64.31
233.711	77.31
233.945	81.31
234.179	85.31
234.413	84.31
234.647	85.31
234.881	67.31
235.115	80.31
235.349	84.31
235.583	82.31
235.817	60.31
236.051	72.31
236.285	57.31
236.519	87.31
236.753	70.31
236.987	67.31
237.221	65.31
237.455	93.31
237.689	64.31
237.922	68.31
238.156	70.31
238.39	73.31
238.624	82.31
238.858	67.31
239.091	63.31
239.325	69.31
239.559	64.31
239.793	75.31
240.027	71.31
240.26	77.31
240.494	68.31
240.728	79.31
240.961	76.31
241.195	72.31
241.429	76.31
241.662	73.31
241.896	62.31
242.13	70.31
242.363	85.31
242.597	80.31
242.83	88.31
243.064	84.31
243.298	77.31
243.531	66.31
243.765	78.31
243.998	71.31
244.232	78.31
244.465	91.31
244.699	76.31
244.932	84.31
245.166	87.31
245.399	84.31
245.633	68.31
245.866	65.31
246.099	78.31
246.333	72.31
246.566	72.31
246.8	81.31
247.033	71.31
247.266	75.31
247.5	75.31
247.733	75.31
247.966	73.31
248.2	79.31
248.433	78.31
248.666	77.31
248.899	72.31
249.133	65.31
249.366	86.31
249.599	69.31
249.832	73.31
250.066	70.31
250.299	69.31
250.532	88.31
250.765	80.31
250.998	74.31
251.231	77.31
251.465	85.31
251.698	73.31
251.931	83.31
252.164	76.31
252.397	72.31
252.63	77.31
252.863	84.31
253.096	81.31
253.329	86.31
253.562	79.31
253.795	72.31
254.028	81.31
254.261	92.31
254.494	74.31
254.727	87.31
254.96	80.31
255.193	78.31
255.426	72.31
255.659	77.31
255.892	79.31
256.124	78.31
256.357	75.31
256.59	64.31
256.823	80.31
257.056	80.31
257.289	84.31
257.521	60.31
257.754	62.31
257.987	56.31
258.22	76.31
258.452	85.31
258.685	84.31
258.918	70.31
259.151	80.31
259.383	78.31
259.616	71.31
259.849	89.31
260.081	83.31
260.314	84.31
260.547	75.31
260.779	80.31
261.012	82.31
261.244	69.31
261.477	86.31
261.71	78.31
261.942	81.31
262.175	79.31
262.407	66.31
262.64	64.31
262.872	94.31
263.105	84.31
263.337	65.31
263.57	86.31
263.802	78.31
264.035	68.31
264.267	94.31
264.499	80.31
264.732	95.31
264.964	75.31
265.197	71.31
265.429	75.31
265.661	72.31
265.894	79.31
266.126	90.31
266.358	88.31
266.591	87.31
266.823	85.31
267.055	82.31
267.287	65.31
267.52	73.31
267.752	83.31
267.984	76.31
268.216	77.31
268.448	83.31
268.681	86.31
268.913	97.31
269.145	79.31
269.377	71.31
269.609	80.31
269.841	78.31
270.073	78.31
270.306	83.31
270.538	75.31
270.77	78.31
271.002	80.31
271.234	82.31
271.466	89.31
271.698	83.31
271.93	72.31
272.162	79.31
272.394	75.31
272.626	76.31
272.858	77.31
273.09	91.31
273.322	77.31
273.553	88.31
273.785	82.31
274.017	80.31
274.249	72.31
274.481	79.31
274.713	78.31
274.945	87.31
275.176	87.31
275.408	93.31
275.64	87.31
275.872	86.31
276.104	85.31
276.335	90.31
276.567	91.31
276.799	88.31
277.031	74.31
277.262	79.31
277.494	77.31
277.726	93.31
277.957	74.31
278.189	91.31
278.421	73.31
278.652	78.31
278.884	90.31
279.115	81.31
279.347	86.31
279.579	86.31
279.81	84.31
280.042	97.31
280.273	77.31
280.505	84.31
280.736	77.31
280.968	81.31
281.199	73.31
281.431	77.31
281.662	77.31
281.894	85.31
282.125	85.31
282.356	72.31
282.588	73.31
282.819	72.31
283.051	90.31
283.282	96.31
283.513	92.31
283.745	80.31
283.976	74.31
284.207	86.31
284.439	83.31
284.67	88.31
284.901	92.31
285.132	86.31
285.364	80.31
285.595	89.31
285.826	84.31
286.057	94.31
286.288	83.31
286.52	80.31
286.751	82.31
286.982	89.31
287.213	93.31
287.444	88.31
287.675	76.31
287.906	88.31
288.138	89.31
288.369	88.31
288.6	89.31
288.831	72.31
289.062	91.31
289.293	81.31
289.524	79.31
289.755	84.31
289.986	68.31
290.217	87.31
290.448	86.31
290.679	82.31
290.91	78.31
291.141	80.31
291.371	93.31
291.602	92.31
291.833	85.31
292.064	91.31
292.295	85.31
292.526	83.31
292.757	86.31
292.987	87.31
293.218	89.31
293.449	77.31
293.68	79.31
293.91	79.31
294.141	92.31
294.372	92.31
294.603	85.31
294.833	78.31
295.064	75.31
295.295	84.31
295.525	62.31
295.756	69.31
295.987	88.31
296.217	94.31
296.448	77.31
296.679	84.31
296.909	97.31
297.14	90.31
297.37	84.31
297.601	81.31
297.831	88.31
298.062	77.31
298.292	72.31
298.523	80.31
298.753	77.31
298.984	93.31
299.214	85.31
299.445	73.31
299.675	80.31
299.905	82.31
300.136	77.31
300.366	85.31
300.597	76.31
300.827	64.31
301.057	79.31
301.288	77.31
301.518	79.31
301.748	71.31
301.979	101.31
302.209	89.31
302.439	69.31
302.669	76.31
302.9	86.31
303.13	89.31
303.36	78.31
303.59	73.31
303.82	100.31
304.051	90.31
304.281	78.31
304.511	87.31
304.741	79.31
304.971	77.31
305.201	89.31
305.431	73.31
305.661	83.31
305.891	76.31
306.121	89.31
306.352	82.31
306.582	79.31
306.812	88.31
307.042	81.31
307.272	82.31
307.502	86.31
307.731	73.31
307.961	79.31
308.191	77.31
308.421	77.31
308.651	86.31
308.881	76.31
309.111	86.31
309.341	79.31
309.571	92.31
309.8	79.31
310.03	90.31
310.26	89.31
310.49	78.31
310.72	74.31
310.949	80.31
311.179	97.31
311.409	87.31
311.639	95.31
311.868	91.31
312.098	80.31
312.328	83.31
312.557	89.31
312.787	79.31
313.017	86.31
313.246	92.31
313.476	65.31
313.706	84.31
313.935	94.31
314.165	94.31
314.394	90.31
314.624	80.31
314.853	97.31
315.083	71.31
315.312	90.31
315.542	80.31
315.771	88.31
316.001	82.31
316.23	76.31
316.46	97.31
316.689	69.31
316.919	93.31
317.148	76.31
317.377	96.31
317.607	85.31
317.836	90.31
318.065	83.31
318.295	78.31
318.524	76.31
318.753	84.31
318.983	96.31
319.212	92.31
319.441	95.31
319.67	90.31
319.9	88.31
320.129	84.31
320.358	87.31
320.587	86.31
320.816	81.31
321.046	79.31
321.275	93.31
321.504	71.31
321.733	89.31
321.962	77.31
322.191	77.31
322.42	87.31
322.649	90.31
322.878	83.31
323.108	100.31
323.337	87.31
323.566	91.31
323.795	92.31
324.024	80.31
324.253	77.31
324.482	87.31
324.71	87.31
324.939	97.31
325.168	71.31
325.397	86.31
325.626	87.31
325.855	89.31
326.084	70.31
326.313	72.31
326.542	83.31
326.77	88.31
326.999	77.31
327.228	79.31
327.457	93.31
327.686	77.31
327.914	90.31
328.143	102.31
328.372	76.31
328.6	82.31
328.829	81.31
329.058	81.31
329.287	77.31
329.515	77.31
329.744	93.31
329.972	85.31
330.201	82.31
330.43	86.31
330.658	90.31
330.887	79.31
331.115	88.31
331.344	69.31
331.572	87.31
331.801	89.31
332.03	76.31
332.258	88.31
332.486	78.31
332.715	80.31
332.943	72.31
333.172	69.31
333.4	72.31
333.629	92.31
333.857	82.31
334.085	85.31
334.314	73.31
334.542	67.31
334.771	77.31
334.999	89.31
335.227	78.31
335.455	84.31
335.684	87.31
335.912	93.31
336.14	91.31
336.369	73.31
336.597	78.31
336.825	85.31
337.053	88.31
337.281	96.31
337.51	69.31
337.738	91.31
337.966	64.31
338.194	70.31
338.422	68.31
338.65	96.31
338.878	80.31
339.106	83.31
339.334	76.31
339.562	80.31
339.79	87.31
340.018	75.31
340.246	78.31
340.474	90.31
340.702	65.31
340.93	84.31
341.158	78.31
341.386	81.31
341.614	74.31
341.842	72.31
342.07	82.31
342.298	77.31
342.526	79.31
342.754	74.31
342.981	70.31
343.209	82.31
343.437	95.31
343.665	81.31
343.893	81.31
344.12	85.31
344.348	84.31
344.576	86.31
344.804	86.31
345.031	86.31
345.259	91.31
345.487	85.31
345.714	92.31
345.942	88.31
346.17	76.31
346.397	93.31
346.625	79.31
346.853	94.31
347.08	72.31
347.308	73.31
347.535	79.31
347.763	90.31
347.99	78.31
348.218	94.31
348.445	84.31
348.673	64.31
348.9	72.31
349.128	77.31
349.355	80.31
349.583	72.31
349.81	81.31
350.037	80.31
350.265	74.31
350.492	76.31
350.72	80.31
350.947	82.31
351.174	69.31
351.402	79.31
351.629	74.31
351.856	81.31
352.083	86.31
352.311	74.31
352.538	58.31
352.765	90.31
352.992	88.31
353.22	78.31
353.447	86.31
353.674	89.31
353.901	84.31
354.128	90.31
354.355	82.31
354.583	83.31
354.81	85.31
355.037	77.31
355.264	91.31
355.491	75.31
355.718	77.31
355.945	95.31
356.172	90.31
356.399	83.31
356.626	72.31
356.853	76.31
357.08	84.31
357.307	87.31
357.534	75.31
357.761	84.31
357.988	72.31
358.215	86.31
358.441	76.31
358.668	78.31
358.895	73.31
359.122	83.31
359.349	82.31
359.576	79.31
359.802	84.31
360.029	80.31
360.256	77.31
360.483	86.31
360.709	80.31
360.936	81.31
361.163	89.31
361.39	78.31
361.616	81.31
361.843	74.31
362.07	81.31
362.296	89.31
362.523	86.31
362.749	86.31
362.976	84.31
363.203	86.31
363.429	70.31
363.656	84.31
363.882	87.31
364.109	92.31
364.335	79.31
364.562	66.31
364.788	82.31
365.015	80.31
365.241	82.31
365.468	76.31
365.694	78.31
365.92	87.31
366.147	87.31
366.373	82.31
366.599	92.31
366.826	74.31
367.052	75.31
367.278	75.31
367.505	70.31
367.731	79.31
367.957	76.31
368.184	85.31
368.41	76.31
368.636	70.31
368.862	90.31
369.089	94.31
369.315	75.31
369.541	80.31
369.767	88.31
369.993	78.31
370.219	81.31
370.445	82.31
370.672	84.31
370.898	100.31
371.124	83.31
371.35	89.31
371.576	96.31
371.802	79.31
372.028	71.31
372.254	82.31
372.48	90.31
372.706	73.31
372.932	78.31
373.158	74.31
373.384	80.31
373.61	84.31
373.835	85.31
374.061	88.31
374.287	87.31
374.513	78.31
374.739	69.31
374.965	72.31
375.191	91.31
375.416	76.31
375.642	70.31
375.868	92.31
376.094	76.31
376.319	78.31
376.545	80.31
376.771	78.31
376.997	78.31
377.222	83.31
377.448	78.31
377.674	76.31
377.899	82.31
378.125	77.31
378.35	71.31
378.576	76.31
378.802	73.31
379.027	77.31
379.253	91.31
379.478	60.31
379.704	79.31
379.929	72.31
380.155	72.31
380.38	80.31
380.606	76.31
380.831	82.31
381.057	85.31
381.282	87.31
381.507	80.31
381.733	73.31
381.958	83.31
382.184	66.31
382.409	72.31
382.634	84.31
382.86	75.31
383.085	54.31
383.31	61.31
383.535	78.31
383.761	76.31
383.986	86.31
384.211	73.31
384.436	76.31
384.662	74.31
384.887	80.31
385.112	76.31
385.337	92.31
385.562	72.31
385.787	79.31
386.013	71.31
386.238	88.31
386.463	86.31
386.688	82.31
386.913	95.31
387.138	79.31
387.363	85.31
387.588	87.31
387.813	83.31
388.038	73.31
388.263	94.31
388.488	83.31
388.713	84.31
388.938	76.31
389.163	81.31
389.387	96.31
389.612	76.31
389.837	82.31
390.062	78.31
390.287	86.31
390.512	78.31
390.736	77.31
390.961	92.31
391.186	81.31
391.411	78.31
391.636	71.31
391.86	84.31
392.085	84.31
392.31	78.31
392.534	69.31
392.759	85.31
392.984	77.31
393.208	81.31
393.433	81.31
393.658	85.31
393.882	87.31
394.107	80.31
394.331	100.31
394.556	62.31
394.78	78.31
395.005	79.31
395.229	66.31
395.454	64.31
395.678	78.31
395.903	80.31
396.127	69.31
396.352	86.31
396.576	68.31
396.801	90.31
397.025	92.31
397.249	73.31
397.474	76.31
397.698	67.31
397.922	80.31
398.147	77.31
398.371	72.31
398.595	85.31
398.82	81.31
399.044	77.31
399.268	72.31
399.492	80.31
399.717	81.31
399.941	82.31
400.165	73.31
400.389	65.31
400.613	85.31
400.837	84.31
401.062	91.31
401.286	89.31
401.51	89.31
401.734	77.31
401.958	80.31
402.182	89.31
402.406	78.31
402.63	71.31
402.854	96.31
403.078	82.31
403.302	74.31
403.526	73.31
403.75	85.31
403.974	77.31
404.198	74.31
404.422	79.31
404.645	70.31
404.869	88.31
405.093	70.31
405.317	65.31
405.541	79.31
405.765	81.31
405.988	72.31
406.212	79.31
406.436	81.31
406.66	87.31
406.883	78.31
407.107	90.31
407.331	69.31
407.555	71.31
407.778	81.31
408.002	72.31
408.226	86.31
408.449	76.31
408.673	76.31
408.896	69.31
409.12	80.31
409.344	78.31
409.567	71.31
409.791	87.31
410.014	104.31
410.238	88.31
410.461	81.31
410.685	80.31
410.908	73.31
411.132	90.31
411.355	80.31
411.578	80.31
411.802	73.31
412.025	72.31
412.249	52.31
412.472	67.31
412.695	70.31
412.919	92.31
413.142	67.31
413.365	86.31
413.589	71.31
413.812	83.31
414.035	74.31
414.258	100.31
414.482	73.31
414.705	80.31
414.928	80.31
415.151	76.31
415.374	80.31
415.597	84.31
415.821	91.31
416.044	72.31
416.267	76.31
416.49	81.31
416.713	77.31
416.936	90.31
417.159	74.31
417.382	82.31
417.605	87.31
417.828	79.31
418.051	70.31
418.274	83.31
418.497	88.31
418.72	87.31
418.943	87.31
419.166	81.31
419.389	80.31
419.611	98.31
419.834	90.31
420.057	91.31
420.28	89.31
420.503	77.31
420.726	69.31
420.948	81.31
421.171	73.31
421.394	90.31
421.617	76.31
421.839	72.31
422.062	68.31
422.285	71.31
422.507	77.31
422.73	73.31
422.953	63.31
423.175	76.31
423.398	72.31
423.621	81.31
423.843	84.31
424.066	55.31
424.288	77.31
424.511	80.31
424.733	95.31
424.956	81.31
425.178	75.31
425.401	86.31
425.623	80.31
425.846	81.31
426.068	80.31
426.291	72.31
426.513	74.31
426.735	87.31
426.958	74.31
427.18	95.31
427.402	81.31
427.625	67.31
427.847	92.31
428.069	83.31
428.292	81.31
428.514	72.31
428.736	87.31
428.958	78.31
429.181	86.31
429.403	73.31
429.625	77.31
429.847	80.31
430.069	80.31
430.292	96.31
430.514	81.31
430.736	87.31
430.958	88.31
431.18	93.31
431.402	91.31
431.624	72.31
431.846	66.31
432.068	90.31
432.29	69.31
432.512	73.31
432.734	77.31
432.956	72.31
433.178	79.31
433.4	88.31
433.622	75.31
433.844	80.31
434.066	92.31
434.287	78.31
434.509	60.31
434.731	78.31
434.953	97.31
435.175	82.31
435.397	76.31
435.618	87.31
435.84	67.31
436.062	72.31
436.284	82.31
436.505	85.31
436.727	62.31
436.949	74.31
437.17	72.31
437.392	78.31
437.614	80.31
437.835	89.31
438.057	76.31
438.278	62.31
438.5	73.31
438.721	85.31
438.943	72.31
439.165	87.31
439.386	78.31
439.608	75.31
439.829	76.31
440.05	104.31
440.272	87.31
440.493	102.31
440.715	80.31
440.936	68.31
441.158	82.31
441.379	84.31
441.6	76.31
441.822	84.31
442.043	84.31
442.264	80.31
442.486	80.31
442.707	79.31
442.928	66.31
443.149	80.31
443.371	84.31
443.592	72.31
443.813	78.31
444.034	86.31
444.255	75.31
444.476	85.31
444.698	78.31
444.919	77.31
445.14	149.31
445.361	134.31
445.582	83.31
445.803	92.31
446.024	82.31
446.245	84.31
446.466	80.31
446.687	79.31
446.908	87.31
447.129	76.31
447.35	93.31
447.571	64.31
447.792	74.31
448.013	71.31
448.234	78.31
448.455	80.31
448.675	90.31
448.896	80.31
449.117	90.31
449.338	74.31
449.559	74.31
449.779	82.31
450	76.31
450.221	79.31
450.442	74.31
450.662	79.31
450.883	82.31
451.104	70.31
451.324	89.31
451.545	77.31
451.766	68.31
451.986	84.31
452.207	80.31
452.428	84.31
452.648	79.31
452.869	68.31
453.089	81.31
453.31	83.31
453.53	72.31
453.751	82.31
453.971	80.31
454.192	64.31
454.412	80.31
454.633	90.31
454.853	86.31
455.073	96.31
455.294	80.31
455.514	90.31
455.734	85.31
455.955	88.31
456.175	80.31
456.395	76.31
456.616	80.31
456.836	73.31
457.056	80.31
457.276	76.31
457.497	77.31
457.717	76.31
457.937	82.31
458.157	85.31
458.377	82.31
458.598	69.31
458.818	74.31
459.038	84.31
459.258	70.31
459.478	81.31
459.698	72.31
459.918	90.31
460.138	72.31
460.358	86.31
460.578	65.31
460.798	82.31
461.018	74.31
461.238	78.31
461.458	72.31
461.678	70.31
461.898	80.31
462.118	75.31
462.338	74.31
462.558	79.31
462.777	74.31
462.997	91.31
463.217	87.31
463.437	76.31
463.657	74.31
463.876	91.31
464.096	88.31
464.316	89.31
464.536	75.31
464.755	78.31
464.975	80.31
465.195	80.31
465.414	93.31
465.634	87.31
465.854	75.31
466.073	65.31
466.293	83.31
466.512	79.31
466.732	85.31
466.951	90.31
467.171	89.31
467.391	79.31
467.61	84.31
467.829	80.31
468.049	67.31
468.268	88.31
468.488	74.31
468.707	82.31
468.927	79.31
469.146	78.31
469.365	94.31
469.585	87.31
469.804	86.31
470.023	78.31
470.243	72.31
470.462	95.31
470.681	74.31
470.901	74.31
471.12	75.31
471.339	68.31
471.558	86.31
471.777	66.31
471.997	91.31
472.216	81.31
472.435	82.31
472.654	81.31
472.873	84.31
473.092	81.31
473.311	77.31
473.53	84.31
473.749	91.31
473.968	75.31
474.187	80.31
474.406	85.31
474.625	70.31
474.844	91.31
475.063	76.31
475.282	77.31
475.501	72.31
475.72	76.31
475.939	89.31
476.158	77.31
476.377	74.31
476.596	73.31
476.814	63.31
477.033	87.31
477.252	84.31
477.471	86.31
477.69	84.31
477.908	72.31
478.127	74.31
478.346	68.31
478.564	72.31
478.783	76.31
479.002	84.31
479.22	77.31
479.439	76.31
479.658	81.31
479.876	70.31
480.095	80.31
480.313	99.31
480.532	89.31
480.751	87.31
480.969	79.31
481.188	88.31
481.406	72.31
481.624	65.31
481.843	73.31
482.061	83.31
482.28	87.31
482.498	78.31
482.717	97.31
482.935	100.31
483.153	92.31
483.372	78.31
483.59	85.31
483.808	78.31
484.027	93.31
484.245	88.31
484.463	80.31
484.681	87.31
484.9	77.31
485.118	85.31
485.336	88.31
485.554	96.31
485.772	83.31
485.99	74.31
486.209	78.31
486.427	74.31
486.645	82.31
486.863	77.31
487.081	85.31
487.299	86.31
487.517	92.31
487.735	72.31
487.953	78.31
488.171	76.31
488.389	72.31
488.607	84.31
488.825	84.31
489.043	98.31
489.261	91.31
489.479	88.31
489.696	84.31
489.914	66.31
490.132	83.31
490.35	83.31
490.568	80.31
490.786	78.31
491.003	102.31
491.221	83.31
491.439	77.31
491.657	89.31
491.874	79.31
492.092	87.31
492.31	91.31
492.527	91.31
492.745	93.31
492.963	88.31
493.18	94.31
493.398	90.31
493.615	93.31
493.833	81.31
494.05	86.31
494.268	79.31
494.485	77.31
494.703	93.31
494.92	91.31
495.138	92.31
495.355	92.31
495.573	85.31
495.79	74.31
496.008	87.31
496.225	87.31
496.442	79.31
496.66	90.31
496.877	92.31
497.094	79.31
497.312	92.31
497.529	86.31
497.746	58.31
497.963	83.31
498.181	80.31
498.398	79.31
498.615	88.31
498.832	92.31
499.049	82.31
499.267	94.31
499.484	78.31
499.701	78.31
499.918	101.31
500.135	78.31
500.352	80.31
500.569	75.31
500.786	83.31
501.003	87.31
501.22	91.31
501.437	63.31
501.654	88.31
501.871	83.31
502.088	77.31
502.305	78.31
502.522	74.31
502.739	75.31
502.956	78.31
503.172	91.31
503.389	77.31
503.606	78.31
503.823	78.31
504.04	80.31
504.256	85.31
504.473	93.31
504.69	82.31
504.907	87.31
505.123	89.31
505.34	82.31
505.557	81.31
505.773	74.31
505.99	84.31
506.207	86.31
506.423	78.31
506.64	89.31
506.856	76.31
507.073	77.31
507.289	76.31
507.506	83.31
507.722	87.31
507.939	85.31
508.155	78.31
508.372	92.31
508.588	92.31
508.805	95.31
509.021	83.31
509.238	76.31
509.454	76.31
509.67	81.31
509.887	89.31
510.103	82.31
510.319	95.31
510.536	86.31
510.752	77.31
510.968	96.31
511.184	80.31
511.401	64.31
511.617	88.31
511.833	72.31
512.049	81.31
512.265	72.31
512.481	82.31
512.698	82.31
512.914	85.31
513.13	90.31
513.346	77.31
513.562	91.31
513.778	101.31
513.994	79.31
514.21	81.31
514.426	89.31
514.642	85.31
514.858	77.31
515.074	78.31
515.29	78.31
515.506	86.31
515.721	85.31
515.937	89.31
516.153	78.31
516.369	79.31
516.585	74.31
516.801	76.31
517.016	75.31
517.232	66.31
517.448	73.31
517.664	80.31
517.879	98.31
518.095	89.31
518.311	85.31
518.527	79.31
518.742	95.31
518.958	73.31
519.173	88.31
519.389	84.31
519.605	79.31
519.82	78.31
520.036	80.31
520.251	84.31
