Data from StdD_HRD10591_030.txt Node
Date: Fri May 16 15:31:36 EDT 2025
User: Yrep
Spectrometer: HR+D1059
Trigger mode: 1
Integration Time (sec): 1.000000E-1
Scans to average: 1
Electric dark correction enabled: true
Nonlinearity correction enabled: false
Boxcar width: 0
XAxis mode: Wavelengths
Number of Pixels in Spectrum: 2048
>>>>>Begin Spectral Data<<<<<
223.165	-16.25
223.4	-16.25
223.635	-16.25
223.869	-11.25
224.104	-21.25
224.338	-5.25
224.573	-23.25
224.808	-16.25
225.042	-3.25
225.277	-5.25
225.511	-2.25
225.746	10.75
225.98	-9.25
226.215	10.75
226.449	18.75
226.683	18.75
226.918	24.75
227.152	29.75
227.387	25.75
227.621	33.75
227.856	26.75
228.09	43.75
228.324	62.75
228.559	50.75
228.793	46.75
229.027	58.75
229.262	70.75
229.496	58.75
229.73	74.75
229.964	62.75
230.199	57.75
230.433	79.75
230.667	69.75
230.901	72.75
231.136	78.75
231.37	66.75
231.604	78.75
231.838	74.75
232.072	72.75
232.306	73.75
232.541	88.75
232.775	89.75
233.009	84.75
233.243	78.75
233.477	77.75
233.711	86.75
233.945	72.75
234.179	68.75
234.413	88.75
234.647	84.75
234.881	64.75
235.115	72.75
235.349	76.75
235.583	60.75
235.817	78.75
236.051	71.75
236.285	74.75
236.519	70.75
236.753	70.75
236.987	72.75
237.221	72.75
237.455	72.75
237.689	73.75
237.922	86.75
238.156	85.75
238.39	72.75
238.624	62.75
238.858	80.75
239.091	63.75
239.325	80.75
239.559	72.75
239.793	82.75
240.027	70.75
240.26	71.75
240.494	82.75
240.728	79.75
240.961	75.75
241.195	72.75
241.429	74.75
241.662	81.75
241.896	88.75
242.13	74.75
242.363	86.75
242.597	85.75
242.83	90.75
243.064	70.75
243.298	86.75
243.531	69.75
243.765	79.75
243.998	75.75
244.232	63.75
244.465	76.75
244.699	78.75
244.932	78.75
245.166	63.75
245.399	70.75
245.633	71.75
245.866	65.75
246.099	72.75
246.333	86.75
246.566	66.75
246.8	64.75
247.033	86.75
247.266	87.75
247.5	83.75
247.733	75.75
247.966	67.75
248.2	67.75
248.433	72.75
248.666	64.75
248.899	76.75
249.133	80.75
249.366	87.75
249.599	89.75
249.832	89.75
250.066	65.75
250.299	79.75
250.532	60.75
250.765	74.75
250.998	102.75
251.231	86.75
251.465	75.75
251.698	84.75
251.931	74.75
252.164	83.75
252.397	75.75
252.63	86.75
252.863	78.75
253.096	74.75
253.329	81.75
253.562	83.75
253.795	70.75
254.028	86.75
254.261	66.75
254.494	77.75
254.727	77.75
254.96	79.75
255.193	85.75
255.426	74.75
255.659	88.75
255.892	82.75
256.124	80.75
256.357	73.75
256.59	77.75
256.823	85.75
257.056	81.75
257.289	100.75
257.521	79.75
257.754	65.75
257.987	76.75
258.22	82.75
258.452	77.75
258.685	84.75
258.918	79.75
259.151	76.75
259.383	74.75
259.616	77.75
259.849	82.75
260.081	83.75
260.314	84.75
260.547	81.75
260.779	56.75
261.012	81.75
261.244	76.75
261.477	86.75
261.71	71.75
261.942	81.75
262.175	77.75
262.407	79.75
262.64	73.75
262.872	78.75
263.105	78.75
263.337	81.75
263.57	72.75
263.802	85.75
264.035	91.75
264.267	78.75
264.499	81.75
264.732	74.75
264.964	69.75
265.197	84.75
265.429	79.75
265.661	79.75
265.894	86.75
266.126	92.75
266.358	86.75
266.591	86.75
266.823	80.75
267.055	80.75
267.287	80.75
267.52	76.75
267.752	73.75
267.984	76.75
268.216	79.75
268.448	72.75
268.681	70.75
268.913	80.75
269.145	88.75
269.377	78.75
269.609	76.75
269.841	86.75
270.073	81.75
270.306	72.75
270.538	71.75
270.77	72.75
271.002	89.75
271.234	64.75
271.466	84.75
271.698	66.75
271.93	70.75
272.162	76.75
272.394	86.75
272.626	86.75
272.858	75.75
273.09	80.75
273.322	84.75
273.553	90.75
273.785	73.75
274.017	75.75
274.249	81.75
274.481	80.75
274.713	74.75
274.945	78.75
275.176	83.75
275.408	89.75
275.64	87.75
275.872	72.75
276.104	72.75
276.335	80.75
276.567	72.75
276.799	84.75
277.031	74.75
277.262	86.75
277.494	73.75
277.726	78.75
277.957	81.75
278.189	78.75
278.421	88.75
278.652	92.75
278.884	87.75
279.115	78.75
279.347	83.75
279.579	76.75
279.81	76.75
280.042	79.75
280.273	89.75
280.505	86.75
280.736	82.75
280.968	76.75
281.199	81.75
281.431	87.75
281.662	72.75
281.894	87.75
282.125	99.75
282.356	100.75
282.588	68.75
282.819	81.75
283.051	85.75
283.282	67.75
283.513	82.75
283.745	102.75
283.976	85.75
284.207	76.75
284.439	85.75
284.67	72.75
284.901	81.75
285.132	86.75
285.364	80.75
285.595	72.75
285.826	61.75
286.057	66.75
286.288	77.75
286.52	93.75
286.751	88.75
286.982	83.75
287.213	85.75
287.444	74.75
287.675	68.75
287.906	88.75
288.138	85.75
288.369	87.75
288.6	72.75
288.831	76.75
289.062	92.75
289.293	81.75
289.524	82.75
289.755	79.75
289.986	74.75
290.217	88.75
290.448	80.75
290.679	86.75
290.91	78.75
291.141	91.75
291.371	95.75
291.602	94.75
291.833	67.75
292.064	77.75
292.295	74.75
292.526	88.75
292.757	81.75
292.987	91.75
293.218	87.75
293.449	92.75
293.68	88.75
293.91	76.75
294.141	74.75
294.372	73.75
294.603	81.75
294.833	93.75
295.064	92.75
295.295	84.75
295.525	91.75
295.756	74.75
295.987	82.75
296.217	82.75
296.448	101.75
296.679	74.75
296.909	85.75
297.14	84.75
297.37	94.75
297.601	79.75
297.831	78.75
298.062	69.75
298.292	80.75
298.523	84.75
298.753	93.75
298.984	72.75
299.214	82.75
299.445	88.75
299.675	87.75
299.905	80.75
300.136	86.75
300.366	81.75
300.597	70.75
300.827	73.75
301.057	104.75
301.288	73.75
301.518	80.75
301.748	83.75
301.979	107.75
302.209	87.75
302.439	82.75
302.669	86.75
302.9	88.75
303.13	79.75
303.36	81.75
303.59	73.75
303.82	94.75
304.051	62.75
304.281	80.75
304.511	78.75
304.741	87.75
304.971	87.75
305.201	75.75
305.431	86.75
305.661	85.75
305.891	82.75
306.121	86.75
306.352	76.75
306.582	80.75
306.812	87.75
307.042	77.75
307.272	79.75
307.502	92.75
307.731	73.75
307.961	74.75
308.191	76.75
308.421	78.75
308.651	86.75
308.881	82.75
309.111	76.75
309.341	89.75
309.571	81.75
309.8	95.75
310.03	83.75
310.26	73.75
310.49	74.75
310.72	78.75
310.949	76.75
311.179	84.75
311.409	95.75
311.639	75.75
311.868	86.75
312.098	68.75
312.328	73.75
312.557	91.75
312.787	76.75
313.017	94.75
313.246	84.75
313.476	86.75
313.706	79.75
313.935	90.75
314.165	88.75
314.394	93.75
314.624	75.75
314.853	91.75
315.083	76.75
315.312	81.75
315.542	86.75
315.771	80.75
316.001	92.75
316.23	87.75
316.46	76.75
316.689	81.75
316.919	92.75
317.148	90.75
317.377	98.75
317.607	93.75
317.836	74.75
318.065	100.75
318.295	90.75
318.524	70.75
318.753	87.75
318.983	89.75
319.212	76.75
319.441	88.75
319.67	86.75
319.9	76.75
320.129	84.75
320.358	86.75
320.587	89.75
320.816	84.75
321.046	77.75
321.275	84.75
321.504	81.75
321.733	87.75
321.962	77.75
322.191	93.75
322.42	88.75
322.649	80.75
322.878	82.75
323.108	81.75
323.337	88.75
323.566	76.75
323.795	84.75
324.024	85.75
324.253	79.75
324.482	75.75
324.71	84.75
324.939	75.75
325.168	69.75
325.397	94.75
325.626	74.75
325.855	83.75
326.084	81.75
326.313	84.75
326.542	86.75
326.77	77.75
326.999	85.75
327.228	89.75
327.457	102.75
327.686	86.75
327.914	96.75
328.143	97.75
328.372	76.75
328.6	94.75
328.829	86.75
329.058	89.75
329.287	89.75
329.515	88.75
329.744	86.75
329.972	69.75
330.201	84.75
330.43	77.75
330.658	86.75
330.887	75.75
331.115	82.75
331.344	83.75
331.572	86.75
331.801	84.75
332.03	101.75
332.258	93.75
332.486	89.75
332.715	87.75
332.943	84.75
333.172	88.75
333.4	81.75
333.629	92.75
333.857	90.75
334.085	89.75
334.314	81.75
334.542	83.75
334.771	73.75
334.999	69.75
335.227	92.75
335.455	86.75
335.684	85.75
335.912	72.75
336.14	88.75
336.369	88.75
336.597	67.75
336.825	79.75
337.053	85.75
337.281	81.75
337.51	84.75
337.738	80.75
337.966	100.75
338.194	86.75
338.422	62.75
338.65	87.75
338.878	88.75
339.106	81.75
339.334	94.75
339.562	72.75
339.79	76.75
340.018	76.75
340.246	95.75
340.474	82.75
340.702	85.75
340.93	68.75
341.158	70.75
341.386	81.75
341.614	71.75
341.842	95.75
342.07	86.75
342.298	89.75
342.526	78.75
342.754	72.75
342.981	72.75
343.209	87.75
343.437	96.75
343.665	103.75
343.893	86.75
344.12	90.75
344.348	75.75
344.576	79.75
344.804	75.75
345.031	76.75
345.259	96.75
345.487	100.75
345.714	97.75
345.942	80.75
346.17	86.75
346.397	104.75
346.625	85.75
346.853	84.75
347.08	84.75
347.308	80.75
347.535	88.75
347.763	88.75
347.99	93.75
348.218	94.75
348.445	90.75
348.673	72.75
348.9	73.75
349.128	70.75
349.355	84.75
349.583	91.75
349.81	86.75
350.037	80.75
350.265	84.75
350.492	78.75
350.72	80.75
350.947	79.75
351.174	89.75
351.402	81.75
351.629	69.75
351.856	80.75
352.083	98.75
352.311	86.75
352.538	89.75
352.765	71.75
352.992	77.75
353.22	73.75
353.447	59.75
353.674	80.75
353.901	87.75
354.128	107.75
354.355	98.75
354.583	78.75
354.81	86.75
355.037	65.75
355.264	92.75
355.491	93.75
355.718	92.75
355.945	80.75
356.172	83.75
356.399	70.75
356.626	79.75
356.853	85.75
357.08	85.75
357.307	76.75
357.534	85.75
357.761	92.75
357.988	60.75
358.215	88.75
358.441	86.75
358.668	97.75
358.895	95.75
359.122	76.75
359.349	96.75
359.576	66.75
359.802	78.75
360.029	84.75
360.256	82.75
360.483	82.75
360.709	91.75
360.936	90.75
361.163	74.75
361.39	76.75
361.616	88.75
361.843	80.75
362.07	77.75
362.296	72.75
362.523	73.75
362.749	88.75
362.976	80.75
363.203	89.75
363.429	74.75
363.656	82.75
363.882	79.75
364.109	89.75
364.335	91.75
364.562	76.75
364.788	78.75
365.015	94.75
365.241	75.75
365.468	77.75
365.694	76.75
365.92	73.75
366.147	87.75
366.373	92.75
366.599	86.75
366.826	89.75
367.052	74.75
367.278	84.75
367.505	73.75
367.731	96.75
367.957	75.75
368.184	80.75
368.41	93.75
368.636	79.75
368.862	70.75
369.089	93.75
369.315	86.75
369.541	75.75
369.767	82.75
369.993	67.75
370.219	73.75
370.445	89.75
370.672	84.75
370.898	75.75
371.124	81.75
371.35	76.75
371.576	67.75
371.802	72.75
372.028	79.75
372.254	89.75
372.48	69.75
372.706	72.75
372.932	86.75
373.158	82.75
373.384	73.75
373.61	76.75
373.835	83.75
374.061	84.75
374.287	72.75
374.513	86.75
374.739	85.75
374.965	79.75
375.191	80.75
375.416	76.75
375.642	76.75
375.868	96.75
376.094	102.75
376.319	89.75
376.545	85.75
376.771	93.75
376.997	82.75
377.222	87.75
377.448	80.75
377.674	89.75
377.899	79.75
378.125	70.75
378.35	87.75
378.576	91.75
378.802	80.75
379.027	86.75
379.253	89.75
379.478	80.75
379.704	69.75
379.929	85.75
380.155	85.75
380.38	86.75
380.606	85.75
380.831	88.75
381.057	93.75
381.282	85.75
381.507	69.75
381.733	80.75
381.958	94.75
382.184	80.75
382.409	82.75
382.634	94.75
382.86	78.75
383.085	84.75
383.31	82.75
383.535	74.75
383.761	84.75
383.986	74.75
384.211	97.75
384.436	83.75
384.662	95.75
384.887	93.75
385.112	81.75
385.337	85.75
385.562	91.75
385.787	64.75
386.013	85.75
386.238	96.75
386.463	82.75
386.688	85.75
386.913	89.75
387.138	89.75
387.363	89.75
387.588	81.75
387.813	94.75
388.038	89.75
388.263	83.75
388.488	85.75
388.713	83.75
388.938	84.75
389.163	77.75
389.387	68.75
389.612	89.75
389.837	79.75
390.062	89.75
390.287	67.75
390.512	80.75
390.736	82.75
390.961	87.75
391.186	86.75
391.411	85.75
391.636	84.75
391.86	96.75
392.085	85.75
392.31	81.75
392.534	89.75
392.759	91.75
392.984	87.75
393.208	91.75
393.433	96.75
393.658	75.75
393.882	89.75
394.107	75.75
394.331	60.75
394.556	70.75
394.78	84.75
395.005	92.75
395.229	78.75
395.454	84.75
395.678	74.75
395.903	80.75
396.127	91.75
396.352	85.75
396.576	87.75
396.801	98.75
397.025	90.75
397.249	72.75
397.474	86.75
397.698	83.75
397.922	92.75
398.147	85.75
398.371	86.75
398.595	82.75
398.82	87.75
399.044	78.75
399.268	86.75
399.492	82.75
399.717	91.75
399.941	78.75
400.165	77.75
400.389	73.75
400.613	89.75
400.837	63.75
401.062	81.75
401.286	78.75
401.51	79.75
401.734	80.75
401.958	83.75
402.182	86.75
402.406	78.75
402.63	92.75
402.854	82.75
403.078	79.75
403.302	88.75
403.526	81.75
403.75	88.75
403.974	85.75
404.198	78.75
404.422	97.75
404.645	90.75
404.869	72.75
405.093	72.75
405.317	80.75
405.541	87.75
405.765	80.75
405.988	90.75
406.212	81.75
406.436	92.75
406.66	74.75
406.883	91.75
407.107	81.75
407.331	96.75
407.555	76.75
407.778	92.75
408.002	94.75
408.226	84.75
408.449	70.75
408.673	83.75
408.896	84.75
409.12	82.75
409.344	82.75
409.567	81.75
409.791	71.75
410.014	78.75
410.238	88.75
410.461	88.75
410.685	83.75
410.908	88.75
411.132	80.75
411.355	81.75
411.578	86.75
411.802	84.75
412.025	74.75
412.249	78.75
412.472	92.75
412.695	82.75
412.919	73.75
413.142	80.75
413.365	86.75
413.589	86.75
413.812	81.75
414.035	77.75
414.258	85.75
414.482	79.75
414.705	90.75
414.928	110.75
415.151	82.75
415.374	86.75
415.597	91.75
415.821	86.75
416.044	80.75
416.267	75.75
416.49	86.75
416.713	90.75
416.936	96.75
417.159	76.75
417.382	80.75
417.605	83.75
417.828	88.75
418.051	76.75
418.274	82.75
418.497	84.75
418.72	76.75
418.943	101.75
419.166	78.75
419.389	70.75
419.611	75.75
419.834	82.75
420.057	83.75
420.28	78.75
420.503	79.75
420.726	69.75
420.948	91.75
421.171	86.75
421.394	79.75
421.617	77.75
421.839	90.75
422.062	70.75
422.285	70.75
422.507	80.75
422.73	86.75
422.953	81.75
423.175	64.75
423.398	82.75
423.621	74.75
423.843	74.75
424.066	72.75
424.288	80.75
424.511	91.75
424.733	81.75
424.956	69.75
425.178	84.75
425.401	84.75
425.623	74.75
425.846	70.75
426.068	91.75
426.291	76.75
426.513	77.75
426.735	89.75
426.958	91.75
427.18	67.75
427.402	81.75
427.625	65.75
427.847	93.75
428.069	75.75
428.292	80.75
428.514	86.75
428.736	72.75
428.958	69.75
429.181	86.75
429.403	78.75
429.625	85.75
429.847	86.75
430.069	83.75
430.292	95.75
430.514	93.75
430.736	71.75
430.958	81.75
431.18	82.75
431.402	86.75
431.624	80.75
431.846	77.75
432.068	76.75
432.29	70.75
432.512	89.75
432.734	97.75
432.956	82.75
433.178	87.75
433.4	88.75
433.622	102.75
433.844	90.75
434.066	89.75
434.287	78.75
434.509	88.75
434.731	72.75
434.953	78.75
435.175	93.75
435.397	86.75
435.618	81.75
435.84	89.75
436.062	88.75
436.284	76.75
436.505	79.75
436.727	78.75
436.949	82.75
437.17	84.75
437.392	81.75
437.614	79.75
437.835	100.75
438.057	100.75
438.278	89.75
438.5	84.75
438.721	87.75
438.943	87.75
439.165	87.75
439.386	76.75
439.608	87.75
439.829	74.75
440.05	72.75
440.272	82.75
440.493	80.75
440.715	79.75
440.936	85.75
441.158	78.75
441.379	86.75
441.6	77.75
441.822	82.75
442.043	85.75
442.264	87.75
442.486	85.75
442.707	85.75
442.928	87.75
443.149	90.75
443.371	92.75
443.592	90.75
443.813	91.75
444.034	74.75
444.255	80.75
444.476	81.75
444.698	78.75
444.919	78.75
445.14	171.75
445.361	111.75
445.582	85.75
445.803	81.75
446.024	93.75
446.245	90.75
446.466	75.75
446.687	86.75
446.908	65.75
447.129	80.75
447.35	64.75
447.571	87.75
447.792	80.75
448.013	81.75
448.234	80.75
448.455	83.75
448.675	78.75
448.896	87.75
449.117	81.75
449.338	77.75
449.559	81.75
449.779	76.75
450	84.75
450.221	101.75
450.442	86.75
450.662	83.75
450.883	79.75
451.104	78.75
451.324	77.75
451.545	90.75
451.766	95.75
451.986	93.75
452.207	76.75
452.428	77.75
452.648	78.75
452.869	83.75
453.089	78.75
453.31	90.75
453.53	80.75
453.751	79.75
453.971	67.75
454.192	73.75
454.412	74.75
454.633	81.75
454.853	60.75
455.073	87.75
455.294	79.75
455.514	64.75
455.734	85.75
455.955	65.75
456.175	81.75
456.395	76.75
456.616	98.75
456.836	80.75
457.056	75.75
457.276	91.75
457.497	76.75
457.717	81.75
457.937	87.75
458.157	74.75
458.377	64.75
458.598	76.75
458.818	84.75
459.038	86.75
459.258	76.75
459.478	86.75
459.698	81.75
459.918	93.75
460.138	80.75
460.358	91.75
460.578	84.75
460.798	86.75
461.018	90.75
461.238	73.75
461.458	94.75
461.678	72.75
461.898	78.75
462.118	81.75
462.338	75.75
462.558	74.75
462.777	76.75
462.997	83.75
463.217	75.75
463.437	86.75
463.657	81.75
463.876	89.75
464.096	74.75
464.316	73.75
464.536	89.75
464.755	88.75
464.975	81.75
465.195	66.75
465.414	81.75
465.634	88.75
465.854	76.75
466.073	82.75
466.293	70.75
466.512	100.75
466.732	82.75
466.951	72.75
467.171	78.75
467.391	88.75
467.61	88.75
467.829	77.75
468.049	74.75
468.268	92.75
468.488	80.75
468.707	81.75
468.927	80.75
469.146	89.75
469.365	81.75
469.585	89.75
469.804	72.75
470.023	84.75
470.243	89.75
470.462	81.75
470.681	81.75
470.901	74.75
471.12	80.75
471.339	97.75
471.558	93.75
471.777	77.75
471.997	83.75
472.216	93.75
472.435	88.75
472.654	72.75
472.873	82.75
473.092	83.75
473.311	69.75
473.53	78.75
473.749	90.75
473.968	89.75
474.187	81.75
474.406	83.75
474.625	89.75
474.844	77.75
475.063	88.75
475.282	81.75
475.501	90.75
475.72	79.75
475.939	81.75
476.158	92.75
476.377	86.75
476.596	64.75
476.814	84.75
477.033	85.75
477.252	70.75
477.471	72.75
477.69	96.75
477.908	84.75
478.127	78.75
478.346	90.75
478.564	76.75
478.783	74.75
479.002	85.75
479.22	86.75
479.439	83.75
479.658	84.75
479.876	82.75
480.095	76.75
480.313	72.75
480.532	93.75
480.751	89.75
480.969	85.75
481.188	81.75
481.406	76.75
481.624	77.75
481.843	73.75
482.061	76.75
482.28	89.75
482.498	93.75
482.717	82.75
482.935	81.75
483.153	95.75
483.372	84.75
483.59	78.75
483.808	85.75
484.027	77.75
484.245	79.75
484.463	82.75
484.681	69.75
484.9	97.75
485.118	90.75
485.336	72.75
485.554	76.75
485.772	80.75
485.99	84.75
486.209	75.75
486.427	85.75
486.645	81.75
486.863	90.75
487.081	84.75
487.299	71.75
487.517	78.75
487.735	88.75
487.953	70.75
488.171	84.75
488.389	64.75
488.607	85.75
488.825	78.75
489.043	81.75
489.261	88.75
489.479	88.75
489.696	75.75
489.914	87.75
490.132	82.75
490.35	74.75
490.568	87.75
490.786	99.75
491.003	90.75
491.221	77.75
491.439	92.75
491.657	86.75
491.874	100.75
492.092	84.75
492.31	74.75
492.527	78.75
492.745	72.75
492.963	84.75
493.18	88.75
493.398	101.75
493.615	89.75
493.833	74.75
494.05	77.75
494.268	91.75
494.485	87.75
494.703	85.75
494.92	91.75
495.138	82.75
495.355	88.75
495.573	69.75
495.79	68.75
496.008	82.75
496.225	89.75
496.442	72.75
496.66	87.75
496.877	84.75
497.094	85.75
497.312	74.75
497.529	83.75
497.746	88.75
497.963	70.75
498.181	79.75
498.398	75.75
498.615	85.75
498.832	76.75
499.049	84.75
499.267	89.75
499.484	83.75
499.701	66.75
499.918	97.75
500.135	92.75
500.352	83.75
500.569	92.75
500.786	90.75
501.003	77.75
501.22	88.75
501.437	75.75
501.654	78.75
501.871	85.75
502.088	88.75
502.305	98.75
502.522	95.75
502.739	82.75
502.956	100.75
503.172	89.75
503.389	92.75
503.606	75.75
503.823	100.75
504.04	74.75
504.256	94.75
504.473	98.75
504.69	81.75
504.907	86.75
505.123	63.75
505.34	96.75
505.557	100.75
505.773	94.75
505.99	84.75
506.207	74.75
506.423	69.75
506.64	87.75
506.856	71.75
507.073	81.75
507.289	81.75
507.506	76.75
507.722	78.75
507.939	75.75
508.155	92.75
508.372	73.75
508.588	90.75
508.805	76.75
509.021	83.75
509.238	83.75
509.454	85.75
509.67	69.75
509.887	74.75
510.103	93.75
510.319	84.75
510.536	86.75
510.752	82.75
510.968	84.75
511.184	81.75
511.401	89.75
511.617	79.75
511.833	88.75
512.049	80.75
512.265	96.75
512.481	76.75
512.698	80.75
512.914	89.75
513.13	76.75
513.346	78.75
513.562	65.75
513.778	80.75
513.994	79.75
514.21	76.75
514.426	89.75
514.642	95.75
514.858	69.75
515.074	81.75
515.29	88.75
515.506	84.75
515.721	98.75
515.937	86.75
516.153	73.75
516.369	67.75
516.585	56.75
516.801	59.75
517.016	75.75
517.232	81.75
517.448	81.75
517.664	82.75
517.879	93.75
518.095	86.75
518.311	87.75
518.527	90.75
518.742	90.75
518.958	96.75
519.173	81.75
519.389	78.75
519.605	84.75
519.82	77.75
520.036	86.75
