Data from StdD_HRD10591_017.txt Node
Date: Fri May 16 15:31:29 EDT 2025
User: Yrep
Spectrometer: HR+D1059
Trigger mode: 1
Integration Time (sec): 1.000000E-1
Scans to average: 1
Electric dark correction enabled: true
Nonlinearity correction enabled: false
Boxcar width: 0
XAxis mode: Wavelengths
Number of Pixels in Spectrum: 2048
>>>>>Begin Spectral Data<<<<<
223.165	-27.62
223.4	-27.62
223.635	-27.62
223.869	-23.62
224.104	-12.62
224.338	-16.62
224.573	-10.62
224.808	-8.62
225.042	-5.62
225.277	-2.62
225.511	-6.62
225.746	0.38
225.98	5.38
226.215	4.38
226.449	20.38
226.683	9.38
226.918	23.38
227.152	51.38
227.387	41.38
227.621	45.38
227.856	40.38
228.09	25.38
228.324	42.38
228.559	55.38
228.793	58.38
229.027	70.38
229.262	72.38
229.496	55.38
229.73	77.38
229.964	87.38
230.199	98.38
230.433	78.38
230.667	75.38
230.901	67.38
231.136	63.38
231.37	70.38
231.604	78.38
231.838	87.38
232.072	73.38
232.306	74.38
232.541	82.38
232.775	80.38
233.009	84.38
233.243	76.38
233.477	68.38
233.711	78.38
233.945	85.38
234.179	62.38
234.413	78.38
234.647	80.38
234.881	73.38
235.115	75.38
235.349	65.38
235.583	63.38
235.817	84.38
236.051	78.38
236.285	71.38
236.519	75.38
236.753	85.38
236.987	65.38
237.221	71.38
237.455	65.38
237.689	77.38
237.922	87.38
238.156	70.38
238.39	84.38
238.624	56.38
238.858	73.38
239.091	70.38
239.325	63.38
239.559	75.38
239.793	71.38
240.027	86.38
240.26	64.38
240.494	81.38
240.728	70.38
240.961	66.38
241.195	76.38
241.429	77.38
241.662	75.38
241.896	79.38
242.13	74.38
242.363	82.38
242.597	74.38
242.83	78.38
243.064	65.38
243.298	76.38
243.531	79.38
243.765	70.38
243.998	80.38
244.232	77.38
244.465	76.38
244.699	88.38
244.932	76.38
245.166	73.38
245.399	77.38
245.633	70.38
245.866	76.38
246.099	85.38
246.333	83.38
246.566	72.38
246.8	69.38
247.033	77.38
247.266	80.38
247.5	84.38
247.733	78.38
247.966	68.38
248.2	67.38
248.433	74.38
248.666	70.38
248.899	70.38
249.133	72.38
249.366	78.38
249.599	69.38
249.832	72.38
250.066	71.38
250.299	92.38
250.532	79.38
250.765	70.38
250.998	85.38
251.231	70.38
251.465	82.38
251.698	86.38
251.931	73.38
252.164	68.38
252.397	75.38
252.63	76.38
252.863	80.38
253.096	82.38
253.329	79.38
253.562	80.38
253.795	70.38
254.028	100.38
254.261	77.38
254.494	86.38
254.727	82.38
254.96	76.38
255.193	75.38
255.426	84.38
255.659	76.38
255.892	103.38
256.124	69.38
256.357	78.38
256.59	80.38
256.823	82.38
257.056	79.38
257.289	79.38
257.521	77.38
257.754	81.38
257.987	68.38
258.22	74.38
258.452	81.38
258.685	77.38
258.918	82.38
259.151	79.38
259.383	85.38
259.616	68.38
259.849	76.38
260.081	67.38
260.314	78.38
260.547	77.38
260.779	72.38
261.012	81.38
261.244	82.38
261.477	81.38
261.71	81.38
261.942	83.38
262.175	77.38
262.407	84.38
262.64	76.38
262.872	76.38
263.105	75.38
263.337	74.38
263.57	70.38
263.802	90.38
264.035	70.38
264.267	73.38
264.499	70.38
264.732	79.38
264.964	84.38
265.197	65.38
265.429	86.38
265.661	91.38
265.894	79.38
266.126	79.38
266.358	85.38
266.591	63.38
266.823	72.38
267.055	80.38
267.287	78.38
267.52	74.38
267.752	84.38
267.984	74.38
268.216	80.38
268.448	68.38
268.681	85.38
268.913	76.38
269.145	72.38
269.377	85.38
269.609	63.38
269.841	60.38
270.073	87.38
270.306	68.38
270.538	72.38
270.77	76.38
271.002	83.38
271.234	82.38
271.466	72.38
271.698	76.38
271.93	68.38
272.162	82.38
272.394	71.38
272.626	86.38
272.858	65.38
273.09	84.38
273.322	95.38
273.553	84.38
273.785	77.38
274.017	100.38
274.249	94.38
274.481	76.38
274.713	88.38
274.945	92.38
275.176	67.38
275.408	91.38
275.64	94.38
275.872	89.38
276.104	77.38
276.335	88.38
276.567	80.38
276.799	83.38
277.031	87.38
277.262	83.38
277.494	71.38
277.726	91.38
277.957	78.38
278.189	79.38
278.421	73.38
278.652	79.38
278.884	80.38
279.115	74.38
279.347	82.38
279.579	86.38
279.81	70.38
280.042	96.38
280.273	85.38
280.505	84.38
280.736	86.38
280.968	89.38
281.199	89.38
281.431	78.38
281.662	99.38
281.894	84.38
282.125	86.38
282.356	89.38
282.588	65.38
282.819	84.38
283.051	86.38
283.282	62.38
283.513	75.38
283.745	77.38
283.976	70.38
284.207	82.38
284.439	84.38
284.67	77.38
284.901	90.38
285.132	83.38
285.364	82.38
285.595	76.38
285.826	64.38
286.057	82.38
286.288	88.38
286.52	92.38
286.751	78.38
286.982	57.38
287.213	79.38
287.444	68.38
287.675	88.38
287.906	86.38
288.138	83.38
288.369	68.38
288.6	88.38
288.831	82.38
289.062	86.38
289.293	77.38
289.524	78.38
289.755	74.38
289.986	74.38
290.217	89.38
290.448	97.38
290.679	83.38
290.91	98.38
291.141	74.38
291.371	88.38
291.602	80.38
291.833	79.38
292.064	84.38
292.295	84.38
292.526	71.38
292.757	80.38
292.987	77.38
293.218	64.38
293.449	68.38
293.68	76.38
293.91	82.38
294.141	70.38
294.372	81.38
294.603	79.38
294.833	78.38
295.064	77.38
295.295	78.38
295.525	84.38
295.756	80.38
295.987	81.38
296.217	74.38
296.448	84.38
296.679	88.38
296.909	82.38
297.14	84.38
297.37	72.38
297.601	84.38
297.831	80.38
298.062	91.38
298.292	82.38
298.523	77.38
298.753	70.38
298.984	84.38
299.214	75.38
299.445	100.38
299.675	76.38
299.905	86.38
300.136	68.38
300.366	77.38
300.597	87.38
300.827	84.38
301.057	88.38
301.288	81.38
301.518	75.38
301.748	87.38
301.979	104.38
302.209	84.38
302.439	82.38
302.669	87.38
302.9	89.38
303.13	84.38
303.36	79.38
303.59	87.38
303.82	73.38
304.051	74.38
304.281	78.38
304.511	75.38
304.741	82.38
304.971	86.38
305.201	80.38
305.431	79.38
305.661	85.38
305.891	82.38
306.121	84.38
306.352	74.38
306.582	80.38
306.812	87.38
307.042	77.38
307.272	88.38
307.502	85.38
307.731	82.38
307.961	78.38
308.191	85.38
308.421	75.38
308.651	83.38
308.881	92.38
309.111	82.38
309.341	82.38
309.571	76.38
309.8	79.38
310.03	83.38
310.26	93.38
310.49	83.38
310.72	98.38
310.949	88.38
311.179	76.38
311.409	78.38
311.639	87.38
311.868	79.38
312.098	74.38
312.328	84.38
312.557	85.38
312.787	78.38
313.017	90.38
313.246	76.38
313.476	83.38
313.706	84.38
313.935	78.38
314.165	78.38
314.394	83.38
314.624	78.38
314.853	76.38
315.083	83.38
315.312	79.38
315.542	68.38
315.771	74.38
316.001	73.38
316.23	86.38
316.46	74.38
316.689	83.38
316.919	72.38
317.148	88.38
317.377	85.38
317.607	65.38
317.836	78.38
318.065	92.38
318.295	94.38
318.524	67.38
318.753	79.38
318.983	78.38
319.212	101.38
319.441	76.38
319.67	82.38
319.9	76.38
320.129	87.38
320.358	74.38
320.587	88.38
320.816	84.38
321.046	80.38
321.275	93.38
321.504	76.38
321.733	82.38
321.962	96.38
322.191	84.38
322.42	85.38
322.649	71.38
322.878	85.38
323.108	82.38
323.337	87.38
323.566	95.38
323.795	86.38
324.024	91.38
324.253	89.38
324.482	73.38
324.71	90.38
324.939	84.38
325.168	88.38
325.397	93.38
325.626	74.38
325.855	70.38
326.084	80.38
326.313	80.38
326.542	75.38
326.77	81.38
326.999	73.38
327.228	79.38
327.457	103.38
327.686	84.38
327.914	75.38
328.143	104.38
328.372	77.38
328.6	74.38
328.829	88.38
329.058	82.38
329.287	78.38
329.515	101.38
329.744	91.38
329.972	77.38
330.201	88.38
330.43	74.38
330.658	63.38
330.887	81.38
331.115	91.38
331.344	75.38
331.572	91.38
331.801	91.38
332.03	77.38
332.258	103.38
332.486	89.38
332.715	87.38
332.943	83.38
333.172	78.38
333.4	99.38
333.629	91.38
333.857	70.38
334.085	62.38
334.314	72.38
334.542	74.38
334.771	70.38
334.999	95.38
335.227	76.38
335.455	74.38
335.684	93.38
335.912	86.38
336.14	78.38
336.369	76.38
336.597	79.38
336.825	71.38
337.053	77.38
337.281	81.38
337.51	86.38
337.738	88.38
337.966	82.38
338.194	71.38
338.422	64.38
338.65	69.38
338.878	84.38
339.106	94.38
339.334	89.38
339.562	83.38
339.79	84.38
340.018	75.38
340.246	82.38
340.474	72.38
340.702	77.38
340.93	81.38
341.158	88.38
341.386	82.38
341.614	83.38
341.842	81.38
342.07	73.38
342.298	60.38
342.526	91.38
342.754	78.38
342.981	64.38
343.209	78.38
343.437	86.38
343.665	76.38
343.893	79.38
344.12	84.38
344.348	74.38
344.576	80.38
344.804	76.38
345.031	77.38
345.259	61.38
345.487	85.38
345.714	92.38
345.942	70.38
346.17	68.38
346.397	66.38
346.625	64.38
346.853	80.38
347.08	90.38
347.308	78.38
347.535	94.38
347.763	83.38
347.99	74.38
348.218	86.38
348.445	89.38
348.673	85.38
348.9	78.38
349.128	90.38
349.355	87.38
349.583	95.38
349.81	85.38
350.037	83.38
350.265	79.38
350.492	91.38
350.72	72.38
350.947	71.38
351.174	90.38
351.402	72.38
351.629	86.38
351.856	81.38
352.083	76.38
352.311	82.38
352.538	71.38
352.765	87.38
352.992	78.38
353.22	86.38
353.447	84.38
353.674	91.38
353.901	80.38
354.128	78.38
354.355	88.38
354.583	85.38
354.81	74.38
355.037	77.38
355.264	72.38
355.491	74.38
355.718	80.38
355.945	85.38
356.172	75.38
356.399	69.38
356.626	76.38
356.853	83.38
357.08	79.38
357.307	87.38
357.534	74.38
357.761	78.38
357.988	80.38
358.215	82.38
358.441	81.38
358.668	65.38
358.895	83.38
359.122	69.38
359.349	82.38
359.576	70.38
359.802	82.38
360.029	79.38
360.256	71.38
360.483	80.38
360.709	74.38
360.936	86.38
361.163	77.38
361.39	79.38
361.616	79.38
361.843	89.38
362.07	74.38
362.296	70.38
362.523	81.38
362.749	72.38
362.976	65.38
363.203	88.38
363.429	80.38
363.656	78.38
363.882	72.38
364.109	83.38
364.335	77.38
364.562	71.38
364.788	85.38
365.015	82.38
365.241	71.38
365.468	85.38
365.694	89.38
365.92	65.38
366.147	86.38
366.373	78.38
366.599	74.38
366.826	78.38
367.052	82.38
367.278	69.38
367.505	82.38
367.731	85.38
367.957	59.38
368.184	75.38
368.41	73.38
368.636	77.38
368.862	80.38
369.089	90.38
369.315	85.38
369.541	83.38
369.767	91.38
369.993	93.38
370.219	78.38
370.445	89.38
370.672	84.38
370.898	72.38
371.124	74.38
371.35	86.38
371.576	82.38
371.802	84.38
372.028	88.38
372.254	67.38
372.48	79.38
372.706	102.38
372.932	68.38
373.158	93.38
373.384	80.38
373.61	79.38
373.835	70.38
374.061	72.38
374.287	88.38
374.513	76.38
374.739	74.38
374.965	76.38
375.191	70.38
375.416	86.38
375.642	75.38
375.868	81.38
376.094	85.38
376.319	75.38
376.545	69.38
376.771	80.38
376.997	79.38
377.222	87.38
377.448	84.38
377.674	90.38
377.899	85.38
378.125	84.38
378.35	98.38
378.576	93.38
378.802	59.38
379.027	100.38
379.253	76.38
379.478	81.38
379.704	86.38
379.929	89.38
380.155	83.38
380.38	83.38
380.606	65.38
380.831	67.38
381.057	84.38
381.282	77.38
381.507	78.38
381.733	99.38
381.958	80.38
382.184	86.38
382.409	78.38
382.634	77.38
382.86	83.38
383.085	90.38
383.31	74.38
383.535	72.38
383.761	78.38
383.986	79.38
384.211	75.38
384.436	55.38
384.662	56.38
384.887	80.38
385.112	78.38
385.337	78.38
385.562	87.38
385.787	79.38
386.013	82.38
386.238	84.38
386.463	83.38
386.688	80.38
386.913	84.38
387.138	71.38
387.363	82.38
387.588	95.38
387.813	90.38
388.038	85.38
388.263	84.38
388.488	70.38
388.713	78.38
388.938	71.38
389.163	82.38
389.387	76.38
389.612	69.38
389.837	81.38
390.062	78.38
390.287	70.38
390.512	75.38
390.736	72.38
390.961	78.38
391.186	74.38
391.411	84.38
391.636	90.38
391.86	74.38
392.085	80.38
392.31	79.38
392.534	77.38
392.759	64.38
392.984	88.38
393.208	76.38
393.433	69.38
393.658	80.38
393.882	76.38
394.107	76.38
394.331	83.38
394.556	66.38
394.78	84.38
395.005	71.38
395.229	66.38
395.454	81.38
395.678	77.38
395.903	85.38
396.127	82.38
396.352	81.38
396.576	91.38
396.801	75.38
397.025	74.38
397.249	81.38
397.474	82.38
397.698	64.38
397.922	79.38
398.147	68.38
398.371	77.38
398.595	71.38
398.82	79.38
399.044	76.38
399.268	85.38
399.492	80.38
399.717	82.38
399.941	83.38
400.165	94.38
400.389	65.38
400.613	73.38
400.837	75.38
401.062	76.38
401.286	76.38
401.51	73.38
401.734	72.38
401.958	80.38
402.182	86.38
402.406	81.38
402.63	77.38
402.854	79.38
403.078	70.38
403.302	69.38
403.526	98.38
403.75	80.38
403.974	75.38
404.198	86.38
404.422	76.38
404.645	78.38
404.869	72.38
405.093	80.38
405.317	89.38
405.541	79.38
405.765	70.38
405.988	83.38
406.212	78.38
406.436	57.38
406.66	90.38
406.883	75.38
407.107	68.38
407.331	80.38
407.555	87.38
407.778	86.38
408.002	78.38
408.226	83.38
408.449	74.38
408.673	66.38
408.896	85.38
409.12	82.38
409.344	71.38
409.567	81.38
409.791	83.38
410.014	77.38
410.238	77.38
410.461	86.38
410.685	94.38
410.908	78.38
411.132	71.38
411.355	84.38
411.578	84.38
411.802	78.38
412.025	82.38
412.249	64.38
412.472	68.38
412.695	87.38
412.919	77.38
413.142	75.38
413.365	82.38
413.589	77.38
413.812	77.38
414.035	78.38
414.258	72.38
414.482	74.38
414.705	85.38
414.928	75.38
415.151	82.38
415.374	78.38
415.597	80.38
415.821	82.38
416.044	69.38
416.267	79.38
416.49	82.38
416.713	82.38
416.936	82.38
417.159	74.38
417.382	77.38
417.605	86.38
417.828	84.38
418.051	90.38
418.274	77.38
418.497	88.38
418.72	80.38
418.943	83.38
419.166	84.38
419.389	84.38
419.611	67.38
419.834	86.38
420.057	84.38
420.28	78.38
420.503	72.38
420.726	74.38
420.948	74.38
421.171	95.38
421.394	80.38
421.617	76.38
421.839	85.38
422.062	80.38
422.285	62.38
422.507	79.38
422.73	80.38
422.953	74.38
423.175	78.38
423.398	74.38
423.621	87.38
423.843	67.38
424.066	72.38
424.288	86.38
424.511	76.38
424.733	77.38
424.956	83.38
425.178	82.38
425.401	86.38
425.623	90.38
425.846	88.38
426.068	87.38
426.291	78.38
426.513	63.38
426.735	100.38
426.958	85.38
427.18	79.38
427.402	95.38
427.625	77.38
427.847	79.38
428.069	78.38
428.292	83.38
428.514	82.38
428.736	77.38
428.958	79.38
429.181	79.38
429.403	82.38
429.625	75.38
429.847	83.38
430.069	91.38
430.292	80.38
430.514	72.38
430.736	67.38
430.958	76.38
431.18	93.38
431.402	80.38
431.624	89.38
431.846	80.38
432.068	72.38
432.29	78.38
432.512	80.38
432.734	72.38
432.956	90.38
433.178	77.38
433.4	80.38
433.622	88.38
433.844	102.38
434.066	78.38
434.287	78.38
434.509	78.38
434.731	78.38
434.953	78.38
435.175	87.38
435.397	69.38
435.618	87.38
435.84	75.38
436.062	78.38
436.284	80.38
436.505	80.38
436.727	83.38
436.949	92.38
437.17	94.38
437.392	84.38
437.614	74.38
437.835	68.38
438.057	82.38
438.278	82.38
438.5	76.38
438.721	79.38
438.943	73.38
439.165	77.38
439.386	79.38
439.608	87.38
439.829	86.38
440.05	75.38
440.272	78.38
440.493	68.38
440.715	83.38
440.936	84.38
441.158	88.38
441.379	91.38
441.6	99.38
441.822	84.38
442.043	75.38
442.264	75.38
442.486	79.38
442.707	80.38
442.928	69.38
443.149	84.38
443.371	86.38
443.592	72.38
443.813	79.38
444.034	75.38
444.255	81.38
444.476	75.38
444.698	87.38
444.919	84.38
445.14	169.38
445.361	128.38
445.582	89.38
445.803	82.38
446.024	74.38
446.245	62.38
446.466	85.38
446.687	76.38
446.908	84.38
447.129	98.38
447.35	71.38
447.571	88.38
447.792	85.38
448.013	77.38
448.234	92.38
448.455	91.38
448.675	74.38
448.896	83.38
449.117	80.38
449.338	83.38
449.559	78.38
449.779	80.38
450	77.38
450.221	74.38
450.442	74.38
450.662	75.38
450.883	78.38
451.104	91.38
451.324	80.38
451.545	89.38
451.766	78.38
451.986	74.38
452.207	86.38
452.428	67.38
452.648	85.38
452.869	78.38
453.089	87.38
453.31	70.38
453.53	79.38
453.751	88.38
453.971	75.38
454.192	77.38
454.412	86.38
454.633	77.38
454.853	79.38
455.073	82.38
455.294	71.38
455.514	89.38
455.734	66.38
455.955	72.38
456.175	76.38
456.395	86.38
456.616	84.38
456.836	95.38
457.056	67.38
457.276	85.38
457.497	64.38
457.717	78.38
457.937	74.38
458.157	70.38
458.377	78.38
458.598	84.38
458.818	69.38
459.038	88.38
459.258	86.38
459.478	75.38
459.698	80.38
459.918	68.38
460.138	82.38
460.358	85.38
460.578	81.38
460.798	78.38
461.018	84.38
461.238	79.38
461.458	82.38
461.678	76.38
461.898	86.38
462.118	94.38
462.338	84.38
462.558	82.38
462.777	74.38
462.997	85.38
463.217	99.38
463.437	77.38
463.657	91.38
463.876	96.38
464.096	77.38
464.316	80.38
464.536	83.38
464.755	74.38
464.975	84.38
465.195	73.38
465.414	76.38
465.634	79.38
465.854	83.38
466.073	80.38
466.293	88.38
466.512	81.38
466.732	79.38
466.951	87.38
467.171	87.38
467.391	90.38
467.61	74.38
467.829	82.38
468.049	95.38
468.268	73.38
468.488	86.38
468.707	62.38
468.927	79.38
469.146	72.38
469.365	82.38
469.585	82.38
469.804	78.38
470.023	87.38
470.243	94.38
470.462	74.38
470.681	86.38
470.901	77.38
471.12	91.38
471.339	89.38
471.558	80.38
471.777	58.38
471.997	67.38
472.216	69.38
472.435	84.38
472.654	77.38
472.873	70.38
473.092	74.38
473.311	83.38
473.53	82.38
473.749	83.38
473.968	70.38
474.187	77.38
474.406	75.38
474.625	77.38
474.844	79.38
475.063	80.38
475.282	79.38
475.501	75.38
475.72	95.38
475.939	78.38
476.158	80.38
476.377	86.38
476.596	91.38
476.814	88.38
477.033	68.38
477.252	83.38
477.471	78.38
477.69	68.38
477.908	74.38
478.127	88.38
478.346	96.38
478.564	86.38
478.783	83.38
479.002	90.38
479.22	80.38
479.439	96.38
479.658	100.38
479.876	70.38
480.095	79.38
480.313	94.38
480.532	82.38
480.751	80.38
480.969	72.38
481.188	74.38
481.406	86.38
481.624	70.38
481.843	84.38
482.061	78.38
482.28	88.38
482.498	76.38
482.717	82.38
482.935	82.38
483.153	77.38
483.372	72.38
483.59	72.38
483.808	75.38
484.027	69.38
484.245	71.38
484.463	82.38
484.681	84.38
484.9	80.38
485.118	87.38
485.336	68.38
485.554	71.38
485.772	65.38
485.99	85.38
486.209	92.38
486.427	89.38
486.645	79.38
486.863	77.38
487.081	86.38
487.299	77.38
487.517	72.38
487.735	79.38
487.953	90.38
488.171	77.38
488.389	103.38
488.607	82.38
488.825	75.38
489.043	82.38
489.261	70.38
489.479	66.38
489.696	84.38
489.914	80.38
490.132	88.38
490.35	79.38
490.568	100.38
490.786	87.38
491.003	75.38
491.221	76.38
491.439	88.38
491.657	98.38
491.874	92.38
492.092	90.38
492.31	93.38
492.527	100.38
492.745	76.38
492.963	92.38
493.18	94.38
493.398	84.38
493.615	86.38
493.833	86.38
494.05	82.38
494.268	74.38
494.485	89.38
494.703	79.38
494.92	80.38
495.138	85.38
495.355	85.38
495.573	91.38
495.79	89.38
496.008	86.38
496.225	83.38
496.442	95.38
496.66	106.38
496.877	91.38
497.094	103.38
497.312	79.38
497.529	84.38
497.746	85.38
497.963	77.38
498.181	91.38
498.398	90.38
498.615	79.38
498.832	85.38
499.049	80.38
499.267	83.38
499.484	80.38
499.701	76.38
499.918	71.38
500.135	85.38
500.352	92.38
500.569	82.38
500.786	97.38
501.003	76.38
501.22	68.38
501.437	77.38
501.654	90.38
501.871	84.38
502.088	84.38
502.305	91.38
502.522	84.38
502.739	84.38
502.956	82.38
503.172	87.38
503.389	85.38
503.606	73.38
503.823	93.38
504.04	85.38
504.256	78.38
504.473	73.38
504.69	68.38
504.907	80.38
505.123	89.38
505.34	78.38
505.557	70.38
505.773	85.38
505.99	80.38
506.207	76.38
506.423	83.38
506.64	79.38
506.856	92.38
507.073	75.38
507.289	71.38
507.506	77.38
507.722	82.38
507.939	64.38
508.155	86.38
508.372	91.38
508.588	78.38
508.805	95.38
509.021	72.38
509.238	71.38
509.454	76.38
509.67	82.38
509.887	75.38
510.103	86.38
510.319	86.38
510.536	100.38
510.752	82.38
510.968	72.38
511.184	88.38
511.401	69.38
511.617	81.38
511.833	82.38
512.049	67.38
512.265	59.38
512.481	81.38
512.698	86.38
512.914	72.38
513.13	88.38
513.346	91.38
513.562	83.38
513.778	99.38
513.994	78.38
514.21	78.38
514.426	84.38
514.642	72.38
514.858	84.38
515.074	75.38
515.29	74.38
515.506	77.38
515.721	90.38
515.937	71.38
516.153	81.38
516.369	80.38
516.585	82.38
516.801	80.38
517.016	72.38
517.232	93.38
517.448	73.38
517.664	72.38
517.879	74.38
518.095	92.38
518.311	88.38
518.527	74.38
518.742	87.38
518.958	79.38
519.173	85.38
519.389	98.38
519.605	79.38
519.82	81.38
520.036	82.38
