Data from StdD_HRD10591_076.txt Node
Date: Fri May 16 15:31:59 EDT 2025
User: Yrep
Spectrometer: HR+D1059
Trigger mode: 1
Integration Time (sec): 1.000000E-1
Scans to average: 1
Electric dark correction enabled: true
Nonlinearity correction enabled: false
Boxcar width: 0
XAxis mode: Wavelengths
Number of Pixels in Spectrum: 2048
>>>>>Begin Spectral Data<<<<<
223.165	-28.62
223.4	-28.62
223.635	-28.62
223.869	-25.62
224.104	-8.62
224.338	-13.62
224.573	-25.62
224.808	-14.62
225.042	3.38
225.277	-1.62
225.511	-11.62
225.746	-1.62
225.98	11.38
226.215	9.38
226.449	11.38
226.683	26.38
226.918	30.38
227.152	39.38
227.387	39.38
227.621	44.38
227.856	46.38
228.09	41.38
228.324	48.38
228.559	56.38
228.793	50.38
229.027	76.38
229.262	59.38
229.496	72.38
229.73	68.38
229.964	77.38
230.199	65.38
230.433	77.38
230.667	78.38
230.901	77.38
231.136	84.38
231.37	60.38
231.604	97.38
231.838	88.38
232.072	75.38
232.306	87.38
232.541	82.38
232.775	80.38
233.009	86.38
233.243	77.38
233.477	73.38
233.711	73.38
233.945	78.38
234.179	72.38
234.413	94.38
234.647	71.38
234.881	81.38
235.115	86.38
235.349	84.38
235.583	72.38
235.817	71.38
236.051	84.38
236.285	72.38
236.519	89.38
236.753	79.38
236.987	82.38
237.221	69.38
237.455	74.38
237.689	79.38
237.922	78.38
238.156	65.38
238.39	78.38
238.624	76.38
238.858	67.38
239.091	77.38
239.325	63.38
239.559	70.38
239.793	80.38
240.027	80.38
240.26	73.38
240.494	85.38
240.728	74.38
240.961	86.38
241.195	74.38
241.429	80.38
241.662	77.38
241.896	86.38
242.13	77.38
242.363	52.38
242.597	71.38
242.83	82.38
243.064	72.38
243.298	72.38
243.531	60.38
243.765	68.38
243.998	71.38
244.232	82.38
244.465	69.38
244.699	82.38
244.932	80.38
245.166	89.38
245.399	76.38
245.633	80.38
245.866	83.38
246.099	64.38
246.333	68.38
246.566	75.38
246.8	81.38
247.033	72.38
247.266	74.38
247.5	72.38
247.733	69.38
247.966	70.38
248.2	76.38
248.433	84.38
248.666	82.38
248.899	84.38
249.133	87.38
249.366	78.38
249.599	79.38
249.832	82.38
250.066	87.38
250.299	66.38
250.532	86.38
250.765	93.38
250.998	83.38
251.231	85.38
251.465	76.38
251.698	82.38
251.931	77.38
252.164	72.38
252.397	77.38
252.63	80.38
252.863	80.38
253.096	74.38
253.329	75.38
253.562	85.38
253.795	71.38
254.028	76.38
254.261	76.38
254.494	81.38
254.727	81.38
254.96	94.38
255.193	88.38
255.426	69.38
255.659	79.38
255.892	92.38
256.124	50.38
256.357	75.38
256.59	68.38
256.823	76.38
257.056	93.38
257.289	87.38
257.521	83.38
257.754	71.38
257.987	70.38
258.22	94.38
258.452	84.38
258.685	83.38
258.918	91.38
259.151	77.38
259.383	81.38
259.616	74.38
259.849	71.38
260.081	64.38
260.314	64.38
260.547	91.38
260.779	71.38
261.012	75.38
261.244	73.38
261.477	93.38
261.71	81.38
261.942	79.38
262.175	78.38
262.407	72.38
262.64	77.38
262.872	82.38
263.105	77.38
263.337	76.38
263.57	75.38
263.802	80.38
264.035	80.38
264.267	91.38
264.499	82.38
264.732	83.38
264.964	80.38
265.197	93.38
265.429	87.38
265.661	73.38
265.894	64.38
266.126	75.38
266.358	73.38
266.591	86.38
266.823	80.38
267.055	81.38
267.287	85.38
267.52	72.38
267.752	70.38
267.984	82.38
268.216	81.38
268.448	77.38
268.681	85.38
268.913	91.38
269.145	77.38
269.377	90.38
269.609	91.38
269.841	86.38
270.073	71.38
270.306	67.38
270.538	79.38
270.77	86.38
271.002	72.38
271.234	83.38
271.466	70.38
271.698	66.38
271.93	84.38
272.162	87.38
272.394	80.38
272.626	83.38
272.858	71.38
273.09	91.38
273.322	81.38
273.553	80.38
273.785	67.38
274.017	80.38
274.249	79.38
274.481	74.38
274.713	74.38
274.945	88.38
275.176	78.38
275.408	86.38
275.64	64.38
275.872	81.38
276.104	85.38
276.335	80.38
276.567	74.38
276.799	68.38
277.031	66.38
277.262	82.38
277.494	86.38
277.726	95.38
277.957	84.38
278.189	71.38
278.421	74.38
278.652	78.38
278.884	86.38
279.115	78.38
279.347	96.38
279.579	76.38
279.81	58.38
280.042	84.38
280.273	74.38
280.505	87.38
280.736	82.38
280.968	81.38
281.199	68.38
281.431	91.38
281.662	84.38
281.894	82.38
282.125	80.38
282.356	76.38
282.588	79.38
282.819	88.38
283.051	93.38
283.282	81.38
283.513	87.38
283.745	80.38
283.976	90.38
284.207	79.38
284.439	82.38
284.67	75.38
284.901	75.38
285.132	78.38
285.364	90.38
285.595	85.38
285.826	92.38
286.057	73.38
286.288	78.38
286.52	82.38
286.751	79.38
286.982	79.38
287.213	77.38
287.444	88.38
287.675	94.38
287.906	82.38
288.138	82.38
288.369	88.38
288.6	72.38
288.831	81.38
289.062	88.38
289.293	66.38
289.524	89.38
289.755	98.38
289.986	90.38
290.217	86.38
290.448	91.38
290.679	85.38
290.91	87.38
291.141	95.38
291.371	81.38
291.602	78.38
291.833	82.38
292.064	92.38
292.295	79.38
292.526	90.38
292.757	88.38
292.987	73.38
293.218	71.38
293.449	80.38
293.68	75.38
293.91	89.38
294.141	80.38
294.372	98.38
294.603	107.38
294.833	88.38
295.064	69.38
295.295	80.38
295.525	91.38
295.756	83.38
295.987	80.38
296.217	70.38
296.448	82.38
296.679	78.38
296.909	88.38
297.14	85.38
297.37	95.38
297.601	87.38
297.831	75.38
298.062	94.38
298.292	80.38
298.523	85.38
298.753	80.38
298.984	80.38
299.214	85.38
299.445	93.38
299.675	93.38
299.905	82.38
300.136	82.38
300.366	89.38
300.597	88.38
300.827	97.38
301.057	85.38
301.288	84.38
301.518	82.38
301.748	88.38
301.979	95.38
302.209	70.38
302.439	84.38
302.669	81.38
302.9	80.38
303.13	81.38
303.36	81.38
303.59	81.38
303.82	74.38
304.051	84.38
304.281	84.38
304.511	94.38
304.741	86.38
304.971	78.38
305.201	91.38
305.431	78.38
305.661	90.38
305.891	85.38
306.121	84.38
306.352	81.38
306.582	86.38
306.812	72.38
307.042	89.38
307.272	71.38
307.502	81.38
307.731	77.38
307.961	85.38
308.191	84.38
308.421	85.38
308.651	93.38
308.881	64.38
309.111	89.38
309.341	97.38
309.571	86.38
309.8	80.38
310.03	86.38
310.26	91.38
310.49	84.38
310.72	98.38
310.949	96.38
311.179	84.38
311.409	86.38
311.639	67.38
311.868	75.38
312.098	88.38
312.328	87.38
312.557	94.38
312.787	78.38
313.017	90.38
313.246	85.38
313.476	87.38
313.706	74.38
313.935	82.38
314.165	82.38
314.394	88.38
314.624	74.38
314.853	87.38
315.083	89.38
315.312	72.38
315.542	95.38
315.771	84.38
316.001	86.38
316.23	92.38
316.46	88.38
316.689	91.38
316.919	88.38
317.148	90.38
317.377	88.38
317.607	79.38
317.836	80.38
318.065	80.38
318.295	86.38
318.524	80.38
318.753	70.38
318.983	84.38
319.212	77.38
319.441	80.38
319.67	103.38
319.9	70.38
320.129	80.38
320.358	81.38
320.587	84.38
320.816	94.38
321.046	100.38
321.275	88.38
321.504	87.38
321.733	78.38
321.962	78.38
322.191	94.38
322.42	93.38
322.649	84.38
322.878	73.38
323.108	92.38
323.337	80.38
323.566	81.38
323.795	86.38
324.024	86.38
324.253	100.38
324.482	90.38
324.71	94.38
324.939	72.38
325.168	93.38
325.397	88.38
325.626	69.38
325.855	76.38
326.084	83.38
326.313	85.38
326.542	86.38
326.77	75.38
326.999	90.38
327.228	81.38
327.457	79.38
327.686	79.38
327.914	74.38
328.143	90.38
328.372	89.38
328.6	77.38
328.829	75.38
329.058	80.38
329.287	72.38
329.515	77.38
329.744	84.38
329.972	87.38
330.201	80.38
330.43	97.38
330.658	83.38
330.887	80.38
331.115	78.38
331.344	77.38
331.572	93.38
331.801	83.38
332.03	85.38
332.258	77.38
332.486	74.38
332.715	91.38
332.943	76.38
333.172	77.38
333.4	76.38
333.629	85.38
333.857	70.38
334.085	75.38
334.314	74.38
334.542	79.38
334.771	98.38
334.999	74.38
335.227	74.38
335.455	69.38
335.684	87.38
335.912	79.38
336.14	86.38
336.369	84.38
336.597	80.38
336.825	79.38
337.053	82.38
337.281	86.38
337.51	86.38
337.738	87.38
337.966	81.38
338.194	76.38
338.422	80.38
338.65	79.38
338.878	82.38
339.106	85.38
339.334	78.38
339.562	68.38
339.79	89.38
340.018	71.38
340.246	87.38
340.474	88.38
340.702	87.38
340.93	86.38
341.158	92.38
341.386	74.38
341.614	72.38
341.842	87.38
342.07	102.38
342.298	76.38
342.526	100.38
342.754	84.38
342.981	87.38
343.209	82.38
343.437	92.38
343.665	80.38
343.893	92.38
344.12	77.38
344.348	82.38
344.576	90.38
344.804	81.38
345.031	90.38
345.259	86.38
345.487	91.38
345.714	90.38
345.942	89.38
346.17	69.38
346.397	91.38
346.625	87.38
346.853	86.38
347.08	76.38
347.308	88.38
347.535	70.38
347.763	86.38
347.99	80.38
348.218	81.38
348.445	69.38
348.673	84.38
348.9	85.38
349.128	58.38
349.355	72.38
349.583	70.38
349.81	83.38
350.037	71.38
350.265	88.38
350.492	73.38
350.72	91.38
350.947	90.38
351.174	90.38
351.402	92.38
351.629	81.38
351.856	84.38
352.083	74.38
352.311	78.38
352.538	86.38
352.765	86.38
352.992	79.38
353.22	87.38
353.447	83.38
353.674	69.38
353.901	93.38
354.128	80.38
354.355	81.38
354.583	89.38
354.81	84.38
355.037	91.38
355.264	97.38
355.491	79.38
355.718	88.38
355.945	82.38
356.172	90.38
356.399	87.38
356.626	91.38
356.853	93.38
357.08	87.38
357.307	102.38
357.534	71.38
357.761	74.38
357.988	71.38
358.215	90.38
358.441	87.38
358.668	75.38
358.895	85.38
359.122	83.38
359.349	79.38
359.576	85.38
359.802	82.38
360.029	75.38
360.256	72.38
360.483	80.38
360.709	93.38
360.936	88.38
361.163	83.38
361.39	85.38
361.616	85.38
361.843	89.38
362.07	81.38
362.296	83.38
362.523	88.38
362.749	92.38
362.976	85.38
363.203	103.38
363.429	92.38
363.656	82.38
363.882	85.38
364.109	82.38
364.335	87.38
364.562	82.38
364.788	78.38
365.015	85.38
365.241	87.38
365.468	73.38
365.694	76.38
365.92	74.38
366.147	83.38
366.373	70.38
366.599	92.38
366.826	80.38
367.052	87.38
367.278	81.38
367.505	90.38
367.731	97.38
367.957	69.38
368.184	74.38
368.41	78.38
368.636	89.38
368.862	83.38
369.089	96.38
369.315	76.38
369.541	81.38
369.767	73.38
369.993	79.38
370.219	74.38
370.445	78.38
370.672	69.38
370.898	74.38
371.124	89.38
371.35	75.38
371.576	84.38
371.802	83.38
372.028	91.38
372.254	83.38
372.48	81.38
372.706	76.38
372.932	72.38
373.158	87.38
373.384	80.38
373.61	82.38
373.835	87.38
374.061	78.38
374.287	87.38
374.513	74.38
374.739	76.38
374.965	73.38
375.191	83.38
375.416	90.38
375.642	76.38
375.868	92.38
376.094	89.38
376.319	80.38
376.545	84.38
376.771	88.38
376.997	81.38
377.222	92.38
377.448	72.38
377.674	87.38
377.899	66.38
378.125	96.38
378.35	89.38
378.576	78.38
378.802	80.38
379.027	93.38
379.253	88.38
379.478	82.38
379.704	80.38
379.929	83.38
380.155	78.38
380.38	74.38
380.606	85.38
380.831	90.38
381.057	89.38
381.282	62.38
381.507	75.38
381.733	90.38
381.958	97.38
382.184	79.38
382.409	79.38
382.634	81.38
382.86	80.38
383.085	71.38
383.31	73.38
383.535	79.38
383.761	84.38
383.986	86.38
384.211	89.38
384.436	74.38
384.662	95.38
384.887	75.38
385.112	89.38
385.337	76.38
385.562	84.38
385.787	66.38
386.013	87.38
386.238	73.38
386.463	92.38
386.688	102.38
386.913	82.38
387.138	79.38
387.363	87.38
387.588	84.38
387.813	77.38
388.038	90.38
388.263	79.38
388.488	76.38
388.713	85.38
388.938	74.38
389.163	76.38
389.387	88.38
389.612	88.38
389.837	72.38
390.062	75.38
390.287	78.38
390.512	77.38
390.736	82.38
390.961	78.38
391.186	80.38
391.411	85.38
391.636	92.38
391.86	85.38
392.085	76.38
392.31	70.38
392.534	66.38
392.759	77.38
392.984	75.38
393.208	104.38
393.433	78.38
393.658	80.38
393.882	82.38
394.107	73.38
394.331	84.38
394.556	76.38
394.78	93.38
395.005	69.38
395.229	84.38
395.454	81.38
395.678	87.38
395.903	82.38
396.127	84.38
396.352	82.38
396.576	89.38
396.801	79.38
397.025	88.38
397.249	82.38
397.474	88.38
397.698	87.38
397.922	81.38
398.147	85.38
398.371	73.38
398.595	74.38
398.82	75.38
399.044	74.38
399.268	68.38
399.492	57.38
399.717	79.38
399.941	90.38
400.165	71.38
400.389	80.38
400.613	78.38
400.837	84.38
401.062	89.38
401.286	83.38
401.51	86.38
401.734	84.38
401.958	73.38
402.182	82.38
402.406	94.38
402.63	79.38
402.854	82.38
403.078	78.38
403.302	83.38
403.526	78.38
403.75	80.38
403.974	74.38
404.198	87.38
404.422	68.38
404.645	82.38
404.869	85.38
405.093	82.38
405.317	74.38
405.541	82.38
405.765	77.38
405.988	87.38
406.212	71.38
406.436	81.38
406.66	90.38
406.883	87.38
407.107	86.38
407.331	79.38
407.555	73.38
407.778	76.38
408.002	85.38
408.226	74.38
408.449	72.38
408.673	75.38
408.896	100.38
409.12	74.38
409.344	72.38
409.567	83.38
409.791	83.38
410.014	77.38
410.238	88.38
410.461	91.38
410.685	86.38
410.908	96.38
411.132	100.38
411.355	74.38
411.578	72.38
411.802	84.38
412.025	91.38
412.249	83.38
412.472	81.38
412.695	91.38
412.919	68.38
413.142	69.38
413.365	88.38
413.589	82.38
413.812	63.38
414.035	79.38
414.258	74.38
414.482	86.38
414.705	81.38
414.928	76.38
415.151	80.38
415.374	84.38
415.597	86.38
415.821	90.38
416.044	100.38
416.267	77.38
416.49	80.38
416.713	86.38
416.936	78.38
417.159	82.38
417.382	89.38
417.605	95.38
417.828	86.38
418.051	78.38
418.274	83.38
418.497	79.38
418.72	82.38
418.943	90.38
419.166	77.38
419.389	84.38
419.611	85.38
419.834	74.38
420.057	75.38
420.28	92.38
420.503	80.38
420.726	67.38
420.948	81.38
421.171	86.38
421.394	88.38
421.617	98.38
421.839	82.38
422.062	78.38
422.285	71.38
422.507	91.38
422.73	77.38
422.953	86.38
423.175	67.38
423.398	80.38
423.621	80.38
423.843	84.38
424.066	88.38
424.288	76.38
424.511	78.38
424.733	67.38
424.956	72.38
425.178	93.38
425.401	72.38
425.623	70.38
425.846	82.38
426.068	77.38
426.291	75.38
426.513	91.38
426.735	89.38
426.958	89.38
427.18	74.38
427.402	85.38
427.625	82.38
427.847	79.38
428.069	85.38
428.292	79.38
428.514	92.38
428.736	90.38
428.958	73.38
429.181	82.38
429.403	69.38
429.625	81.38
429.847	81.38
430.069	89.38
430.292	89.38
430.514	72.38
430.736	83.38
430.958	69.38
431.18	73.38
431.402	102.38
431.624	63.38
431.846	76.38
432.068	89.38
432.29	86.38
432.512	80.38
432.734	86.38
432.956	84.38
433.178	81.38
433.4	71.38
433.622	86.38
433.844	94.38
434.066	88.38
434.287	66.38
434.509	77.38
434.731	89.38
434.953	92.38
435.175	82.38
435.397	86.38
435.618	68.38
435.84	82.38
436.062	64.38
436.284	70.38
436.505	82.38
436.727	72.38
436.949	80.38
437.17	92.38
437.392	78.38
437.614	92.38
437.835	70.38
438.057	90.38
438.278	58.38
438.5	76.38
438.721	72.38
438.943	86.38
439.165	86.38
439.386	90.38
439.608	90.38
439.829	85.38
440.05	87.38
440.272	83.38
440.493	78.38
440.715	81.38
440.936	94.38
441.158	75.38
441.379	96.38
441.6	81.38
441.822	74.38
442.043	72.38
442.264	71.38
442.486	90.38
442.707	81.38
442.928	82.38
443.149	77.38
443.371	84.38
443.592	77.38
443.813	70.38
444.034	78.38
444.255	90.38
444.476	86.38
444.698	81.38
444.919	76.38
445.14	160.38
445.361	124.38
445.582	87.38
445.803	77.38
446.024	77.38
446.245	80.38
446.466	75.38
446.687	76.38
446.908	85.38
447.129	72.38
447.35	86.38
447.571	85.38
447.792	77.38
448.013	84.38
448.234	65.38
448.455	80.38
448.675	81.38
448.896	91.38
449.117	94.38
449.338	70.38
449.559	77.38
449.779	64.38
450	80.38
450.221	76.38
450.442	85.38
450.662	90.38
450.883	95.38
451.104	92.38
451.324	86.38
451.545	82.38
451.766	80.38
451.986	79.38
452.207	81.38
452.428	77.38
452.648	91.38
452.869	86.38
453.089	79.38
453.31	84.38
453.53	88.38
453.751	82.38
453.971	78.38
454.192	81.38
454.412	81.38
454.633	88.38
454.853	94.38
455.073	94.38
455.294	87.38
455.514	75.38
455.734	80.38
455.955	75.38
456.175	77.38
456.395	78.38
456.616	84.38
456.836	78.38
457.056	80.38
457.276	72.38
457.497	79.38
457.717	84.38
457.937	74.38
458.157	70.38
458.377	73.38
458.598	82.38
458.818	89.38
459.038	74.38
459.258	81.38
459.478	71.38
459.698	91.38
459.918	87.38
460.138	69.38
460.358	80.38
460.578	94.38
460.798	93.38
461.018	89.38
461.238	76.38
461.458	74.38
461.678	78.38
461.898	90.38
462.118	85.38
462.338	77.38
462.558	73.38
462.777	88.38
462.997	87.38
463.217	71.38
463.437	79.38
463.657	70.38
463.876	70.38
464.096	73.38
464.316	80.38
464.536	86.38
464.755	81.38
464.975	74.38
465.195	88.38
465.414	88.38
465.634	92.38
465.854	79.38
466.073	84.38
466.293	88.38
466.512	81.38
466.732	86.38
466.951	93.38
467.171	76.38
467.391	86.38
467.61	78.38
467.829	76.38
468.049	83.38
468.268	84.38
468.488	88.38
468.707	90.38
468.927	96.38
469.146	101.38
469.365	88.38
469.585	82.38
469.804	80.38
470.023	79.38
470.243	81.38
470.462	84.38
470.681	88.38
470.901	80.38
471.12	93.38
471.339	93.38
471.558	76.38
471.777	86.38
471.997	85.38
472.216	77.38
472.435	94.38
472.654	98.38
472.873	87.38
473.092	83.38
473.311	88.38
473.53	71.38
473.749	80.38
473.968	79.38
474.187	76.38
474.406	76.38
474.625	73.38
474.844	99.38
475.063	74.38
475.282	77.38
475.501	76.38
475.72	81.38
475.939	71.38
476.158	92.38
476.377	79.38
476.596	87.38
476.814	69.38
477.033	78.38
477.252	81.38
477.471	93.38
477.69	75.38
477.908	79.38
478.127	88.38
478.346	93.38
478.564	95.38
478.783	84.38
479.002	72.38
479.22	95.38
479.439	77.38
479.658	72.38
479.876	73.38
480.095	85.38
480.313	64.38
480.532	87.38
480.751	84.38
480.969	76.38
481.188	92.38
481.406	89.38
481.624	71.38
481.843	76.38
482.061	71.38
482.28	92.38
482.498	83.38
482.717	87.38
482.935	77.38
483.153	94.38
483.372	76.38
483.59	91.38
483.808	70.38
484.027	92.38
484.245	89.38
484.463	67.38
484.681	97.38
484.9	88.38
485.118	74.38
485.336	78.38
485.554	72.38
485.772	92.38
485.99	73.38
486.209	84.38
486.427	83.38
486.645	93.38
486.863	91.38
487.081	78.38
487.299	79.38
487.517	90.38
487.735	84.38
487.953	78.38
488.171	79.38
488.389	80.38
488.607	84.38
488.825	104.38
489.043	88.38
489.261	83.38
489.479	90.38
489.696	76.38
489.914	64.38
490.132	80.38
490.35	92.38
490.568	79.38
490.786	77.38
491.003	96.38
491.221	82.38
491.439	82.38
491.657	79.38
491.874	80.38
492.092	101.38
492.31	80.38
492.527	81.38
492.745	97.38
492.963	80.38
493.18	95.38
493.398	87.38
493.615	75.38
493.833	100.38
494.05	74.38
494.268	85.38
494.485	76.38
494.703	90.38
494.92	89.38
495.138	73.38
495.355	84.38
495.573	81.38
495.79	82.38
496.008	97.38
496.225	81.38
496.442	84.38
496.66	79.38
496.877	76.38
497.094	78.38
497.312	70.38
497.529	70.38
497.746	75.38
497.963	88.38
498.181	80.38
498.398	77.38
498.615	85.38
498.832	84.38
499.049	79.38
499.267	92.38
499.484	81.38
499.701	85.38
499.918	83.38
500.135	85.38
500.352	86.38
500.569	85.38
500.786	83.38
501.003	72.38
501.22	85.38
501.437	87.38
501.654	80.38
501.871	75.38
502.088	85.38
502.305	89.38
502.522	79.38
502.739	77.38
502.956	81.38
503.172	70.38
503.389	79.38
503.606	90.38
503.823	84.38
504.04	93.38
504.256	79.38
504.473	96.38
504.69	82.38
504.907	79.38
505.123	78.38
505.34	86.38
505.557	85.38
505.773	78.38
505.99	89.38
506.207	84.38
506.423	80.38
506.64	100.38
506.856	65.38
507.073	83.38
507.289	96.38
507.506	81.38
507.722	81.38
507.939	93.38
508.155	85.38
508.372	86.38
508.588	85.38
508.805	82.38
509.021	85.38
509.238	82.38
509.454	84.38
509.67	81.38
509.887	81.38
510.103	81.38
510.319	87.38
510.536	92.38
510.752	65.38
510.968	94.38
511.184	70.38
511.401	80.38
511.617	77.38
511.833	71.38
512.049	89.38
512.265	86.38
512.481	85.38
512.698	84.38
512.914	77.38
513.13	82.38
513.346	70.38
513.562	72.38
513.778	93.38
513.994	79.38
514.21	93.38
514.426	80.38
514.642	86.38
514.858	78.38
515.074	90.38
515.29	63.38
515.506	73.38
515.721	72.38
515.937	78.38
516.153	73.38
516.369	88.38
516.585	75.38
516.801	76.38
517.016	78.38
517.232	75.38
517.448	85.38
517.664	91.38
517.879	90.38
518.095	85.38
518.311	96.38
518.527	91.38
518.742	73.38
518.958	77.38
519.173	84.38
519.389	59.38
519.605	88.38
519.82	90.38
520.036	87.38
