Data from StdD_HRD10591_081.txt Node
Date: Fri May 16 15:32:01 EDT 2025
User: Yrep
Spectrometer: HR+D1059
Trigger mode: 1
Integration Time (sec): 1.000000E-1
Scans to average: 1
Electric dark correction enabled: true
Nonlinearity correction enabled: false
Boxcar width: 0
XAxis mode: Wavelengths
Number of Pixels in Spectrum: 2048
>>>>>Begin Spectral Data<<<<<
223.165	-16.5
223.4	-16.5
223.635	-16.5
223.869	-23.5
224.104	-28.5
224.338	-7.5
224.573	-13.5
224.808	-30.5
225.042	2.5
225.277	-8.5
225.511	-3.5
225.746	5.5
225.98	17.5
226.215	21.5
226.449	7.5
226.683	17.5
226.918	24.5
227.152	35.5
227.387	51.5
227.621	41.5
227.856	41.5
228.09	54.5
228.324	52.5
228.559	57.5
228.793	43.5
229.027	57.5
229.262	65.5
229.496	79.5
229.73	76.5
229.964	73.5
230.199	75.5
230.433	67.5
230.667	86.5
230.901	84.5
231.136	76.5
231.37	87.5
231.604	87.5
231.838	83.5
232.072	76.5
232.306	82.5
232.541	75.5
232.775	78.5
233.009	74.5
233.243	82.5
233.477	92.5
233.711	74.5
233.945	91.5
234.179	85.5
234.413	92.5
234.647	86.5
234.881	68.5
235.115	70.5
235.349	78.5
235.583	79.5
235.817	75.5
236.051	83.5
236.285	62.5
236.519	76.5
236.753	89.5
236.987	89.5
237.221	90.5
237.455	82.5
237.689	79.5
237.922	75.5
238.156	67.5
238.39	73.5
238.624	69.5
238.858	69.5
239.091	75.5
239.325	57.5
239.559	79.5
239.793	76.5
240.027	86.5
240.26	79.5
240.494	74.5
240.728	75.5
240.961	86.5
241.195	89.5
241.429	66.5
241.662	79.5
241.896	82.5
242.13	77.5
242.363	84.5
242.597	72.5
242.83	63.5
243.064	75.5
243.298	80.5
243.531	83.5
243.765	93.5
243.998	75.5
244.232	82.5
244.465	69.5
244.699	79.5
244.932	74.5
245.166	80.5
245.399	87.5
245.633	58.5
245.866	84.5
246.099	74.5
246.333	75.5
246.566	68.5
246.8	72.5
247.033	75.5
247.266	75.5
247.5	81.5
247.733	93.5
247.966	82.5
248.2	81.5
248.433	87.5
248.666	69.5
248.899	92.5
249.133	73.5
249.366	88.5
249.599	87.5
249.832	76.5
250.066	75.5
250.299	76.5
250.532	77.5
250.765	72.5
250.998	80.5
251.231	68.5
251.465	69.5
251.698	86.5
251.931	77.5
252.164	68.5
252.397	76.5
252.63	76.5
252.863	97.5
253.096	88.5
253.329	82.5
253.562	83.5
253.795	89.5
254.028	90.5
254.261	88.5
254.494	78.5
254.727	81.5
254.96	79.5
255.193	78.5
255.426	76.5
255.659	76.5
255.892	85.5
256.124	83.5
256.357	87.5
256.59	78.5
256.823	66.5
257.056	78.5
257.289	86.5
257.521	77.5
257.754	74.5
257.987	94.5
258.22	82.5
258.452	86.5
258.685	88.5
258.918	80.5
259.151	86.5
259.383	100.5
259.616	88.5
259.849	84.5
260.081	86.5
260.314	87.5
260.547	85.5
260.779	77.5
261.012	79.5
261.244	60.5
261.477	82.5
261.71	68.5
261.942	76.5
262.175	77.5
262.407	74.5
262.64	71.5
262.872	84.5
263.105	86.5
263.337	90.5
263.57	91.5
263.802	85.5
264.035	88.5
264.267	70.5
264.499	79.5
264.732	72.5
264.964	75.5
265.197	71.5
265.429	68.5
265.661	91.5
265.894	79.5
266.126	80.5
266.358	80.5
266.591	94.5
266.823	74.5
267.055	83.5
267.287	85.5
267.52	79.5
267.752	80.5
267.984	74.5
268.216	78.5
268.448	91.5
268.681	95.5
268.913	96.5
269.145	82.5
269.377	67.5
269.609	88.5
269.841	92.5
270.073	94.5
270.306	80.5
270.538	77.5
270.77	80.5
271.002	89.5
271.234	89.5
271.466	79.5
271.698	74.5
271.93	80.5
272.162	89.5
272.394	83.5
272.626	75.5
272.858	82.5
273.09	72.5
273.322	89.5
273.553	89.5
273.785	87.5
274.017	82.5
274.249	78.5
274.481	80.5
274.713	85.5
274.945	75.5
275.176	77.5
275.408	69.5
275.64	91.5
275.872	64.5
276.104	83.5
276.335	87.5
276.567	79.5
276.799	76.5
277.031	97.5
277.262	77.5
277.494	90.5
277.726	98.5
277.957	77.5
278.189	79.5
278.421	93.5
278.652	79.5
278.884	85.5
279.115	80.5
279.347	88.5
279.579	74.5
279.81	79.5
280.042	82.5
280.273	78.5
280.505	79.5
280.736	72.5
280.968	75.5
281.199	87.5
281.431	87.5
281.662	93.5
281.894	79.5
282.125	72.5
282.356	89.5
282.588	86.5
282.819	81.5
283.051	77.5
283.282	84.5
283.513	80.5
283.745	82.5
283.976	86.5
284.207	88.5
284.439	79.5
284.67	99.5
284.901	89.5
285.132	87.5
285.364	86.5
285.595	98.5
285.826	82.5
286.057	96.5
286.288	74.5
286.52	82.5
286.751	93.5
286.982	77.5
287.213	83.5
287.444	107.5
287.675	78.5
287.906	83.5
288.138	87.5
288.369	92.5
288.6	79.5
288.831	72.5
289.062	83.5
289.293	71.5
289.524	86.5
289.755	83.5
289.986	72.5
290.217	76.5
290.448	76.5
290.679	78.5
290.91	90.5
291.141	88.5
291.371	106.5
291.602	82.5
291.833	75.5
292.064	86.5
292.295	76.5
292.526	77.5
292.757	76.5
292.987	75.5
293.218	82.5
293.449	84.5
293.68	79.5
293.91	74.5
294.141	86.5
294.372	93.5
294.603	87.5
294.833	105.5
295.064	79.5
295.295	89.5
295.525	81.5
295.756	97.5
295.987	92.5
296.217	90.5
296.448	83.5
296.679	86.5
296.909	78.5
297.14	91.5
297.37	93.5
297.601	72.5
297.831	69.5
298.062	78.5
298.292	76.5
298.523	92.5
298.753	88.5
298.984	79.5
299.214	103.5
299.445	89.5
299.675	83.5
299.905	95.5
300.136	91.5
300.366	79.5
300.597	88.5
300.827	80.5
301.057	86.5
301.288	95.5
301.518	102.5
301.748	88.5
301.979	109.5
302.209	77.5
302.439	76.5
302.669	87.5
302.9	74.5
303.13	86.5
303.36	90.5
303.59	90.5
303.82	81.5
304.051	93.5
304.281	86.5
304.511	74.5
304.741	81.5
304.971	89.5
305.201	92.5
305.431	93.5
305.661	88.5
305.891	90.5
306.121	94.5
306.352	86.5
306.582	82.5
306.812	83.5
307.042	103.5
307.272	78.5
307.502	91.5
307.731	74.5
307.961	80.5
308.191	81.5
308.421	77.5
308.651	79.5
308.881	87.5
309.111	77.5
309.341	77.5
309.571	91.5
309.8	91.5
310.03	67.5
310.26	70.5
310.49	90.5
310.72	75.5
310.949	78.5
311.179	79.5
311.409	79.5
311.639	78.5
311.868	104.5
312.098	89.5
312.328	102.5
312.557	86.5
312.787	73.5
313.017	89.5
313.246	88.5
313.476	88.5
313.706	93.5
313.935	76.5
314.165	72.5
314.394	96.5
314.624	71.5
314.853	75.5
315.083	93.5
315.312	84.5
315.542	76.5
315.771	96.5
316.001	81.5
316.23	90.5
316.46	84.5
316.689	86.5
316.919	66.5
317.148	79.5
317.377	79.5
317.607	76.5
317.836	78.5
318.065	80.5
318.295	86.5
318.524	78.5
318.753	89.5
318.983	72.5
319.212	79.5
319.441	80.5
319.67	85.5
319.9	81.5
320.129	86.5
320.358	93.5
320.587	84.5
320.816	83.5
321.046	75.5
321.275	79.5
321.504	81.5
321.733	91.5
321.962	83.5
322.191	87.5
322.42	94.5
322.649	104.5
322.878	90.5
323.108	74.5
323.337	89.5
323.566	95.5
323.795	74.5
324.024	87.5
324.253	84.5
324.482	90.5
324.71	79.5
324.939	85.5
325.168	91.5
325.397	87.5
325.626	77.5
325.855	84.5
326.084	89.5
326.313	82.5
326.542	82.5
326.77	90.5
326.999	79.5
327.228	80.5
327.457	89.5
327.686	98.5
327.914	90.5
328.143	89.5
328.372	78.5
328.6	66.5
328.829	80.5
329.058	82.5
329.287	86.5
329.515	82.5
329.744	72.5
329.972	73.5
330.201	78.5
330.43	85.5
330.658	98.5
330.887	89.5
331.115	76.5
331.344	84.5
331.572	86.5
331.801	76.5
332.03	83.5
332.258	90.5
332.486	84.5
332.715	88.5
332.943	83.5
333.172	82.5
333.4	77.5
333.629	92.5
333.857	83.5
334.085	73.5
334.314	87.5
334.542	88.5
334.771	71.5
334.999	84.5
335.227	77.5
335.455	66.5
335.684	87.5
335.912	96.5
336.14	95.5
336.369	82.5
336.597	88.5
336.825	81.5
337.053	84.5
337.281	80.5
337.51	85.5
337.738	76.5
337.966	91.5
338.194	96.5
338.422	96.5
338.65	93.5
338.878	82.5
339.106	83.5
339.334	83.5
339.562	76.5
339.79	97.5
340.018	99.5
340.246	79.5
340.474	80.5
340.702	78.5
340.93	83.5
341.158	66.5
341.386	82.5
341.614	79.5
341.842	70.5
342.07	80.5
342.298	94.5
342.526	87.5
342.754	96.5
342.981	81.5
343.209	84.5
343.437	95.5
343.665	79.5
343.893	84.5
344.12	95.5
344.348	90.5
344.576	78.5
344.804	86.5
345.031	76.5
345.259	94.5
345.487	86.5
345.714	90.5
345.942	79.5
346.17	87.5
346.397	84.5
346.625	87.5
346.853	83.5
347.08	80.5
347.308	81.5
347.535	90.5
347.763	90.5
347.99	82.5
348.218	77.5
348.445	79.5
348.673	84.5
348.9	92.5
349.128	78.5
349.355	71.5
349.583	93.5
349.81	81.5
350.037	77.5
350.265	93.5
350.492	81.5
350.72	68.5
350.947	84.5
351.174	93.5
351.402	64.5
351.629	92.5
351.856	86.5
352.083	76.5
352.311	86.5
352.538	77.5
352.765	72.5
352.992	106.5
353.22	90.5
353.447	73.5
353.674	88.5
353.901	93.5
354.128	84.5
354.355	92.5
354.583	84.5
354.81	80.5
355.037	86.5
355.264	92.5
355.491	103.5
355.718	86.5
355.945	84.5
356.172	84.5
356.399	75.5
356.626	86.5
356.853	75.5
357.08	80.5
357.307	86.5
357.534	87.5
357.761	80.5
357.988	89.5
358.215	80.5
358.441	75.5
358.668	78.5
358.895	74.5
359.122	86.5
359.349	86.5
359.576	71.5
359.802	90.5
360.029	79.5
360.256	78.5
360.483	93.5
360.709	80.5
360.936	88.5
361.163	88.5
361.39	83.5
361.616	79.5
361.843	88.5
362.07	89.5
362.296	82.5
362.523	89.5
362.749	78.5
362.976	78.5
363.203	65.5
363.429	82.5
363.656	82.5
363.882	76.5
364.109	83.5
364.335	82.5
364.562	77.5
364.788	90.5
365.015	86.5
365.241	90.5
365.468	84.5
365.694	56.5
365.92	86.5
366.147	102.5
366.373	63.5
366.599	78.5
366.826	88.5
367.052	94.5
367.278	79.5
367.505	58.5
367.731	77.5
367.957	84.5
368.184	76.5
368.41	71.5
368.636	65.5
368.862	89.5
369.089	66.5
369.315	83.5
369.541	99.5
369.767	83.5
369.993	81.5
370.219	84.5
370.445	83.5
370.672	76.5
370.898	70.5
371.124	77.5
371.35	94.5
371.576	97.5
371.802	81.5
372.028	90.5
372.254	86.5
372.48	75.5
372.706	78.5
372.932	90.5
373.158	77.5
373.384	91.5
373.61	103.5
373.835	71.5
374.061	79.5
374.287	79.5
374.513	79.5
374.739	62.5
374.965	81.5
375.191	84.5
375.416	78.5
375.642	88.5
375.868	67.5
376.094	78.5
376.319	75.5
376.545	70.5
376.771	88.5
376.997	94.5
377.222	82.5
377.448	91.5
377.674	89.5
377.899	88.5
378.125	73.5
378.35	79.5
378.576	85.5
378.802	68.5
379.027	84.5
379.253	79.5
379.478	88.5
379.704	80.5
379.929	81.5
380.155	73.5
380.38	81.5
380.606	87.5
380.831	79.5
381.057	96.5
381.282	81.5
381.507	74.5
381.733	77.5
381.958	79.5
382.184	78.5
382.409	88.5
382.634	89.5
382.86	95.5
383.085	84.5
383.31	91.5
383.535	78.5
383.761	79.5
383.986	82.5
384.211	85.5
384.436	86.5
384.662	74.5
384.887	72.5
385.112	83.5
385.337	87.5
385.562	91.5
385.787	74.5
386.013	93.5
386.238	88.5
386.463	77.5
386.688	76.5
386.913	68.5
387.138	83.5
387.363	60.5
387.588	98.5
387.813	82.5
388.038	70.5
388.263	71.5
388.488	74.5
388.713	87.5
388.938	84.5
389.163	88.5
389.387	72.5
389.612	81.5
389.837	76.5
390.062	60.5
390.287	84.5
390.512	81.5
390.736	90.5
390.961	70.5
391.186	80.5
391.411	68.5
391.636	63.5
391.86	90.5
392.085	86.5
392.31	70.5
392.534	84.5
392.759	87.5
392.984	74.5
393.208	75.5
393.433	77.5
393.658	75.5
393.882	80.5
394.107	83.5
394.331	82.5
394.556	86.5
394.78	88.5
395.005	76.5
395.229	83.5
395.454	87.5
395.678	65.5
395.903	82.5
396.127	80.5
396.352	79.5
396.576	95.5
396.801	88.5
397.025	83.5
397.249	94.5
397.474	106.5
397.698	73.5
397.922	72.5
398.147	75.5
398.371	78.5
398.595	84.5
398.82	80.5
399.044	74.5
399.268	68.5
399.492	92.5
399.717	92.5
399.941	103.5
400.165	96.5
400.389	78.5
400.613	93.5
400.837	81.5
401.062	95.5
401.286	73.5
401.51	74.5
401.734	82.5
401.958	77.5
402.182	78.5
402.406	79.5
402.63	78.5
402.854	95.5
403.078	80.5
403.302	94.5
403.526	84.5
403.75	80.5
403.974	94.5
404.198	87.5
404.422	79.5
404.645	84.5
404.869	78.5
405.093	81.5
405.317	82.5
405.541	75.5
405.765	70.5
405.988	80.5
406.212	76.5
406.436	84.5
406.66	99.5
406.883	78.5
407.107	62.5
407.331	96.5
407.555	87.5
407.778	83.5
408.002	72.5
408.226	87.5
408.449	83.5
408.673	82.5
408.896	74.5
409.12	78.5
409.344	79.5
409.567	88.5
409.791	78.5
410.014	87.5
410.238	63.5
410.461	76.5
410.685	78.5
410.908	88.5
411.132	84.5
411.355	68.5
411.578	85.5
411.802	76.5
412.025	86.5
412.249	84.5
412.472	82.5
412.695	85.5
412.919	93.5
413.142	97.5
413.365	90.5
413.589	83.5
413.812	75.5
414.035	90.5
414.258	105.5
414.482	77.5
414.705	96.5
414.928	88.5
415.151	87.5
415.374	79.5
415.597	75.5
415.821	83.5
416.044	80.5
416.267	83.5
416.49	92.5
416.713	78.5
416.936	91.5
417.159	88.5
417.382	81.5
417.605	80.5
417.828	81.5
418.051	83.5
418.274	94.5
418.497	89.5
418.72	89.5
418.943	83.5
419.166	79.5
419.389	92.5
419.611	80.5
419.834	75.5
420.057	80.5
420.28	88.5
420.503	71.5
420.726	76.5
420.948	86.5
421.171	89.5
421.394	66.5
421.617	77.5
421.839	81.5
422.062	73.5
422.285	90.5
422.507	83.5
422.73	82.5
422.953	99.5
423.175	93.5
423.398	96.5
423.621	90.5
423.843	91.5
424.066	84.5
424.288	67.5
424.511	71.5
424.733	88.5
424.956	80.5
425.178	86.5
425.401	86.5
425.623	90.5
425.846	79.5
426.068	100.5
426.291	90.5
426.513	90.5
426.735	88.5
426.958	88.5
427.18	95.5
427.402	77.5
427.625	77.5
427.847	87.5
428.069	85.5
428.292	64.5
428.514	96.5
428.736	86.5
428.958	86.5
429.181	85.5
429.403	97.5
429.625	89.5
429.847	91.5
430.069	81.5
430.292	82.5
430.514	77.5
430.736	85.5
430.958	87.5
431.18	83.5
431.402	77.5
431.624	74.5
431.846	85.5
432.068	82.5
432.29	81.5
432.512	86.5
432.734	73.5
432.956	79.5
433.178	88.5
433.4	83.5
433.622	83.5
433.844	87.5
434.066	76.5
434.287	74.5
434.509	80.5
434.731	83.5
434.953	94.5
435.175	78.5
435.397	74.5
435.618	82.5
435.84	70.5
436.062	83.5
436.284	83.5
436.505	103.5
436.727	90.5
436.949	77.5
437.17	84.5
437.392	88.5
437.614	82.5
437.835	83.5
438.057	74.5
438.278	91.5
438.5	87.5
438.721	97.5
438.943	92.5
439.165	82.5
439.386	80.5
439.608	88.5
439.829	90.5
440.05	87.5
440.272	82.5
440.493	75.5
440.715	84.5
440.936	82.5
441.158	73.5
441.379	73.5
441.6	80.5
441.822	79.5
442.043	75.5
442.264	81.5
442.486	70.5
442.707	84.5
442.928	78.5
443.149	93.5
443.371	77.5
443.592	74.5
443.813	82.5
444.034	86.5
444.255	76.5
444.476	92.5
444.698	82.5
444.919	89.5
445.14	185.5
445.361	137.5
445.582	96.5
445.803	90.5
446.024	90.5
446.245	78.5
446.466	81.5
446.687	80.5
446.908	90.5
447.129	90.5
447.35	67.5
447.571	94.5
447.792	84.5
448.013	80.5
448.234	83.5
448.455	80.5
448.675	76.5
448.896	98.5
449.117	64.5
449.338	80.5
449.559	80.5
449.779	71.5
450	98.5
450.221	80.5
450.442	98.5
450.662	78.5
450.883	81.5
451.104	71.5
451.324	87.5
451.545	77.5
451.766	55.5
451.986	91.5
452.207	67.5
452.428	82.5
452.648	85.5
452.869	88.5
453.089	94.5
453.31	85.5
453.53	88.5
453.751	82.5
453.971	82.5
454.192	91.5
454.412	80.5
454.633	80.5
454.853	87.5
455.073	79.5
455.294	71.5
455.514	90.5
455.734	56.5
455.955	83.5
456.175	82.5
456.395	81.5
456.616	59.5
456.836	102.5
457.056	74.5
457.276	88.5
457.497	83.5
457.717	75.5
457.937	76.5
458.157	73.5
458.377	74.5
458.598	81.5
458.818	78.5
459.038	79.5
459.258	76.5
459.478	85.5
459.698	86.5
459.918	80.5
460.138	98.5
460.358	90.5
460.578	84.5
460.798	80.5
461.018	72.5
461.238	75.5
461.458	77.5
461.678	60.5
461.898	77.5
462.118	64.5
462.338	83.5
462.558	89.5
462.777	88.5
462.997	82.5
463.217	76.5
463.437	78.5
463.657	75.5
463.876	76.5
464.096	75.5
464.316	81.5
464.536	64.5
464.755	100.5
464.975	88.5
465.195	79.5
465.414	78.5
465.634	84.5
465.854	76.5
466.073	95.5
466.293	86.5
466.512	98.5
466.732	75.5
466.951	77.5
467.171	83.5
467.391	73.5
467.61	81.5
467.829	75.5
468.049	83.5
468.268	90.5
468.488	102.5
468.707	78.5
468.927	75.5
469.146	90.5
469.365	75.5
469.585	84.5
469.804	85.5
470.023	64.5
470.243	85.5
470.462	69.5
470.681	83.5
470.901	90.5
471.12	77.5
471.339	84.5
471.558	90.5
471.777	84.5
471.997	84.5
472.216	93.5
472.435	81.5
472.654	78.5
472.873	69.5
473.092	75.5
473.311	79.5
473.53	98.5
473.749	81.5
473.968	80.5
474.187	88.5
474.406	90.5
474.625	86.5
474.844	87.5
475.063	82.5
475.282	84.5
475.501	87.5
475.72	92.5
475.939	92.5
476.158	75.5
476.377	77.5
476.596	75.5
476.814	86.5
477.033	82.5
477.252	92.5
477.471	86.5
477.69	87.5
477.908	85.5
478.127	81.5
478.346	92.5
478.564	75.5
478.783	80.5
479.002	93.5
479.22	82.5
479.439	77.5
479.658	75.5
479.876	86.5
480.095	74.5
480.313	80.5
480.532	82.5
480.751	88.5
480.969	76.5
481.188	81.5
481.406	86.5
481.624	90.5
481.843	86.5
482.061	87.5
482.28	93.5
482.498	78.5
482.717	75.5
482.935	93.5
483.153	82.5
483.372	78.5
483.59	66.5
483.808	86.5
484.027	78.5
484.245	83.5
484.463	81.5
484.681	84.5
484.9	95.5
485.118	82.5
485.336	82.5
485.554	93.5
485.772	80.5
485.99	88.5
486.209	81.5
486.427	80.5
486.645	77.5
486.863	67.5
487.081	82.5
487.299	90.5
487.517	87.5
487.735	78.5
487.953	74.5
488.171	88.5
488.389	84.5
488.607	74.5
488.825	96.5
489.043	83.5
489.261	74.5
489.479	82.5
489.696	93.5
489.914	83.5
490.132	102.5
490.35	85.5
490.568	86.5
490.786	88.5
491.003	96.5
491.221	77.5
491.439	94.5
491.657	88.5
491.874	89.5
492.092	93.5
492.31	89.5
492.527	94.5
492.745	91.5
492.963	109.5
493.18	92.5
493.398	93.5
493.615	78.5
493.833	76.5
494.05	82.5
494.268	87.5
494.485	80.5
494.703	87.5
494.92	86.5
495.138	78.5
495.355	64.5
495.573	94.5
495.79	92.5
496.008	92.5
496.225	82.5
496.442	94.5
496.66	93.5
496.877	78.5
497.094	92.5
497.312	67.5
497.529	81.5
497.746	85.5
497.963	87.5
498.181	80.5
498.398	75.5
498.615	66.5
498.832	81.5
499.049	87.5
499.267	86.5
499.484	89.5
499.701	95.5
499.918	65.5
500.135	86.5
500.352	80.5
500.569	87.5
500.786	82.5
501.003	95.5
501.22	86.5
501.437	68.5
501.654	96.5
501.871	91.5
502.088	91.5
502.305	87.5
502.522	89.5
502.739	73.5
502.956	103.5
503.172	80.5
503.389	84.5
503.606	78.5
503.823	75.5
504.04	82.5
504.256	75.5
504.473	81.5
504.69	89.5
504.907	85.5
505.123	91.5
505.34	83.5
505.557	77.5
505.773	63.5
505.99	76.5
506.207	96.5
506.423	90.5
506.64	73.5
506.856	95.5
507.073	85.5
507.289	79.5
507.506	96.5
507.722	69.5
507.939	82.5
508.155	88.5
508.372	88.5
508.588	86.5
508.805	73.5
509.021	81.5
509.238	65.5
509.454	88.5
509.67	72.5
509.887	88.5
510.103	74.5
510.319	88.5
510.536	81.5
510.752	82.5
510.968	79.5
511.184	82.5
511.401	86.5
511.617	78.5
511.833	71.5
512.049	90.5
512.265	77.5
512.481	83.5
512.698	76.5
512.914	84.5
513.13	72.5
513.346	87.5
513.562	88.5
513.778	94.5
513.994	87.5
514.21	72.5
514.426	73.5
514.642	72.5
514.858	90.5
515.074	81.5
515.29	87.5
515.506	96.5
515.721	67.5
515.937	75.5
516.153	81.5
516.369	91.5
516.585	87.5
516.801	80.5
517.016	79.5
517.232	65.5
517.448	79.5
517.664	78.5
517.879	66.5
518.095	86.5
518.311	75.5
518.527	84.5
518.742	78.5
518.958	77.5
519.173	77.5
519.389	77.5
519.605	91.5
519.82	84.5
520.036	88.5
520.251	96.5
520.467	74.5
520.682	76.5
520.898	92.5
521.113	81.5
521.329	74.5
521.544	75.5
521.76	71.5
521.975	77.5
522.19	83.5
522.406	83.5
522.621	89.5
522.836	78.5
523.052	92.5
523.267	88.5
523.482	83.5
523.698	76.5
523.913	92.5
524.128	83.5
524.343	88.5
524.559	88.5
524.774	97.5
524.989	92.5
525.204	92.5
525.419	73.5
525.634	94.5
525.849	103.5
526.064	82.5
526.28	82.5
526.495	76.5
526.71	78.5
526.925	80.5
527.14	90.5
527.355	81.5
527.57	80.5
527.785	79.5
527.999	78.5
528.214	83.5
528.429	90.5
528.644	75.5
528.859	83.5
529.074	70.5
529.289	82.5
529.503	91.5
529.718	91.5
529.933	87.5
530.148	86.5
530.363	74.5
530.577	87.5
530.792	67.5
531.007	82.5
531.221	82.5
531.436	86.5
531.651	80.5
531.865	79.5
532.08	81.5
532.295	78.5
532.509	75.5
532.724	80.5
532.938	82.5
533.153	87.5
533.367	68.5
533.582	75.5
533.796	86.5
534.011	83.5
534.225	86.5
534.44	88.5
534.654	86.5
534.868	76.5
535.083	87.5
535.297	85.5
535.511	81.5
535.726	78.5
535.94	84.5
536.154	68.5
536.369	62.5
536.583	74.5
536.797	83.5
537.011	82.5
537.225	96.5
537.44	70.5
537.654	87.5
537.868	80.5
538.082	90.5
538.296	83.5
538.51	94.5
538.724	76.5
538.938	90.5
539.153	74.5
539.367	86.5
539.581	82.5
539.795	79.5
540.009	84.5
540.222	82.5
540.436	77.5
