Data from StdD_HRD10591_086.txt Node
Date: Fri May 16 15:32:04 EDT 2025
User: Yrep
Spectrometer: HR+D1059
Trigger mode: 1
Integration Time (sec): 1.000000E-1
Scans to average: 1
Electric dark correction enabled: true
Nonlinearity correction enabled: false
Boxcar width: 0
XAxis mode: Wavelengths
Number of Pixels in Spectrum: 2048
>>>>>Begin Spectral Data<<<<<
223.165	-15.19
223.4	-15.19
223.635	-15.19
223.869	-31.19
224.104	-27.19
224.338	-11.19
224.573	-3.19
224.808	-2.19
225.042	-16.19
225.277	-10.19
225.511	-2.19
225.746	1.81
225.98	9.81
226.215	10.81
226.449	20.81
226.683	8.81
226.918	37.81
227.152	28.81
227.387	26.81
227.621	25.81
227.856	62.81
228.09	47.81
228.324	47.81
228.559	60.81
228.793	61.81
229.027	53.81
229.262	59.81
229.496	77.81
229.73	52.81
229.964	72.81
230.199	62.81
230.433	80.81
230.667	71.81
230.901	70.81
231.136	81.81
231.37	73.81
231.604	70.81
231.838	81.81
232.072	75.81
232.306	79.81
232.541	88.81
232.775	81.81
233.009	79.81
233.243	72.81
233.477	87.81
233.711	87.81
233.945	86.81
234.179	63.81
234.413	81.81
234.647	88.81
234.881	77.81
235.115	78.81
235.349	90.81
235.583	87.81
235.817	65.81
236.051	80.81
236.285	75.81
236.519	73.81
236.753	79.81
236.987	75.81
237.221	65.81
237.455	64.81
237.689	70.81
237.922	71.81
238.156	75.81
238.39	70.81
238.624	71.81
238.858	79.81
239.091	67.81
239.325	60.81
239.559	67.81
239.793	64.81
240.027	86.81
240.26	75.81
240.494	80.81
240.728	77.81
240.961	81.81
241.195	72.81
241.429	59.81
241.662	73.81
241.896	69.81
242.13	80.81
242.363	80.81
242.597	74.81
242.83	82.81
243.064	65.81
243.298	80.81
243.531	60.81
243.765	74.81
243.998	91.81
244.232	73.81
244.465	69.81
244.699	88.81
244.932	77.81
245.166	71.81
245.399	81.81
245.633	72.81
245.866	79.81
246.099	76.81
246.333	82.81
246.566	83.81
246.8	73.81
247.033	67.81
247.266	76.81
247.5	78.81
247.733	80.81
247.966	78.81
248.2	71.81
248.433	80.81
248.666	65.81
248.899	63.81
249.133	82.81
249.366	65.81
249.599	80.81
249.832	86.81
250.066	73.81
250.299	72.81
250.532	84.81
250.765	66.81
250.998	78.81
251.231	83.81
251.465	83.81
251.698	73.81
251.931	82.81
252.164	73.81
252.397	62.81
252.63	72.81
252.863	72.81
253.096	76.81
253.329	72.81
253.562	78.81
253.795	83.81
254.028	71.81
254.261	68.81
254.494	84.81
254.727	78.81
254.96	73.81
255.193	74.81
255.426	81.81
255.659	80.81
255.892	86.81
256.124	64.81
256.357	89.81
256.59	78.81
256.823	73.81
257.056	79.81
257.289	86.81
257.521	83.81
257.754	81.81
257.987	80.81
258.22	80.81
258.452	71.81
258.685	74.81
258.918	94.81
259.151	84.81
259.383	61.81
259.616	69.81
259.849	79.81
260.081	85.81
260.314	64.81
260.547	60.81
260.779	67.81
261.012	88.81
261.244	72.81
261.477	99.81
261.71	73.81
261.942	86.81
262.175	75.81
262.407	83.81
262.64	83.81
262.872	83.81
263.105	77.81
263.337	65.81
263.57	71.81
263.802	85.81
264.035	83.81
264.267	77.81
264.499	66.81
264.732	71.81
264.964	84.81
265.197	88.81
265.429	94.81
265.661	84.81
265.894	72.81
266.126	88.81
266.358	74.81
266.591	91.81
266.823	78.81
267.055	75.81
267.287	58.81
267.52	81.81
267.752	81.81
267.984	79.81
268.216	85.81
268.448	93.81
268.681	79.81
268.913	84.81
269.145	73.81
269.377	78.81
269.609	76.81
269.841	89.81
270.073	88.81
270.306	80.81
270.538	91.81
270.77	77.81
271.002	76.81
271.234	73.81
271.466	86.81
271.698	83.81
271.93	81.81
272.162	82.81
272.394	73.81
272.626	78.81
272.858	80.81
273.09	76.81
273.322	78.81
273.553	75.81
273.785	86.81
274.017	85.81
274.249	69.81
274.481	74.81
274.713	84.81
274.945	81.81
275.176	70.81
275.408	84.81
275.64	82.81
275.872	70.81
276.104	87.81
276.335	83.81
276.567	70.81
276.799	80.81
277.031	89.81
277.262	85.81
277.494	78.81
277.726	85.81
277.957	86.81
278.189	83.81
278.421	74.81
278.652	75.81
278.884	80.81
279.115	80.81
279.347	90.81
279.579	87.81
279.81	83.81
280.042	76.81
280.273	87.81
280.505	85.81
280.736	87.81
280.968	84.81
281.199	70.81
281.431	69.81
281.662	73.81
281.894	92.81
282.125	84.81
282.356	73.81
282.588	85.81
282.819	84.81
283.051	86.81
283.282	78.81
283.513	75.81
283.745	82.81
283.976	65.81
284.207	81.81
284.439	93.81
284.67	90.81
284.901	78.81
285.132	77.81
285.364	83.81
285.595	90.81
285.826	87.81
286.057	92.81
286.288	80.81
286.52	72.81
286.751	72.81
286.982	83.81
287.213	85.81
287.444	88.81
287.675	95.81
287.906	85.81
288.138	89.81
288.369	87.81
288.6	76.81
288.831	89.81
289.062	85.81
289.293	84.81
289.524	100.81
289.755	81.81
289.986	83.81
290.217	91.81
290.448	73.81
290.679	94.81
290.91	70.81
291.141	70.81
291.371	84.81
291.602	80.81
291.833	80.81
292.064	82.81
292.295	89.81
292.526	77.81
292.757	71.81
292.987	93.81
293.218	91.81
293.449	83.81
293.68	84.81
293.91	84.81
294.141	95.81
294.372	82.81
294.603	84.81
294.833	94.81
295.064	80.81
295.295	67.81
295.525	77.81
295.756	68.81
295.987	77.81
296.217	87.81
296.448	72.81
296.679	65.81
296.909	90.81
297.14	81.81
297.37	80.81
297.601	75.81
297.831	74.81
298.062	83.81
298.292	90.81
298.523	86.81
298.753	85.81
298.984	88.81
299.214	73.81
299.445	63.81
299.675	83.81
299.905	75.81
300.136	80.81
300.366	81.81
300.597	87.81
300.827	69.81
301.057	79.81
301.288	87.81
301.518	91.81
301.748	84.81
301.979	83.81
302.209	83.81
302.439	84.81
302.669	86.81
302.9	86.81
303.13	87.81
303.36	82.81
303.59	80.81
303.82	86.81
304.051	86.81
304.281	86.81
304.511	76.81
304.741	87.81
304.971	83.81
305.201	74.81
305.431	83.81
305.661	81.81
305.891	74.81
306.121	88.81
306.352	87.81
306.582	78.81
306.812	95.81
307.042	64.81
307.272	81.81
307.502	79.81
307.731	73.81
307.961	87.81
308.191	85.81
308.421	87.81
308.651	80.81
308.881	90.81
309.111	76.81
309.341	83.81
309.571	75.81
309.8	83.81
310.03	73.81
310.26	83.81
310.49	74.81
310.72	84.81
310.949	80.81
311.179	76.81
311.409	83.81
311.639	89.81
311.868	83.81
312.098	81.81
312.328	72.81
312.557	86.81
312.787	78.81
313.017	68.81
313.246	80.81
313.476	71.81
313.706	90.81
313.935	76.81
314.165	83.81
314.394	90.81
314.624	71.81
314.853	79.81
315.083	78.81
315.312	83.81
315.542	69.81
315.771	88.81
316.001	75.81
316.23	69.81
316.46	79.81
316.689	90.81
316.919	85.81
317.148	81.81
317.377	88.81
317.607	73.81
317.836	83.81
318.065	81.81
318.295	89.81
318.524	69.81
318.753	71.81
318.983	81.81
319.212	96.81
319.441	77.81
319.67	83.81
319.9	85.81
320.129	72.81
320.358	68.81
320.587	89.81
320.816	86.81
321.046	77.81
321.275	95.81
321.504	67.81
321.733	68.81
321.962	89.81
322.191	82.81
322.42	92.81
322.649	82.81
322.878	88.81
323.108	89.81
323.337	87.81
323.566	92.81
323.795	87.81
324.024	78.81
324.253	85.81
324.482	88.81
324.71	77.81
324.939	85.81
325.168	91.81
325.397	84.81
325.626	92.81
325.855	79.81
326.084	73.81
326.313	75.81
326.542	83.81
326.77	79.81
326.999	77.81
327.228	62.81
327.457	88.81
327.686	70.81
327.914	93.81
328.143	92.81
328.372	92.81
328.6	78.81
328.829	81.81
329.058	85.81
329.287	83.81
329.515	74.81
329.744	73.81
329.972	67.81
330.201	70.81
330.43	64.81
330.658	88.81
330.887	84.81
331.115	71.81
331.344	71.81
331.572	80.81
331.801	86.81
332.03	88.81
332.258	95.81
332.486	79.81
332.715	75.81
332.943	86.81
333.172	82.81
333.4	83.81
333.629	84.81
333.857	77.81
334.085	70.81
334.314	78.81
334.542	80.81
334.771	91.81
334.999	88.81
335.227	83.81
335.455	85.81
335.684	93.81
335.912	88.81
336.14	78.81
336.369	90.81
336.597	87.81
336.825	93.81
337.053	90.81
337.281	72.81
337.51	81.81
337.738	83.81
337.966	85.81
338.194	88.81
338.422	83.81
338.65	93.81
338.878	80.81
339.106	80.81
339.334	81.81
339.562	82.81
339.79	79.81
340.018	63.81
340.246	78.81
340.474	75.81
340.702	80.81
340.93	90.81
341.158	76.81
341.386	80.81
341.614	79.81
341.842	82.81
342.07	77.81
342.298	79.81
342.526	74.81
342.754	80.81
342.981	68.81
343.209	72.81
343.437	87.81
343.665	75.81
343.893	89.81
344.12	84.81
344.348	77.81
344.576	80.81
344.804	63.81
345.031	72.81
345.259	103.81
345.487	103.81
345.714	89.81
345.942	70.81
346.17	88.81
346.397	80.81
346.625	71.81
346.853	78.81
347.08	92.81
347.308	72.81
347.535	81.81
347.763	79.81
347.99	88.81
348.218	81.81
348.445	82.81
348.673	88.81
348.9	77.81
349.128	86.81
349.355	78.81
349.583	74.81
349.81	81.81
350.037	78.81
350.265	81.81
350.492	79.81
350.72	82.81
350.947	79.81
351.174	74.81
351.402	80.81
351.629	94.81
351.856	86.81
352.083	77.81
352.311	87.81
352.538	76.81
352.765	71.81
352.992	80.81
353.22	82.81
353.447	78.81
353.674	85.81
353.901	85.81
354.128	88.81
354.355	81.81
354.583	80.81
354.81	79.81
355.037	79.81
355.264	90.81
355.491	70.81
355.718	87.81
355.945	72.81
356.172	95.81
356.399	76.81
356.626	74.81
356.853	75.81
357.08	86.81
357.307	75.81
357.534	71.81
357.761	93.81
357.988	94.81
358.215	86.81
358.441	84.81
358.668	61.81
358.895	79.81
359.122	92.81
359.349	79.81
359.576	75.81
359.802	79.81
360.029	84.81
360.256	76.81
360.483	93.81
360.709	84.81
360.936	86.81
361.163	84.81
361.39	62.81
361.616	83.81
361.843	76.81
362.07	85.81
362.296	58.81
362.523	88.81
362.749	75.81
362.976	73.81
363.203	85.81
363.429	65.81
363.656	89.81
363.882	58.81
364.109	80.81
364.335	86.81
364.562	79.81
364.788	81.81
365.015	86.81
365.241	79.81
365.468	79.81
365.694	87.81
365.92	80.81
366.147	84.81
366.373	71.81
366.599	82.81
366.826	70.81
367.052	67.81
367.278	88.81
367.505	75.81
367.731	73.81
367.957	73.81
368.184	67.81
368.41	72.81
368.636	84.81
368.862	84.81
369.089	80.81
369.315	93.81
369.541	79.81
369.767	78.81
369.993	72.81
370.219	56.81
370.445	76.81
370.672	80.81
370.898	83.81
371.124	80.81
371.35	77.81
371.576	93.81
371.802	84.81
372.028	83.81
372.254	87.81
372.48	93.81
372.706	74.81
372.932	80.81
373.158	99.81
373.384	91.81
373.61	96.81
373.835	76.81
374.061	74.81
374.287	79.81
374.513	71.81
374.739	88.81
374.965	90.81
375.191	91.81
375.416	85.81
375.642	94.81
375.868	85.81
376.094	87.81
376.319	77.81
376.545	94.81
376.771	67.81
376.997	86.81
377.222	83.81
377.448	72.81
377.674	65.81
377.899	69.81
378.125	72.81
378.35	79.81
378.576	75.81
378.802	79.81
379.027	87.81
379.253	87.81
379.478	80.81
379.704	85.81
379.929	87.81
380.155	82.81
380.38	72.81
380.606	76.81
380.831	68.81
381.057	75.81
381.282	87.81
381.507	78.81
381.733	93.81
381.958	78.81
382.184	61.81
382.409	81.81
382.634	81.81
382.86	82.81
383.085	83.81
383.31	56.81
383.535	76.81
383.761	83.81
383.986	83.81
384.211	71.81
384.436	85.81
384.662	83.81
384.887	94.81
385.112	80.81
385.337	73.81
385.562	84.81
385.787	80.81
386.013	80.81
386.238	88.81
386.463	80.81
386.688	89.81
386.913	79.81
387.138	71.81
387.363	79.81
387.588	79.81
387.813	80.81
388.038	89.81
388.263	90.81
388.488	69.81
388.713	91.81
388.938	86.81
389.163	73.81
389.387	76.81
389.612	80.81
389.837	91.81
390.062	79.81
390.287	93.81
390.512	76.81
390.736	70.81
390.961	88.81
391.186	81.81
391.411	87.81
391.636	80.81
391.86	71.81
392.085	79.81
392.31	87.81
392.534	92.81
392.759	69.81
392.984	86.81
393.208	81.81
393.433	76.81
393.658	86.81
393.882	85.81
394.107	56.81
394.331	80.81
394.556	75.81
394.78	76.81
395.005	79.81
395.229	79.81
395.454	86.81
395.678	72.81
395.903	90.81
396.127	80.81
396.352	75.81
396.576	76.81
396.801	78.81
397.025	68.81
397.249	87.81
397.474	97.81
397.698	91.81
397.922	64.81
398.147	82.81
398.371	70.81
398.595	86.81
398.82	77.81
399.044	71.81
399.268	76.81
399.492	82.81
399.717	89.81
399.941	72.81
400.165	78.81
400.389	88.81
400.613	69.81
400.837	65.81
401.062	74.81
401.286	79.81
401.51	64.81
401.734	73.81
401.958	83.81
402.182	83.81
402.406	68.81
402.63	88.81
402.854	91.81
403.078	81.81
403.302	83.81
403.526	77.81
403.75	89.81
403.974	82.81
404.198	88.81
404.422	87.81
404.645	73.81
404.869	87.81
405.093	88.81
405.317	84.81
405.541	79.81
405.765	73.81
405.988	77.81
406.212	80.81
406.436	72.81
406.66	78.81
406.883	84.81
407.107	91.81
407.331	77.81
407.555	83.81
407.778	102.81
408.002	67.81
408.226	77.81
408.449	73.81
408.673	80.81
408.896	93.81
409.12	88.81
409.344	80.81
409.567	73.81
409.791	87.81
410.014	75.81
410.238	83.81
410.461	79.81
410.685	84.81
410.908	91.81
411.132	73.81
411.355	89.81
411.578	104.81
411.802	88.81
412.025	81.81
412.249	77.81
412.472	85.81
412.695	94.81
412.919	75.81
413.142	69.81
413.365	73.81
413.589	93.81
413.812	81.81
414.035	83.81
414.258	89.81
414.482	69.81
414.705	83.81
414.928	64.81
415.151	88.81
415.374	84.81
415.597	70.81
415.821	99.81
416.044	71.81
416.267	88.81
416.49	90.81
416.713	81.81
416.936	65.81
417.159	84.81
417.382	74.81
417.605	72.81
417.828	80.81
418.051	80.81
418.274	90.81
418.497	78.81
418.72	81.81
418.943	73.81
419.166	95.81
419.389	86.81
419.611	71.81
419.834	84.81
420.057	77.81
420.28	72.81
420.503	84.81
420.726	83.81
420.948	68.81
421.171	84.81
421.394	87.81
421.617	84.81
421.839	83.81
422.062	93.81
422.285	73.81
422.507	77.81
422.73	76.81
422.953	76.81
423.175	81.81
423.398	77.81
423.621	87.81
423.843	84.81
424.066	66.81
424.288	86.81
424.511	85.81
424.733	85.81
424.956	73.81
425.178	79.81
425.401	93.81
425.623	77.81
425.846	74.81
426.068	83.81
426.291	71.81
426.513	78.81
426.735	80.81
426.958	77.81
427.18	82.81
427.402	83.81
427.625	89.81
427.847	75.81
428.069	80.81
428.292	78.81
428.514	80.81
428.736	70.81
428.958	90.81
429.181	78.81
429.403	86.81
429.625	79.81
429.847	85.81
430.069	99.81
430.292	84.81
430.514	75.81
430.736	76.81
430.958	76.81
431.18	83.81
431.402	83.81
431.624	76.81
431.846	71.81
432.068	77.81
432.29	80.81
432.512	93.81
432.734	97.81
432.956	88.81
433.178	84.81
433.4	86.81
433.622	86.81
433.844	78.81
434.066	80.81
434.287	73.81
434.509	81.81
434.731	86.81
434.953	83.81
435.175	75.81
435.397	78.81
435.618	68.81
435.84	75.81
436.062	77.81
436.284	81.81
436.505	88.81
436.727	81.81
436.949	75.81
437.17	83.81
437.392	59.81
437.614	71.81
437.835	64.81
438.057	69.81
438.278	75.81
438.5	88.81
438.721	78.81
438.943	65.81
439.165	82.81
439.386	77.81
439.608	99.81
439.829	74.81
440.05	88.81
440.272	90.81
440.493	85.81
440.715	84.81
440.936	84.81
441.158	79.81
441.379	82.81
441.6	96.81
441.822	90.81
442.043	83.81
442.264	82.81
442.486	87.81
442.707	86.81
442.928	72.81
443.149	79.81
443.371	81.81
443.592	68.81
443.813	72.81
444.034	86.81
444.255	82.81
444.476	68.81
444.698	74.81
444.919	103.81
445.14	173.81
445.361	112.81
445.582	94.81
445.803	78.81
446.024	70.81
446.245	78.81
446.466	64.81
446.687	81.81
446.908	70.81
447.129	73.81
447.35	78.81
447.571	77.81
447.792	85.81
448.013	79.81
448.234	94.81
448.455	84.81
448.675	93.81
448.896	78.81
449.117	82.81
449.338	75.81
449.559	84.81
449.779	90.81
450	84.81
450.221	83.81
450.442	89.81
450.662	73.81
450.883	68.81
451.104	78.81
451.324	86.81
451.545	73.81
451.766	76.81
451.986	77.81
452.207	84.81
452.428	74.81
452.648	84.81
452.869	85.81
453.089	75.81
453.31	83.81
453.53	80.81
453.751	77.81
453.971	87.81
454.192	91.81
454.412	79.81
454.633	82.81
454.853	89.81
455.073	73.81
455.294	79.81
455.514	83.81
455.734	89.81
455.955	83.81
456.175	81.81
456.395	72.81
456.616	76.81
456.836	65.81
457.056	62.81
457.276	83.81
457.497	84.81
457.717	79.81
457.937	89.81
458.157	79.81
458.377	76.81
458.598	75.81
458.818	89.81
459.038	78.81
459.258	77.81
459.478	80.81
459.698	68.81
459.918	75.81
460.138	86.81
460.358	79.81
460.578	92.81
460.798	74.81
461.018	62.81
461.238	99.81
461.458	73.81
461.678	79.81
461.898	89.81
462.118	80.81
462.338	62.81
462.558	70.81
462.777	61.81
462.997	85.81
463.217	79.81
463.437	78.81
463.657	90.81
463.876	75.81
464.096	77.81
464.316	80.81
464.536	72.81
464.755	74.81
464.975	69.81
465.195	84.81
465.414	72.81
465.634	78.81
465.854	89.81
466.073	79.81
466.293	74.81
466.512	75.81
466.732	73.81
466.951	72.81
467.171	74.81
467.391	72.81
467.61	76.81
467.829	85.81
468.049	83.81
468.268	89.81
468.488	76.81
468.707	93.81
468.927	80.81
469.146	73.81
469.365	80.81
469.585	91.81
469.804	85.81
470.023	81.81
470.243	63.81
470.462	81.81
470.681	73.81
470.901	76.81
471.12	90.81
471.339	90.81
471.558	80.81
471.777	76.81
471.997	87.81
472.216	75.81
472.435	83.81
472.654	87.81
472.873	95.81
473.092	73.81
473.311	95.81
473.53	95.81
473.749	86.81
473.968	86.81
474.187	69.81
474.406	69.81
474.625	73.81
474.844	86.81
475.063	70.81
475.282	80.81
475.501	84.81
475.72	90.81
475.939	84.81
476.158	93.81
476.377	84.81
476.596	80.81
476.814	74.81
477.033	75.81
477.252	92.81
477.471	75.81
477.69	74.81
477.908	97.81
478.127	75.81
478.346	79.81
478.564	87.81
478.783	73.81
479.002	78.81
479.22	88.81
479.439	82.81
479.658	78.81
479.876	80.81
480.095	88.81
480.313	84.81
480.532	69.81
480.751	79.81
480.969	71.81
481.188	83.81
481.406	78.81
481.624	91.81
481.843	80.81
482.061	77.81
482.28	66.81
482.498	84.81
482.717	84.81
482.935	79.81
483.153	82.81
483.372	95.81
483.59	87.81
483.808	77.81
484.027	71.81
484.245	79.81
484.463	87.81
484.681	81.81
484.9	78.81
485.118	80.81
485.336	76.81
485.554	70.81
485.772	96.81
485.99	91.81
486.209	78.81
486.427	74.81
486.645	86.81
486.863	81.81
487.081	91.81
487.299	77.81
487.517	79.81
487.735	75.81
487.953	68.81
488.171	80.81
488.389	82.81
488.607	80.81
488.825	68.81
489.043	82.81
489.261	80.81
489.479	82.81
489.696	87.81
489.914	79.81
490.132	72.81
490.35	88.81
490.568	80.81
490.786	78.81
491.003	79.81
491.221	81.81
491.439	80.81
491.657	89.81
491.874	76.81
492.092	77.81
492.31	93.81
492.527	88.81
492.745	85.81
492.963	78.81
493.18	81.81
493.398	94.81
493.615	91.81
493.833	81.81
494.05	76.81
494.268	94.81
494.485	90.81
494.703	90.81
494.92	90.81
495.138	77.81
495.355	77.81
495.573	84.81
495.79	80.81
496.008	97.81
496.225	81.81
496.442	63.81
496.66	81.81
496.877	87.81
497.094	78.81
497.312	88.81
497.529	81.81
497.746	73.81
497.963	91.81
498.181	95.81
498.398	84.81
498.615	86.81
498.832	92.81
499.049	84.81
499.267	85.81
499.484	79.81
499.701	108.81
499.918	84.81
500.135	75.81
500.352	76.81
500.569	80.81
500.786	77.81
501.003	101.81
501.22	78.81
501.437	78.81
501.654	69.81
501.871	96.81
502.088	83.81
502.305	81.81
502.522	89.81
502.739	84.81
502.956	77.81
503.172	88.81
503.389	88.81
503.606	73.81
503.823	81.81
504.04	90.81
504.256	91.81
504.473	73.81
504.69	81.81
504.907	75.81
505.123	79.81
505.34	101.81
505.557	82.81
505.773	78.81
505.99	81.81
506.207	59.81
506.423	96.81
506.64	88.81
506.856	85.81
507.073	73.81
507.289	83.81
507.506	64.81
507.722	82.81
507.939	81.81
508.155	81.81
508.372	79.81
508.588	78.81
508.805	88.81
509.021	96.81
509.238	85.81
509.454	88.81
509.67	79.81
509.887	92.81
510.103	73.81
510.319	89.81
510.536	92.81
510.752	80.81
510.968	78.81
511.184	80.81
511.401	72.81
511.617	71.81
511.833	90.81
512.049	67.81
512.265	79.81
512.481	96.81
512.698	75.81
512.914	87.81
513.13	78.81
513.346	83.81
513.562	68.81
513.778	79.81
513.994	86.81
514.21	90.81
514.426	88.81
514.642	76.81
514.858	77.81
515.074	70.81
515.29	81.81
515.506	78.81
515.721	79.81
515.937	80.81
516.153	88.81
516.369	73.81
516.585	86.81
516.801	83.81
517.016	88.81
517.232	78.81
517.448	76.81
517.664	87.81
517.879	85.81
518.095	83.81
518.311	64.81
518.527	78.81
518.742	84.81
518.958	84.81
519.173	87.81
519.389	89.81
519.605	87.81
519.82	70.81
520.036	68.81
520.251	77.81
