Data from StdD_HRD10591_063.txt Node
Date: Fri May 16 15:31:52 EDT 2025
User: Yrep
Spectrometer: HR+D1059
Trigger mode: 1
Integration Time (sec): 1.000000E-1
Scans to average: 1
Electric dark correction enabled: true
Nonlinearity correction enabled: false
Boxcar width: 0
XAxis mode: Wavelengths
Number of Pixels in Spectrum: 2048
>>>>>Begin Spectral Data<<<<<
223.165	-23.81
223.4	-23.81
223.635	-23.81
223.869	-17.81
224.104	-22.81
224.338	-15.81
224.573	-8.81
224.808	0.19
225.042	-18.81
225.277	-9.81
225.511	2.19
225.746	-12.81
225.98	16.19
226.215	14.19
226.449	32.19
226.683	16.19
226.918	22.19
227.152	27.19
227.387	31.19
227.621	41.19
227.856	40.19
228.09	49.19
228.324	56.19
228.559	49.19
228.793	42.19
229.027	69.19
229.262	73.19
229.496	59.19
229.73	66.19
229.964	70.19
230.199	73.19
230.433	82.19
230.667	75.19
230.901	74.19
231.136	81.19
231.37	71.19
231.604	79.19
231.838	83.19
232.072	76.19
232.306	69.19
232.541	79.19
232.775	92.19
233.009	69.19
233.243	85.19
233.477	75.19
233.711	81.19
233.945	77.19
234.179	77.19
234.413	80.19
234.647	72.19
234.881	71.19
235.115	72.19
235.349	85.19
235.583	85.19
235.817	83.19
236.051	71.19
236.285	70.19
236.519	78.19
236.753	77.19
236.987	64.19
237.221	77.19
237.455	73.19
237.689	65.19
237.922	78.19
238.156	73.19
238.39	75.19
238.624	64.19
238.858	72.19
239.091	59.19
239.325	79.19
239.559	53.19
239.793	73.19
240.027	60.19
240.26	72.19
240.494	64.19
240.728	72.19
240.961	83.19
241.195	85.19
241.429	70.19
241.662	78.19
241.896	69.19
242.13	78.19
242.363	72.19
242.597	61.19
242.83	69.19
243.064	86.19
243.298	68.19
243.531	73.19
243.765	66.19
243.998	70.19
244.232	90.19
244.465	82.19
244.699	92.19
244.932	71.19
245.166	84.19
245.399	71.19
245.633	65.19
245.866	83.19
246.099	67.19
246.333	64.19
246.566	85.19
246.8	75.19
247.033	92.19
247.266	80.19
247.5	76.19
247.733	74.19
247.966	87.19
248.2	77.19
248.433	76.19
248.666	78.19
248.899	60.19
249.133	79.19
249.366	81.19
249.599	84.19
249.832	76.19
250.066	77.19
250.299	60.19
250.532	73.19
250.765	70.19
250.998	77.19
251.231	81.19
251.465	66.19
251.698	85.19
251.931	80.19
252.164	89.19
252.397	80.19
252.63	61.19
252.863	89.19
253.096	78.19
253.329	80.19
253.562	91.19
253.795	83.19
254.028	85.19
254.261	77.19
254.494	75.19
254.727	90.19
254.96	75.19
255.193	72.19
255.426	69.19
255.659	76.19
255.892	86.19
256.124	77.19
256.357	71.19
256.59	71.19
256.823	79.19
257.056	85.19
257.289	76.19
257.521	77.19
257.754	81.19
257.987	78.19
258.22	76.19
258.452	84.19
258.685	74.19
258.918	71.19
259.151	80.19
259.383	72.19
259.616	74.19
259.849	83.19
260.081	63.19
260.314	78.19
260.547	87.19
260.779	99.19
261.012	64.19
261.244	77.19
261.477	75.19
261.71	79.19
261.942	77.19
262.175	78.19
262.407	60.19
262.64	72.19
262.872	71.19
263.105	72.19
263.337	94.19
263.57	75.19
263.802	83.19
264.035	92.19
264.267	75.19
264.499	77.19
264.732	90.19
264.964	72.19
265.197	79.19
265.429	75.19
265.661	71.19
265.894	89.19
266.126	74.19
266.358	79.19
266.591	78.19
266.823	81.19
267.055	79.19
267.287	69.19
267.52	66.19
267.752	73.19
267.984	84.19
268.216	100.19
268.448	77.19
268.681	86.19
268.913	79.19
269.145	78.19
269.377	71.19
269.609	71.19
269.841	88.19
270.073	87.19
270.306	85.19
270.538	87.19
270.77	77.19
271.002	73.19
271.234	92.19
271.466	83.19
271.698	78.19
271.93	87.19
272.162	79.19
272.394	83.19
272.626	87.19
272.858	84.19
273.09	80.19
273.322	75.19
273.553	75.19
273.785	86.19
274.017	71.19
274.249	82.19
274.481	81.19
274.713	84.19
274.945	78.19
275.176	79.19
275.408	85.19
275.64	68.19
275.872	59.19
276.104	73.19
276.335	73.19
276.567	70.19
276.799	84.19
277.031	73.19
277.262	66.19
277.494	80.19
277.726	71.19
277.957	67.19
278.189	86.19
278.421	79.19
278.652	95.19
278.884	91.19
279.115	82.19
279.347	87.19
279.579	90.19
279.81	81.19
280.042	87.19
280.273	87.19
280.505	84.19
280.736	85.19
280.968	77.19
281.199	87.19
281.431	83.19
281.662	83.19
281.894	74.19
282.125	71.19
282.356	77.19
282.588	64.19
282.819	77.19
283.051	84.19
283.282	77.19
283.513	75.19
283.745	90.19
283.976	73.19
284.207	88.19
284.439	88.19
284.67	73.19
284.901	74.19
285.132	76.19
285.364	69.19
285.595	81.19
285.826	79.19
286.057	81.19
286.288	92.19
286.52	90.19
286.751	75.19
286.982	81.19
287.213	76.19
287.444	74.19
287.675	80.19
287.906	79.19
288.138	68.19
288.369	83.19
288.6	79.19
288.831	81.19
289.062	84.19
289.293	94.19
289.524	87.19
289.755	77.19
289.986	75.19
290.217	89.19
290.448	72.19
290.679	78.19
290.91	85.19
291.141	80.19
291.371	91.19
291.602	79.19
291.833	79.19
292.064	71.19
292.295	76.19
292.526	88.19
292.757	75.19
292.987	85.19
293.218	61.19
293.449	81.19
293.68	92.19
293.91	84.19
294.141	83.19
294.372	92.19
294.603	83.19
294.833	77.19
295.064	77.19
295.295	88.19
295.525	85.19
295.756	65.19
295.987	66.19
296.217	96.19
296.448	86.19
296.679	80.19
296.909	91.19
297.14	94.19
297.37	78.19
297.601	84.19
297.831	96.19
298.062	80.19
298.292	88.19
298.523	71.19
298.753	83.19
298.984	82.19
299.214	74.19
299.445	85.19
299.675	87.19
299.905	79.19
300.136	89.19
300.366	63.19
300.597	76.19
300.827	84.19
301.057	78.19
301.288	73.19
301.518	79.19
301.748	78.19
301.979	88.19
302.209	80.19
302.439	79.19
302.669	92.19
302.9	68.19
303.13	88.19
303.36	77.19
303.59	75.19
303.82	93.19
304.051	81.19
304.281	94.19
304.511	91.19
304.741	82.19
304.971	92.19
305.201	73.19
305.431	81.19
305.661	75.19
305.891	83.19
306.121	79.19
306.352	78.19
306.582	77.19
306.812	91.19
307.042	85.19
307.272	93.19
307.502	109.19
307.731	88.19
307.961	68.19
308.191	87.19
308.421	77.19
308.651	91.19
308.881	75.19
309.111	85.19
309.341	93.19
309.571	99.19
309.8	83.19
310.03	72.19
310.26	87.19
310.49	74.19
310.72	82.19
310.949	79.19
311.179	80.19
311.409	87.19
311.639	76.19
311.868	78.19
312.098	81.19
312.328	84.19
312.557	75.19
312.787	66.19
313.017	85.19
313.246	79.19
313.476	75.19
313.706	68.19
313.935	84.19
314.165	78.19
314.394	84.19
314.624	78.19
314.853	80.19
315.083	81.19
315.312	88.19
315.542	83.19
315.771	85.19
316.001	78.19
316.23	81.19
316.46	73.19
316.689	66.19
316.919	85.19
317.148	86.19
317.377	73.19
317.607	91.19
317.836	85.19
318.065	71.19
318.295	87.19
318.524	73.19
318.753	83.19
318.983	84.19
319.212	87.19
319.441	85.19
319.67	80.19
319.9	83.19
320.129	92.19
320.358	80.19
320.587	74.19
320.816	70.19
321.046	66.19
321.275	74.19
321.504	60.19
321.733	80.19
321.962	78.19
322.191	76.19
322.42	79.19
322.649	72.19
322.878	77.19
323.108	84.19
323.337	79.19
323.566	71.19
323.795	79.19
324.024	90.19
324.253	66.19
324.482	84.19
324.71	86.19
324.939	87.19
325.168	85.19
325.397	83.19
325.626	89.19
325.855	95.19
326.084	80.19
326.313	80.19
326.542	77.19
326.77	90.19
326.999	85.19
327.228	87.19
327.457	89.19
327.686	85.19
327.914	75.19
328.143	83.19
328.372	84.19
328.6	73.19
328.829	92.19
329.058	64.19
329.287	64.19
329.515	78.19
329.744	81.19
329.972	86.19
330.201	75.19
330.43	75.19
330.658	86.19
330.887	87.19
331.115	92.19
331.344	93.19
331.572	76.19
331.801	80.19
332.03	88.19
332.258	78.19
332.486	89.19
332.715	93.19
332.943	79.19
333.172	85.19
333.4	80.19
333.629	87.19
333.857	77.19
334.085	80.19
334.314	76.19
334.542	94.19
334.771	91.19
334.999	78.19
335.227	61.19
335.455	65.19
335.684	92.19
335.912	85.19
336.14	70.19
336.369	87.19
336.597	80.19
336.825	69.19
337.053	75.19
337.281	76.19
337.51	75.19
337.738	77.19
337.966	85.19
338.194	79.19
338.422	68.19
338.65	75.19
338.878	93.19
339.106	78.19
339.334	93.19
339.562	67.19
339.79	89.19
340.018	82.19
340.246	73.19
340.474	87.19
340.702	73.19
340.93	78.19
341.158	72.19
341.386	88.19
341.614	88.19
341.842	80.19
342.07	87.19
342.298	93.19
342.526	75.19
342.754	84.19
342.981	77.19
343.209	83.19
343.437	88.19
343.665	81.19
343.893	99.19
344.12	77.19
344.348	89.19
344.576	68.19
344.804	84.19
345.031	73.19
345.259	93.19
345.487	99.19
345.714	87.19
345.942	82.19
346.17	83.19
346.397	68.19
346.625	72.19
346.853	85.19
347.08	71.19
347.308	71.19
347.535	90.19
347.763	80.19
347.99	86.19
348.218	66.19
348.445	74.19
348.673	91.19
348.9	98.19
349.128	81.19
349.355	73.19
349.583	85.19
349.81	64.19
350.037	76.19
350.265	78.19
350.492	88.19
350.72	80.19
350.947	80.19
351.174	65.19
351.402	93.19
351.629	60.19
351.856	87.19
352.083	83.19
352.311	91.19
352.538	86.19
352.765	88.19
352.992	86.19
353.22	86.19
353.447	81.19
353.674	86.19
353.901	71.19
354.128	74.19
354.355	79.19
354.583	91.19
354.81	99.19
355.037	74.19
355.264	67.19
355.491	79.19
355.718	88.19
355.945	84.19
356.172	84.19
356.399	82.19
356.626	75.19
356.853	78.19
357.08	81.19
357.307	75.19
357.534	78.19
357.761	84.19
357.988	73.19
358.215	85.19
358.441	76.19
358.668	94.19
358.895	87.19
359.122	84.19
359.349	73.19
359.576	80.19
359.802	96.19
360.029	83.19
360.256	86.19
360.483	88.19
360.709	71.19
360.936	75.19
361.163	84.19
361.39	71.19
361.616	95.19
361.843	95.19
362.07	87.19
362.296	97.19
362.523	80.19
362.749	79.19
362.976	92.19
363.203	79.19
363.429	76.19
363.656	79.19
363.882	80.19
364.109	81.19
364.335	89.19
364.562	76.19
364.788	70.19
365.015	87.19
365.241	80.19
365.468	87.19
365.694	89.19
365.92	90.19
366.147	66.19
366.373	89.19
366.599	84.19
366.826	83.19
367.052	90.19
367.278	74.19
367.505	74.19
367.731	65.19
367.957	87.19
368.184	66.19
368.41	74.19
368.636	88.19
368.862	80.19
369.089	87.19
369.315	79.19
369.541	88.19
369.767	75.19
369.993	83.19
370.219	81.19
370.445	86.19
370.672	78.19
370.898	88.19
371.124	88.19
371.35	107.19
371.576	78.19
371.802	63.19
372.028	73.19
372.254	81.19
372.48	85.19
372.706	70.19
372.932	75.19
373.158	77.19
373.384	88.19
373.61	77.19
373.835	79.19
374.061	83.19
374.287	92.19
374.513	95.19
374.739	79.19
374.965	80.19
375.191	75.19
375.416	81.19
375.642	72.19
375.868	92.19
376.094	81.19
376.319	70.19
376.545	77.19
376.771	71.19
376.997	91.19
377.222	82.19
377.448	82.19
377.674	84.19
377.899	73.19
378.125	86.19
378.35	75.19
378.576	81.19
378.802	89.19
379.027	88.19
379.253	84.19
379.478	87.19
379.704	79.19
379.929	79.19
380.155	75.19
380.38	86.19
380.606	79.19
380.831	83.19
381.057	77.19
381.282	77.19
381.507	86.19
381.733	81.19
381.958	84.19
382.184	84.19
382.409	77.19
382.634	73.19
382.86	79.19
383.085	85.19
383.31	81.19
383.535	80.19
383.761	80.19
383.986	86.19
384.211	71.19
384.436	73.19
384.662	72.19
384.887	70.19
385.112	68.19
385.337	70.19
385.562	84.19
385.787	77.19
386.013	78.19
386.238	87.19
386.463	81.19
386.688	102.19
386.913	93.19
387.138	83.19
387.363	69.19
387.588	80.19
387.813	83.19
388.038	72.19
388.263	79.19
388.488	83.19
388.713	88.19
388.938	85.19
389.163	85.19
389.387	77.19
389.612	81.19
389.837	84.19
390.062	76.19
390.287	71.19
390.512	84.19
390.736	81.19
390.961	81.19
391.186	73.19
391.411	78.19
391.636	77.19
391.86	76.19
392.085	71.19
392.31	87.19
392.534	81.19
392.759	89.19
392.984	77.19
393.208	78.19
393.433	71.19
393.658	78.19
393.882	65.19
394.107	76.19
394.331	77.19
394.556	77.19
394.78	77.19
395.005	83.19
395.229	80.19
395.454	75.19
395.678	70.19
395.903	76.19
396.127	80.19
396.352	85.19
396.576	85.19
396.801	82.19
397.025	75.19
397.249	84.19
397.474	81.19
397.698	80.19
397.922	70.19
398.147	84.19
398.371	79.19
398.595	86.19
398.82	74.19
399.044	77.19
399.268	85.19
399.492	91.19
399.717	72.19
399.941	67.19
400.165	87.19
400.389	96.19
400.613	81.19
400.837	77.19
401.062	69.19
401.286	78.19
401.51	88.19
401.734	71.19
401.958	68.19
402.182	89.19
402.406	81.19
402.63	73.19
402.854	82.19
403.078	88.19
403.302	72.19
403.526	69.19
403.75	89.19
403.974	88.19
404.198	72.19
404.422	77.19
404.645	84.19
404.869	88.19
405.093	65.19
405.317	71.19
405.541	71.19
405.765	80.19
405.988	87.19
406.212	84.19
406.436	77.19
406.66	85.19
406.883	85.19
407.107	62.19
407.331	88.19
407.555	80.19
407.778	72.19
408.002	79.19
408.226	69.19
408.449	81.19
408.673	95.19
408.896	83.19
409.12	90.19
409.344	78.19
409.567	73.19
409.791	83.19
410.014	87.19
410.238	87.19
410.461	79.19
410.685	85.19
410.908	75.19
411.132	74.19
411.355	88.19
411.578	73.19
411.802	65.19
412.025	72.19
412.249	83.19
412.472	89.19
412.695	76.19
412.919	82.19
413.142	84.19
413.365	94.19
413.589	68.19
413.812	83.19
414.035	70.19
414.258	77.19
414.482	87.19
414.705	84.19
414.928	79.19
415.151	81.19
415.374	78.19
415.597	86.19
415.821	70.19
416.044	77.19
416.267	64.19
416.49	75.19
416.713	81.19
416.936	71.19
417.159	77.19
417.382	74.19
417.605	79.19
417.828	69.19
418.051	86.19
418.274	81.19
418.497	63.19
418.72	71.19
418.943	59.19
419.166	71.19
419.389	95.19
419.611	76.19
419.834	77.19
420.057	75.19
420.28	81.19
420.503	81.19
420.726	96.19
420.948	81.19
421.171	74.19
421.394	80.19
421.617	73.19
421.839	75.19
422.062	82.19
422.285	86.19
422.507	70.19
422.73	68.19
422.953	69.19
423.175	83.19
423.398	86.19
423.621	73.19
423.843	91.19
424.066	73.19
424.288	85.19
424.511	74.19
424.733	87.19
424.956	85.19
425.178	84.19
425.401	91.19
425.623	76.19
425.846	71.19
426.068	60.19
426.291	79.19
426.513	65.19
426.735	85.19
426.958	81.19
427.18	95.19
427.402	95.19
427.625	80.19
427.847	87.19
428.069	90.19
428.292	71.19
428.514	92.19
428.736	101.19
428.958	78.19
429.181	80.19
429.403	90.19
429.625	82.19
429.847	84.19
430.069	84.19
430.292	80.19
430.514	81.19
430.736	70.19
430.958	65.19
431.18	75.19
431.402	80.19
431.624	75.19
431.846	83.19
432.068	92.19
432.29	73.19
432.512	81.19
432.734	89.19
432.956	82.19
433.178	84.19
433.4	72.19
433.622	76.19
433.844	64.19
434.066	100.19
434.287	89.19
434.509	88.19
434.731	77.19
434.953	68.19
435.175	79.19
435.397	91.19
435.618	85.19
435.84	82.19
436.062	89.19
436.284	72.19
436.505	79.19
436.727	70.19
436.949	74.19
437.17	78.19
437.392	72.19
437.614	91.19
437.835	83.19
438.057	78.19
438.278	77.19
438.5	85.19
438.721	80.19
438.943	78.19
439.165	85.19
439.386	81.19
439.608	83.19
439.829	77.19
440.05	87.19
440.272	88.19
440.493	86.19
440.715	84.19
440.936	82.19
441.158	93.19
441.379	89.19
441.6	80.19
441.822	101.19
442.043	88.19
442.264	87.19
442.486	86.19
442.707	84.19
442.928	69.19
443.149	79.19
443.371	86.19
443.592	84.19
443.813	88.19
444.034	79.19
444.255	60.19
444.476	69.19
444.698	83.19
444.919	69.19
445.14	158.19
445.361	130.19
445.582	72.19
445.803	84.19
446.024	87.19
446.245	82.19
446.466	78.19
446.687	73.19
446.908	71.19
447.129	79.19
447.35	80.19
447.571	77.19
447.792	75.19
448.013	73.19
448.234	88.19
448.455	87.19
448.675	77.19
448.896	81.19
449.117	87.19
449.338	85.19
449.559	90.19
449.779	88.19
450	82.19
450.221	86.19
450.442	78.19
450.662	85.19
450.883	72.19
451.104	84.19
451.324	71.19
451.545	64.19
451.766	83.19
451.986	79.19
452.207	73.19
452.428	81.19
452.648	74.19
452.869	77.19
453.089	85.19
453.31	89.19
453.53	77.19
453.751	80.19
453.971	88.19
454.192	62.19
454.412	67.19
454.633	79.19
454.853	63.19
455.073	78.19
455.294	74.19
455.514	66.19
455.734	73.19
455.955	81.19
456.175	81.19
456.395	65.19
456.616	69.19
456.836	85.19
457.056	77.19
457.276	88.19
457.497	85.19
457.717	60.19
457.937	90.19
458.157	77.19
458.377	79.19
458.598	73.19
458.818	64.19
459.038	76.19
459.258	72.19
459.478	80.19
459.698	77.19
459.918	85.19
460.138	79.19
460.358	85.19
460.578	81.19
460.798	75.19
461.018	81.19
461.238	69.19
461.458	87.19
461.678	94.19
461.898	77.19
462.118	74.19
462.338	87.19
462.558	85.19
462.777	91.19
462.997	59.19
463.217	74.19
463.437	85.19
463.657	70.19
463.876	75.19
464.096	66.19
464.316	84.19
464.536	94.19
464.755	74.19
464.975	76.19
465.195	89.19
465.414	87.19
465.634	89.19
465.854	92.19
466.073	83.19
466.293	72.19
466.512	95.19
466.732	76.19
466.951	73.19
467.171	81.19
467.391	72.19
467.61	81.19
467.829	87.19
468.049	79.19
468.268	81.19
468.488	85.19
468.707	92.19
468.927	87.19
469.146	91.19
469.365	78.19
469.585	83.19
469.804	98.19
470.023	94.19
470.243	73.19
470.462	84.19
470.681	87.19
470.901	84.19
471.12	82.19
471.339	79.19
471.558	79.19
471.777	78.19
471.997	87.19
472.216	84.19
472.435	80.19
472.654	74.19
472.873	85.19
473.092	65.19
473.311	79.19
473.53	66.19
473.749	77.19
473.968	87.19
474.187	71.19
474.406	78.19
474.625	71.19
474.844	84.19
475.063	77.19
475.282	69.19
475.501	76.19
475.72	79.19
475.939	78.19
476.158	79.19
476.377	83.19
476.596	73.19
476.814	79.19
477.033	80.19
477.252	70.19
477.471	93.19
477.69	76.19
477.908	79.19
478.127	72.19
478.346	71.19
478.564	81.19
478.783	76.19
479.002	79.19
479.22	90.19
479.439	92.19
479.658	81.19
479.876	80.19
480.095	81.19
480.313	76.19
480.532	78.19
480.751	71.19
480.969	94.19
481.188	65.19
481.406	88.19
481.624	79.19
481.843	78.19
482.061	71.19
482.28	84.19
482.498	75.19
482.717	87.19
482.935	69.19
483.153	72.19
483.372	81.19
483.59	86.19
483.808	83.19
484.027	83.19
484.245	80.19
484.463	81.19
484.681	83.19
484.9	74.19
485.118	95.19
485.336	69.19
485.554	63.19
485.772	79.19
485.99	68.19
486.209	79.19
486.427	79.19
486.645	76.19
486.863	100.19
487.081	87.19
487.299	83.19
487.517	87.19
487.735	88.19
487.953	92.19
488.171	89.19
488.389	88.19
488.607	83.19
488.825	78.19
489.043	88.19
489.261	95.19
489.479	87.19
489.696	75.19
489.914	75.19
490.132	88.19
490.35	93.19
490.568	94.19
490.786	76.19
491.003	91.19
491.221	81.19
491.439	92.19
491.657	85.19
491.874	79.19
492.092	86.19
492.31	81.19
492.527	77.19
492.745	90.19
492.963	93.19
493.18	97.19
493.398	76.19
493.615	96.19
493.833	82.19
494.05	79.19
494.268	83.19
494.485	95.19
494.703	96.19
494.92	82.19
495.138	79.19
495.355	91.19
495.573	97.19
495.79	81.19
496.008	71.19
496.225	83.19
496.442	86.19
496.66	87.19
496.877	89.19
497.094	88.19
497.312	81.19
497.529	86.19
497.746	91.19
497.963	77.19
498.181	69.19
498.398	79.19
498.615	86.19
498.832	76.19
499.049	81.19
499.267	92.19
499.484	87.19
499.701	75.19
499.918	72.19
500.135	83.19
500.352	84.19
500.569	91.19
500.786	89.19
501.003	85.19
501.22	79.19
501.437	85.19
501.654	94.19
501.871	92.19
502.088	77.19
502.305	84.19
502.522	81.19
502.739	77.19
502.956	85.19
503.172	88.19
503.389	65.19
503.606	90.19
503.823	59.19
504.04	69.19
504.256	67.19
504.473	75.19
504.69	80.19
504.907	76.19
505.123	81.19
505.34	75.19
505.557	96.19
505.773	78.19
505.99	103.19
506.207	75.19
506.423	66.19
506.64	88.19
506.856	75.19
507.073	83.19
507.289	73.19
507.506	79.19
507.722	81.19
507.939	83.19
508.155	85.19
508.372	89.19
508.588	77.19
508.805	81.19
509.021	65.19
509.238	71.19
509.454	71.19
509.67	69.19
509.887	70.19
510.103	79.19
510.319	75.19
510.536	85.19
510.752	72.19
510.968	85.19
511.184	76.19
511.401	75.19
511.617	76.19
511.833	80.19
512.049	69.19
512.265	89.19
512.481	88.19
512.698	79.19
512.914	88.19
513.13	84.19
513.346	86.19
513.562	79.19
513.778	80.19
513.994	75.19
514.21	80.19
514.426	77.19
514.642	78.19
514.858	87.19
515.074	83.19
515.29	83.19
515.506	77.19
515.721	75.19
515.937	84.19
516.153	81.19
516.369	80.19
516.585	75.19
516.801	89.19
517.016	87.19
517.232	75.19
517.448	77.19
517.664	86.19
517.879	78.19
518.095	80.19
518.311	73.19
518.527	85.19
518.742	81.19
518.958	80.19
519.173	86.19
519.389	72.19
519.605	78.19
519.82	80.19
520.036	103.19
520.251	77.19
