Data from StdD_HRD10591_099.txt Node
Date: Fri May 16 15:32:10 EDT 2025
User: Yrep
Spectrometer: HR+D1059
Trigger mode: 1
Integration Time (sec): 1.000000E-1
Scans to average: 1
Electric dark correction enabled: true
Nonlinearity correction enabled: false
Boxcar width: 0
XAxis mode: Wavelengths
Number of Pixels in Spectrum: 2048
>>>>>Begin Spectral Data<<<<<
223.165	-22.88
223.4	-22.88
223.635	-22.88
223.869	-10.88
224.104	-16.88
224.338	-14.88
224.573	-10.88
224.808	-9.88
225.042	2.12
225.277	-5.88
225.511	-6.88
225.746	9.12
225.98	5.12
226.215	2.12
226.449	8.12
226.683	17.12
226.918	19.12
227.152	36.12
227.387	21.12
227.621	37.12
227.856	35.12
228.09	52.12
228.324	49.12
228.559	56.12
228.793	69.12
229.027	71.12
229.262	81.12
229.496	64.12
229.73	87.12
229.964	73.12
230.199	74.12
230.433	77.12
230.667	77.12
230.901	74.12
231.136	87.12
231.37	78.12
231.604	89.12
231.838	80.12
232.072	83.12
232.306	93.12
232.541	84.12
232.775	104.12
233.009	97.12
233.243	79.12
233.477	77.12
233.711	80.12
233.945	91.12
234.179	82.12
234.413	83.12
234.647	77.12
234.881	74.12
235.115	81.12
235.349	75.12
235.583	71.12
235.817	83.12
236.051	75.12
236.285	85.12
236.519	82.12
236.753	89.12
236.987	82.12
237.221	77.12
237.455	90.12
237.689	78.12
237.922	63.12
238.156	77.12
238.39	83.12
238.624	77.12
238.858	81.12
239.091	76.12
239.325	77.12
239.559	81.12
239.793	79.12
240.027	84.12
240.26	77.12
240.494	75.12
240.728	73.12
240.961	87.12
241.195	84.12
241.429	83.12
241.662	63.12
241.896	84.12
242.13	78.12
242.363	73.12
242.597	73.12
242.83	68.12
243.064	84.12
243.298	76.12
243.531	81.12
243.765	79.12
243.998	83.12
244.232	74.12
244.465	78.12
244.699	79.12
244.932	67.12
245.166	87.12
245.399	84.12
245.633	84.12
245.866	87.12
246.099	80.12
246.333	90.12
246.566	85.12
246.8	73.12
247.033	72.12
247.266	72.12
247.5	88.12
247.733	83.12
247.966	90.12
248.2	81.12
248.433	97.12
248.666	88.12
248.899	75.12
249.133	83.12
249.366	85.12
249.599	76.12
249.832	65.12
250.066	77.12
250.299	75.12
250.532	82.12
250.765	80.12
250.998	72.12
251.231	64.12
251.465	79.12
251.698	98.12
251.931	85.12
252.164	73.12
252.397	91.12
252.63	80.12
252.863	74.12
253.096	91.12
253.329	66.12
253.562	82.12
253.795	95.12
254.028	75.12
254.261	86.12
254.494	77.12
254.727	86.12
254.96	83.12
255.193	92.12
255.426	75.12
255.659	86.12
255.892	75.12
256.124	76.12
256.357	91.12
256.59	81.12
256.823	93.12
257.056	68.12
257.289	70.12
257.521	79.12
257.754	87.12
257.987	85.12
258.22	81.12
258.452	101.12
258.685	90.12
258.918	80.12
259.151	83.12
259.383	94.12
259.616	85.12
259.849	83.12
260.081	89.12
260.314	96.12
260.547	90.12
260.779	82.12
261.012	73.12
261.244	68.12
261.477	74.12
261.71	81.12
261.942	95.12
262.175	88.12
262.407	80.12
262.64	87.12
262.872	75.12
263.105	67.12
263.337	101.12
263.57	87.12
263.802	84.12
264.035	78.12
264.267	68.12
264.499	76.12
264.732	83.12
264.964	71.12
265.197	86.12
265.429	91.12
265.661	82.12
265.894	81.12
266.126	92.12
266.358	88.12
266.591	93.12
266.823	79.12
267.055	84.12
267.287	71.12
267.52	68.12
267.752	83.12
267.984	82.12
268.216	72.12
268.448	82.12
268.681	89.12
268.913	78.12
269.145	83.12
269.377	71.12
269.609	72.12
269.841	88.12
270.073	81.12
270.306	82.12
270.538	76.12
270.77	84.12
271.002	79.12
271.234	84.12
271.466	102.12
271.698	77.12
271.93	81.12
272.162	82.12
272.394	100.12
272.626	88.12
272.858	82.12
273.09	83.12
273.322	100.12
273.553	107.12
273.785	98.12
274.017	79.12
274.249	86.12
274.481	89.12
274.713	68.12
274.945	84.12
275.176	78.12
275.408	86.12
275.64	94.12
275.872	67.12
276.104	74.12
276.335	71.12
276.567	78.12
276.799	82.12
277.031	80.12
277.262	97.12
277.494	93.12
277.726	81.12
277.957	75.12
278.189	86.12
278.421	71.12
278.652	78.12
278.884	82.12
279.115	77.12
279.347	81.12
279.579	87.12
279.81	75.12
280.042	76.12
280.273	71.12
280.505	79.12
280.736	87.12
280.968	85.12
281.199	90.12
281.431	80.12
281.662	100.12
281.894	91.12
282.125	83.12
282.356	77.12
282.588	89.12
282.819	83.12
283.051	83.12
283.282	90.12
283.513	77.12
283.745	89.12
283.976	73.12
284.207	78.12
284.439	89.12
284.67	89.12
284.901	78.12
285.132	78.12
285.364	82.12
285.595	97.12
285.826	93.12
286.057	86.12
286.288	72.12
286.52	86.12
286.751	90.12
286.982	85.12
287.213	70.12
287.444	98.12
287.675	87.12
287.906	69.12
288.138	69.12
288.369	87.12
288.6	94.12
288.831	90.12
289.062	84.12
289.293	76.12
289.524	83.12
289.755	94.12
289.986	80.12
290.217	75.12
290.448	83.12
290.679	62.12
290.91	76.12
291.141	88.12
291.371	91.12
291.602	90.12
291.833	83.12
292.064	94.12
292.295	77.12
292.526	91.12
292.757	73.12
292.987	89.12
293.218	93.12
293.449	90.12
293.68	81.12
293.91	83.12
294.141	76.12
294.372	100.12
294.603	99.12
294.833	83.12
295.064	69.12
295.295	95.12
295.525	79.12
295.756	94.12
295.987	93.12
296.217	81.12
296.448	82.12
296.679	79.12
296.909	79.12
297.14	90.12
297.37	77.12
297.601	90.12
297.831	76.12
298.062	89.12
298.292	85.12
298.523	89.12
298.753	82.12
298.984	89.12
299.214	97.12
299.445	76.12
299.675	82.12
299.905	78.12
300.136	90.12
300.366	87.12
300.597	87.12
300.827	84.12
301.057	103.12
301.288	80.12
301.518	91.12
301.748	77.12
301.979	97.12
302.209	81.12
302.439	85.12
302.669	84.12
302.9	91.12
303.13	95.12
303.36	90.12
303.59	74.12
303.82	85.12
304.051	86.12
304.281	87.12
304.511	82.12
304.741	89.12
304.971	85.12
305.201	84.12
305.431	94.12
305.661	95.12
305.891	89.12
306.121	81.12
306.352	99.12
306.582	87.12
306.812	85.12
307.042	79.12
307.272	89.12
307.502	81.12
307.731	91.12
307.961	92.12
308.191	99.12
308.421	85.12
308.651	88.12
308.881	86.12
309.111	92.12
309.341	92.12
309.571	77.12
309.8	84.12
310.03	72.12
310.26	77.12
310.49	92.12
310.72	80.12
310.949	85.12
311.179	95.12
311.409	84.12
311.639	95.12
311.868	84.12
312.098	101.12
312.328	90.12
312.557	96.12
312.787	94.12
313.017	86.12
313.246	96.12
313.476	81.12
313.706	87.12
313.935	71.12
314.165	78.12
314.394	80.12
314.624	68.12
314.853	85.12
315.083	90.12
315.312	85.12
315.542	91.12
315.771	84.12
316.001	79.12
316.23	88.12
316.46	93.12
316.689	91.12
316.919	90.12
317.148	75.12
317.377	75.12
317.607	96.12
317.836	105.12
318.065	75.12
318.295	72.12
318.524	89.12
318.753	84.12
318.983	91.12
319.212	77.12
319.441	87.12
319.67	91.12
319.9	82.12
320.129	87.12
320.358	90.12
320.587	92.12
320.816	68.12
321.046	88.12
321.275	87.12
321.504	77.12
321.733	91.12
321.962	90.12
322.191	93.12
322.42	93.12
322.649	87.12
322.878	78.12
323.108	80.12
323.337	81.12
323.566	83.12
323.795	90.12
324.024	99.12
324.253	90.12
324.482	84.12
324.71	88.12
324.939	93.12
325.168	83.12
325.397	78.12
325.626	83.12
325.855	89.12
326.084	97.12
326.313	85.12
326.542	76.12
326.77	90.12
326.999	93.12
327.228	71.12
327.457	84.12
327.686	92.12
327.914	83.12
328.143	87.12
328.372	87.12
328.6	93.12
328.829	86.12
329.058	85.12
329.287	85.12
329.515	86.12
329.744	89.12
329.972	76.12
330.201	79.12
330.43	95.12
330.658	95.12
330.887	97.12
331.115	99.12
331.344	91.12
331.572	100.12
331.801	80.12
332.03	78.12
332.258	91.12
332.486	96.12
332.715	93.12
332.943	66.12
333.172	103.12
333.4	89.12
333.629	87.12
333.857	88.12
334.085	85.12
334.314	87.12
334.542	85.12
334.771	84.12
334.999	101.12
335.227	93.12
335.455	78.12
335.684	90.12
335.912	97.12
336.14	86.12
336.369	82.12
336.597	91.12
336.825	90.12
337.053	88.12
337.281	97.12
337.51	74.12
337.738	99.12
337.966	79.12
338.194	88.12
338.422	83.12
338.65	94.12
338.878	60.12
339.106	70.12
339.334	83.12
339.562	78.12
339.79	89.12
340.018	98.12
340.246	85.12
340.474	85.12
340.702	93.12
340.93	78.12
341.158	75.12
341.386	83.12
341.614	72.12
341.842	77.12
342.07	97.12
342.298	79.12
342.526	92.12
342.754	81.12
342.981	92.12
343.209	98.12
343.437	100.12
343.665	78.12
343.893	85.12
344.12	97.12
344.348	92.12
344.576	74.12
344.804	80.12
345.031	93.12
345.259	86.12
345.487	78.12
345.714	87.12
345.942	69.12
346.17	88.12
346.397	84.12
346.625	88.12
346.853	93.12
347.08	89.12
347.308	83.12
347.535	79.12
347.763	66.12
347.99	80.12
348.218	93.12
348.445	85.12
348.673	83.12
348.9	85.12
349.128	84.12
349.355	88.12
349.583	88.12
349.81	88.12
350.037	97.12
350.265	84.12
350.492	76.12
350.72	76.12
350.947	96.12
351.174	80.12
351.402	97.12
351.629	92.12
351.856	80.12
352.083	70.12
352.311	80.12
352.538	81.12
352.765	79.12
352.992	91.12
353.22	79.12
353.447	75.12
353.674	90.12
353.901	80.12
354.128	86.12
354.355	77.12
354.583	79.12
354.81	92.12
355.037	92.12
355.264	90.12
355.491	83.12
355.718	83.12
355.945	88.12
356.172	78.12
356.399	87.12
356.626	83.12
356.853	82.12
357.08	89.12
357.307	85.12
357.534	87.12
357.761	91.12
357.988	95.12
358.215	74.12
358.441	93.12
358.668	85.12
358.895	84.12
359.122	89.12
359.349	88.12
359.576	95.12
359.802	80.12
360.029	76.12
360.256	82.12
360.483	78.12
360.709	94.12
360.936	89.12
361.163	85.12
361.39	87.12
361.616	92.12
361.843	89.12
362.07	79.12
362.296	75.12
362.523	98.12
362.749	95.12
362.976	85.12
363.203	90.12
363.429	79.12
363.656	92.12
363.882	99.12
364.109	82.12
364.335	94.12
364.562	82.12
364.788	79.12
365.015	74.12
365.241	73.12
365.468	88.12
365.694	91.12
365.92	87.12
366.147	83.12
366.373	69.12
366.599	87.12
366.826	80.12
367.052	81.12
367.278	82.12
367.505	80.12
367.731	88.12
367.957	85.12
368.184	81.12
368.41	85.12
368.636	69.12
368.862	86.12
369.089	91.12
369.315	90.12
369.541	86.12
369.767	79.12
369.993	92.12
370.219	86.12
370.445	87.12
370.672	92.12
370.898	87.12
371.124	96.12
371.35	98.12
371.576	90.12
371.802	80.12
372.028	83.12
372.254	82.12
372.48	90.12
372.706	84.12
372.932	85.12
373.158	77.12
373.384	78.12
373.61	85.12
373.835	84.12
374.061	81.12
374.287	81.12
374.513	75.12
374.739	96.12
374.965	62.12
375.191	78.12
375.416	91.12
375.642	106.12
375.868	73.12
376.094	77.12
376.319	87.12
376.545	90.12
376.771	95.12
376.997	100.12
377.222	81.12
377.448	83.12
377.674	76.12
377.899	76.12
378.125	75.12
378.35	82.12
378.576	80.12
378.802	93.12
379.027	91.12
379.253	93.12
379.478	94.12
379.704	84.12
379.929	82.12
380.155	79.12
380.38	76.12
380.606	83.12
380.831	86.12
381.057	71.12
381.282	80.12
381.507	76.12
381.733	89.12
381.958	83.12
382.184	73.12
382.409	69.12
382.634	76.12
382.86	87.12
383.085	92.12
383.31	73.12
383.535	86.12
383.761	91.12
383.986	88.12
384.211	75.12
384.436	79.12
384.662	72.12
384.887	71.12
385.112	83.12
385.337	65.12
385.562	94.12
385.787	93.12
386.013	88.12
386.238	87.12
386.463	79.12
386.688	81.12
386.913	84.12
387.138	81.12
387.363	75.12
387.588	83.12
387.813	77.12
388.038	82.12
388.263	96.12
388.488	87.12
388.713	93.12
388.938	88.12
389.163	76.12
389.387	83.12
389.612	79.12
389.837	84.12
390.062	83.12
390.287	82.12
390.512	82.12
390.736	74.12
390.961	80.12
391.186	81.12
391.411	75.12
391.636	71.12
391.86	88.12
392.085	83.12
392.31	74.12
392.534	84.12
392.759	94.12
392.984	105.12
393.208	83.12
393.433	77.12
393.658	87.12
393.882	82.12
394.107	92.12
394.331	89.12
394.556	81.12
394.78	88.12
395.005	98.12
395.229	88.12
395.454	88.12
395.678	79.12
395.903	79.12
396.127	99.12
396.352	76.12
396.576	100.12
396.801	91.12
397.025	79.12
397.249	76.12
397.474	81.12
397.698	95.12
397.922	79.12
398.147	90.12
398.371	89.12
398.595	74.12
398.82	79.12
399.044	93.12
399.268	80.12
399.492	92.12
399.717	71.12
399.941	76.12
400.165	81.12
400.389	88.12
400.613	77.12
400.837	82.12
401.062	86.12
401.286	91.12
401.51	84.12
401.734	81.12
401.958	75.12
402.182	72.12
402.406	69.12
402.63	87.12
402.854	95.12
403.078	85.12
403.302	93.12
403.526	84.12
403.75	89.12
403.974	93.12
404.198	69.12
404.422	77.12
404.645	80.12
404.869	76.12
405.093	89.12
405.317	86.12
405.541	70.12
405.765	73.12
405.988	85.12
406.212	77.12
406.436	78.12
406.66	95.12
406.883	84.12
407.107	81.12
407.331	92.12
407.555	95.12
407.778	90.12
408.002	101.12
408.226	84.12
408.449	91.12
408.673	81.12
408.896	86.12
409.12	82.12
409.344	84.12
409.567	61.12
409.791	97.12
410.014	82.12
410.238	81.12
410.461	92.12
410.685	84.12
410.908	70.12
411.132	91.12
411.355	83.12
411.578	78.12
411.802	78.12
412.025	95.12
412.249	75.12
412.472	83.12
412.695	97.12
412.919	89.12
413.142	97.12
413.365	96.12
413.589	79.12
413.812	86.12
414.035	91.12
414.258	85.12
414.482	93.12
414.705	84.12
414.928	90.12
415.151	73.12
415.374	95.12
415.597	90.12
415.821	84.12
416.044	75.12
416.267	75.12
416.49	72.12
416.713	78.12
416.936	79.12
417.159	93.12
417.382	67.12
417.605	83.12
417.828	80.12
418.051	79.12
418.274	91.12
418.497	90.12
418.72	81.12
418.943	85.12
419.166	79.12
419.389	87.12
419.611	90.12
419.834	77.12
420.057	95.12
420.28	75.12
420.503	87.12
420.726	96.12
420.948	83.12
421.171	87.12
421.394	91.12
421.617	79.12
421.839	84.12
422.062	93.12
422.285	61.12
422.507	73.12
422.73	77.12
422.953	63.12
423.175	77.12
423.398	81.12
423.621	83.12
423.843	90.12
424.066	81.12
424.288	84.12
424.511	85.12
424.733	83.12
424.956	81.12
425.178	100.12
425.401	77.12
425.623	90.12
425.846	82.12
426.068	80.12
426.291	67.12
426.513	82.12
426.735	83.12
426.958	88.12
427.18	70.12
427.402	95.12
427.625	91.12
427.847	75.12
428.069	85.12
428.292	83.12
428.514	81.12
428.736	96.12
428.958	97.12
429.181	96.12
429.403	76.12
429.625	81.12
429.847	76.12
430.069	82.12
430.292	97.12
430.514	95.12
430.736	90.12
430.958	94.12
431.18	90.12
431.402	83.12
431.624	85.12
431.846	80.12
432.068	83.12
432.29	93.12
432.512	85.12
432.734	88.12
432.956	86.12
433.178	85.12
433.4	101.12
433.622	79.12
433.844	90.12
434.066	79.12
434.287	82.12
434.509	90.12
434.731	95.12
434.953	89.12
435.175	77.12
435.397	86.12
435.618	85.12
435.84	87.12
436.062	70.12
436.284	84.12
436.505	91.12
436.727	87.12
436.949	95.12
437.17	90.12
437.392	83.12
437.614	84.12
437.835	81.12
438.057	77.12
438.278	81.12
438.5	95.12
438.721	72.12
438.943	81.12
439.165	80.12
439.386	82.12
439.608	83.12
439.829	82.12
440.05	89.12
440.272	78.12
440.493	65.12
440.715	82.12
440.936	79.12
441.158	89.12
441.379	92.12
441.6	103.12
441.822	76.12
442.043	83.12
442.264	75.12
442.486	91.12
442.707	81.12
442.928	109.12
443.149	89.12
443.371	93.12
443.592	89.12
443.813	87.12
444.034	100.12
444.255	78.12
444.476	75.12
444.698	88.12
444.919	93.12
445.14	169.12
445.361	127.12
445.582	88.12
445.803	77.12
446.024	89.12
446.245	91.12
446.466	94.12
446.687	83.12
446.908	81.12
447.129	82.12
447.35	84.12
447.571	99.12
447.792	79.12
448.013	81.12
448.234	100.12
448.455	82.12
448.675	80.12
448.896	87.12
449.117	86.12
449.338	93.12
449.559	80.12
449.779	89.12
450	84.12
450.221	81.12
450.442	75.12
450.662	81.12
450.883	88.12
451.104	82.12
451.324	83.12
451.545	92.12
451.766	103.12
451.986	79.12
452.207	85.12
452.428	74.12
452.648	96.12
452.869	92.12
453.089	94.12
453.31	100.12
453.53	74.12
453.751	82.12
453.971	75.12
454.192	88.12
454.412	83.12
454.633	100.12
454.853	89.12
455.073	82.12
455.294	88.12
455.514	73.12
455.734	85.12
455.955	87.12
456.175	83.12
456.395	84.12
456.616	94.12
456.836	77.12
457.056	88.12
457.276	83.12
457.497	91.12
457.717	79.12
457.937	79.12
458.157	84.12
458.377	84.12
458.598	93.12
458.818	83.12
459.038	91.12
459.258	69.12
459.478	83.12
459.698	87.12
459.918	85.12
460.138	91.12
460.358	91.12
460.578	70.12
460.798	88.12
461.018	96.12
461.238	80.12
461.458	82.12
461.678	79.12
461.898	90.12
462.118	77.12
462.338	90.12
462.558	82.12
462.777	76.12
462.997	83.12
463.217	76.12
463.437	84.12
463.657	70.12
463.876	92.12
464.096	91.12
464.316	79.12
464.536	82.12
464.755	76.12
464.975	88.12
465.195	86.12
465.414	75.12
465.634	87.12
465.854	86.12
466.073	88.12
466.293	69.12
466.512	90.12
466.732	85.12
466.951	87.12
467.171	85.12
467.391	91.12
467.61	81.12
467.829	96.12
468.049	83.12
468.268	84.12
468.488	80.12
468.707	79.12
468.927	79.12
469.146	92.12
469.365	93.12
469.585	82.12
469.804	77.12
470.023	90.12
470.243	89.12
470.462	79.12
470.681	95.12
470.901	95.12
471.12	68.12
471.339	81.12
471.558	89.12
471.777	87.12
471.997	83.12
472.216	93.12
472.435	76.12
472.654	98.12
472.873	85.12
473.092	75.12
473.311	85.12
473.53	79.12
473.749	82.12
473.968	103.12
474.187	93.12
474.406	95.12
474.625	87.12
474.844	78.12
475.063	64.12
475.282	82.12
475.501	73.12
475.72	84.12
475.939	91.12
476.158	81.12
476.377	81.12
476.596	84.12
476.814	80.12
477.033	83.12
477.252	87.12
477.471	75.12
477.69	69.12
477.908	96.12
478.127	75.12
478.346	82.12
478.564	83.12
478.783	89.12
479.002	81.12
479.22	91.12
479.439	93.12
479.658	91.12
479.876	80.12
480.095	92.12
480.313	90.12
480.532	88.12
480.751	76.12
480.969	74.12
481.188	78.12
481.406	72.12
481.624	97.12
481.843	93.12
482.061	94.12
482.28	81.12
482.498	81.12
482.717	91.12
482.935	74.12
483.153	88.12
483.372	87.12
483.59	83.12
483.808	92.12
484.027	88.12
484.245	87.12
484.463	88.12
484.681	89.12
484.9	76.12
485.118	103.12
485.336	88.12
485.554	79.12
485.772	67.12
485.99	84.12
486.209	87.12
486.427	103.12
486.645	74.12
486.863	80.12
487.081	92.12
487.299	81.12
487.517	77.12
487.735	81.12
487.953	85.12
488.171	96.12
488.389	99.12
488.607	86.12
488.825	89.12
489.043	88.12
489.261	87.12
489.479	84.12
489.696	82.12
489.914	89.12
490.132	89.12
490.35	84.12
490.568	81.12
490.786	83.12
491.003	92.12
491.221	86.12
491.439	96.12
491.657	92.12
491.874	75.12
492.092	82.12
492.31	93.12
492.527	94.12
492.745	89.12
492.963	86.12
493.18	97.12
493.398	89.12
493.615	97.12
493.833	93.12
494.05	82.12
494.268	80.12
494.485	83.12
494.703	73.12
494.92	79.12
495.138	93.12
495.355	95.12
495.573	83.12
495.79	93.12
496.008	91.12
496.225	79.12
496.442	83.12
496.66	92.12
496.877	92.12
497.094	95.12
497.312	78.12
497.529	82.12
497.746	103.12
497.963	87.12
498.181	84.12
498.398	79.12
498.615	83.12
498.832	87.12
499.049	88.12
499.267	86.12
499.484	84.12
499.701	86.12
499.918	91.12
500.135	74.12
500.352	90.12
500.569	106.12
500.786	80.12
501.003	79.12
501.22	85.12
501.437	81.12
501.654	70.12
501.871	76.12
502.088	89.12
502.305	91.12
502.522	92.12
502.739	97.12
502.956	77.12
503.172	69.12
503.389	84.12
503.606	81.12
503.823	72.12
504.04	86.12
504.256	89.12
504.473	92.12
504.69	84.12
504.907	92.12
505.123	75.12
505.34	88.12
505.557	66.12
505.773	89.12
505.99	84.12
506.207	82.12
506.423	75.12
506.64	76.12
506.856	86.12
507.073	87.12
507.289	81.12
507.506	89.12
507.722	84.12
507.939	79.12
508.155	69.12
508.372	89.12
508.588	80.12
508.805	88.12
509.021	88.12
509.238	90.12
509.454	83.12
509.67	88.12
509.887	85.12
510.103	83.12
510.319	80.12
510.536	87.12
510.752	81.12
510.968	102.12
511.184	75.12
511.401	77.12
511.617	80.12
511.833	92.12
512.049	80.12
512.265	92.12
512.481	91.12
512.698	85.12
512.914	83.12
513.13	91.12
513.346	81.12
513.562	83.12
513.778	96.12
513.994	69.12
514.21	74.12
514.426	68.12
514.642	92.12
514.858	70.12
515.074	76.12
515.29	96.12
515.506	87.12
515.721	76.12
515.937	94.12
516.153	69.12
516.369	85.12
516.585	82.12
516.801	73.12
517.016	81.12
517.232	85.12
517.448	95.12
517.664	80.12
517.879	76.12
518.095	88.12
518.311	91.12
518.527	98.12
518.742	81.12
518.958	78.12
519.173	94.12
519.389	78.12
519.605	83.12
519.82	85.12
