Data from StdD_HRD10591_024.txt Node
Date: Fri May 16 15:31:33 EDT 2025
User: Yrep
Spectrometer: HR+D1059
Trigger mode: 1
Integration Time (sec): 1.000000E-1
Scans to average: 1
Electric dark correction enabled: true
Nonlinearity correction enabled: false
Boxcar width: 0
XAxis mode: Wavelengths
Number of Pixels in Spectrum: 2048
>>>>>Begin Spectral Data<<<<<
223.165	-16.5
223.4	-16.5
223.635	-16.5
223.869	-22.5
224.104	-10.5
224.338	-14.5
224.573	-6.5
224.808	-13.5
225.042	-15.5
225.277	-1.5
225.511	-8.5
225.746	-0.5
225.98	6.5
226.215	-0.5
226.449	18.5
226.683	24.5
226.918	28.5
227.152	32.5
227.387	33.5
227.621	42.5
227.856	41.5
228.09	39.5
228.324	39.5
228.559	57.5
228.793	70.5
229.027	43.5
229.262	57.5
229.496	66.5
229.73	87.5
229.964	81.5
230.199	89.5
230.433	72.5
230.667	79.5
230.901	77.5
231.136	91.5
231.37	83.5
231.604	67.5
231.838	86.5
232.072	83.5
232.306	95.5
232.541	90.5
232.775	97.5
233.009	75.5
233.243	77.5
233.477	80.5
233.711	88.5
233.945	82.5
234.179	89.5
234.413	81.5
234.647	77.5
234.881	73.5
235.115	75.5
235.349	77.5
235.583	73.5
235.817	93.5
236.051	73.5
236.285	77.5
236.519	68.5
236.753	89.5
236.987	66.5
237.221	85.5
237.455	78.5
237.689	72.5
237.922	72.5
238.156	82.5
238.39	61.5
238.624	82.5
238.858	77.5
239.091	79.5
239.325	73.5
239.559	73.5
239.793	74.5
240.027	71.5
240.26	73.5
240.494	75.5
240.728	66.5
240.961	70.5
241.195	69.5
241.429	87.5
241.662	82.5
241.896	70.5
242.13	83.5
242.363	88.5
242.597	74.5
242.83	92.5
243.064	79.5
243.298	67.5
243.531	88.5
243.765	73.5
243.998	74.5
244.232	84.5
244.465	77.5
244.699	69.5
244.932	77.5
245.166	83.5
245.399	87.5
245.633	67.5
245.866	79.5
246.099	61.5
246.333	73.5
246.566	81.5
246.8	80.5
247.033	77.5
247.266	78.5
247.5	88.5
247.733	79.5
247.966	78.5
248.2	77.5
248.433	94.5
248.666	77.5
248.899	70.5
249.133	90.5
249.366	81.5
249.599	70.5
249.832	73.5
250.066	85.5
250.299	80.5
250.532	86.5
250.765	66.5
250.998	87.5
251.231	85.5
251.465	75.5
251.698	81.5
251.931	89.5
252.164	72.5
252.397	74.5
252.63	84.5
252.863	70.5
253.096	72.5
253.329	80.5
253.562	82.5
253.795	85.5
254.028	87.5
254.261	63.5
254.494	79.5
254.727	62.5
254.96	89.5
255.193	85.5
255.426	89.5
255.659	85.5
255.892	77.5
256.124	80.5
256.357	92.5
256.59	76.5
256.823	83.5
257.056	90.5
257.289	85.5
257.521	86.5
257.754	82.5
257.987	84.5
258.22	82.5
258.452	95.5
258.685	84.5
258.918	86.5
259.151	80.5
259.383	86.5
259.616	83.5
259.849	77.5
260.081	77.5
260.314	78.5
260.547	78.5
260.779	74.5
261.012	102.5
261.244	79.5
261.477	87.5
261.71	84.5
261.942	79.5
262.175	68.5
262.407	77.5
262.64	70.5
262.872	81.5
263.105	87.5
263.337	93.5
263.57	81.5
263.802	69.5
264.035	76.5
264.267	68.5
264.499	72.5
264.732	85.5
264.964	81.5
265.197	83.5
265.429	87.5
265.661	91.5
265.894	79.5
266.126	83.5
266.358	76.5
266.591	83.5
266.823	76.5
267.055	86.5
267.287	88.5
267.52	76.5
267.752	75.5
267.984	79.5
268.216	82.5
268.448	81.5
268.681	72.5
268.913	93.5
269.145	90.5
269.377	77.5
269.609	82.5
269.841	73.5
270.073	65.5
270.306	92.5
270.538	88.5
270.77	79.5
271.002	82.5
271.234	75.5
271.466	86.5
271.698	95.5
271.93	78.5
272.162	79.5
272.394	79.5
272.626	74.5
272.858	75.5
273.09	96.5
273.322	85.5
273.553	77.5
273.785	73.5
274.017	76.5
274.249	81.5
274.481	78.5
274.713	88.5
274.945	83.5
275.176	86.5
275.408	92.5
275.64	91.5
275.872	90.5
276.104	84.5
276.335	88.5
276.567	82.5
276.799	81.5
277.031	79.5
277.262	90.5
277.494	86.5
277.726	81.5
277.957	88.5
278.189	91.5
278.421	81.5
278.652	97.5
278.884	68.5
279.115	82.5
279.347	83.5
279.579	71.5
279.81	80.5
280.042	75.5
280.273	76.5
280.505	79.5
280.736	75.5
280.968	75.5
281.199	82.5
281.431	74.5
281.662	81.5
281.894	75.5
282.125	67.5
282.356	84.5
282.588	88.5
282.819	88.5
283.051	78.5
283.282	76.5
283.513	94.5
283.745	71.5
283.976	91.5
284.207	75.5
284.439	80.5
284.67	87.5
284.901	85.5
285.132	83.5
285.364	89.5
285.595	84.5
285.826	87.5
286.057	90.5
286.288	86.5
286.52	73.5
286.751	82.5
286.982	85.5
287.213	89.5
287.444	99.5
287.675	88.5
287.906	86.5
288.138	84.5
288.369	81.5
288.6	101.5
288.831	81.5
289.062	106.5
289.293	86.5
289.524	79.5
289.755	78.5
289.986	82.5
290.217	83.5
290.448	72.5
290.679	79.5
290.91	72.5
291.141	94.5
291.371	89.5
291.602	91.5
291.833	70.5
292.064	86.5
292.295	78.5
292.526	75.5
292.757	89.5
292.987	77.5
293.218	84.5
293.449	84.5
293.68	87.5
293.91	62.5
294.141	91.5
294.372	97.5
294.603	94.5
294.833	98.5
295.064	86.5
295.295	76.5
295.525	51.5
295.756	94.5
295.987	89.5
296.217	86.5
296.448	89.5
296.679	94.5
296.909	95.5
297.14	82.5
297.37	81.5
297.601	88.5
297.831	78.5
298.062	98.5
298.292	110.5
298.523	92.5
298.753	93.5
298.984	91.5
299.214	105.5
299.445	66.5
299.675	92.5
299.905	65.5
300.136	82.5
300.366	80.5
300.597	78.5
300.827	85.5
301.057	85.5
301.288	74.5
301.518	75.5
301.748	107.5
301.979	94.5
302.209	94.5
302.439	78.5
302.669	90.5
302.9	97.5
303.13	77.5
303.36	85.5
303.59	70.5
303.82	81.5
304.051	83.5
304.281	86.5
304.511	93.5
304.741	76.5
304.971	87.5
305.201	85.5
305.431	81.5
305.661	81.5
305.891	81.5
306.121	86.5
306.352	83.5
306.582	79.5
306.812	87.5
307.042	96.5
307.272	65.5
307.502	80.5
307.731	86.5
307.961	80.5
308.191	69.5
308.421	89.5
308.651	92.5
308.881	91.5
309.111	76.5
309.341	95.5
309.571	77.5
309.8	90.5
310.03	81.5
310.26	71.5
310.49	94.5
310.72	86.5
310.949	92.5
311.179	90.5
311.409	91.5
311.639	81.5
311.868	89.5
312.098	89.5
312.328	86.5
312.557	80.5
312.787	74.5
313.017	73.5
313.246	88.5
313.476	81.5
313.706	89.5
313.935	89.5
314.165	83.5
314.394	86.5
314.624	87.5
314.853	92.5
315.083	91.5
315.312	103.5
315.542	86.5
315.771	87.5
316.001	93.5
316.23	90.5
316.46	76.5
316.689	93.5
316.919	94.5
317.148	77.5
317.377	75.5
317.607	97.5
317.836	89.5
318.065	96.5
318.295	92.5
318.524	84.5
318.753	83.5
318.983	83.5
319.212	78.5
319.441	88.5
319.67	90.5
319.9	69.5
320.129	87.5
320.358	85.5
320.587	86.5
320.816	82.5
321.046	83.5
321.275	86.5
321.504	82.5
321.733	82.5
321.962	78.5
322.191	87.5
322.42	74.5
322.649	95.5
322.878	84.5
323.108	77.5
323.337	85.5
323.566	78.5
323.795	83.5
324.024	75.5
324.253	74.5
324.482	83.5
324.71	78.5
324.939	78.5
325.168	82.5
325.397	80.5
325.626	89.5
325.855	80.5
326.084	89.5
326.313	82.5
326.542	76.5
326.77	96.5
326.999	85.5
327.228	71.5
327.457	82.5
327.686	88.5
327.914	89.5
328.143	72.5
328.372	79.5
328.6	94.5
328.829	83.5
329.058	87.5
329.287	73.5
329.515	88.5
329.744	76.5
329.972	79.5
330.201	87.5
330.43	78.5
330.658	89.5
330.887	93.5
331.115	95.5
331.344	72.5
331.572	88.5
331.801	77.5
332.03	84.5
332.258	89.5
332.486	70.5
332.715	76.5
332.943	87.5
333.172	74.5
333.4	81.5
333.629	74.5
333.857	83.5
334.085	89.5
334.314	80.5
334.542	89.5
334.771	95.5
334.999	72.5
335.227	87.5
335.455	85.5
335.684	88.5
335.912	94.5
336.14	91.5
336.369	80.5
336.597	89.5
336.825	94.5
337.053	83.5
337.281	88.5
337.51	91.5
337.738	100.5
337.966	82.5
338.194	81.5
338.422	91.5
338.65	81.5
338.878	81.5
339.106	83.5
339.334	95.5
339.562	95.5
339.79	88.5
340.018	83.5
340.246	79.5
340.474	71.5
340.702	73.5
340.93	82.5
341.158	83.5
341.386	83.5
341.614	87.5
341.842	86.5
342.07	79.5
342.298	80.5
342.526	84.5
342.754	79.5
342.981	83.5
343.209	76.5
343.437	88.5
343.665	67.5
343.893	90.5
344.12	72.5
344.348	76.5
344.576	89.5
344.804	79.5
345.031	89.5
345.259	81.5
345.487	79.5
345.714	89.5
345.942	78.5
346.17	84.5
346.397	101.5
346.625	78.5
346.853	87.5
347.08	78.5
347.308	83.5
347.535	82.5
347.763	78.5
347.99	77.5
348.218	83.5
348.445	91.5
348.673	88.5
348.9	82.5
349.128	88.5
349.355	89.5
349.583	75.5
349.81	74.5
350.037	75.5
350.265	77.5
350.492	79.5
350.72	90.5
350.947	78.5
351.174	89.5
351.402	71.5
351.629	82.5
351.856	77.5
352.083	86.5
352.311	75.5
352.538	93.5
352.765	88.5
352.992	99.5
353.22	92.5
353.447	88.5
353.674	74.5
353.901	82.5
354.128	88.5
354.355	79.5
354.583	81.5
354.81	84.5
355.037	85.5
355.264	76.5
355.491	84.5
355.718	86.5
355.945	87.5
356.172	79.5
356.399	77.5
356.626	87.5
356.853	78.5
357.08	77.5
357.307	101.5
357.534	83.5
357.761	69.5
357.988	82.5
358.215	89.5
358.441	83.5
358.668	76.5
358.895	77.5
359.122	85.5
359.349	78.5
359.576	88.5
359.802	86.5
360.029	86.5
360.256	105.5
360.483	82.5
360.709	86.5
360.936	107.5
361.163	93.5
361.39	92.5
361.616	80.5
361.843	98.5
362.07	97.5
362.296	79.5
362.523	75.5
362.749	79.5
362.976	87.5
363.203	80.5
363.429	77.5
363.656	89.5
363.882	80.5
364.109	77.5
364.335	91.5
364.562	83.5
364.788	63.5
365.015	81.5
365.241	95.5
365.468	87.5
365.694	74.5
365.92	81.5
366.147	95.5
366.373	74.5
366.599	81.5
366.826	74.5
367.052	84.5
367.278	74.5
367.505	83.5
367.731	80.5
367.957	86.5
368.184	76.5
368.41	73.5
368.636	88.5
368.862	94.5
369.089	92.5
369.315	78.5
369.541	107.5
369.767	89.5
369.993	86.5
370.219	104.5
370.445	80.5
370.672	82.5
370.898	71.5
371.124	71.5
371.35	80.5
371.576	95.5
371.802	75.5
372.028	80.5
372.254	81.5
372.48	78.5
372.706	96.5
372.932	89.5
373.158	91.5
373.384	73.5
373.61	86.5
373.835	77.5
374.061	81.5
374.287	78.5
374.513	80.5
374.739	73.5
374.965	77.5
375.191	81.5
375.416	93.5
375.642	78.5
375.868	84.5
376.094	82.5
376.319	81.5
376.545	82.5
376.771	77.5
376.997	81.5
377.222	74.5
377.448	80.5
377.674	90.5
377.899	86.5
378.125	63.5
378.35	77.5
378.576	85.5
378.802	63.5
379.027	84.5
379.253	93.5
379.478	77.5
379.704	75.5
379.929	96.5
380.155	67.5
380.38	82.5
380.606	80.5
380.831	80.5
381.057	101.5
381.282	73.5
381.507	68.5
381.733	78.5
381.958	91.5
382.184	82.5
382.409	72.5
382.634	97.5
382.86	61.5
383.085	71.5
383.31	84.5
383.535	87.5
383.761	77.5
383.986	88.5
384.211	86.5
384.436	85.5
384.662	80.5
384.887	81.5
385.112	78.5
385.337	64.5
385.562	85.5
385.787	87.5
386.013	81.5
386.238	75.5
386.463	81.5
386.688	83.5
386.913	76.5
387.138	84.5
387.363	92.5
387.588	92.5
387.813	82.5
388.038	82.5
388.263	81.5
388.488	83.5
388.713	75.5
388.938	76.5
389.163	72.5
389.387	87.5
389.612	85.5
389.837	94.5
390.062	101.5
390.287	87.5
390.512	76.5
390.736	77.5
390.961	73.5
391.186	83.5
391.411	83.5
391.636	82.5
391.86	78.5
392.085	107.5
392.31	68.5
392.534	87.5
392.759	78.5
392.984	73.5
393.208	90.5
393.433	79.5
393.658	78.5
393.882	87.5
394.107	77.5
394.331	79.5
394.556	74.5
394.78	87.5
395.005	75.5
395.229	78.5
395.454	91.5
395.678	85.5
395.903	69.5
396.127	90.5
396.352	93.5
396.576	73.5
396.801	89.5
397.025	77.5
397.249	105.5
397.474	78.5
397.698	80.5
397.922	85.5
398.147	74.5
398.371	83.5
398.595	72.5
398.82	94.5
399.044	79.5
399.268	75.5
399.492	77.5
399.717	77.5
399.941	75.5
400.165	91.5
400.389	72.5
400.613	62.5
400.837	78.5
401.062	82.5
401.286	83.5
401.51	88.5
401.734	87.5
401.958	84.5
402.182	81.5
402.406	74.5
402.63	75.5
402.854	83.5
403.078	95.5
403.302	84.5
403.526	89.5
403.75	74.5
403.974	74.5
404.198	87.5
404.422	91.5
404.645	83.5
404.869	99.5
405.093	95.5
405.317	81.5
405.541	91.5
405.765	81.5
405.988	81.5
406.212	78.5
406.436	103.5
406.66	84.5
406.883	87.5
407.107	87.5
407.331	71.5
407.555	80.5
407.778	82.5
408.002	76.5
408.226	96.5
408.449	75.5
408.673	84.5
408.896	85.5
409.12	74.5
409.344	79.5
409.567	77.5
409.791	81.5
410.014	96.5
410.238	88.5
410.461	79.5
410.685	87.5
410.908	64.5
411.132	84.5
411.355	70.5
411.578	95.5
411.802	93.5
412.025	70.5
412.249	74.5
412.472	75.5
412.695	81.5
412.919	83.5
413.142	78.5
413.365	89.5
413.589	90.5
413.812	89.5
414.035	85.5
414.258	65.5
414.482	77.5
414.705	80.5
414.928	90.5
415.151	94.5
415.374	73.5
415.597	98.5
415.821	80.5
416.044	85.5
416.267	75.5
416.49	84.5
416.713	71.5
416.936	81.5
417.159	78.5
417.382	79.5
417.605	83.5
417.828	78.5
418.051	74.5
418.274	89.5
418.497	83.5
418.72	85.5
418.943	91.5
419.166	87.5
419.389	93.5
419.611	85.5
419.834	92.5
420.057	80.5
420.28	81.5
420.503	88.5
420.726	81.5
420.948	83.5
421.171	82.5
421.394	87.5
421.617	73.5
421.839	78.5
422.062	77.5
422.285	69.5
422.507	64.5
422.73	88.5
422.953	82.5
423.175	72.5
423.398	87.5
423.621	75.5
423.843	70.5
424.066	71.5
424.288	81.5
424.511	75.5
424.733	70.5
424.956	83.5
425.178	75.5
425.401	80.5
425.623	72.5
425.846	75.5
426.068	85.5
426.291	66.5
426.513	89.5
426.735	88.5
426.958	77.5
427.18	87.5
427.402	73.5
427.625	87.5
427.847	84.5
428.069	84.5
428.292	91.5
428.514	94.5
428.736	64.5
428.958	82.5
429.181	82.5
429.403	80.5
429.625	80.5
429.847	82.5
430.069	75.5
430.292	77.5
430.514	85.5
430.736	72.5
430.958	81.5
431.18	75.5
431.402	76.5
431.624	79.5
431.846	78.5
432.068	89.5
432.29	78.5
432.512	85.5
432.734	77.5
432.956	85.5
433.178	94.5
433.4	87.5
433.622	82.5
433.844	81.5
434.066	75.5
434.287	74.5
434.509	88.5
434.731	86.5
434.953	77.5
435.175	74.5
435.397	84.5
435.618	88.5
435.84	77.5
436.062	77.5
436.284	81.5
436.505	94.5
436.727	65.5
436.949	84.5
437.17	65.5
437.392	82.5
437.614	86.5
437.835	87.5
438.057	84.5
438.278	74.5
438.5	74.5
438.721	62.5
438.943	91.5
439.165	85.5
439.386	98.5
439.608	78.5
439.829	87.5
440.05	84.5
440.272	85.5
440.493	95.5
440.715	86.5
440.936	94.5
441.158	92.5
441.379	60.5
441.6	64.5
441.822	89.5
442.043	79.5
442.264	77.5
442.486	81.5
442.707	66.5
442.928	77.5
443.149	91.5
443.371	82.5
443.592	79.5
443.813	58.5
444.034	72.5
444.255	90.5
444.476	85.5
444.698	70.5
444.919	78.5
445.14	145.5
445.361	122.5
445.582	88.5
445.803	90.5
446.024	86.5
446.245	82.5
446.466	91.5
446.687	83.5
446.908	90.5
447.129	77.5
447.35	85.5
447.571	92.5
447.792	83.5
448.013	88.5
448.234	81.5
448.455	89.5
448.675	67.5
448.896	96.5
449.117	73.5
449.338	89.5
449.559	80.5
449.779	84.5
450	102.5
450.221	86.5
450.442	89.5
450.662	87.5
450.883	83.5
451.104	86.5
451.324	84.5
451.545	75.5
451.766	83.5
451.986	70.5
452.207	97.5
452.428	93.5
452.648	75.5
452.869	85.5
453.089	94.5
453.31	96.5
453.53	85.5
453.751	98.5
453.971	88.5
454.192	66.5
454.412	82.5
454.633	78.5
454.853	97.5
455.073	83.5
455.294	94.5
455.514	81.5
455.734	77.5
455.955	72.5
456.175	66.5
456.395	80.5
456.616	58.5
456.836	80.5
457.056	91.5
457.276	63.5
457.497	94.5
457.717	70.5
457.937	101.5
458.157	81.5
458.377	83.5
458.598	87.5
458.818	66.5
459.038	77.5
459.258	82.5
459.478	90.5
459.698	81.5
459.918	85.5
460.138	77.5
460.358	72.5
460.578	85.5
460.798	71.5
461.018	90.5
461.238	74.5
461.458	82.5
461.678	91.5
461.898	88.5
462.118	64.5
462.338	87.5
462.558	73.5
462.777	85.5
462.997	89.5
463.217	75.5
463.437	87.5
463.657	94.5
463.876	91.5
464.096	80.5
464.316	58.5
464.536	87.5
464.755	101.5
464.975	82.5
465.195	79.5
465.414	76.5
465.634	88.5
465.854	73.5
466.073	79.5
466.293	76.5
466.512	80.5
466.732	76.5
466.951	94.5
467.171	86.5
467.391	92.5
467.61	79.5
467.829	80.5
468.049	95.5
468.268	87.5
468.488	83.5
468.707	77.5
468.927	85.5
469.146	89.5
469.365	90.5
469.585	82.5
469.804	102.5
470.023	75.5
470.243	89.5
470.462	77.5
470.681	96.5
470.901	91.5
471.12	93.5
471.339	71.5
471.558	84.5
471.777	82.5
471.997	78.5
472.216	91.5
472.435	89.5
472.654	82.5
472.873	82.5
473.092	77.5
473.311	83.5
473.53	76.5
473.749	71.5
473.968	74.5
474.187	94.5
474.406	82.5
474.625	90.5
474.844	90.5
475.063	87.5
475.282	80.5
475.501	88.5
475.72	85.5
475.939	85.5
476.158	88.5
476.377	77.5
476.596	78.5
476.814	76.5
477.033	73.5
477.252	85.5
477.471	74.5
477.69	82.5
477.908	77.5
478.127	71.5
478.346	90.5
478.564	78.5
478.783	91.5
479.002	90.5
479.22	82.5
479.439	78.5
479.658	87.5
479.876	103.5
480.095	79.5
480.313	86.5
480.532	73.5
480.751	77.5
480.969	95.5
481.188	91.5
481.406	68.5
481.624	79.5
481.843	92.5
482.061	77.5
482.28	85.5
482.498	79.5
482.717	71.5
482.935	89.5
483.153	80.5
483.372	83.5
483.59	87.5
483.808	68.5
484.027	93.5
484.245	86.5
484.463	77.5
484.681	92.5
484.9	92.5
485.118	85.5
485.336	81.5
485.554	90.5
485.772	86.5
485.99	73.5
486.209	93.5
486.427	76.5
486.645	85.5
486.863	83.5
487.081	82.5
487.299	91.5
487.517	91.5
487.735	74.5
487.953	90.5
488.171	95.5
488.389	83.5
488.607	80.5
488.825	85.5
489.043	91.5
489.261	85.5
489.479	81.5
489.696	89.5
489.914	79.5
490.132	83.5
490.35	74.5
490.568	91.5
490.786	90.5
491.003	72.5
491.221	81.5
491.439	74.5
491.657	80.5
491.874	86.5
492.092	93.5
492.31	77.5
492.527	80.5
492.745	91.5
492.963	84.5
493.18	92.5
493.398	85.5
493.615	88.5
493.833	92.5
494.05	100.5
494.268	89.5
494.485	91.5
494.703	79.5
494.92	88.5
495.138	83.5
495.355	97.5
495.573	86.5
495.79	87.5
496.008	82.5
496.225	74.5
496.442	79.5
496.66	102.5
496.877	91.5
497.094	93.5
497.312	87.5
497.529	76.5
497.746	95.5
497.963	77.5
498.181	88.5
498.398	69.5
498.615	88.5
498.832	79.5
499.049	82.5
499.267	80.5
499.484	84.5
499.701	89.5
499.918	94.5
500.135	77.5
500.352	83.5
500.569	92.5
500.786	94.5
501.003	87.5
501.22	89.5
501.437	82.5
501.654	74.5
501.871	85.5
502.088	82.5
502.305	83.5
502.522	90.5
502.739	81.5
502.956	79.5
503.172	90.5
503.389	96.5
503.606	81.5
503.823	96.5
504.04	83.5
504.256	73.5
504.473	78.5
504.69	85.5
504.907	78.5
505.123	90.5
505.34	75.5
505.557	81.5
505.773	85.5
505.99	94.5
506.207	72.5
506.423	85.5
506.64	94.5
506.856	74.5
507.073	95.5
507.289	79.5
507.506	88.5
507.722	97.5
507.939	71.5
508.155	88.5
508.372	84.5
508.588	85.5
508.805	86.5
509.021	93.5
509.238	80.5
509.454	79.5
509.67	81.5
509.887	87.5
510.103	84.5
510.319	86.5
510.536	87.5
510.752	83.5
510.968	78.5
511.184	81.5
511.401	85.5
511.617	73.5
511.833	83.5
512.049	87.5
512.265	82.5
512.481	90.5
512.698	80.5
512.914	100.5
513.13	97.5
513.346	77.5
513.562	80.5
513.778	98.5
513.994	74.5
514.21	98.5
514.426	97.5
514.642	66.5
514.858	90.5
515.074	79.5
515.29	83.5
515.506	86.5
515.721	75.5
515.937	80.5
516.153	85.5
516.369	80.5
516.585	96.5
516.801	74.5
517.016	89.5
517.232	82.5
517.448	81.5
517.664	77.5
517.879	95.5
518.095	75.5
518.311	95.5
518.527	70.5
518.742	87.5
518.958	85.5
519.173	76.5
519.389	77.5
519.605	93.5
519.82	72.5
520.036	91.5
520.251	82.5
520.467	82.5
520.682	83.5
520.898	72.5
521.113	75.5
521.329	79.5
521.544	82.5
521.76	79.5
521.975	88.5
522.19	80.5
522.406	71.5
522.621	101.5
522.836	92.5
523.052	94.5
523.267	98.5
523.482	88.5
523.698	77.5
523.913	85.5
524.128	78.5
524.343	87.5
524.559	72.5
524.774	87.5
524.989	89.5
525.204	86.5
525.419	74.5
525.634	84.5
525.849	81.5
526.064	89.5
526.28	74.5
526.495	81.5
526.71	74.5
526.925	74.5
527.14	89.5
527.355	81.5
527.57	92.5
527.785	84.5
527.999	78.5
528.214	72.5
528.429	68.5
528.644	83.5
528.859	96.5
529.074	91.5
529.289	87.5
529.503	81.5
529.718	91.5
529.933	91.5
530.148	80.5
530.363	88.5
530.577	84.5
530.792	95.5
531.007	66.5
531.221	97.5
531.436	83.5
531.651	89.5
531.865	92.5
532.08	77.5
532.295	94.5
532.509	80.5
532.724	86.5
532.938	88.5
533.153	81.5
533.367	93.5
533.582	72.5
533.796	82.5
534.011	81.5
534.225	73.5
534.44	75.5
534.654	94.5
534.868	78.5
535.083	89.5
535.297	87.5
535.511	82.5
535.726	88.5
535.94	64.5
536.154	86.5
536.369	71.5
536.583	90.5
536.797	90.5
537.011	97.5
537.225	91.5
537.44	85.5
537.654	94.5
537.868	83.5
538.082	89.5
538.296	69.5
538.51	78.5
538.724	90.5
538.938	95.5
539.153	80.5
539.367	84.5
539.581	81.5
539.795	84.5
540.009	81.5
540.222	90.5
