Data from StdD_HRD10591_062.txt Node
Date: Fri May 16 15:31:52 EDT 2025
User: Yrep
Spectrometer: HR+D1059
Trigger mode: 1
Integration Time (sec): 1.000000E-1
Scans to average: 1
Electric dark correction enabled: true
Nonlinearity correction enabled: false
Boxcar width: 0
XAxis mode: Wavelengths
Number of Pixels in Spectrum: 2048
>>>>>Begin Spectral Data<<<<<
223.165	-20.81
223.4	-20.81
223.635	-20.81
223.869	-9.81
224.104	-19.81
224.338	-26.81
224.573	-15.81
224.808	-19.81
225.042	1.19
225.277	-5.81
225.511	1.19
225.746	3.19
225.98	5.19
226.215	20.19
226.449	16.19
226.683	34.19
226.918	15.19
227.152	22.19
227.387	35.19
227.621	20.19
227.856	29.19
228.09	53.19
228.324	41.19
228.559	51.19
228.793	55.19
229.027	72.19
229.262	53.19
229.496	61.19
229.73	73.19
229.964	67.19
230.199	71.19
230.433	56.19
230.667	61.19
230.901	79.19
231.136	71.19
231.37	92.19
231.604	74.19
231.838	88.19
232.072	81.19
232.306	86.19
232.541	71.19
232.775	86.19
233.009	84.19
233.243	73.19
233.477	86.19
233.711	77.19
233.945	84.19
234.179	70.19
234.413	82.19
234.647	78.19
234.881	70.19
235.115	67.19
235.349	79.19
235.583	70.19
235.817	84.19
236.051	84.19
236.285	80.19
236.519	81.19
236.753	79.19
236.987	84.19
237.221	79.19
237.455	85.19
237.689	61.19
237.922	69.19
238.156	75.19
238.39	79.19
238.624	70.19
238.858	76.19
239.091	61.19
239.325	59.19
239.559	51.19
239.793	71.19
240.027	79.19
240.26	72.19
240.494	81.19
240.728	77.19
240.961	63.19
241.195	77.19
241.429	83.19
241.662	69.19
241.896	79.19
242.13	78.19
242.363	76.19
242.597	81.19
242.83	86.19
243.064	68.19
243.298	65.19
243.531	67.19
243.765	60.19
243.998	84.19
244.232	56.19
244.465	81.19
244.699	73.19
244.932	79.19
245.166	73.19
245.399	75.19
245.633	82.19
245.866	60.19
246.099	69.19
246.333	66.19
246.566	76.19
246.8	89.19
247.033	75.19
247.266	78.19
247.5	77.19
247.733	86.19
247.966	79.19
248.2	83.19
248.433	72.19
248.666	89.19
248.899	81.19
249.133	76.19
249.366	72.19
249.599	77.19
249.832	82.19
250.066	87.19
250.299	72.19
250.532	86.19
250.765	60.19
250.998	87.19
251.231	85.19
251.465	70.19
251.698	74.19
251.931	82.19
252.164	75.19
252.397	73.19
252.63	71.19
252.863	75.19
253.096	82.19
253.329	83.19
253.562	81.19
253.795	80.19
254.028	73.19
254.261	73.19
254.494	87.19
254.727	76.19
254.96	71.19
255.193	95.19
255.426	72.19
255.659	85.19
255.892	64.19
256.124	77.19
256.357	85.19
256.59	86.19
256.823	79.19
257.056	80.19
257.289	76.19
257.521	72.19
257.754	74.19
257.987	71.19
258.22	83.19
258.452	76.19
258.685	74.19
258.918	78.19
259.151	85.19
259.383	101.19
259.616	81.19
259.849	82.19
260.081	75.19
260.314	78.19
260.547	71.19
260.779	86.19
261.012	78.19
261.244	60.19
261.477	92.19
261.71	75.19
261.942	75.19
262.175	70.19
262.407	79.19
262.64	77.19
262.872	80.19
263.105	87.19
263.337	86.19
263.57	84.19
263.802	76.19
264.035	80.19
264.267	73.19
264.499	77.19
264.732	80.19
264.964	79.19
265.197	85.19
265.429	77.19
265.661	76.19
265.894	61.19
266.126	84.19
266.358	88.19
266.591	69.19
266.823	87.19
267.055	79.19
267.287	78.19
267.52	77.19
267.752	76.19
267.984	65.19
268.216	94.19
268.448	77.19
268.681	73.19
268.913	70.19
269.145	96.19
269.377	81.19
269.609	88.19
269.841	79.19
270.073	85.19
270.306	79.19
270.538	69.19
270.77	79.19
271.002	66.19
271.234	64.19
271.466	71.19
271.698	78.19
271.93	82.19
272.162	73.19
272.394	77.19
272.626	88.19
272.858	89.19
273.09	89.19
273.322	88.19
273.553	87.19
273.785	92.19
274.017	78.19
274.249	79.19
274.481	79.19
274.713	68.19
274.945	89.19
275.176	87.19
275.408	84.19
275.64	76.19
275.872	84.19
276.104	68.19
276.335	71.19
276.567	66.19
276.799	73.19
277.031	75.19
277.262	86.19
277.494	81.19
277.726	80.19
277.957	88.19
278.189	80.19
278.421	73.19
278.652	102.19
278.884	81.19
279.115	84.19
279.347	74.19
279.579	76.19
279.81	90.19
280.042	82.19
280.273	72.19
280.505	74.19
280.736	77.19
280.968	71.19
281.199	72.19
281.431	72.19
281.662	73.19
281.894	71.19
282.125	74.19
282.356	95.19
282.588	76.19
282.819	85.19
283.051	85.19
283.282	92.19
283.513	88.19
283.745	69.19
283.976	84.19
284.207	79.19
284.439	74.19
284.67	73.19
284.901	80.19
285.132	73.19
285.364	85.19
285.595	78.19
285.826	85.19
286.057	85.19
286.288	71.19
286.52	87.19
286.751	73.19
286.982	75.19
287.213	95.19
287.444	104.19
287.675	85.19
287.906	95.19
288.138	76.19
288.369	86.19
288.6	96.19
288.831	73.19
289.062	89.19
289.293	79.19
289.524	81.19
289.755	82.19
289.986	82.19
290.217	82.19
290.448	85.19
290.679	85.19
290.91	81.19
291.141	84.19
291.371	83.19
291.602	82.19
291.833	87.19
292.064	73.19
292.295	88.19
292.526	93.19
292.757	95.19
292.987	79.19
293.218	89.19
293.449	85.19
293.68	78.19
293.91	77.19
294.141	93.19
294.372	92.19
294.603	76.19
294.833	71.19
295.064	86.19
295.295	87.19
295.525	79.19
295.756	90.19
295.987	83.19
296.217	91.19
296.448	73.19
296.679	74.19
296.909	91.19
297.14	85.19
297.37	72.19
297.601	84.19
297.831	77.19
298.062	76.19
298.292	89.19
298.523	86.19
298.753	100.19
298.984	97.19
299.214	75.19
299.445	69.19
299.675	84.19
299.905	82.19
300.136	79.19
300.366	86.19
300.597	94.19
300.827	72.19
301.057	78.19
301.288	77.19
301.518	72.19
301.748	73.19
301.979	75.19
302.209	92.19
302.439	81.19
302.669	94.19
302.9	81.19
303.13	80.19
303.36	98.19
303.59	79.19
303.82	74.19
304.051	89.19
304.281	83.19
304.511	99.19
304.741	81.19
304.971	85.19
305.201	75.19
305.431	77.19
305.661	86.19
305.891	71.19
306.121	78.19
306.352	84.19
306.582	79.19
306.812	91.19
307.042	86.19
307.272	84.19
307.502	90.19
307.731	86.19
307.961	85.19
308.191	77.19
308.421	79.19
308.651	72.19
308.881	88.19
309.111	75.19
309.341	80.19
309.571	75.19
309.8	74.19
310.03	92.19
310.26	72.19
310.49	83.19
310.72	78.19
310.949	75.19
311.179	68.19
311.409	74.19
311.639	70.19
311.868	75.19
312.098	77.19
312.328	74.19
312.557	85.19
312.787	89.19
313.017	83.19
313.246	78.19
313.476	81.19
313.706	83.19
313.935	75.19
314.165	80.19
314.394	84.19
314.624	76.19
314.853	66.19
315.083	83.19
315.312	83.19
315.542	76.19
315.771	63.19
316.001	81.19
316.23	79.19
316.46	84.19
316.689	87.19
316.919	76.19
317.148	77.19
317.377	96.19
317.607	89.19
317.836	73.19
318.065	87.19
318.295	69.19
318.524	71.19
318.753	89.19
318.983	87.19
319.212	83.19
319.441	74.19
319.67	79.19
319.9	65.19
320.129	72.19
320.358	79.19
320.587	83.19
320.816	83.19
321.046	81.19
321.275	85.19
321.504	89.19
321.733	86.19
321.962	83.19
322.191	91.19
322.42	79.19
322.649	77.19
322.878	79.19
323.108	85.19
323.337	73.19
323.566	81.19
323.795	84.19
324.024	85.19
324.253	66.19
324.482	71.19
324.71	76.19
324.939	87.19
325.168	91.19
325.397	71.19
325.626	77.19
325.855	74.19
326.084	80.19
326.313	83.19
326.542	79.19
326.77	79.19
326.999	80.19
327.228	75.19
327.457	81.19
327.686	84.19
327.914	78.19
328.143	79.19
328.372	71.19
328.6	64.19
328.829	66.19
329.058	88.19
329.287	94.19
329.515	78.19
329.744	74.19
329.972	84.19
330.201	81.19
330.43	84.19
330.658	69.19
330.887	90.19
331.115	79.19
331.344	82.19
331.572	81.19
331.801	89.19
332.03	78.19
332.258	93.19
332.486	83.19
332.715	88.19
332.943	81.19
333.172	81.19
333.4	89.19
333.629	83.19
333.857	87.19
334.085	87.19
334.314	94.19
334.542	97.19
334.771	91.19
334.999	89.19
335.227	80.19
335.455	92.19
335.684	103.19
335.912	83.19
336.14	94.19
336.369	82.19
336.597	83.19
336.825	90.19
337.053	78.19
337.281	78.19
337.51	87.19
337.738	83.19
337.966	79.19
338.194	79.19
338.422	87.19
338.65	82.19
338.878	62.19
339.106	78.19
339.334	88.19
339.562	80.19
339.79	81.19
340.018	87.19
340.246	73.19
340.474	72.19
340.702	85.19
340.93	84.19
341.158	81.19
341.386	79.19
341.614	93.19
341.842	83.19
342.07	83.19
342.298	77.19
342.526	77.19
342.754	83.19
342.981	77.19
343.209	75.19
343.437	74.19
343.665	67.19
343.893	81.19
344.12	76.19
344.348	81.19
344.576	99.19
344.804	87.19
345.031	83.19
345.259	81.19
345.487	94.19
345.714	87.19
345.942	80.19
346.17	73.19
346.397	78.19
346.625	69.19
346.853	88.19
347.08	65.19
347.308	81.19
347.535	95.19
347.763	100.19
347.99	84.19
348.218	80.19
348.445	93.19
348.673	87.19
348.9	78.19
349.128	64.19
349.355	75.19
349.583	82.19
349.81	82.19
350.037	74.19
350.265	76.19
350.492	75.19
350.72	77.19
350.947	83.19
351.174	80.19
351.402	86.19
351.629	99.19
351.856	73.19
352.083	75.19
352.311	84.19
352.538	84.19
352.765	71.19
352.992	69.19
353.22	79.19
353.447	73.19
353.674	91.19
353.901	79.19
354.128	85.19
354.355	79.19
354.583	71.19
354.81	83.19
355.037	92.19
355.264	76.19
355.491	67.19
355.718	77.19
355.945	72.19
356.172	75.19
356.399	68.19
356.626	75.19
356.853	64.19
357.08	81.19
357.307	85.19
357.534	84.19
357.761	72.19
357.988	95.19
358.215	87.19
358.441	78.19
358.668	88.19
358.895	89.19
359.122	82.19
359.349	77.19
359.576	76.19
359.802	76.19
360.029	64.19
360.256	94.19
360.483	84.19
360.709	80.19
360.936	74.19
361.163	73.19
361.39	83.19
361.616	92.19
361.843	74.19
362.07	73.19
362.296	86.19
362.523	77.19
362.749	82.19
362.976	81.19
363.203	84.19
363.429	88.19
363.656	87.19
363.882	81.19
364.109	72.19
364.335	81.19
364.562	82.19
364.788	87.19
365.015	87.19
365.241	82.19
365.468	80.19
365.694	78.19
365.92	60.19
366.147	79.19
366.373	88.19
366.599	83.19
366.826	79.19
367.052	79.19
367.278	86.19
367.505	87.19
367.731	73.19
367.957	75.19
368.184	79.19
368.41	72.19
368.636	80.19
368.862	80.19
369.089	84.19
369.315	69.19
369.541	84.19
369.767	72.19
369.993	63.19
370.219	95.19
370.445	81.19
370.672	66.19
370.898	75.19
371.124	74.19
371.35	76.19
371.576	78.19
371.802	76.19
372.028	88.19
372.254	76.19
372.48	77.19
372.706	75.19
372.932	76.19
373.158	92.19
373.384	69.19
373.61	72.19
373.835	107.19
374.061	77.19
374.287	83.19
374.513	72.19
374.739	69.19
374.965	88.19
375.191	92.19
375.416	87.19
375.642	71.19
375.868	73.19
376.094	75.19
376.319	80.19
376.545	89.19
376.771	73.19
376.997	66.19
377.222	77.19
377.448	81.19
377.674	77.19
377.899	86.19
378.125	81.19
378.35	81.19
378.576	85.19
378.802	77.19
379.027	76.19
379.253	80.19
379.478	85.19
379.704	75.19
379.929	72.19
380.155	88.19
380.38	84.19
380.606	85.19
380.831	74.19
381.057	85.19
381.282	79.19
381.507	81.19
381.733	84.19
381.958	83.19
382.184	88.19
382.409	64.19
382.634	90.19
382.86	66.19
383.085	85.19
383.31	81.19
383.535	88.19
383.761	76.19
383.986	91.19
384.211	91.19
384.436	89.19
384.662	81.19
384.887	71.19
385.112	80.19
385.337	82.19
385.562	77.19
385.787	88.19
386.013	88.19
386.238	87.19
386.463	64.19
386.688	83.19
386.913	78.19
387.138	82.19
387.363	81.19
387.588	81.19
387.813	83.19
388.038	72.19
388.263	75.19
388.488	93.19
388.713	66.19
388.938	83.19
389.163	80.19
389.387	76.19
389.612	86.19
389.837	73.19
390.062	75.19
390.287	86.19
390.512	88.19
390.736	79.19
390.961	84.19
391.186	86.19
391.411	80.19
391.636	68.19
391.86	69.19
392.085	78.19
392.31	78.19
392.534	79.19
392.759	73.19
392.984	71.19
393.208	81.19
393.433	79.19
393.658	85.19
393.882	80.19
394.107	73.19
394.331	71.19
394.556	77.19
394.78	104.19
395.005	79.19
395.229	79.19
395.454	87.19
395.678	82.19
395.903	85.19
396.127	77.19
396.352	80.19
396.576	81.19
396.801	84.19
397.025	70.19
397.249	86.19
397.474	86.19
397.698	85.19
397.922	79.19
398.147	76.19
398.371	84.19
398.595	90.19
398.82	78.19
399.044	76.19
399.268	78.19
399.492	66.19
399.717	76.19
399.941	81.19
400.165	89.19
400.389	84.19
400.613	69.19
400.837	74.19
401.062	89.19
401.286	85.19
401.51	67.19
401.734	80.19
401.958	80.19
402.182	79.19
402.406	92.19
402.63	78.19
402.854	86.19
403.078	78.19
403.302	81.19
403.526	76.19
403.75	78.19
403.974	83.19
404.198	88.19
404.422	93.19
404.645	75.19
404.869	77.19
405.093	87.19
405.317	76.19
405.541	80.19
405.765	81.19
405.988	79.19
406.212	67.19
406.436	83.19
406.66	85.19
406.883	87.19
407.107	66.19
407.331	81.19
407.555	72.19
407.778	87.19
408.002	88.19
408.226	83.19
408.449	63.19
408.673	78.19
408.896	83.19
409.12	69.19
409.344	92.19
409.567	70.19
409.791	81.19
410.014	89.19
410.238	77.19
410.461	91.19
410.685	82.19
410.908	80.19
411.132	81.19
411.355	70.19
411.578	71.19
411.802	75.19
412.025	73.19
412.249	78.19
412.472	69.19
412.695	78.19
412.919	76.19
413.142	86.19
413.365	83.19
413.589	75.19
413.812	91.19
414.035	93.19
414.258	89.19
414.482	75.19
414.705	79.19
414.928	86.19
415.151	83.19
415.374	84.19
415.597	107.19
415.821	78.19
416.044	93.19
416.267	78.19
416.49	91.19
416.713	81.19
416.936	79.19
417.159	83.19
417.382	94.19
417.605	83.19
417.828	83.19
418.051	71.19
418.274	99.19
418.497	87.19
418.72	80.19
418.943	90.19
419.166	69.19
419.389	70.19
419.611	81.19
419.834	80.19
420.057	81.19
420.28	89.19
420.503	75.19
420.726	75.19
420.948	77.19
421.171	80.19
421.394	88.19
421.617	85.19
421.839	81.19
422.062	65.19
422.285	81.19
422.507	81.19
422.73	78.19
422.953	95.19
423.175	66.19
423.398	74.19
423.621	107.19
423.843	77.19
424.066	72.19
424.288	84.19
424.511	78.19
424.733	75.19
424.956	73.19
425.178	68.19
425.401	83.19
425.623	80.19
425.846	79.19
426.068	64.19
426.291	85.19
426.513	72.19
426.735	61.19
426.958	83.19
427.18	77.19
427.402	104.19
427.625	72.19
427.847	71.19
428.069	82.19
428.292	87.19
428.514	74.19
428.736	66.19
428.958	72.19
429.181	71.19
429.403	67.19
429.625	76.19
429.847	78.19
430.069	78.19
430.292	84.19
430.514	84.19
430.736	77.19
430.958	87.19
431.18	88.19
431.402	81.19
431.624	78.19
431.846	85.19
432.068	75.19
432.29	83.19
432.512	83.19
432.734	76.19
432.956	90.19
433.178	96.19
433.4	87.19
433.622	89.19
433.844	84.19
434.066	89.19
434.287	77.19
434.509	76.19
434.731	68.19
434.953	87.19
435.175	91.19
435.397	80.19
435.618	70.19
435.84	81.19
436.062	67.19
436.284	87.19
436.505	80.19
436.727	81.19
436.949	79.19
437.17	79.19
437.392	84.19
437.614	82.19
437.835	74.19
438.057	85.19
438.278	83.19
438.5	70.19
438.721	80.19
438.943	86.19
439.165	95.19
439.386	86.19
439.608	78.19
439.829	79.19
440.05	86.19
440.272	76.19
440.493	64.19
440.715	72.19
440.936	76.19
441.158	89.19
441.379	92.19
441.6	84.19
441.822	75.19
442.043	83.19
442.264	81.19
442.486	69.19
442.707	69.19
442.928	74.19
443.149	84.19
443.371	85.19
443.592	84.19
443.813	88.19
444.034	88.19
444.255	77.19
444.476	80.19
444.698	80.19
444.919	97.19
445.14	165.19
445.361	112.19
445.582	78.19
445.803	75.19
446.024	73.19
446.245	77.19
446.466	76.19
446.687	76.19
446.908	68.19
447.129	81.19
447.35	78.19
447.571	86.19
447.792	83.19
448.013	81.19
448.234	76.19
448.455	77.19
448.675	77.19
448.896	88.19
449.117	85.19
449.338	73.19
449.559	64.19
449.779	78.19
450	71.19
450.221	77.19
450.442	76.19
450.662	71.19
450.883	79.19
451.104	65.19
451.324	84.19
451.545	78.19
451.766	70.19
451.986	71.19
452.207	68.19
452.428	81.19
452.648	81.19
452.869	84.19
453.089	84.19
453.31	92.19
453.53	72.19
453.751	80.19
453.971	79.19
454.192	78.19
454.412	67.19
454.633	89.19
454.853	70.19
455.073	83.19
455.294	63.19
455.514	76.19
455.734	75.19
455.955	83.19
456.175	84.19
456.395	78.19
456.616	81.19
456.836	78.19
457.056	79.19
457.276	75.19
457.497	83.19
457.717	90.19
457.937	84.19
458.157	73.19
458.377	74.19
458.598	83.19
458.818	58.19
459.038	84.19
459.258	76.19
459.478	77.19
459.698	74.19
459.918	87.19
460.138	82.19
460.358	88.19
460.578	68.19
460.798	76.19
461.018	71.19
461.238	79.19
461.458	78.19
461.678	75.19
461.898	83.19
462.118	82.19
462.338	89.19
462.558	85.19
462.777	64.19
462.997	84.19
463.217	85.19
463.437	82.19
463.657	77.19
463.876	64.19
464.096	78.19
464.316	77.19
464.536	82.19
464.755	76.19
464.975	77.19
465.195	80.19
465.414	79.19
465.634	84.19
465.854	83.19
466.073	80.19
466.293	90.19
466.512	71.19
466.732	82.19
466.951	94.19
467.171	66.19
467.391	87.19
467.61	90.19
467.829	99.19
468.049	79.19
468.268	97.19
468.488	80.19
468.707	75.19
468.927	76.19
469.146	87.19
469.365	91.19
469.585	77.19
469.804	84.19
470.023	81.19
470.243	85.19
470.462	79.19
470.681	71.19
470.901	84.19
471.12	71.19
471.339	75.19
471.558	73.19
471.777	74.19
471.997	88.19
472.216	89.19
472.435	94.19
472.654	79.19
472.873	97.19
473.092	70.19
473.311	70.19
473.53	98.19
473.749	88.19
473.968	83.19
474.187	68.19
474.406	76.19
474.625	83.19
474.844	84.19
475.063	85.19
475.282	84.19
475.501	90.19
475.72	78.19
475.939	85.19
476.158	74.19
476.377	73.19
476.596	76.19
476.814	72.19
477.033	63.19
477.252	86.19
477.471	69.19
477.69	85.19
477.908	76.19
478.127	82.19
478.346	77.19
478.564	87.19
478.783	89.19
479.002	82.19
479.22	79.19
479.439	74.19
479.658	78.19
479.876	91.19
480.095	77.19
480.313	83.19
480.532	88.19
480.751	80.19
480.969	73.19
481.188	83.19
481.406	76.19
481.624	68.19
481.843	73.19
482.061	74.19
482.28	81.19
482.498	83.19
482.717	78.19
482.935	75.19
483.153	80.19
483.372	86.19
483.59	76.19
483.808	75.19
484.027	74.19
484.245	74.19
484.463	85.19
484.681	95.19
484.9	85.19
485.118	88.19
485.336	80.19
485.554	85.19
485.772	73.19
485.99	73.19
486.209	72.19
486.427	81.19
486.645	71.19
486.863	79.19
487.081	72.19
487.299	71.19
487.517	72.19
487.735	69.19
487.953	93.19
488.171	92.19
488.389	91.19
488.607	61.19
488.825	70.19
489.043	77.19
489.261	71.19
489.479	73.19
489.696	72.19
489.914	80.19
490.132	87.19
490.35	75.19
490.568	85.19
490.786	87.19
491.003	89.19
491.221	81.19
491.439	96.19
491.657	70.19
491.874	86.19
492.092	79.19
492.31	87.19
492.527	92.19
492.745	85.19
492.963	79.19
493.18	69.19
493.398	88.19
493.615	80.19
493.833	79.19
494.05	80.19
494.268	87.19
494.485	87.19
494.703	87.19
494.92	88.19
495.138	86.19
495.355	81.19
495.573	88.19
495.79	80.19
496.008	85.19
496.225	78.19
496.442	70.19
496.66	80.19
496.877	83.19
497.094	86.19
497.312	83.19
497.529	69.19
497.746	88.19
497.963	82.19
498.181	61.19
498.398	75.19
498.615	72.19
498.832	75.19
499.049	70.19
499.267	74.19
499.484	83.19
499.701	101.19
499.918	79.19
500.135	82.19
500.352	70.19
500.569	82.19
500.786	88.19
501.003	86.19
501.22	81.19
501.437	87.19
501.654	83.19
501.871	71.19
502.088	84.19
502.305	82.19
502.522	79.19
502.739	94.19
502.956	61.19
503.172	86.19
503.389	83.19
503.606	75.19
503.823	72.19
504.04	89.19
504.256	79.19
504.473	84.19
504.69	77.19
504.907	95.19
505.123	86.19
505.34	76.19
505.557	81.19
505.773	83.19
505.99	65.19
506.207	85.19
506.423	72.19
506.64	74.19
506.856	79.19
507.073	75.19
507.289	79.19
507.506	59.19
507.722	80.19
507.939	75.19
508.155	78.19
508.372	78.19
508.588	78.19
508.805	76.19
509.021	75.19
509.238	73.19
509.454	81.19
509.67	78.19
509.887	73.19
510.103	83.19
510.319	84.19
510.536	95.19
510.752	74.19
510.968	77.19
511.184	77.19
511.401	92.19
511.617	91.19
511.833	79.19
512.049	76.19
512.265	68.19
512.481	83.19
512.698	83.19
512.914	72.19
513.13	76.19
513.346	82.19
513.562	91.19
513.778	80.19
513.994	73.19
514.21	99.19
514.426	96.19
514.642	83.19
514.858	80.19
515.074	85.19
515.29	79.19
515.506	83.19
515.721	85.19
515.937	76.19
516.153	89.19
516.369	79.19
516.585	76.19
516.801	71.19
517.016	83.19
517.232	75.19
517.448	91.19
517.664	61.19
517.879	87.19
518.095	90.19
518.311	76.19
518.527	73.19
518.742	81.19
518.958	71.19
519.173	78.19
519.389	63.19
519.605	93.19
519.82	77.19
520.036	83.19
520.251	72.19
