Data from StdD_HRD10591_009.txt Node
Date: Fri May 16 15:31:25 EDT 2025
User: Yrep
Spectrometer: HR+D1059
Trigger mode: 1
Integration Time (sec): 1.000000E-1
Scans to average: 1
Electric dark correction enabled: true
Nonlinearity correction enabled: false
Boxcar width: 0
XAxis mode: Wavelengths
Number of Pixels in Spectrum: 2048
>>>>>Begin Spectral Data<<<<<
223.165	-11.25
223.4	-11.25
223.635	-11.25
223.869	-18.25
224.104	-1.25
224.338	-13.25
224.573	-19.25
224.808	-14.25
225.042	6.75
225.277	-6.25
225.511	-4.25
225.746	-0.25
225.98	-2.25
226.215	14.75
226.449	1.75
226.683	26.75
226.918	6.75
227.152	33.75
227.387	35.75
227.621	45.75
227.856	44.75
228.09	36.75
228.324	39.75
228.559	65.75
228.793	62.75
229.027	75.75
229.262	70.75
229.496	77.75
229.73	59.75
229.964	76.75
230.199	80.75
230.433	76.75
230.667	84.75
230.901	76.75
231.136	78.75
231.37	78.75
231.604	84.75
231.838	94.75
232.072	82.75
232.306	73.75
232.541	78.75
232.775	91.75
233.009	81.75
233.243	90.75
233.477	84.75
233.711	95.75
233.945	77.75
234.179	74.75
234.413	79.75
234.647	86.75
234.881	86.75
235.115	68.75
235.349	81.75
235.583	84.75
235.817	88.75
236.051	88.75
236.285	79.75
236.519	80.75
236.753	85.75
236.987	62.75
237.221	78.75
237.455	86.75
237.689	81.75
237.922	84.75
238.156	97.75
238.39	76.75
238.624	80.75
238.858	82.75
239.091	57.75
239.325	62.75
239.559	76.75
239.793	82.75
240.027	86.75
240.26	74.75
240.494	81.75
240.728	77.75
240.961	81.75
241.195	87.75
241.429	70.75
241.662	74.75
241.896	64.75
242.13	79.75
242.363	87.75
242.597	73.75
242.83	88.75
243.064	80.75
243.298	73.75
243.531	65.75
243.765	62.75
243.998	89.75
244.232	100.75
244.465	88.75
244.699	70.75
244.932	69.75
245.166	60.75
245.399	83.75
245.633	96.75
245.866	94.75
246.099	74.75
246.333	90.75
246.566	78.75
246.8	76.75
247.033	59.75
247.266	79.75
247.5	76.75
247.733	78.75
247.966	65.75
248.2	67.75
248.433	81.75
248.666	82.75
248.899	82.75
249.133	83.75
249.366	63.75
249.599	69.75
249.832	70.75
250.066	76.75
250.299	76.75
250.532	76.75
250.765	76.75
250.998	83.75
251.231	82.75
251.465	88.75
251.698	75.75
251.931	86.75
252.164	77.75
252.397	83.75
252.63	91.75
252.863	84.75
253.096	78.75
253.329	78.75
253.562	77.75
253.795	81.75
254.028	91.75
254.261	88.75
254.494	84.75
254.727	86.75
254.96	78.75
255.193	88.75
255.426	61.75
255.659	76.75
255.892	74.75
256.124	77.75
256.357	84.75
256.59	98.75
256.823	74.75
257.056	88.75
257.289	87.75
257.521	83.75
257.754	81.75
257.987	84.75
258.22	78.75
258.452	76.75
258.685	78.75
258.918	79.75
259.151	76.75
259.383	79.75
259.616	73.75
259.849	84.75
260.081	86.75
260.314	78.75
260.547	100.75
260.779	83.75
261.012	82.75
261.244	69.75
261.477	102.75
261.71	73.75
261.942	91.75
262.175	76.75
262.407	86.75
262.64	78.75
262.872	66.75
263.105	78.75
263.337	95.75
263.57	74.75
263.802	82.75
264.035	79.75
264.267	72.75
264.499	76.75
264.732	81.75
264.964	74.75
265.197	73.75
265.429	93.75
265.661	73.75
265.894	79.75
266.126	85.75
266.358	75.75
266.591	78.75
266.823	73.75
267.055	66.75
267.287	82.75
267.52	94.75
267.752	64.75
267.984	79.75
268.216	83.75
268.448	91.75
268.681	76.75
268.913	76.75
269.145	80.75
269.377	87.75
269.609	78.75
269.841	74.75
270.073	76.75
270.306	80.75
270.538	76.75
270.77	81.75
271.002	80.75
271.234	82.75
271.466	80.75
271.698	95.75
271.93	95.75
272.162	75.75
272.394	92.75
272.626	79.75
272.858	76.75
273.09	80.75
273.322	92.75
273.553	77.75
273.785	78.75
274.017	75.75
274.249	64.75
274.481	74.75
274.713	93.75
274.945	88.75
275.176	84.75
275.408	74.75
275.64	86.75
275.872	85.75
276.104	80.75
276.335	83.75
276.567	85.75
276.799	70.75
277.031	76.75
277.262	67.75
277.494	86.75
277.726	83.75
277.957	82.75
278.189	91.75
278.421	80.75
278.652	89.75
278.884	76.75
279.115	87.75
279.347	86.75
279.579	91.75
279.81	90.75
280.042	89.75
280.273	90.75
280.505	78.75
280.736	87.75
280.968	84.75
281.199	74.75
281.431	68.75
281.662	81.75
281.894	87.75
282.125	91.75
282.356	75.75
282.588	84.75
282.819	94.75
283.051	79.75
283.282	82.75
283.513	89.75
283.745	92.75
283.976	85.75
284.207	81.75
284.439	81.75
284.67	83.75
284.901	97.75
285.132	84.75
285.364	79.75
285.595	81.75
285.826	75.75
286.057	99.75
286.288	89.75
286.52	82.75
286.751	88.75
286.982	79.75
287.213	99.75
287.444	83.75
287.675	87.75
287.906	86.75
288.138	92.75
288.369	79.75
288.6	84.75
288.831	83.75
289.062	88.75
289.293	82.75
289.524	74.75
289.755	88.75
289.986	77.75
290.217	88.75
290.448	97.75
290.679	87.75
290.91	92.75
291.141	89.75
291.371	83.75
291.602	73.75
291.833	79.75
292.064	88.75
292.295	84.75
292.526	84.75
292.757	89.75
292.987	87.75
293.218	92.75
293.449	73.75
293.68	78.75
293.91	86.75
294.141	84.75
294.372	99.75
294.603	94.75
294.833	80.75
295.064	61.75
295.295	82.75
295.525	86.75
295.756	96.75
295.987	92.75
296.217	72.75
296.448	89.75
296.679	81.75
296.909	85.75
297.14	79.75
297.37	83.75
297.601	87.75
297.831	82.75
298.062	69.75
298.292	87.75
298.523	86.75
298.753	93.75
298.984	85.75
299.214	92.75
299.445	77.75
299.675	84.75
299.905	86.75
300.136	82.75
300.366	80.75
300.597	80.75
300.827	87.75
301.057	76.75
301.288	86.75
301.518	95.75
301.748	78.75
301.979	99.75
302.209	86.75
302.439	91.75
302.669	78.75
302.9	82.75
303.13	81.75
303.36	75.75
303.59	83.75
303.82	76.75
304.051	78.75
304.281	97.75
304.511	86.75
304.741	69.75
304.971	78.75
305.201	86.75
305.431	88.75
305.661	97.75
305.891	89.75
306.121	87.75
306.352	90.75
306.582	82.75
306.812	83.75
307.042	68.75
307.272	85.75
307.502	78.75
307.731	83.75
307.961	85.75
308.191	92.75
308.421	77.75
308.651	77.75
308.881	86.75
309.111	74.75
309.341	74.75
309.571	88.75
309.8	74.75
310.03	66.75
310.26	78.75
310.49	87.75
310.72	72.75
310.949	81.75
311.179	86.75
311.409	85.75
311.639	76.75
311.868	94.75
312.098	84.75
312.328	80.75
312.557	97.75
312.787	84.75
313.017	72.75
313.246	74.75
313.476	73.75
313.706	78.75
313.935	70.75
314.165	81.75
314.394	97.75
314.624	70.75
314.853	86.75
315.083	69.75
315.312	87.75
315.542	87.75
315.771	94.75
316.001	86.75
316.23	76.75
316.46	78.75
316.689	82.75
316.919	97.75
317.148	93.75
317.377	75.75
317.607	83.75
317.836	78.75
318.065	88.75
318.295	81.75
318.524	71.75
318.753	71.75
318.983	90.75
319.212	83.75
319.441	86.75
319.67	93.75
319.9	86.75
320.129	84.75
320.358	88.75
320.587	91.75
320.816	83.75
321.046	93.75
321.275	88.75
321.504	87.75
321.733	92.75
321.962	93.75
322.191	69.75
322.42	103.75
322.649	83.75
322.878	76.75
323.108	73.75
323.337	86.75
323.566	82.75
323.795	82.75
324.024	86.75
324.253	88.75
324.482	82.75
324.71	85.75
324.939	86.75
325.168	90.75
325.397	83.75
325.626	82.75
325.855	82.75
326.084	82.75
326.313	75.75
326.542	80.75
326.77	76.75
326.999	76.75
327.228	80.75
327.457	84.75
327.686	86.75
327.914	86.75
328.143	92.75
328.372	69.75
328.6	86.75
328.829	90.75
329.058	88.75
329.287	79.75
329.515	86.75
329.744	85.75
329.972	65.75
330.201	90.75
330.43	79.75
330.658	84.75
330.887	78.75
331.115	70.75
331.344	90.75
331.572	71.75
331.801	86.75
332.03	89.75
332.258	86.75
332.486	85.75
332.715	86.75
332.943	90.75
333.172	75.75
333.4	68.75
333.629	86.75
333.857	80.75
334.085	81.75
334.314	78.75
334.542	79.75
334.771	84.75
334.999	83.75
335.227	83.75
335.455	92.75
335.684	95.75
335.912	87.75
336.14	80.75
336.369	93.75
336.597	95.75
336.825	83.75
337.053	80.75
337.281	85.75
337.51	78.75
337.738	87.75
337.966	94.75
338.194	89.75
338.422	87.75
338.65	93.75
338.878	91.75
339.106	99.75
339.334	81.75
339.562	86.75
339.79	78.75
340.018	74.75
340.246	74.75
340.474	66.75
340.702	82.75
340.93	98.75
341.158	92.75
341.386	83.75
341.614	78.75
341.842	91.75
342.07	97.75
342.298	84.75
342.526	86.75
342.754	94.75
342.981	96.75
343.209	73.75
343.437	99.75
343.665	96.75
343.893	83.75
344.12	60.75
344.348	78.75
344.576	83.75
344.804	80.75
345.031	110.75
345.259	88.75
345.487	81.75
345.714	98.75
345.942	83.75
346.17	84.75
346.397	95.75
346.625	92.75
346.853	86.75
347.08	80.75
347.308	94.75
347.535	87.75
347.763	83.75
347.99	93.75
348.218	86.75
348.445	90.75
348.673	77.75
348.9	70.75
349.128	80.75
349.355	86.75
349.583	93.75
349.81	78.75
350.037	78.75
350.265	82.75
350.492	80.75
350.72	78.75
350.947	86.75
351.174	77.75
351.402	85.75
351.629	82.75
351.856	88.75
352.083	82.75
352.311	84.75
352.538	76.75
352.765	97.75
352.992	92.75
353.22	79.75
353.447	79.75
353.674	63.75
353.901	90.75
354.128	80.75
354.355	74.75
354.583	85.75
354.81	78.75
355.037	93.75
355.264	89.75
355.491	91.75
355.718	79.75
355.945	83.75
356.172	92.75
356.399	79.75
356.626	89.75
356.853	89.75
357.08	91.75
357.307	88.75
357.534	92.75
357.761	91.75
357.988	91.75
358.215	87.75
358.441	79.75
358.668	72.75
358.895	84.75
359.122	82.75
359.349	94.75
359.576	96.75
359.802	77.75
360.029	93.75
360.256	95.75
360.483	76.75
360.709	81.75
360.936	80.75
361.163	81.75
361.39	76.75
361.616	75.75
361.843	87.75
362.07	71.75
362.296	96.75
362.523	75.75
362.749	85.75
362.976	88.75
363.203	94.75
363.429	91.75
363.656	89.75
363.882	79.75
364.109	84.75
364.335	79.75
364.562	64.75
364.788	88.75
365.015	84.75
365.241	88.75
365.468	83.75
365.694	88.75
365.92	88.75
366.147	77.75
366.373	90.75
366.599	84.75
366.826	79.75
367.052	78.75
367.278	87.75
367.505	76.75
367.731	99.75
367.957	82.75
368.184	74.75
368.41	86.75
368.636	72.75
368.862	82.75
369.089	82.75
369.315	86.75
369.541	89.75
369.767	71.75
369.993	78.75
370.219	67.75
370.445	81.75
370.672	77.75
370.898	86.75
371.124	81.75
371.35	94.75
371.576	91.75
371.802	89.75
372.028	72.75
372.254	82.75
372.48	99.75
372.706	87.75
372.932	84.75
373.158	81.75
373.384	76.75
373.61	91.75
373.835	73.75
374.061	86.75
374.287	90.75
374.513	77.75
374.739	89.75
374.965	76.75
375.191	86.75
375.416	81.75
375.642	92.75
375.868	88.75
376.094	90.75
376.319	84.75
376.545	90.75
376.771	95.75
376.997	81.75
377.222	76.75
377.448	75.75
377.674	77.75
377.899	92.75
378.125	74.75
378.35	83.75
378.576	95.75
378.802	83.75
379.027	89.75
379.253	84.75
379.478	82.75
379.704	91.75
379.929	78.75
380.155	89.75
380.38	74.75
380.606	86.75
380.831	82.75
381.057	89.75
381.282	88.75
381.507	85.75
381.733	83.75
381.958	79.75
382.184	83.75
382.409	83.75
382.634	87.75
382.86	91.75
383.085	86.75
383.31	78.75
383.535	79.75
383.761	87.75
383.986	95.75
384.211	90.75
384.436	84.75
384.662	80.75
384.887	76.75
385.112	79.75
385.337	86.75
385.562	94.75
385.787	94.75
386.013	85.75
386.238	70.75
386.463	87.75
386.688	88.75
386.913	83.75
387.138	83.75
387.363	82.75
387.588	87.75
387.813	68.75
388.038	89.75
388.263	96.75
388.488	92.75
388.713	79.75
388.938	80.75
389.163	97.75
389.387	86.75
389.612	103.75
389.837	89.75
390.062	87.75
390.287	94.75
390.512	90.75
390.736	105.75
390.961	96.75
391.186	92.75
391.411	81.75
391.636	94.75
391.86	87.75
392.085	96.75
392.31	84.75
392.534	76.75
392.759	80.75
392.984	94.75
393.208	78.75
393.433	88.75
393.658	82.75
393.882	80.75
394.107	84.75
394.331	96.75
394.556	79.75
394.78	89.75
395.005	74.75
395.229	75.75
395.454	69.75
395.678	79.75
395.903	70.75
396.127	92.75
396.352	87.75
396.576	88.75
396.801	89.75
397.025	78.75
397.249	79.75
397.474	86.75
397.698	96.75
397.922	81.75
398.147	86.75
398.371	79.75
398.595	82.75
398.82	84.75
399.044	77.75
399.268	66.75
399.492	81.75
399.717	91.75
399.941	82.75
400.165	77.75
400.389	86.75
400.613	85.75
400.837	67.75
401.062	80.75
401.286	90.75
401.51	83.75
401.734	87.75
401.958	77.75
402.182	92.75
402.406	75.75
402.63	86.75
402.854	94.75
403.078	99.75
403.302	106.75
403.526	85.75
403.75	88.75
403.974	83.75
404.198	90.75
404.422	92.75
404.645	64.75
404.869	91.75
405.093	87.75
405.317	88.75
405.541	78.75
405.765	95.75
405.988	72.75
406.212	80.75
406.436	80.75
406.66	81.75
406.883	94.75
407.107	90.75
407.331	94.75
407.555	82.75
407.778	85.75
408.002	69.75
408.226	88.75
408.449	95.75
408.673	83.75
408.896	97.75
409.12	82.75
409.344	83.75
409.567	103.75
409.791	88.75
410.014	89.75
410.238	102.75
410.461	96.75
410.685	91.75
410.908	95.75
411.132	82.75
411.355	91.75
411.578	102.75
411.802	88.75
412.025	81.75
412.249	87.75
412.472	88.75
412.695	77.75
412.919	92.75
413.142	88.75
413.365	85.75
413.589	80.75
413.812	90.75
414.035	88.75
414.258	84.75
414.482	90.75
414.705	80.75
414.928	73.75
415.151	81.75
415.374	74.75
415.597	91.75
415.821	82.75
416.044	78.75
416.267	92.75
416.49	98.75
416.713	63.75
416.936	86.75
417.159	80.75
417.382	93.75
417.605	78.75
417.828	81.75
418.051	87.75
418.274	82.75
418.497	92.75
418.72	92.75
418.943	73.75
419.166	86.75
419.389	90.75
419.611	92.75
419.834	88.75
420.057	82.75
420.28	90.75
420.503	76.75
420.726	77.75
420.948	74.75
421.171	78.75
421.394	84.75
421.617	102.75
421.839	94.75
422.062	97.75
422.285	79.75
422.507	80.75
422.73	90.75
422.953	95.75
423.175	89.75
423.398	88.75
423.621	87.75
423.843	82.75
424.066	83.75
424.288	92.75
424.511	78.75
424.733	83.75
424.956	84.75
425.178	96.75
425.401	84.75
425.623	73.75
425.846	94.75
426.068	93.75
426.291	82.75
426.513	85.75
426.735	82.75
426.958	91.75
427.18	96.75
427.402	105.75
427.625	87.75
427.847	93.75
428.069	89.75
428.292	78.75
428.514	98.75
428.736	75.75
428.958	84.75
429.181	90.75
429.403	81.75
429.625	79.75
429.847	84.75
430.069	91.75
430.292	75.75
430.514	80.75
430.736	84.75
430.958	87.75
431.18	88.75
431.402	87.75
431.624	90.75
431.846	79.75
432.068	88.75
432.29	79.75
432.512	84.75
432.734	90.75
432.956	79.75
433.178	83.75
433.4	75.75
433.622	76.75
433.844	93.75
434.066	78.75
434.287	83.75
434.509	81.75
434.731	89.75
434.953	87.75
435.175	76.75
435.397	78.75
435.618	90.75
435.84	89.75
436.062	86.75
436.284	82.75
436.505	89.75
436.727	86.75
436.949	78.75
437.17	96.75
437.392	79.75
437.614	82.75
437.835	77.75
438.057	77.75
438.278	83.75
438.5	90.75
438.721	90.75
438.943	87.75
439.165	97.75
439.386	90.75
439.608	91.75
439.829	78.75
440.05	94.75
440.272	95.75
440.493	99.75
440.715	68.75
440.936	87.75
441.158	71.75
441.379	83.75
441.6	100.75
441.822	99.75
442.043	82.75
442.264	81.75
442.486	84.75
442.707	86.75
442.928	77.75
443.149	94.75
443.371	100.75
443.592	74.75
443.813	66.75
444.034	77.75
444.255	77.75
444.476	84.75
444.698	88.75
444.919	74.75
445.14	167.75
445.361	142.75
445.582	97.75
445.803	84.75
446.024	76.75
446.245	91.75
446.466	90.75
446.687	88.75
446.908	89.75
447.129	76.75
447.35	84.75
447.571	80.75
447.792	90.75
448.013	88.75
448.234	94.75
448.455	88.75
448.675	89.75
448.896	101.75
449.117	92.75
449.338	84.75
449.559	99.75
449.779	97.75
450	88.75
450.221	87.75
450.442	81.75
450.662	69.75
450.883	80.75
451.104	84.75
451.324	69.75
451.545	81.75
451.766	91.75
451.986	75.75
452.207	82.75
452.428	92.75
452.648	75.75
452.869	85.75
453.089	88.75
453.31	74.75
453.53	80.75
453.751	87.75
453.971	104.75
454.192	74.75
454.412	81.75
454.633	83.75
454.853	82.75
455.073	87.75
455.294	76.75
455.514	76.75
455.734	94.75
455.955	86.75
456.175	70.75
456.395	89.75
456.616	83.75
456.836	87.75
457.056	89.75
457.276	74.75
457.497	86.75
457.717	93.75
457.937	97.75
458.157	82.75
458.377	87.75
458.598	80.75
458.818	82.75
459.038	90.75
459.258	88.75
459.478	78.75
459.698	73.75
459.918	81.75
460.138	83.75
460.358	72.75
460.578	81.75
460.798	86.75
461.018	78.75
461.238	79.75
461.458	88.75
461.678	86.75
461.898	74.75
462.118	72.75
462.338	86.75
462.558	98.75
462.777	93.75
462.997	81.75
463.217	87.75
463.437	80.75
463.657	85.75
463.876	77.75
464.096	70.75
464.316	79.75
464.536	94.75
464.755	97.75
464.975	87.75
465.195	96.75
465.414	97.75
465.634	91.75
465.854	93.75
466.073	80.75
466.293	69.75
466.512	82.75
466.732	93.75
466.951	86.75
467.171	85.75
467.391	86.75
467.61	84.75
467.829	83.75
468.049	81.75
468.268	90.75
468.488	83.75
468.707	93.75
468.927	91.75
469.146	77.75
469.365	78.75
469.585	92.75
469.804	94.75
470.023	82.75
470.243	83.75
470.462	86.75
470.681	83.75
470.901	77.75
471.12	75.75
471.339	90.75
471.558	76.75
471.777	82.75
471.997	82.75
472.216	91.75
472.435	98.75
472.654	79.75
472.873	74.75
473.092	94.75
473.311	71.75
473.53	88.75
473.749	94.75
473.968	85.75
474.187	84.75
474.406	71.75
474.625	84.75
474.844	94.75
475.063	97.75
475.282	94.75
475.501	88.75
475.72	95.75
475.939	79.75
476.158	90.75
476.377	77.75
476.596	81.75
476.814	91.75
477.033	83.75
477.252	97.75
477.471	92.75
477.69	78.75
477.908	79.75
478.127	97.75
478.346	69.75
478.564	86.75
478.783	83.75
479.002	97.75
479.22	76.75
479.439	95.75
479.658	86.75
479.876	68.75
480.095	61.75
480.313	82.75
480.532	77.75
480.751	82.75
480.969	85.75
481.188	81.75
481.406	78.75
481.624	84.75
481.843	84.75
482.061	79.75
482.28	78.75
482.498	97.75
482.717	88.75
482.935	76.75
483.153	93.75
483.372	82.75
483.59	93.75
483.808	82.75
484.027	89.75
484.245	88.75
484.463	97.75
484.681	96.75
484.9	83.75
485.118	81.75
485.336	78.75
485.554	88.75
485.772	87.75
485.99	87.75
486.209	81.75
486.427	82.75
486.645	82.75
486.863	91.75
487.081	85.75
487.299	71.75
487.517	85.75
487.735	72.75
487.953	84.75
488.171	75.75
488.389	87.75
488.607	86.75
488.825	76.75
489.043	106.75
489.261	97.75
489.479	88.75
489.696	78.75
489.914	90.75
490.132	85.75
490.35	85.75
490.568	94.75
490.786	102.75
491.003	84.75
491.221	90.75
491.439	91.75
491.657	82.75
491.874	98.75
492.092	89.75
492.31	86.75
492.527	92.75
492.745	103.75
492.963	95.75
493.18	76.75
493.398	88.75
493.615	86.75
493.833	78.75
494.05	90.75
494.268	90.75
494.485	89.75
494.703	90.75
494.92	72.75
495.138	90.75
495.355	78.75
495.573	87.75
495.79	107.75
496.008	95.75
496.225	102.75
496.442	102.75
496.66	106.75
496.877	98.75
497.094	84.75
497.312	83.75
497.529	82.75
497.746	90.75
497.963	95.75
498.181	88.75
498.398	82.75
498.615	81.75
498.832	76.75
499.049	80.75
499.267	91.75
499.484	70.75
499.701	81.75
499.918	90.75
500.135	93.75
500.352	91.75
500.569	84.75
500.786	102.75
501.003	91.75
501.22	95.75
501.437	89.75
501.654	83.75
501.871	86.75
502.088	92.75
502.305	83.75
502.522	98.75
502.739	90.75
502.956	86.75
503.172	92.75
503.389	86.75
503.606	92.75
503.823	91.75
504.04	79.75
504.256	76.75
504.473	93.75
504.69	70.75
504.907	102.75
505.123	75.75
505.34	82.75
505.557	87.75
505.773	90.75
505.99	103.75
506.207	84.75
506.423	84.75
506.64	79.75
506.856	83.75
507.073	93.75
507.289	89.75
507.506	84.75
507.722	91.75
507.939	91.75
508.155	83.75
508.372	87.75
508.588	81.75
508.805	82.75
509.021	73.75
509.238	86.75
509.454	82.75
509.67	79.75
509.887	89.75
510.103	80.75
510.319	84.75
510.536	87.75
510.752	96.75
510.968	98.75
511.184	91.75
511.401	83.75
511.617	82.75
511.833	84.75
512.049	89.75
512.265	92.75
512.481	83.75
512.698	91.75
512.914	72.75
513.13	87.75
513.346	90.75
513.562	82.75
513.778	95.75
513.994	85.75
514.21	77.75
514.426	95.75
514.642	95.75
514.858	97.75
515.074	101.75
515.29	99.75
515.506	80.75
515.721	92.75
515.937	80.75
516.153	88.75
516.369	77.75
516.585	88.75
516.801	90.75
517.016	71.75
517.232	86.75
517.448	88.75
517.664	81.75
517.879	74.75
518.095	80.75
518.311	76.75
518.527	61.75
518.742	70.75
518.958	87.75
519.173	87.75
519.389	91.75
519.605	94.75
519.82	76.75
520.036	95.75
