Data from StdD_HRD10591_038.txt Node
Date: Fri May 16 15:31:40 EDT 2025
User: Yrep
Spectrometer: HR+D1059
Trigger mode: 1
Integration Time (sec): 1.000000E-1
Scans to average: 1
Electric dark correction enabled: true
Nonlinearity correction enabled: false
Boxcar width: 0
XAxis mode: Wavelengths
Number of Pixels in Spectrum: 2048
>>>>>Begin Spectral Data<<<<<
223.165	-20.06
223.4	-20.06
223.635	-20.06
223.869	-21.06
224.104	-16.06
224.338	-12.06
224.573	-15.06
224.808	-25.06
225.042	-21.06
225.277	4.94
225.511	3.94
225.746	-0.06
225.98	6.94
226.215	2.94
226.449	14.94
226.683	25.94
226.918	29.94
227.152	40.94
227.387	37.94
227.621	37.94
227.856	61.94
228.09	37.94
228.324	62.94
228.559	50.94
228.793	50.94
229.027	58.94
229.262	52.94
229.496	71.94
229.73	77.94
229.964	90.94
230.199	76.94
230.433	86.94
230.667	80.94
230.901	87.94
231.136	89.94
231.37	76.94
231.604	74.94
231.838	71.94
232.072	79.94
232.306	91.94
232.541	86.94
232.775	82.94
233.009	74.94
233.243	73.94
233.477	90.94
233.711	87.94
233.945	86.94
234.179	66.94
234.413	72.94
234.647	82.94
234.881	78.94
235.115	78.94
235.349	94.94
235.583	85.94
235.817	77.94
236.051	77.94
236.285	75.94
236.519	67.94
236.753	78.94
236.987	70.94
237.221	78.94
237.455	75.94
237.689	85.94
237.922	84.94
238.156	83.94
238.39	71.94
238.624	66.94
238.858	65.94
239.091	89.94
239.325	79.94
239.559	80.94
239.793	66.94
240.027	77.94
240.26	66.94
240.494	82.94
240.728	69.94
240.961	77.94
241.195	72.94
241.429	76.94
241.662	74.94
241.896	84.94
242.13	78.94
242.363	79.94
242.597	74.94
242.83	79.94
243.064	82.94
243.298	85.94
243.531	73.94
243.765	93.94
243.998	75.94
244.232	83.94
244.465	66.94
244.699	72.94
244.932	71.94
245.166	73.94
245.399	75.94
245.633	85.94
245.866	82.94
246.099	69.94
246.333	83.94
246.566	73.94
246.8	68.94
247.033	79.94
247.266	90.94
247.5	86.94
247.733	83.94
247.966	68.94
248.2	79.94
248.433	82.94
248.666	81.94
248.899	88.94
249.133	61.94
249.366	83.94
249.599	78.94
249.832	85.94
250.066	76.94
250.299	77.94
250.532	86.94
250.765	57.94
250.998	85.94
251.231	83.94
251.465	88.94
251.698	73.94
251.931	68.94
252.164	89.94
252.397	66.94
252.63	77.94
252.863	63.94
253.096	80.94
253.329	87.94
253.562	93.94
253.795	77.94
254.028	84.94
254.261	81.94
254.494	71.94
254.727	82.94
254.96	74.94
255.193	83.94
255.426	65.94
255.659	85.94
255.892	77.94
256.124	89.94
256.357	73.94
256.59	69.94
256.823	85.94
257.056	70.94
257.289	105.94
257.521	83.94
257.754	89.94
257.987	93.94
258.22	89.94
258.452	74.94
258.685	82.94
258.918	82.94
259.151	79.94
259.383	80.94
259.616	69.94
259.849	74.94
260.081	84.94
260.314	83.94
260.547	78.94
260.779	73.94
261.012	65.94
261.244	67.94
261.477	81.94
261.71	83.94
261.942	95.94
262.175	81.94
262.407	88.94
262.64	84.94
262.872	84.94
263.105	79.94
263.337	76.94
263.57	90.94
263.802	90.94
264.035	97.94
264.267	82.94
264.499	81.94
264.732	77.94
264.964	85.94
265.197	84.94
265.429	86.94
265.661	72.94
265.894	81.94
266.126	79.94
266.358	79.94
266.591	73.94
266.823	74.94
267.055	88.94
267.287	83.94
267.52	92.94
267.752	78.94
267.984	75.94
268.216	83.94
268.448	92.94
268.681	87.94
268.913	89.94
269.145	84.94
269.377	87.94
269.609	85.94
269.841	83.94
270.073	85.94
270.306	87.94
270.538	82.94
270.77	81.94
271.002	89.94
271.234	89.94
271.466	97.94
271.698	90.94
271.93	65.94
272.162	93.94
272.394	79.94
272.626	98.94
272.858	89.94
273.09	88.94
273.322	89.94
273.553	81.94
273.785	78.94
274.017	77.94
274.249	91.94
274.481	81.94
274.713	83.94
274.945	90.94
275.176	89.94
275.408	93.94
275.64	92.94
275.872	78.94
276.104	77.94
276.335	86.94
276.567	73.94
276.799	76.94
277.031	98.94
277.262	86.94
277.494	72.94
277.726	85.94
277.957	81.94
278.189	77.94
278.421	91.94
278.652	84.94
278.884	75.94
279.115	95.94
279.347	75.94
279.579	84.94
279.81	84.94
280.042	74.94
280.273	91.94
280.505	83.94
280.736	71.94
280.968	71.94
281.199	86.94
281.431	81.94
281.662	71.94
281.894	90.94
282.125	79.94
282.356	99.94
282.588	95.94
282.819	95.94
283.051	75.94
283.282	85.94
283.513	90.94
283.745	88.94
283.976	78.94
284.207	85.94
284.439	89.94
284.67	80.94
284.901	70.94
285.132	94.94
285.364	85.94
285.595	73.94
285.826	81.94
286.057	82.94
286.288	81.94
286.52	90.94
286.751	82.94
286.982	74.94
287.213	81.94
287.444	96.94
287.675	80.94
287.906	83.94
288.138	81.94
288.369	80.94
288.6	89.94
288.831	99.94
289.062	91.94
289.293	102.94
289.524	92.94
289.755	85.94
289.986	94.94
290.217	87.94
290.448	86.94
290.679	76.94
290.91	87.94
291.141	83.94
291.371	82.94
291.602	79.94
291.833	79.94
292.064	91.94
292.295	88.94
292.526	81.94
292.757	88.94
292.987	83.94
293.218	81.94
293.449	88.94
293.68	85.94
293.91	81.94
294.141	95.94
294.372	91.94
294.603	74.94
294.833	85.94
295.064	93.94
295.295	80.94
295.525	80.94
295.756	82.94
295.987	78.94
296.217	81.94
296.448	83.94
296.679	80.94
296.909	81.94
297.14	86.94
297.37	83.94
297.601	100.94
297.831	81.94
298.062	79.94
298.292	82.94
298.523	74.94
298.753	78.94
298.984	89.94
299.214	88.94
299.445	86.94
299.675	92.94
299.905	90.94
300.136	97.94
300.366	77.94
300.597	91.94
300.827	93.94
301.057	95.94
301.288	65.94
301.518	101.94
301.748	75.94
301.979	102.94
302.209	86.94
302.439	92.94
302.669	88.94
302.9	82.94
303.13	89.94
303.36	85.94
303.59	97.94
303.82	88.94
304.051	74.94
304.281	84.94
304.511	83.94
304.741	79.94
304.971	75.94
305.201	101.94
305.431	91.94
305.661	77.94
305.891	75.94
306.121	85.94
306.352	88.94
306.582	81.94
306.812	90.94
307.042	94.94
307.272	75.94
307.502	82.94
307.731	72.94
307.961	87.94
308.191	93.94
308.421	81.94
308.651	76.94
308.881	79.94
309.111	86.94
309.341	73.94
309.571	92.94
309.8	77.94
310.03	83.94
310.26	90.94
310.49	74.94
310.72	83.94
310.949	72.94
311.179	82.94
311.409	70.94
311.639	91.94
311.868	76.94
312.098	94.94
312.328	87.94
312.557	87.94
312.787	87.94
313.017	83.94
313.246	79.94
313.476	69.94
313.706	75.94
313.935	90.94
314.165	90.94
314.394	88.94
314.624	90.94
314.853	81.94
315.083	85.94
315.312	84.94
315.542	76.94
315.771	77.94
316.001	86.94
316.23	87.94
316.46	86.94
316.689	78.94
316.919	79.94
317.148	77.94
317.377	77.94
317.607	80.94
317.836	89.94
318.065	101.94
318.295	79.94
318.524	76.94
318.753	81.94
318.983	83.94
319.212	80.94
319.441	81.94
319.67	89.94
319.9	87.94
320.129	87.94
320.358	86.94
320.587	91.94
320.816	91.94
321.046	81.94
321.275	95.94
321.504	94.94
321.733	78.94
321.962	90.94
322.191	90.94
322.42	74.94
322.649	84.94
322.878	78.94
323.108	82.94
323.337	77.94
323.566	83.94
323.795	82.94
324.024	88.94
324.253	97.94
324.482	85.94
324.71	80.94
324.939	91.94
325.168	102.94
325.397	78.94
325.626	85.94
325.855	84.94
326.084	83.94
326.313	87.94
326.542	92.94
326.77	90.94
326.999	82.94
327.228	92.94
327.457	82.94
327.686	86.94
327.914	82.94
328.143	92.94
328.372	73.94
328.6	86.94
328.829	94.94
329.058	88.94
329.287	80.94
329.515	74.94
329.744	89.94
329.972	78.94
330.201	90.94
330.43	82.94
330.658	69.94
330.887	77.94
331.115	91.94
331.344	78.94
331.572	67.94
331.801	81.94
332.03	75.94
332.258	78.94
332.486	81.94
332.715	97.94
332.943	88.94
333.172	87.94
333.4	82.94
333.629	75.94
333.857	87.94
334.085	92.94
334.314	83.94
334.542	87.94
334.771	89.94
334.999	90.94
335.227	80.94
335.455	80.94
335.684	89.94
335.912	76.94
336.14	93.94
336.369	82.94
336.597	79.94
336.825	70.94
337.053	89.94
337.281	87.94
337.51	81.94
337.738	79.94
337.966	96.94
338.194	75.94
338.422	67.94
338.65	84.94
338.878	75.94
339.106	87.94
339.334	75.94
339.562	78.94
339.79	81.94
340.018	84.94
340.246	95.94
340.474	80.94
340.702	84.94
340.93	79.94
341.158	85.94
341.386	81.94
341.614	73.94
341.842	74.94
342.07	82.94
342.298	80.94
342.526	85.94
342.754	95.94
342.981	92.94
343.209	78.94
343.437	88.94
343.665	90.94
343.893	91.94
344.12	99.94
344.348	66.94
344.576	75.94
344.804	76.94
345.031	88.94
345.259	79.94
345.487	89.94
345.714	87.94
345.942	81.94
346.17	85.94
346.397	77.94
346.625	79.94
346.853	88.94
347.08	83.94
347.308	84.94
347.535	81.94
347.763	83.94
347.99	91.94
348.218	91.94
348.445	86.94
348.673	82.94
348.9	83.94
349.128	85.94
349.355	88.94
349.583	90.94
349.81	101.94
350.037	78.94
350.265	69.94
350.492	85.94
350.72	72.94
350.947	80.94
351.174	79.94
351.402	71.94
351.629	82.94
351.856	80.94
352.083	74.94
352.311	96.94
352.538	72.94
352.765	68.94
352.992	78.94
353.22	93.94
353.447	92.94
353.674	83.94
353.901	85.94
354.128	87.94
354.355	90.94
354.583	65.94
354.81	89.94
355.037	103.94
355.264	80.94
355.491	73.94
355.718	75.94
355.945	77.94
356.172	73.94
356.399	86.94
356.626	98.94
356.853	80.94
357.08	86.94
357.307	89.94
357.534	82.94
357.761	67.94
357.988	87.94
358.215	85.94
358.441	74.94
358.668	85.94
358.895	93.94
359.122	80.94
359.349	75.94
359.576	74.94
359.802	79.94
360.029	76.94
360.256	68.94
360.483	82.94
360.709	91.94
360.936	88.94
361.163	83.94
361.39	91.94
361.616	74.94
361.843	89.94
362.07	81.94
362.296	89.94
362.523	89.94
362.749	76.94
362.976	79.94
363.203	78.94
363.429	95.94
363.656	93.94
363.882	99.94
364.109	85.94
364.335	81.94
364.562	88.94
364.788	82.94
365.015	101.94
365.241	85.94
365.468	92.94
365.694	81.94
365.92	90.94
366.147	69.94
366.373	65.94
366.599	60.94
366.826	83.94
367.052	91.94
367.278	88.94
367.505	81.94
367.731	83.94
367.957	82.94
368.184	87.94
368.41	103.94
368.636	71.94
368.862	85.94
369.089	79.94
369.315	70.94
369.541	93.94
369.767	88.94
369.993	97.94
370.219	81.94
370.445	78.94
370.672	72.94
370.898	91.94
371.124	75.94
371.35	87.94
371.576	89.94
371.802	65.94
372.028	75.94
372.254	97.94
372.48	82.94
372.706	69.94
372.932	82.94
373.158	82.94
373.384	75.94
373.61	78.94
373.835	86.94
374.061	77.94
374.287	71.94
374.513	72.94
374.739	70.94
374.965	81.94
375.191	86.94
375.416	95.94
375.642	99.94
375.868	73.94
376.094	79.94
376.319	73.94
376.545	78.94
376.771	91.94
376.997	75.94
377.222	80.94
377.448	93.94
377.674	88.94
377.899	94.94
378.125	101.94
378.35	94.94
378.576	90.94
378.802	93.94
379.027	91.94
379.253	93.94
379.478	97.94
379.704	86.94
379.929	85.94
380.155	94.94
380.38	87.94
380.606	81.94
380.831	95.94
381.057	88.94
381.282	87.94
381.507	81.94
381.733	84.94
381.958	77.94
382.184	75.94
382.409	85.94
382.634	105.94
382.86	78.94
383.085	81.94
383.31	73.94
383.535	90.94
383.761	96.94
383.986	77.94
384.211	95.94
384.436	84.94
384.662	87.94
384.887	92.94
385.112	83.94
385.337	75.94
385.562	79.94
385.787	77.94
386.013	81.94
386.238	86.94
386.463	74.94
386.688	99.94
386.913	99.94
387.138	107.94
387.363	84.94
387.588	86.94
387.813	91.94
388.038	94.94
388.263	92.94
388.488	93.94
388.713	86.94
388.938	69.94
389.163	89.94
389.387	88.94
389.612	73.94
389.837	79.94
390.062	80.94
390.287	67.94
390.512	77.94
390.736	87.94
390.961	87.94
391.186	88.94
391.411	83.94
391.636	76.94
391.86	85.94
392.085	85.94
392.31	83.94
392.534	92.94
392.759	91.94
392.984	97.94
393.208	80.94
393.433	88.94
393.658	69.94
393.882	96.94
394.107	82.94
394.331	79.94
394.556	89.94
394.78	96.94
395.005	93.94
395.229	83.94
395.454	90.94
395.678	72.94
395.903	87.94
396.127	75.94
396.352	70.94
396.576	77.94
396.801	80.94
397.025	85.94
397.249	85.94
397.474	82.94
397.698	88.94
397.922	88.94
398.147	88.94
398.371	80.94
398.595	87.94
398.82	89.94
399.044	89.94
399.268	74.94
399.492	72.94
399.717	91.94
399.941	79.94
400.165	74.94
400.389	92.94
400.613	74.94
400.837	80.94
401.062	94.94
401.286	90.94
401.51	79.94
401.734	82.94
401.958	82.94
402.182	86.94
402.406	82.94
402.63	94.94
402.854	92.94
403.078	88.94
403.302	93.94
403.526	95.94
403.75	89.94
403.974	66.94
404.198	84.94
404.422	93.94
404.645	83.94
404.869	95.94
405.093	85.94
405.317	87.94
405.541	82.94
405.765	68.94
405.988	82.94
406.212	86.94
406.436	85.94
406.66	91.94
406.883	67.94
407.107	83.94
407.331	85.94
407.555	75.94
407.778	86.94
408.002	103.94
408.226	89.94
408.449	93.94
408.673	91.94
408.896	87.94
409.12	82.94
409.344	89.94
409.567	81.94
409.791	91.94
410.014	88.94
410.238	81.94
410.461	85.94
410.685	90.94
410.908	88.94
411.132	73.94
411.355	86.94
411.578	83.94
411.802	72.94
412.025	89.94
412.249	83.94
412.472	78.94
412.695	75.94
412.919	78.94
413.142	67.94
413.365	78.94
413.589	76.94
413.812	92.94
414.035	83.94
414.258	74.94
414.482	86.94
414.705	91.94
414.928	89.94
415.151	84.94
415.374	78.94
415.597	79.94
415.821	87.94
416.044	99.94
416.267	83.94
416.49	79.94
416.713	86.94
416.936	93.94
417.159	84.94
417.382	81.94
417.605	83.94
417.828	81.94
418.051	77.94
418.274	85.94
418.497	73.94
418.72	80.94
418.943	92.94
419.166	75.94
419.389	83.94
419.611	85.94
419.834	82.94
420.057	102.94
420.28	75.94
420.503	87.94
420.726	81.94
420.948	92.94
421.171	92.94
421.394	70.94
421.617	84.94
421.839	94.94
422.062	78.94
422.285	86.94
422.507	81.94
422.73	91.94
422.953	82.94
423.175	73.94
423.398	65.94
423.621	82.94
423.843	82.94
424.066	78.94
424.288	82.94
424.511	84.94
424.733	84.94
424.956	87.94
425.178	88.94
425.401	77.94
425.623	78.94
425.846	79.94
426.068	74.94
426.291	91.94
426.513	89.94
426.735	82.94
426.958	105.94
427.18	88.94
427.402	82.94
427.625	88.94
427.847	85.94
428.069	74.94
428.292	89.94
428.514	63.94
428.736	85.94
428.958	88.94
429.181	82.94
429.403	86.94
429.625	82.94
429.847	78.94
430.069	74.94
430.292	87.94
430.514	76.94
430.736	89.94
430.958	84.94
431.18	74.94
431.402	76.94
431.624	88.94
431.846	79.94
432.068	92.94
432.29	85.94
432.512	97.94
432.734	91.94
432.956	83.94
433.178	85.94
433.4	89.94
433.622	91.94
433.844	80.94
434.066	86.94
434.287	85.94
434.509	77.94
434.731	73.94
434.953	94.94
435.175	81.94
435.397	69.94
435.618	81.94
435.84	79.94
436.062	81.94
436.284	76.94
436.505	91.94
436.727	78.94
436.949	89.94
437.17	77.94
437.392	90.94
437.614	87.94
437.835	87.94
438.057	78.94
438.278	74.94
438.5	97.94
438.721	75.94
438.943	80.94
439.165	71.94
439.386	70.94
439.608	93.94
439.829	97.94
440.05	90.94
440.272	93.94
440.493	73.94
440.715	77.94
440.936	82.94
441.158	91.94
441.379	72.94
441.6	74.94
441.822	93.94
442.043	99.94
442.264	105.94
442.486	94.94
442.707	67.94
442.928	65.94
443.149	81.94
443.371	84.94
443.592	94.94
443.813	98.94
444.034	94.94
444.255	92.94
444.476	89.94
444.698	67.94
444.919	86.94
445.14	161.94
445.361	126.94
445.582	86.94
445.803	97.94
446.024	94.94
446.245	82.94
446.466	88.94
446.687	89.94
446.908	85.94
447.129	87.94
447.35	92.94
447.571	85.94
447.792	90.94
448.013	87.94
448.234	89.94
448.455	86.94
448.675	78.94
448.896	91.94
449.117	74.94
449.338	74.94
449.559	82.94
449.779	92.94
450	89.94
450.221	91.94
450.442	81.94
450.662	92.94
450.883	90.94
451.104	84.94
451.324	72.94
451.545	94.94
451.766	90.94
451.986	78.94
452.207	85.94
452.428	81.94
452.648	90.94
452.869	88.94
453.089	79.94
453.31	73.94
453.53	85.94
453.751	87.94
453.971	69.94
454.192	84.94
454.412	86.94
454.633	82.94
454.853	80.94
455.073	74.94
455.294	65.94
455.514	89.94
455.734	73.94
455.955	76.94
456.175	78.94
456.395	87.94
456.616	67.94
456.836	105.94
457.056	85.94
457.276	73.94
457.497	102.94
457.717	74.94
457.937	93.94
458.157	73.94
458.377	63.94
458.598	89.94
458.818	77.94
459.038	79.94
459.258	79.94
459.478	81.94
459.698	71.94
459.918	65.94
460.138	78.94
460.358	100.94
460.578	71.94
460.798	88.94
461.018	90.94
461.238	79.94
461.458	83.94
461.678	86.94
461.898	103.94
462.118	85.94
462.338	91.94
462.558	105.94
462.777	73.94
462.997	93.94
463.217	87.94
463.437	91.94
463.657	93.94
463.876	75.94
464.096	83.94
464.316	83.94
464.536	88.94
464.755	76.94
464.975	95.94
465.195	80.94
465.414	87.94
465.634	79.94
465.854	73.94
466.073	81.94
466.293	98.94
466.512	79.94
466.732	81.94
466.951	88.94
467.171	81.94
467.391	87.94
467.61	89.94
467.829	83.94
468.049	86.94
468.268	83.94
468.488	66.94
468.707	71.94
468.927	79.94
469.146	82.94
469.365	87.94
469.585	73.94
469.804	79.94
470.023	80.94
470.243	93.94
470.462	89.94
470.681	92.94
470.901	92.94
471.12	86.94
471.339	94.94
471.558	77.94
471.777	90.94
471.997	85.94
472.216	87.94
472.435	82.94
472.654	79.94
472.873	83.94
473.092	65.94
473.311	79.94
473.53	88.94
473.749	96.94
473.968	93.94
474.187	82.94
474.406	81.94
474.625	92.94
474.844	88.94
475.063	68.94
475.282	76.94
475.501	92.94
475.72	85.94
475.939	77.94
476.158	74.94
476.377	83.94
476.596	81.94
476.814	89.94
477.033	85.94
477.252	82.94
477.471	85.94
477.69	91.94
477.908	88.94
478.127	74.94
478.346	89.94
478.564	74.94
478.783	89.94
479.002	88.94
479.22	80.94
479.439	75.94
479.658	86.94
479.876	88.94
480.095	62.94
480.313	91.94
480.532	95.94
480.751	77.94
480.969	82.94
481.188	98.94
481.406	74.94
481.624	88.94
481.843	76.94
482.061	90.94
482.28	82.94
482.498	61.94
482.717	96.94
482.935	80.94
483.153	87.94
483.372	97.94
483.59	84.94
483.808	87.94
484.027	81.94
484.245	87.94
484.463	86.94
484.681	91.94
484.9	87.94
485.118	90.94
485.336	87.94
485.554	86.94
485.772	76.94
485.99	94.94
486.209	81.94
486.427	80.94
486.645	82.94
486.863	72.94
487.081	75.94
487.299	78.94
487.517	81.94
487.735	82.94
487.953	107.94
488.171	101.94
488.389	73.94
488.607	76.94
488.825	79.94
489.043	72.94
489.261	89.94
489.479	79.94
489.696	65.94
489.914	82.94
490.132	89.94
490.35	85.94
490.568	89.94
490.786	83.94
491.003	85.94
491.221	91.94
491.439	78.94
491.657	101.94
491.874	78.94
492.092	87.94
492.31	82.94
492.527	91.94
492.745	91.94
492.963	90.94
493.18	96.94
493.398	95.94
493.615	88.94
493.833	86.94
494.05	77.94
494.268	96.94
494.485	91.94
494.703	103.94
494.92	85.94
495.138	85.94
495.355	85.94
495.573	82.94
495.79	95.94
496.008	89.94
496.225	82.94
496.442	80.94
496.66	86.94
496.877	88.94
497.094	93.94
497.312	105.94
497.529	89.94
497.746	88.94
497.963	103.94
498.181	78.94
498.398	87.94
498.615	86.94
498.832	77.94
499.049	80.94
499.267	92.94
499.484	86.94
499.701	81.94
499.918	89.94
500.135	74.94
500.352	86.94
500.569	77.94
500.786	89.94
501.003	75.94
501.22	79.94
501.437	73.94
501.654	80.94
501.871	73.94
502.088	89.94
502.305	77.94
502.522	82.94
502.739	91.94
502.956	79.94
503.172	81.94
503.389	98.94
503.606	95.94
503.823	86.94
504.04	78.94
504.256	91.94
504.473	77.94
504.69	77.94
504.907	85.94
505.123	95.94
505.34	79.94
505.557	98.94
505.773	98.94
505.99	84.94
506.207	91.94
506.423	91.94
506.64	92.94
506.856	93.94
507.073	78.94
507.289	89.94
507.506	90.94
507.722	85.94
507.939	86.94
508.155	90.94
508.372	83.94
508.588	83.94
508.805	88.94
509.021	105.94
509.238	91.94
509.454	77.94
509.67	74.94
509.887	74.94
510.103	73.94
510.319	84.94
510.536	95.94
510.752	75.94
510.968	83.94
511.184	80.94
511.401	83.94
511.617	85.94
511.833	87.94
512.049	90.94
512.265	77.94
512.481	81.94
512.698	75.94
512.914	91.94
513.13	72.94
513.346	70.94
513.562	89.94
513.778	78.94
513.994	79.94
514.21	85.94
514.426	89.94
514.642	82.94
514.858	79.94
515.074	89.94
515.29	83.94
515.506	68.94
515.721	79.94
515.937	81.94
516.153	81.94
516.369	92.94
516.585	80.94
516.801	91.94
517.016	81.94
517.232	97.94
517.448	87.94
517.664	78.94
517.879	69.94
518.095	85.94
518.311	92.94
518.527	82.94
518.742	79.94
518.958	85.94
519.173	88.94
519.389	91.94
519.605	66.94
519.82	81.94
