Data from StdD_HRD10591_021.txt Node
Date: Fri May 16 15:31:31 EDT 2025
User: Yrep
Spectrometer: HR+D1059
Trigger mode: 1
Integration Time (sec): 1.000000E-1
Scans to average: 1
Electric dark correction enabled: true
Nonlinearity correction enabled: false
Boxcar width: 0
XAxis mode: Wavelengths
Number of Pixels in Spectrum: 2048
>>>>>Begin Spectral Data<<<<<
223.165	-17.06
223.4	-17.06
223.635	-17.06
223.869	-11.06
224.104	-16.06
224.338	-18.06
224.573	-8.06
224.808	-32.06
225.042	-2.06
225.277	6.94
225.511	-3.06
225.746	5.94
225.98	-1.06
226.215	16.94
226.449	5.94
226.683	20.94
226.918	27.94
227.152	23.94
227.387	27.94
227.621	44.94
227.856	42.94
228.09	54.94
228.324	59.94
228.559	57.94
228.793	52.94
229.027	51.94
229.262	61.94
229.496	49.94
229.73	62.94
229.964	79.94
230.199	71.94
230.433	81.94
230.667	73.94
230.901	76.94
231.136	73.94
231.37	91.94
231.604	73.94
231.838	81.94
232.072	86.94
232.306	88.94
232.541	78.94
232.775	81.94
233.009	77.94
233.243	74.94
233.477	93.94
233.711	93.94
233.945	61.94
234.179	82.94
234.413	82.94
234.647	63.94
234.881	76.94
235.115	78.94
235.349	77.94
235.583	64.94
235.817	85.94
236.051	75.94
236.285	68.94
236.519	74.94
236.753	66.94
236.987	79.94
237.221	67.94
237.455	77.94
237.689	73.94
237.922	88.94
238.156	84.94
238.39	72.94
238.624	72.94
238.858	74.94
239.091	70.94
239.325	65.94
239.559	68.94
239.793	78.94
240.027	76.94
240.26	88.94
240.494	86.94
240.728	76.94
240.961	72.94
241.195	78.94
241.429	76.94
241.662	70.94
241.896	66.94
242.13	78.94
242.363	75.94
242.597	84.94
242.83	80.94
243.064	84.94
243.298	74.94
243.531	89.94
243.765	65.94
243.998	65.94
244.232	88.94
244.465	64.94
244.699	56.94
244.932	72.94
245.166	65.94
245.399	88.94
245.633	71.94
245.866	68.94
246.099	73.94
246.333	79.94
246.566	73.94
246.8	64.94
247.033	68.94
247.266	78.94
247.5	81.94
247.733	79.94
247.966	74.94
248.2	68.94
248.433	83.94
248.666	93.94
248.899	79.94
249.133	56.94
249.366	66.94
249.599	92.94
249.832	71.94
250.066	77.94
250.299	69.94
250.532	79.94
250.765	85.94
250.998	55.94
251.231	84.94
251.465	65.94
251.698	73.94
251.931	81.94
252.164	78.94
252.397	77.94
252.63	80.94
252.863	77.94
253.096	68.94
253.329	74.94
253.562	72.94
253.795	79.94
254.028	85.94
254.261	74.94
254.494	84.94
254.727	78.94
254.96	77.94
255.193	78.94
255.426	87.94
255.659	74.94
255.892	86.94
256.124	88.94
256.357	70.94
256.59	88.94
256.823	88.94
257.056	58.94
257.289	72.94
257.521	84.94
257.754	93.94
257.987	80.94
258.22	79.94
258.452	80.94
258.685	74.94
258.918	81.94
259.151	82.94
259.383	85.94
259.616	76.94
259.849	87.94
260.081	58.94
260.314	76.94
260.547	76.94
260.779	72.94
261.012	70.94
261.244	81.94
261.477	85.94
261.71	78.94
261.942	92.94
262.175	66.94
262.407	79.94
262.64	68.94
262.872	79.94
263.105	82.94
263.337	81.94
263.57	78.94
263.802	79.94
264.035	86.94
264.267	67.94
264.499	75.94
264.732	90.94
264.964	70.94
265.197	79.94
265.429	72.94
265.661	88.94
265.894	72.94
266.126	99.94
266.358	78.94
266.591	81.94
266.823	80.94
267.055	74.94
267.287	87.94
267.52	72.94
267.752	75.94
267.984	80.94
268.216	78.94
268.448	72.94
268.681	75.94
268.913	87.94
269.145	88.94
269.377	74.94
269.609	66.94
269.841	73.94
270.073	79.94
270.306	87.94
270.538	88.94
270.77	72.94
271.002	88.94
271.234	74.94
271.466	97.94
271.698	96.94
271.93	80.94
272.162	72.94
272.394	77.94
272.626	91.94
272.858	71.94
273.09	86.94
273.322	73.94
273.553	83.94
273.785	90.94
274.017	67.94
274.249	80.94
274.481	73.94
274.713	66.94
274.945	90.94
275.176	85.94
275.408	83.94
275.64	82.94
275.872	72.94
276.104	84.94
276.335	82.94
276.567	90.94
276.799	72.94
277.031	80.94
277.262	86.94
277.494	82.94
277.726	90.94
277.957	81.94
278.189	87.94
278.421	80.94
278.652	89.94
278.884	89.94
279.115	85.94
279.347	71.94
279.579	79.94
279.81	82.94
280.042	83.94
280.273	88.94
280.505	76.94
280.736	77.94
280.968	67.94
281.199	70.94
281.431	80.94
281.662	84.94
281.894	96.94
282.125	79.94
282.356	67.94
282.588	85.94
282.819	81.94
283.051	84.94
283.282	82.94
283.513	82.94
283.745	92.94
283.976	88.94
284.207	91.94
284.439	88.94
284.67	82.94
284.901	70.94
285.132	70.94
285.364	89.94
285.595	76.94
285.826	85.94
286.057	84.94
286.288	77.94
286.52	73.94
286.751	92.94
286.982	74.94
287.213	84.94
287.444	97.94
287.675	78.94
287.906	78.94
288.138	81.94
288.369	90.94
288.6	88.94
288.831	81.94
289.062	85.94
289.293	79.94
289.524	81.94
289.755	85.94
289.986	82.94
290.217	85.94
290.448	88.94
290.679	79.94
290.91	80.94
291.141	88.94
291.371	89.94
291.602	78.94
291.833	78.94
292.064	72.94
292.295	86.94
292.526	83.94
292.757	86.94
292.987	87.94
293.218	79.94
293.449	79.94
293.68	84.94
293.91	85.94
294.141	68.94
294.372	76.94
294.603	89.94
294.833	90.94
295.064	77.94
295.295	86.94
295.525	64.94
295.756	88.94
295.987	73.94
296.217	81.94
296.448	85.94
296.679	97.94
296.909	90.94
297.14	101.94
297.37	76.94
297.601	98.94
297.831	73.94
298.062	77.94
298.292	75.94
298.523	85.94
298.753	85.94
298.984	73.94
299.214	78.94
299.445	65.94
299.675	92.94
299.905	85.94
300.136	78.94
300.366	79.94
300.597	72.94
300.827	83.94
301.057	86.94
301.288	91.94
301.518	86.94
301.748	74.94
301.979	91.94
302.209	89.94
302.439	65.94
302.669	79.94
302.9	85.94
303.13	75.94
303.36	84.94
303.59	84.94
303.82	75.94
304.051	96.94
304.281	85.94
304.511	77.94
304.741	86.94
304.971	86.94
305.201	97.94
305.431	85.94
305.661	77.94
305.891	86.94
306.121	90.94
306.352	82.94
306.582	77.94
306.812	94.94
307.042	89.94
307.272	88.94
307.502	76.94
307.731	77.94
307.961	76.94
308.191	94.94
308.421	83.94
308.651	88.94
308.881	84.94
309.111	81.94
309.341	96.94
309.571	77.94
309.8	69.94
310.03	79.94
310.26	82.94
310.49	79.94
310.72	100.94
310.949	87.94
311.179	90.94
311.409	82.94
311.639	83.94
311.868	78.94
312.098	78.94
312.328	90.94
312.557	92.94
312.787	82.94
313.017	78.94
313.246	97.94
313.476	90.94
313.706	97.94
313.935	85.94
314.165	80.94
314.394	79.94
314.624	82.94
314.853	96.94
315.083	87.94
315.312	89.94
315.542	82.94
315.771	65.94
316.001	84.94
316.23	78.94
316.46	67.94
316.689	85.94
316.919	84.94
317.148	90.94
317.377	90.94
317.607	80.94
317.836	86.94
318.065	86.94
318.295	86.94
318.524	75.94
318.753	87.94
318.983	92.94
319.212	106.94
319.441	71.94
319.67	80.94
319.9	77.94
320.129	79.94
320.358	72.94
320.587	78.94
320.816	77.94
321.046	88.94
321.275	77.94
321.504	71.94
321.733	93.94
321.962	76.94
322.191	71.94
322.42	85.94
322.649	104.94
322.878	88.94
323.108	108.94
323.337	108.94
323.566	82.94
323.795	74.94
324.024	81.94
324.253	79.94
324.482	80.94
324.71	95.94
324.939	86.94
325.168	80.94
325.397	76.94
325.626	78.94
325.855	80.94
326.084	77.94
326.313	76.94
326.542	87.94
326.77	85.94
326.999	84.94
327.228	76.94
327.457	80.94
327.686	83.94
327.914	86.94
328.143	68.94
328.372	75.94
328.6	87.94
328.829	80.94
329.058	88.94
329.287	79.94
329.515	85.94
329.744	76.94
329.972	86.94
330.201	79.94
330.43	81.94
330.658	87.94
330.887	90.94
331.115	76.94
331.344	83.94
331.572	86.94
331.801	86.94
332.03	74.94
332.258	67.94
332.486	86.94
332.715	80.94
332.943	89.94
333.172	85.94
333.4	88.94
333.629	81.94
333.857	84.94
334.085	88.94
334.314	84.94
334.542	87.94
334.771	74.94
334.999	90.94
335.227	88.94
335.455	91.94
335.684	84.94
335.912	93.94
336.14	78.94
336.369	79.94
336.597	84.94
336.825	72.94
337.053	80.94
337.281	70.94
337.51	89.94
337.738	84.94
337.966	93.94
338.194	90.94
338.422	85.94
338.65	78.94
338.878	77.94
339.106	73.94
339.334	89.94
339.562	82.94
339.79	85.94
340.018	90.94
340.246	101.94
340.474	90.94
340.702	92.94
340.93	84.94
341.158	75.94
341.386	88.94
341.614	96.94
341.842	67.94
342.07	82.94
342.298	80.94
342.526	80.94
342.754	88.94
342.981	90.94
343.209	61.94
343.437	88.94
343.665	80.94
343.893	84.94
344.12	76.94
344.348	72.94
344.576	104.94
344.804	72.94
345.031	88.94
345.259	77.94
345.487	85.94
345.714	86.94
345.942	86.94
346.17	79.94
346.397	82.94
346.625	74.94
346.853	80.94
347.08	70.94
347.308	80.94
347.535	84.94
347.763	84.94
347.99	69.94
348.218	72.94
348.445	87.94
348.673	90.94
348.9	83.94
349.128	78.94
349.355	80.94
349.583	91.94
349.81	74.94
350.037	92.94
350.265	78.94
350.492	81.94
350.72	81.94
350.947	92.94
351.174	71.94
351.402	70.94
351.629	72.94
351.856	87.94
352.083	95.94
352.311	86.94
352.538	73.94
352.765	80.94
352.992	84.94
353.22	83.94
353.447	88.94
353.674	90.94
353.901	86.94
354.128	85.94
354.355	70.94
354.583	93.94
354.81	78.94
355.037	76.94
355.264	86.94
355.491	85.94
355.718	78.94
355.945	85.94
356.172	78.94
356.399	74.94
356.626	76.94
356.853	90.94
357.08	79.94
357.307	70.94
357.534	91.94
357.761	90.94
357.988	90.94
358.215	85.94
358.441	90.94
358.668	85.94
358.895	70.94
359.122	87.94
359.349	93.94
359.576	88.94
359.802	82.94
360.029	97.94
360.256	88.94
360.483	82.94
360.709	76.94
360.936	92.94
361.163	69.94
361.39	84.94
361.616	77.94
361.843	91.94
362.07	88.94
362.296	77.94
362.523	82.94
362.749	77.94
362.976	77.94
363.203	101.94
363.429	79.94
363.656	80.94
363.882	88.94
364.109	82.94
364.335	84.94
364.562	72.94
364.788	77.94
365.015	81.94
365.241	87.94
365.468	87.94
365.694	95.94
365.92	86.94
366.147	80.94
366.373	102.94
366.599	92.94
366.826	88.94
367.052	83.94
367.278	87.94
367.505	92.94
367.731	80.94
367.957	80.94
368.184	90.94
368.41	95.94
368.636	87.94
368.862	84.94
369.089	103.94
369.315	76.94
369.541	90.94
369.767	95.94
369.993	80.94
370.219	93.94
370.445	79.94
370.672	82.94
370.898	93.94
371.124	79.94
371.35	78.94
371.576	78.94
371.802	82.94
372.028	77.94
372.254	73.94
372.48	75.94
372.706	76.94
372.932	88.94
373.158	67.94
373.384	95.94
373.61	98.94
373.835	73.94
374.061	68.94
374.287	90.94
374.513	92.94
374.739	73.94
374.965	87.94
375.191	86.94
375.416	79.94
375.642	86.94
375.868	78.94
376.094	72.94
376.319	79.94
376.545	89.94
376.771	79.94
376.997	82.94
377.222	61.94
377.448	79.94
377.674	83.94
377.899	107.94
378.125	81.94
378.35	77.94
378.576	87.94
378.802	66.94
379.027	60.94
379.253	71.94
379.478	92.94
379.704	91.94
379.929	98.94
380.155	77.94
380.38	86.94
380.606	74.94
380.831	82.94
381.057	93.94
381.282	80.94
381.507	89.94
381.733	86.94
381.958	89.94
382.184	68.94
382.409	66.94
382.634	82.94
382.86	77.94
383.085	84.94
383.31	91.94
383.535	86.94
383.761	86.94
383.986	94.94
384.211	72.94
384.436	79.94
384.662	77.94
384.887	90.94
385.112	83.94
385.337	80.94
385.562	84.94
385.787	80.94
386.013	75.94
386.238	69.94
386.463	79.94
386.688	96.94
386.913	85.94
387.138	77.94
387.363	75.94
387.588	74.94
387.813	84.94
388.038	87.94
388.263	82.94
388.488	79.94
388.713	81.94
388.938	86.94
389.163	84.94
389.387	90.94
389.612	76.94
389.837	89.94
390.062	88.94
390.287	80.94
390.512	87.94
390.736	74.94
390.961	92.94
391.186	87.94
391.411	86.94
391.636	70.94
391.86	78.94
392.085	102.94
392.31	81.94
392.534	89.94
392.759	77.94
392.984	69.94
393.208	86.94
393.433	77.94
393.658	72.94
393.882	86.94
394.107	86.94
394.331	81.94
394.556	81.94
394.78	90.94
395.005	84.94
395.229	79.94
395.454	78.94
395.678	81.94
395.903	96.94
396.127	89.94
396.352	94.94
396.576	70.94
396.801	85.94
397.025	86.94
397.249	85.94
397.474	96.94
397.698	89.94
397.922	79.94
398.147	96.94
398.371	82.94
398.595	70.94
398.82	80.94
399.044	81.94
399.268	85.94
399.492	78.94
399.717	82.94
399.941	91.94
400.165	97.94
400.389	81.94
400.613	96.94
400.837	83.94
401.062	83.94
401.286	71.94
401.51	85.94
401.734	78.94
401.958	75.94
402.182	74.94
402.406	68.94
402.63	72.94
402.854	86.94
403.078	90.94
403.302	78.94
403.526	76.94
403.75	85.94
403.974	86.94
404.198	90.94
404.422	89.94
404.645	78.94
404.869	85.94
405.093	94.94
405.317	77.94
405.541	77.94
405.765	87.94
405.988	86.94
406.212	90.94
406.436	70.94
406.66	80.94
406.883	84.94
407.107	89.94
407.331	84.94
407.555	64.94
407.778	92.94
408.002	86.94
408.226	81.94
408.449	87.94
408.673	80.94
408.896	71.94
409.12	76.94
409.344	83.94
409.567	84.94
409.791	74.94
410.014	80.94
410.238	97.94
410.461	65.94
410.685	88.94
410.908	80.94
411.132	86.94
411.355	72.94
411.578	80.94
411.802	82.94
412.025	91.94
412.249	74.94
412.472	76.94
412.695	73.94
412.919	84.94
413.142	78.94
413.365	83.94
413.589	76.94
413.812	78.94
414.035	90.94
414.258	89.94
414.482	85.94
414.705	74.94
414.928	78.94
415.151	66.94
415.374	84.94
415.597	77.94
415.821	77.94
416.044	80.94
416.267	86.94
416.49	79.94
416.713	80.94
416.936	79.94
417.159	82.94
417.382	91.94
417.605	72.94
417.828	90.94
418.051	76.94
418.274	72.94
418.497	71.94
418.72	77.94
418.943	80.94
419.166	91.94
419.389	80.94
419.611	94.94
419.834	90.94
420.057	86.94
420.28	98.94
420.503	89.94
420.726	79.94
420.948	73.94
421.171	71.94
421.394	83.94
421.617	77.94
421.839	83.94
422.062	71.94
422.285	74.94
422.507	92.94
422.73	58.94
422.953	88.94
423.175	87.94
423.398	80.94
423.621	89.94
423.843	78.94
424.066	73.94
424.288	87.94
424.511	107.94
424.733	80.94
424.956	80.94
425.178	76.94
425.401	90.94
425.623	84.94
425.846	90.94
426.068	73.94
426.291	80.94
426.513	76.94
426.735	95.94
426.958	90.94
427.18	96.94
427.402	93.94
427.625	88.94
427.847	80.94
428.069	76.94
428.292	87.94
428.514	87.94
428.736	73.94
428.958	82.94
429.181	82.94
429.403	78.94
429.625	88.94
429.847	92.94
430.069	88.94
430.292	86.94
430.514	74.94
430.736	71.94
430.958	78.94
431.18	80.94
431.402	92.94
431.624	90.94
431.846	84.94
432.068	81.94
432.29	88.94
432.512	89.94
432.734	67.94
432.956	83.94
433.178	82.94
433.4	97.94
433.622	103.94
433.844	92.94
434.066	90.94
434.287	88.94
434.509	89.94
434.731	88.94
434.953	88.94
435.175	80.94
435.397	86.94
435.618	90.94
435.84	84.94
436.062	72.94
436.284	85.94
436.505	61.94
436.727	72.94
436.949	90.94
437.17	74.94
437.392	88.94
437.614	87.94
437.835	80.94
438.057	77.94
438.278	68.94
438.5	82.94
438.721	72.94
438.943	85.94
439.165	93.94
439.386	78.94
439.608	92.94
439.829	86.94
440.05	92.94
440.272	70.94
440.493	85.94
440.715	86.94
440.936	76.94
441.158	80.94
441.379	76.94
441.6	85.94
441.822	92.94
442.043	76.94
442.264	88.94
442.486	75.94
442.707	79.94
442.928	101.94
443.149	83.94
443.371	92.94
443.592	77.94
443.813	82.94
444.034	102.94
444.255	85.94
444.476	79.94
444.698	60.94
444.919	93.94
445.14	144.94
445.361	116.94
445.582	73.94
445.803	98.94
446.024	76.94
446.245	88.94
446.466	78.94
446.687	69.94
446.908	74.94
447.129	81.94
447.35	79.94
447.571	75.94
447.792	80.94
448.013	81.94
448.234	82.94
448.455	78.94
448.675	68.94
448.896	80.94
449.117	89.94
449.338	73.94
449.559	78.94
449.779	78.94
450	76.94
450.221	84.94
450.442	89.94
450.662	85.94
450.883	73.94
451.104	78.94
451.324	100.94
451.545	80.94
451.766	82.94
451.986	87.94
452.207	80.94
452.428	89.94
452.648	95.94
452.869	79.94
453.089	80.94
453.31	84.94
453.53	100.94
453.751	69.94
453.971	84.94
454.192	85.94
454.412	68.94
454.633	78.94
454.853	73.94
455.073	81.94
455.294	82.94
455.514	81.94
455.734	84.94
455.955	79.94
456.175	92.94
456.395	90.94
456.616	80.94
456.836	74.94
457.056	76.94
457.276	73.94
457.497	82.94
457.717	77.94
457.937	91.94
458.157	73.94
458.377	73.94
458.598	77.94
458.818	88.94
459.038	80.94
459.258	73.94
459.478	84.94
459.698	71.94
459.918	82.94
460.138	88.94
460.358	79.94
460.578	87.94
460.798	80.94
461.018	86.94
461.238	69.94
461.458	79.94
461.678	82.94
461.898	84.94
462.118	76.94
462.338	82.94
462.558	71.94
462.777	81.94
462.997	84.94
463.217	70.94
463.437	76.94
463.657	82.94
463.876	77.94
464.096	80.94
464.316	72.94
464.536	78.94
464.755	89.94
464.975	77.94
465.195	86.94
465.414	96.94
465.634	74.94
465.854	72.94
466.073	77.94
466.293	89.94
466.512	72.94
466.732	76.94
466.951	93.94
467.171	97.94
467.391	96.94
467.61	82.94
467.829	82.94
468.049	75.94
468.268	72.94
468.488	86.94
468.707	80.94
468.927	87.94
469.146	82.94
469.365	87.94
469.585	86.94
469.804	87.94
470.023	85.94
470.243	73.94
470.462	69.94
470.681	86.94
470.901	88.94
471.12	81.94
471.339	78.94
471.558	83.94
471.777	88.94
471.997	85.94
472.216	90.94
472.435	84.94
472.654	65.94
472.873	84.94
473.092	76.94
473.311	79.94
473.53	87.94
473.749	84.94
473.968	82.94
474.187	85.94
474.406	81.94
474.625	89.94
474.844	94.94
475.063	89.94
475.282	83.94
475.501	80.94
475.72	88.94
475.939	89.94
476.158	86.94
476.377	87.94
476.596	73.94
476.814	85.94
477.033	81.94
477.252	65.94
477.471	67.94
477.69	80.94
477.908	78.94
478.127	86.94
478.346	88.94
478.564	103.94
478.783	69.94
479.002	77.94
479.22	89.94
479.439	92.94
479.658	70.94
479.876	77.94
480.095	80.94
480.313	85.94
480.532	86.94
480.751	82.94
480.969	77.94
481.188	79.94
481.406	81.94
481.624	81.94
481.843	77.94
482.061	83.94
482.28	81.94
482.498	82.94
482.717	78.94
482.935	80.94
483.153	66.94
483.372	94.94
483.59	90.94
483.808	92.94
484.027	87.94
484.245	80.94
484.463	90.94
484.681	77.94
484.9	92.94
485.118	75.94
485.336	61.94
485.554	85.94
485.772	77.94
485.99	76.94
486.209	88.94
486.427	82.94
486.645	87.94
486.863	86.94
487.081	79.94
487.299	84.94
487.517	89.94
487.735	88.94
487.953	87.94
488.171	82.94
488.389	91.94
488.607	76.94
488.825	79.94
489.043	91.94
489.261	82.94
489.479	87.94
489.696	66.94
489.914	92.94
490.132	78.94
490.35	70.94
490.568	81.94
490.786	96.94
491.003	67.94
491.221	74.94
491.439	96.94
491.657	84.94
491.874	85.94
492.092	77.94
492.31	78.94
492.527	91.94
492.745	93.94
492.963	94.94
493.18	80.94
493.398	88.94
493.615	77.94
493.833	82.94
494.05	77.94
494.268	67.94
494.485	80.94
494.703	84.94
494.92	72.94
495.138	86.94
495.355	89.94
495.573	79.94
495.79	77.94
496.008	96.94
496.225	88.94
496.442	90.94
496.66	80.94
496.877	84.94
497.094	86.94
497.312	84.94
497.529	85.94
497.746	92.94
497.963	80.94
498.181	91.94
498.398	88.94
498.615	73.94
498.832	80.94
499.049	76.94
499.267	86.94
499.484	77.94
499.701	73.94
499.918	85.94
500.135	88.94
500.352	87.94
500.569	80.94
500.786	86.94
501.003	81.94
501.22	94.94
501.437	76.94
501.654	88.94
501.871	89.94
502.088	87.94
502.305	82.94
502.522	79.94
502.739	84.94
502.956	81.94
503.172	88.94
503.389	80.94
503.606	86.94
503.823	90.94
504.04	82.94
504.256	82.94
504.473	101.94
504.69	87.94
504.907	78.94
505.123	80.94
505.34	83.94
505.557	84.94
505.773	86.94
505.99	89.94
506.207	71.94
506.423	85.94
506.64	83.94
506.856	79.94
507.073	76.94
507.289	81.94
507.506	84.94
507.722	88.94
507.939	82.94
508.155	80.94
508.372	86.94
508.588	82.94
508.805	85.94
509.021	76.94
509.238	88.94
509.454	80.94
509.67	69.94
509.887	81.94
510.103	89.94
510.319	85.94
510.536	82.94
510.752	81.94
510.968	96.94
511.184	88.94
511.401	87.94
511.617	83.94
511.833	86.94
512.049	89.94
512.265	84.94
512.481	85.94
512.698	92.94
512.914	93.94
513.13	81.94
513.346	80.94
513.562	76.94
513.778	92.94
513.994	87.94
514.21	89.94
514.426	89.94
514.642	82.94
514.858	88.94
515.074	88.94
515.29	78.94
515.506	78.94
515.721	89.94
515.937	85.94
516.153	101.94
516.369	72.94
516.585	78.94
516.801	70.94
517.016	76.94
517.232	83.94
517.448	72.94
517.664	90.94
517.879	89.94
518.095	72.94
518.311	82.94
518.527	78.94
518.742	81.94
518.958	80.94
519.173	79.94
519.389	77.94
519.605	89.94
519.82	82.94
520.036	97.94
