Data from StdD_HRD10591_001.txt Node
Date: Fri May 16 15:31:21 EDT 2025
User: Yrep
Spectrometer: HR+D1059
Trigger mode: 1
Integration Time (sec): 1.000000E-1
Scans to average: 1
Electric dark correction enabled: true
Nonlinearity correction enabled: false
Boxcar width: 0
XAxis mode: Wavelengths
Number of Pixels in Spectrum: 2048
>>>>>Begin Spectral Data<<<<<
223.165	-8.5
223.4	-8.5
223.635	-8.5
223.869	-41.5
224.104	-23.5
224.338	-14.5
224.573	-7.5
224.808	-7.5
225.042	-10.5
225.277	-7.5
225.511	-11.5
225.746	5.5
225.98	10.5
226.215	19.5
226.449	22.5
226.683	16.5
226.918	37.5
227.152	20.5
227.387	34.5
227.621	30.5
227.856	61.5
228.09	48.5
228.324	54.5
228.559	60.5
228.793	61.5
229.027	67.5
229.262	50.5
229.496	65.5
229.73	66.5
229.964	79.5
230.199	74.5
230.433	71.5
230.667	77.5
230.901	77.5
231.136	73.5
231.37	73.5
231.604	81.5
231.838	63.5
232.072	71.5
232.306	80.5
232.541	76.5
232.775	75.5
233.009	78.5
233.243	63.5
233.477	84.5
233.711	85.5
233.945	105.5
234.179	84.5
234.413	88.5
234.647	81.5
234.881	88.5
235.115	79.5
235.349	66.5
235.583	86.5
235.817	59.5
236.051	73.5
236.285	70.5
236.519	78.5
236.753	92.5
236.987	66.5
237.221	71.5
237.455	74.5
237.689	74.5
237.922	86.5
238.156	73.5
238.39	68.5
238.624	79.5
238.858	57.5
239.091	68.5
239.325	64.5
239.559	79.5
239.793	65.5
240.027	72.5
240.26	76.5
240.494	77.5
240.728	75.5
240.961	74.5
241.195	70.5
241.429	82.5
241.662	70.5
241.896	77.5
242.13	84.5
242.363	80.5
242.597	93.5
242.83	78.5
243.064	79.5
243.298	90.5
243.531	72.5
243.765	79.5
243.998	67.5
244.232	63.5
244.465	76.5
244.699	79.5
244.932	79.5
245.166	72.5
245.399	75.5
245.633	84.5
245.866	74.5
246.099	84.5
246.333	71.5
246.566	75.5
246.8	80.5
247.033	78.5
247.266	69.5
247.5	85.5
247.733	73.5
247.966	81.5
248.2	94.5
248.433	77.5
248.666	93.5
248.899	84.5
249.133	74.5
249.366	66.5
249.599	87.5
249.832	85.5
250.066	84.5
250.299	65.5
250.532	87.5
250.765	83.5
250.998	79.5
251.231	87.5
251.465	65.5
251.698	66.5
251.931	92.5
252.164	77.5
252.397	73.5
252.63	91.5
252.863	73.5
253.096	78.5
253.329	93.5
253.562	77.5
253.795	85.5
254.028	77.5
254.261	83.5
254.494	66.5
254.727	82.5
254.96	87.5
255.193	73.5
255.426	72.5
255.659	55.5
255.892	79.5
256.124	65.5
256.357	86.5
256.59	69.5
256.823	59.5
257.056	83.5
257.289	82.5
257.521	62.5
257.754	79.5
257.987	82.5
258.22	80.5
258.452	67.5
258.685	81.5
258.918	81.5
259.151	76.5
259.383	67.5
259.616	79.5
259.849	77.5
260.081	77.5
260.314	71.5
260.547	68.5
260.779	86.5
261.012	82.5
261.244	77.5
261.477	81.5
261.71	77.5
261.942	85.5
262.175	84.5
262.407	72.5
262.64	66.5
262.872	81.5
263.105	78.5
263.337	86.5
263.57	81.5
263.802	72.5
264.035	76.5
264.267	89.5
264.499	88.5
264.732	99.5
264.964	88.5
265.197	84.5
265.429	70.5
265.661	73.5
265.894	62.5
266.126	70.5
266.358	84.5
266.591	98.5
266.823	70.5
267.055	84.5
267.287	77.5
267.52	86.5
267.752	76.5
267.984	73.5
268.216	71.5
268.448	77.5
268.681	96.5
268.913	73.5
269.145	90.5
269.377	91.5
269.609	84.5
269.841	87.5
270.073	81.5
270.306	77.5
270.538	76.5
270.77	80.5
271.002	70.5
271.234	77.5
271.466	85.5
271.698	69.5
271.93	76.5
272.162	83.5
272.394	84.5
272.626	80.5
272.858	79.5
273.09	69.5
273.322	74.5
273.553	80.5
273.785	84.5
274.017	78.5
274.249	69.5
274.481	78.5
274.713	96.5
274.945	86.5
275.176	80.5
275.408	80.5
275.64	84.5
275.872	92.5
276.104	91.5
276.335	84.5
276.567	83.5
276.799	101.5
277.031	63.5
277.262	78.5
277.494	81.5
277.726	95.5
277.957	69.5
278.189	72.5
278.421	73.5
278.652	79.5
278.884	80.5
279.115	81.5
279.347	84.5
279.579	84.5
279.81	79.5
280.042	77.5
280.273	86.5
280.505	90.5
280.736	84.5
280.968	74.5
281.199	87.5
281.431	88.5
281.662	73.5
281.894	90.5
282.125	96.5
282.356	81.5
282.588	86.5
282.819	90.5
283.051	80.5
283.282	87.5
283.513	76.5
283.745	90.5
283.976	84.5
284.207	71.5
284.439	93.5
284.67	92.5
284.901	85.5
285.132	65.5
285.364	78.5
285.595	82.5
285.826	83.5
286.057	84.5
286.288	80.5
286.52	88.5
286.751	81.5
286.982	88.5
287.213	90.5
287.444	64.5
287.675	86.5
287.906	78.5
288.138	92.5
288.369	90.5
288.6	67.5
288.831	81.5
289.062	63.5
289.293	72.5
289.524	80.5
289.755	82.5
289.986	78.5
290.217	91.5
290.448	72.5
290.679	71.5
290.91	75.5
291.141	84.5
291.371	84.5
291.602	81.5
291.833	85.5
292.064	90.5
292.295	97.5
292.526	101.5
292.757	81.5
292.987	72.5
293.218	80.5
293.449	69.5
293.68	79.5
293.91	76.5
294.141	80.5
294.372	77.5
294.603	82.5
294.833	85.5
295.064	80.5
295.295	84.5
295.525	77.5
295.756	86.5
295.987	72.5
296.217	62.5
296.448	90.5
296.679	74.5
296.909	91.5
297.14	87.5
297.37	88.5
297.601	81.5
297.831	90.5
298.062	84.5
298.292	76.5
298.523	95.5
298.753	88.5
298.984	80.5
299.214	81.5
299.445	82.5
299.675	82.5
299.905	82.5
300.136	82.5
300.366	85.5
300.597	78.5
300.827	70.5
301.057	88.5
301.288	89.5
301.518	89.5
301.748	84.5
301.979	99.5
302.209	72.5
302.439	81.5
302.669	72.5
302.9	82.5
303.13	73.5
303.36	80.5
303.59	85.5
303.82	89.5
304.051	89.5
304.281	92.5
304.511	70.5
304.741	84.5
304.971	86.5
305.201	85.5
305.431	94.5
305.661	79.5
305.891	72.5
306.121	92.5
306.352	76.5
306.582	74.5
306.812	86.5
307.042	87.5
307.272	87.5
307.502	76.5
307.731	79.5
307.961	81.5
308.191	77.5
308.421	81.5
308.651	80.5
308.881	98.5
309.111	66.5
309.341	84.5
309.571	80.5
309.8	85.5
310.03	77.5
310.26	69.5
310.49	73.5
310.72	80.5
310.949	80.5
311.179	70.5
311.409	67.5
311.639	88.5
311.868	81.5
312.098	77.5
312.328	86.5
312.557	87.5
312.787	73.5
313.017	83.5
313.246	81.5
313.476	70.5
313.706	86.5
313.935	75.5
314.165	98.5
314.394	91.5
314.624	97.5
314.853	79.5
315.083	88.5
315.312	72.5
315.542	86.5
315.771	86.5
316.001	92.5
316.23	86.5
316.46	96.5
316.689	76.5
316.919	81.5
317.148	90.5
317.377	90.5
317.607	66.5
317.836	85.5
318.065	88.5
318.295	106.5
318.524	89.5
318.753	95.5
318.983	83.5
319.212	90.5
319.441	80.5
319.67	80.5
319.9	73.5
320.129	80.5
320.358	73.5
320.587	88.5
320.816	78.5
321.046	71.5
321.275	97.5
321.504	71.5
321.733	81.5
321.962	78.5
322.191	95.5
322.42	80.5
322.649	68.5
322.878	87.5
323.108	79.5
323.337	79.5
323.566	84.5
323.795	83.5
324.024	84.5
324.253	82.5
324.482	71.5
324.71	87.5
324.939	90.5
325.168	84.5
325.397	73.5
325.626	77.5
325.855	84.5
326.084	79.5
326.313	88.5
326.542	81.5
326.77	75.5
326.999	77.5
327.228	85.5
327.457	82.5
327.686	80.5
327.914	79.5
328.143	102.5
328.372	95.5
328.6	81.5
328.829	77.5
329.058	79.5
329.287	91.5
329.515	87.5
329.744	85.5
329.972	78.5
330.201	84.5
330.43	90.5
330.658	90.5
330.887	90.5
331.115	87.5
331.344	76.5
331.572	78.5
331.801	77.5
332.03	100.5
332.258	78.5
332.486	81.5
332.715	82.5
332.943	73.5
333.172	89.5
333.4	79.5
333.629	77.5
333.857	81.5
334.085	80.5
334.314	78.5
334.542	81.5
334.771	77.5
334.999	75.5
335.227	83.5
335.455	95.5
335.684	88.5
335.912	77.5
336.14	85.5
336.369	87.5
336.597	95.5
336.825	76.5
337.053	90.5
337.281	79.5
337.51	75.5
337.738	89.5
337.966	73.5
338.194	74.5
338.422	87.5
338.65	80.5
338.878	87.5
339.106	76.5
339.334	92.5
339.562	67.5
339.79	82.5
340.018	94.5
340.246	81.5
340.474	82.5
340.702	75.5
340.93	77.5
341.158	85.5
341.386	98.5
341.614	88.5
341.842	85.5
342.07	73.5
342.298	70.5
342.526	77.5
342.754	92.5
342.981	81.5
343.209	72.5
343.437	90.5
343.665	87.5
343.893	66.5
344.12	87.5
344.348	90.5
344.576	73.5
344.804	79.5
345.031	76.5
345.259	86.5
345.487	74.5
345.714	84.5
345.942	84.5
346.17	77.5
346.397	93.5
346.625	77.5
346.853	78.5
347.08	79.5
347.308	79.5
347.535	60.5
347.763	81.5
347.99	80.5
348.218	84.5
348.445	89.5
348.673	79.5
348.9	90.5
349.128	76.5
349.355	84.5
349.583	89.5
349.81	84.5
350.037	92.5
350.265	90.5
350.492	82.5
350.72	86.5
350.947	79.5
351.174	77.5
351.402	76.5
351.629	85.5
351.856	72.5
352.083	71.5
352.311	86.5
352.538	79.5
352.765	85.5
352.992	80.5
353.22	82.5
353.447	93.5
353.674	82.5
353.901	84.5
354.128	88.5
354.355	77.5
354.583	81.5
354.81	75.5
355.037	85.5
355.264	78.5
355.491	80.5
355.718	84.5
355.945	79.5
356.172	75.5
356.399	83.5
356.626	75.5
356.853	72.5
357.08	81.5
357.307	84.5
357.534	90.5
357.761	87.5
357.988	83.5
358.215	66.5
358.441	65.5
358.668	77.5
358.895	81.5
359.122	78.5
359.349	94.5
359.576	77.5
359.802	82.5
360.029	79.5
360.256	78.5
360.483	81.5
360.709	78.5
360.936	72.5
361.163	62.5
361.39	75.5
361.616	77.5
361.843	85.5
362.07	78.5
362.296	71.5
362.523	94.5
362.749	73.5
362.976	78.5
363.203	82.5
363.429	75.5
363.656	85.5
363.882	89.5
364.109	94.5
364.335	66.5
364.562	81.5
364.788	72.5
365.015	78.5
365.241	71.5
365.468	93.5
365.694	81.5
365.92	82.5
366.147	87.5
366.373	74.5
366.599	75.5
366.826	81.5
367.052	74.5
367.278	84.5
367.505	77.5
367.731	87.5
367.957	88.5
368.184	81.5
368.41	79.5
368.636	82.5
368.862	65.5
369.089	92.5
369.315	80.5
369.541	72.5
369.767	79.5
369.993	84.5
370.219	72.5
370.445	74.5
370.672	73.5
370.898	74.5
371.124	84.5
371.35	79.5
371.576	82.5
371.802	74.5
372.028	70.5
372.254	84.5
372.48	83.5
372.706	83.5
372.932	96.5
373.158	86.5
373.384	71.5
373.61	80.5
373.835	92.5
374.061	66.5
374.287	79.5
374.513	85.5
374.739	93.5
374.965	78.5
375.191	93.5
375.416	95.5
375.642	80.5
375.868	88.5
376.094	79.5
376.319	68.5
376.545	67.5
376.771	78.5
376.997	81.5
377.222	73.5
377.448	83.5
377.674	69.5
377.899	73.5
378.125	79.5
378.35	79.5
378.576	73.5
378.802	77.5
379.027	74.5
379.253	92.5
379.478	81.5
379.704	81.5
379.929	94.5
380.155	88.5
380.38	78.5
380.606	82.5
380.831	72.5
381.057	80.5
381.282	85.5
381.507	69.5
381.733	75.5
381.958	84.5
382.184	84.5
382.409	79.5
382.634	81.5
382.86	78.5
383.085	88.5
383.31	72.5
383.535	80.5
383.761	78.5
383.986	68.5
384.211	88.5
384.436	72.5
384.662	62.5
384.887	89.5
385.112	80.5
385.337	70.5
385.562	77.5
385.787	80.5
386.013	95.5
386.238	72.5
386.463	87.5
386.688	97.5
386.913	84.5
387.138	91.5
387.363	73.5
387.588	78.5
387.813	69.5
388.038	82.5
388.263	85.5
388.488	85.5
388.713	77.5
388.938	73.5
389.163	85.5
389.387	79.5
389.612	76.5
389.837	90.5
390.062	87.5
390.287	85.5
390.512	72.5
390.736	76.5
390.961	88.5
391.186	84.5
391.411	85.5
391.636	77.5
391.86	95.5
392.085	93.5
392.31	69.5
392.534	82.5
392.759	75.5
392.984	89.5
393.208	76.5
393.433	78.5
393.658	73.5
393.882	69.5
394.107	79.5
394.331	82.5
394.556	62.5
394.78	77.5
395.005	69.5
395.229	79.5
395.454	82.5
395.678	80.5
395.903	88.5
396.127	73.5
396.352	73.5
396.576	64.5
396.801	77.5
397.025	78.5
397.249	86.5
397.474	84.5
397.698	83.5
397.922	77.5
398.147	73.5
398.371	64.5
398.595	82.5
398.82	85.5
399.044	76.5
399.268	77.5
399.492	72.5
399.717	84.5
399.941	76.5
400.165	79.5
400.389	85.5
400.613	78.5
400.837	91.5
401.062	84.5
401.286	77.5
401.51	85.5
401.734	70.5
401.958	79.5
402.182	75.5
402.406	74.5
402.63	82.5
402.854	71.5
403.078	80.5
403.302	84.5
403.526	80.5
403.75	96.5
403.974	81.5
404.198	83.5
404.422	84.5
404.645	79.5
404.869	98.5
405.093	84.5
405.317	92.5
405.541	78.5
405.765	76.5
405.988	78.5
406.212	90.5
406.436	90.5
406.66	82.5
406.883	84.5
407.107	94.5
407.331	77.5
407.555	72.5
407.778	73.5
408.002	104.5
408.226	85.5
408.449	75.5
408.673	79.5
408.896	64.5
409.12	75.5
409.344	87.5
409.567	80.5
409.791	77.5
410.014	66.5
410.238	87.5
410.461	88.5
410.685	75.5
410.908	79.5
411.132	77.5
411.355	71.5
411.578	82.5
411.802	82.5
412.025	95.5
412.249	82.5
412.472	67.5
412.695	81.5
412.919	86.5
413.142	78.5
413.365	79.5
413.589	88.5
413.812	95.5
414.035	91.5
414.258	79.5
414.482	85.5
414.705	69.5
414.928	86.5
415.151	90.5
415.374	89.5
415.597	72.5
415.821	80.5
416.044	80.5
416.267	85.5
416.49	76.5
416.713	88.5
416.936	78.5
417.159	84.5
417.382	76.5
417.605	91.5
417.828	89.5
418.051	70.5
418.274	80.5
418.497	88.5
418.72	80.5
418.943	78.5
419.166	82.5
419.389	76.5
419.611	91.5
419.834	80.5
420.057	72.5
420.28	78.5
420.503	82.5
420.726	85.5
420.948	86.5
421.171	84.5
421.394	84.5
421.617	76.5
421.839	89.5
422.062	89.5
422.285	93.5
422.507	76.5
422.73	81.5
422.953	71.5
423.175	71.5
423.398	69.5
423.621	78.5
423.843	78.5
424.066	84.5
424.288	79.5
424.511	78.5
424.733	81.5
424.956	81.5
425.178	74.5
425.401	76.5
425.623	74.5
425.846	67.5
426.068	84.5
426.291	80.5
426.513	91.5
426.735	85.5
426.958	77.5
427.18	73.5
427.402	73.5
427.625	77.5
427.847	80.5
428.069	75.5
428.292	78.5
428.514	96.5
428.736	76.5
428.958	85.5
429.181	92.5
429.403	72.5
429.625	82.5
429.847	87.5
430.069	87.5
430.292	86.5
430.514	79.5
430.736	76.5
430.958	94.5
431.18	81.5
431.402	89.5
431.624	89.5
431.846	65.5
432.068	75.5
432.29	86.5
432.512	84.5
432.734	71.5
432.956	73.5
433.178	85.5
433.4	79.5
433.622	72.5
433.844	85.5
434.066	86.5
434.287	90.5
434.509	86.5
434.731	84.5
434.953	87.5
435.175	92.5
435.397	78.5
435.618	63.5
435.84	70.5
436.062	84.5
436.284	80.5
436.505	77.5
436.727	72.5
436.949	88.5
437.17	79.5
437.392	70.5
437.614	84.5
437.835	77.5
438.057	79.5
438.278	77.5
438.5	77.5
438.721	72.5
438.943	84.5
439.165	86.5
439.386	78.5
439.608	87.5
439.829	76.5
440.05	75.5
440.272	85.5
440.493	81.5
440.715	77.5
440.936	72.5
441.158	81.5
441.379	84.5
441.6	87.5
441.822	87.5
442.043	74.5
442.264	76.5
442.486	84.5
442.707	67.5
442.928	73.5
443.149	97.5
443.371	87.5
443.592	74.5
443.813	86.5
444.034	78.5
444.255	79.5
444.476	83.5
444.698	85.5
444.919	88.5
445.14	167.5
445.361	133.5
445.582	108.5
445.803	78.5
446.024	72.5
446.245	79.5
446.466	79.5
446.687	79.5
446.908	73.5
447.129	84.5
447.35	61.5
447.571	80.5
447.792	96.5
448.013	82.5
448.234	78.5
448.455	73.5
448.675	82.5
448.896	82.5
449.117	76.5
449.338	68.5
449.559	79.5
449.779	76.5
450	67.5
450.221	85.5
450.442	93.5
450.662	67.5
450.883	90.5
451.104	86.5
451.324	77.5
451.545	72.5
451.766	77.5
451.986	84.5
452.207	64.5
452.428	77.5
452.648	87.5
452.869	74.5
453.089	83.5
453.31	77.5
453.53	80.5
453.751	73.5
453.971	75.5
454.192	76.5
454.412	86.5
454.633	75.5
454.853	86.5
455.073	85.5
455.294	81.5
455.514	76.5
455.734	66.5
455.955	82.5
456.175	83.5
456.395	74.5
456.616	85.5
456.836	91.5
457.056	69.5
457.276	78.5
457.497	76.5
457.717	83.5
457.937	67.5
458.157	84.5
458.377	68.5
458.598	70.5
458.818	78.5
459.038	82.5
459.258	92.5
459.478	84.5
459.698	74.5
459.918	67.5
460.138	80.5
460.358	82.5
460.578	78.5
460.798	82.5
461.018	78.5
461.238	79.5
461.458	75.5
461.678	81.5
461.898	66.5
462.118	83.5
462.338	97.5
462.558	93.5
462.777	89.5
462.997	94.5
463.217	97.5
463.437	86.5
463.657	81.5
463.876	80.5
464.096	89.5
464.316	82.5
464.536	70.5
464.755	82.5
464.975	73.5
465.195	88.5
465.414	76.5
465.634	76.5
465.854	85.5
466.073	100.5
466.293	66.5
466.512	83.5
466.732	86.5
466.951	86.5
467.171	106.5
467.391	84.5
467.61	96.5
467.829	85.5
468.049	84.5
468.268	79.5
468.488	85.5
468.707	84.5
468.927	88.5
469.146	85.5
469.365	89.5
469.585	85.5
469.804	58.5
470.023	66.5
470.243	78.5
470.462	89.5
470.681	87.5
470.901	84.5
471.12	84.5
471.339	83.5
471.558	82.5
471.777	87.5
471.997	68.5
472.216	73.5
472.435	79.5
472.654	81.5
472.873	90.5
473.092	92.5
473.311	84.5
473.53	79.5
473.749	88.5
473.968	89.5
474.187	82.5
474.406	70.5
474.625	81.5
474.844	76.5
475.063	80.5
475.282	89.5
475.501	88.5
475.72	91.5
475.939	63.5
476.158	76.5
476.377	82.5
476.596	79.5
476.814	80.5
477.033	79.5
477.252	71.5
477.471	72.5
477.69	79.5
477.908	74.5
478.127	85.5
478.346	80.5
478.564	89.5
478.783	87.5
479.002	94.5
479.22	83.5
479.439	80.5
479.658	72.5
479.876	82.5
480.095	72.5
480.313	77.5
480.532	72.5
480.751	75.5
480.969	72.5
481.188	82.5
481.406	82.5
481.624	84.5
481.843	67.5
482.061	103.5
482.28	91.5
482.498	87.5
482.717	77.5
482.935	70.5
483.153	81.5
483.372	78.5
483.59	93.5
483.808	89.5
484.027	73.5
484.245	80.5
484.463	75.5
484.681	93.5
484.9	92.5
485.118	87.5
485.336	82.5
485.554	77.5
485.772	73.5
485.99	81.5
486.209	80.5
486.427	64.5
486.645	78.5
486.863	73.5
487.081	88.5
487.299	86.5
487.517	75.5
487.735	82.5
487.953	75.5
488.171	90.5
488.389	88.5
488.607	74.5
488.825	76.5
489.043	72.5
489.261	85.5
489.479	79.5
489.696	79.5
489.914	77.5
490.132	95.5
490.35	78.5
490.568	76.5
490.786	95.5
491.003	90.5
491.221	85.5
491.439	92.5
491.657	83.5
491.874	95.5
492.092	97.5
492.31	93.5
492.527	84.5
492.745	96.5
492.963	70.5
493.18	95.5
493.398	88.5
493.615	87.5
493.833	77.5
494.05	89.5
494.268	90.5
494.485	87.5
494.703	91.5
494.92	90.5
495.138	88.5
495.355	88.5
495.573	81.5
495.79	95.5
496.008	76.5
496.225	90.5
496.442	90.5
496.66	93.5
496.877	77.5
497.094	86.5
497.312	82.5
497.529	84.5
497.746	81.5
497.963	76.5
498.181	74.5
498.398	60.5
498.615	90.5
498.832	92.5
499.049	81.5
499.267	78.5
499.484	63.5
499.701	84.5
499.918	84.5
500.135	85.5
500.352	91.5
500.569	75.5
500.786	65.5
501.003	70.5
501.22	74.5
501.437	71.5
501.654	86.5
501.871	80.5
502.088	93.5
502.305	97.5
502.522	79.5
502.739	84.5
502.956	84.5
503.172	68.5
503.389	95.5
503.606	78.5
503.823	82.5
504.04	88.5
504.256	100.5
504.473	73.5
504.69	78.5
504.907	84.5
505.123	89.5
505.34	78.5
505.557	90.5
505.773	82.5
505.99	87.5
506.207	71.5
506.423	80.5
506.64	87.5
506.856	87.5
507.073	76.5
507.289	77.5
507.506	92.5
507.722	89.5
507.939	79.5
508.155	80.5
508.372	87.5
508.588	80.5
508.805	73.5
509.021	76.5
509.238	80.5
509.454	81.5
509.67	73.5
509.887	89.5
510.103	87.5
510.319	85.5
510.536	65.5
510.752	64.5
510.968	72.5
511.184	62.5
511.401	82.5
511.617	83.5
511.833	72.5
512.049	85.5
512.265	81.5
512.481	76.5
512.698	86.5
512.914	78.5
513.13	83.5
513.346	77.5
513.562	96.5
513.778	73.5
513.994	88.5
514.21	85.5
514.426	79.5
514.642	81.5
514.858	89.5
515.074	97.5
515.29	79.5
515.506	85.5
515.721	81.5
515.937	88.5
516.153	69.5
516.369	72.5
516.585	89.5
516.801	82.5
517.016	74.5
517.232	78.5
517.448	75.5
517.664	85.5
517.879	84.5
518.095	84.5
518.311	74.5
518.527	83.5
518.742	86.5
518.958	86.5
519.173	84.5
519.389	78.5
519.605	83.5
519.82	70.5
520.036	78.5
520.251	85.5
520.467	90.5
520.682	84.5
520.898	81.5
521.113	84.5
521.329	83.5
521.544	90.5
521.76	87.5
521.975	78.5
522.19	84.5
522.406	74.5
522.621	90.5
522.836	80.5
523.052	86.5
523.267	85.5
523.482	73.5
523.698	85.5
523.913	73.5
524.128	82.5
524.343	79.5
524.559	93.5
524.774	80.5
524.989	84.5
525.204	89.5
525.419	72.5
525.634	88.5
525.849	85.5
526.064	72.5
526.28	92.5
526.495	75.5
526.71	88.5
526.925	81.5
527.14	74.5
527.355	78.5
527.57	84.5
527.785	78.5
527.999	81.5
528.214	73.5
528.429	76.5
528.644	81.5
528.859	76.5
529.074	81.5
529.289	84.5
529.503	80.5
529.718	87.5
529.933	85.5
530.148	83.5
530.363	87.5
530.577	89.5
530.792	72.5
531.007	92.5
531.221	96.5
531.436	70.5
531.651	86.5
531.865	93.5
532.08	77.5
532.295	73.5
532.509	80.5
532.724	72.5
532.938	74.5
533.153	81.5
533.367	73.5
533.582	80.5
533.796	83.5
534.011	73.5
534.225	84.5
534.44	68.5
534.654	80.5
534.868	74.5
535.083	84.5
535.297	84.5
535.511	84.5
535.726	78.5
535.94	98.5
536.154	91.5
536.369	90.5
536.583	76.5
536.797	88.5
537.011	73.5
537.225	75.5
537.44	69.5
537.654	84.5
537.868	73.5
538.082	78.5
538.296	78.5
538.51	84.5
538.724	84.5
538.938	74.5
539.153	82.5
539.367	79.5
539.581	92.5
539.795	88.5
540.009	75.5
540.222	80.5
540.436	87.5
540.65	86.5
