Data from StdD_HRD10591_046.txt Node
Date: Fri May 16 15:31:44 EDT 2025
User: Yrep
Spectrometer: HR+D1059
Trigger mode: 1
Integration Time (sec): 1.000000E-1
Scans to average: 1
Electric dark correction enabled: true
Nonlinearity correction enabled: false
Boxcar width: 0
XAxis mode: Wavelengths
Number of Pixels in Spectrum: 2048
>>>>>Begin Spectral Data<<<<<
223.165	-8.12
223.4	-8.12
223.635	-8.12
223.869	-5.12
224.104	-19.12
224.338	-5.12
224.573	-20.12
224.808	-23.12
225.042	-13.12
225.277	0.88
225.511	-1.12
225.746	2.88
225.98	9.88
226.215	9.88
226.449	12.88
226.683	12.88
226.918	13.88
227.152	31.88
227.387	28.88
227.621	44.88
227.856	61.88
228.09	46.88
228.324	52.88
228.559	54.88
228.793	50.88
229.027	60.88
229.262	65.88
229.496	75.88
229.73	80.88
229.964	64.88
230.199	55.88
230.433	69.88
230.667	80.88
230.901	76.88
231.136	73.88
231.37	79.88
231.604	74.88
231.838	82.88
232.072	79.88
232.306	80.88
232.541	74.88
232.775	81.88
233.009	64.88
233.243	84.88
233.477	89.88
233.711	80.88
233.945	78.88
234.179	81.88
234.413	79.88
234.647	82.88
234.881	78.88
235.115	88.88
235.349	78.88
235.583	75.88
235.817	94.88
236.051	74.88
236.285	78.88
236.519	95.88
236.753	87.88
236.987	68.88
237.221	82.88
237.455	80.88
237.689	89.88
237.922	81.88
238.156	92.88
238.39	61.88
238.624	67.88
238.858	66.88
239.091	59.88
239.325	84.88
239.559	72.88
239.793	79.88
240.027	73.88
240.26	62.88
240.494	81.88
240.728	81.88
240.961	71.88
241.195	78.88
241.429	70.88
241.662	72.88
241.896	75.88
242.13	76.88
242.363	73.88
242.597	66.88
242.83	73.88
243.064	79.88
243.298	81.88
243.531	95.88
243.765	76.88
243.998	75.88
244.232	83.88
244.465	83.88
244.699	78.88
244.932	74.88
245.166	72.88
245.399	78.88
245.633	91.88
245.866	76.88
246.099	88.88
246.333	71.88
246.566	81.88
246.8	68.88
247.033	62.88
247.266	68.88
247.5	83.88
247.733	75.88
247.966	94.88
248.2	88.88
248.433	78.88
248.666	69.88
248.899	76.88
249.133	89.88
249.366	83.88
249.599	100.88
249.832	82.88
250.066	82.88
250.299	81.88
250.532	83.88
250.765	77.88
250.998	60.88
251.231	74.88
251.465	93.88
251.698	93.88
251.931	71.88
252.164	86.88
252.397	79.88
252.63	70.88
252.863	72.88
253.096	84.88
253.329	69.88
253.562	80.88
253.795	59.88
254.028	88.88
254.261	82.88
254.494	66.88
254.727	81.88
254.96	82.88
255.193	84.88
255.426	72.88
255.659	83.88
255.892	72.88
256.124	70.88
256.357	66.88
256.59	86.88
256.823	94.88
257.056	87.88
257.289	78.88
257.521	76.88
257.754	84.88
257.987	74.88
258.22	73.88
258.452	88.88
258.685	90.88
258.918	67.88
259.151	82.88
259.383	68.88
259.616	92.88
259.849	76.88
260.081	89.88
260.314	81.88
260.547	75.88
260.779	82.88
261.012	88.88
261.244	74.88
261.477	80.88
261.71	81.88
261.942	70.88
262.175	78.88
262.407	79.88
262.64	79.88
262.872	95.88
263.105	72.88
263.337	80.88
263.57	69.88
263.802	86.88
264.035	76.88
264.267	83.88
264.499	78.88
264.732	81.88
264.964	92.88
265.197	83.88
265.429	80.88
265.661	79.88
265.894	78.88
266.126	80.88
266.358	69.88
266.591	90.88
266.823	76.88
267.055	81.88
267.287	82.88
267.52	75.88
267.752	76.88
267.984	73.88
268.216	76.88
268.448	76.88
268.681	83.88
268.913	82.88
269.145	84.88
269.377	84.88
269.609	82.88
269.841	84.88
270.073	76.88
270.306	76.88
270.538	81.88
270.77	80.88
271.002	96.88
271.234	82.88
271.466	87.88
271.698	74.88
271.93	92.88
272.162	78.88
272.394	87.88
272.626	87.88
272.858	77.88
273.09	79.88
273.322	96.88
273.553	102.88
273.785	92.88
274.017	82.88
274.249	90.88
274.481	91.88
274.713	89.88
274.945	81.88
275.176	81.88
275.408	84.88
275.64	81.88
275.872	80.88
276.104	72.88
276.335	78.88
276.567	82.88
276.799	79.88
277.031	72.88
277.262	82.88
277.494	81.88
277.726	80.88
277.957	86.88
278.189	81.88
278.421	89.88
278.652	97.88
278.884	89.88
279.115	96.88
279.347	72.88
279.579	81.88
279.81	78.88
280.042	95.88
280.273	78.88
280.505	77.88
280.736	84.88
280.968	84.88
281.199	89.88
281.431	83.88
281.662	74.88
281.894	74.88
282.125	89.88
282.356	83.88
282.588	75.88
282.819	80.88
283.051	90.88
283.282	86.88
283.513	92.88
283.745	85.88
283.976	76.88
284.207	93.88
284.439	84.88
284.67	85.88
284.901	95.88
285.132	87.88
285.364	82.88
285.595	87.88
285.826	82.88
286.057	90.88
286.288	100.88
286.52	88.88
286.751	91.88
286.982	80.88
287.213	98.88
287.444	94.88
287.675	90.88
287.906	102.88
288.138	71.88
288.369	92.88
288.6	80.88
288.831	74.88
289.062	66.88
289.293	80.88
289.524	94.88
289.755	89.88
289.986	77.88
290.217	90.88
290.448	98.88
290.679	86.88
290.91	78.88
291.141	88.88
291.371	87.88
291.602	93.88
291.833	84.88
292.064	80.88
292.295	83.88
292.526	103.88
292.757	90.88
292.987	91.88
293.218	83.88
293.449	97.88
293.68	76.88
293.91	81.88
294.141	89.88
294.372	88.88
294.603	90.88
294.833	92.88
295.064	77.88
295.295	98.88
295.525	83.88
295.756	94.88
295.987	82.88
296.217	81.88
296.448	80.88
296.679	83.88
296.909	104.88
297.14	82.88
297.37	75.88
297.601	80.88
297.831	82.88
298.062	86.88
298.292	86.88
298.523	92.88
298.753	82.88
298.984	95.88
299.214	92.88
299.445	81.88
299.675	88.88
299.905	103.88
300.136	82.88
300.366	90.88
300.597	88.88
300.827	70.88
301.057	72.88
301.288	73.88
301.518	86.88
301.748	88.88
301.979	104.88
302.209	90.88
302.439	69.88
302.669	78.88
302.9	99.88
303.13	89.88
303.36	74.88
303.59	88.88
303.82	86.88
304.051	95.88
304.281	88.88
304.511	83.88
304.741	93.88
304.971	77.88
305.201	97.88
305.431	87.88
305.661	90.88
305.891	85.88
306.121	88.88
306.352	86.88
306.582	87.88
306.812	81.88
307.042	81.88
307.272	78.88
307.502	87.88
307.731	74.88
307.961	107.88
308.191	92.88
308.421	100.88
308.651	83.88
308.881	75.88
309.111	94.88
309.341	83.88
309.571	78.88
309.8	78.88
310.03	76.88
310.26	86.88
310.49	66.88
310.72	90.88
310.949	84.88
311.179	87.88
311.409	89.88
311.639	87.88
311.868	79.88
312.098	96.88
312.328	93.88
312.557	91.88
312.787	87.88
313.017	80.88
313.246	87.88
313.476	76.88
313.706	96.88
313.935	99.88
314.165	89.88
314.394	88.88
314.624	81.88
314.853	72.88
315.083	85.88
315.312	87.88
315.542	88.88
315.771	87.88
316.001	78.88
316.23	84.88
316.46	84.88
316.689	85.88
316.919	82.88
317.148	83.88
317.377	77.88
317.607	91.88
317.836	86.88
318.065	74.88
318.295	81.88
318.524	86.88
318.753	74.88
318.983	79.88
319.212	86.88
319.441	94.88
319.67	102.88
319.9	75.88
320.129	80.88
320.358	68.88
320.587	76.88
320.816	99.88
321.046	83.88
321.275	79.88
321.504	63.88
321.733	90.88
321.962	91.88
322.191	80.88
322.42	76.88
322.649	82.88
322.878	77.88
323.108	79.88
323.337	87.88
323.566	96.88
323.795	86.88
324.024	87.88
324.253	90.88
324.482	78.88
324.71	79.88
324.939	86.88
325.168	87.88
325.397	93.88
325.626	74.88
325.855	85.88
326.084	88.88
326.313	87.88
326.542	82.88
326.77	80.88
326.999	84.88
327.228	87.88
327.457	90.88
327.686	76.88
327.914	93.88
328.143	93.88
328.372	77.88
328.6	84.88
328.829	86.88
329.058	100.88
329.287	96.88
329.515	81.88
329.744	86.88
329.972	80.88
330.201	85.88
330.43	80.88
330.658	95.88
330.887	92.88
331.115	86.88
331.344	68.88
331.572	85.88
331.801	91.88
332.03	91.88
332.258	82.88
332.486	99.88
332.715	81.88
332.943	84.88
333.172	90.88
333.4	82.88
333.629	99.88
333.857	90.88
334.085	95.88
334.314	83.88
334.542	85.88
334.771	77.88
334.999	93.88
335.227	79.88
335.455	75.88
335.684	89.88
335.912	86.88
336.14	86.88
336.369	91.88
336.597	82.88
336.825	86.88
337.053	72.88
337.281	86.88
337.51	82.88
337.738	83.88
337.966	79.88
338.194	92.88
338.422	87.88
338.65	94.88
338.878	94.88
339.106	81.88
339.334	99.88
339.562	75.88
339.79	92.88
340.018	74.88
340.246	94.88
340.474	81.88
340.702	92.88
340.93	96.88
341.158	83.88
341.386	71.88
341.614	106.88
341.842	88.88
342.07	84.88
342.298	88.88
342.526	92.88
342.754	78.88
342.981	94.88
343.209	102.88
343.437	92.88
343.665	82.88
343.893	86.88
344.12	76.88
344.348	82.88
344.576	92.88
344.804	81.88
345.031	86.88
345.259	80.88
345.487	80.88
345.714	77.88
345.942	79.88
346.17	75.88
346.397	90.88
346.625	89.88
346.853	78.88
347.08	78.88
347.308	90.88
347.535	90.88
347.763	99.88
347.99	94.88
348.218	86.88
348.445	87.88
348.673	92.88
348.9	92.88
349.128	90.88
349.355	90.88
349.583	102.88
349.81	77.88
350.037	80.88
350.265	87.88
350.492	97.88
350.72	85.88
350.947	89.88
351.174	92.88
351.402	98.88
351.629	72.88
351.856	81.88
352.083	74.88
352.311	87.88
352.538	96.88
352.765	87.88
352.992	82.88
353.22	100.88
353.447	78.88
353.674	82.88
353.901	87.88
354.128	90.88
354.355	85.88
354.583	82.88
354.81	99.88
355.037	81.88
355.264	87.88
355.491	90.88
355.718	86.88
355.945	84.88
356.172	95.88
356.399	70.88
356.626	74.88
356.853	79.88
357.08	71.88
357.307	86.88
357.534	78.88
357.761	86.88
357.988	81.88
358.215	85.88
358.441	89.88
358.668	85.88
358.895	79.88
359.122	66.88
359.349	83.88
359.576	89.88
359.802	74.88
360.029	81.88
360.256	79.88
360.483	86.88
360.709	87.88
360.936	94.88
361.163	86.88
361.39	81.88
361.616	93.88
361.843	87.88
362.07	94.88
362.296	99.88
362.523	92.88
362.749	71.88
362.976	72.88
363.203	115.88
363.429	92.88
363.656	81.88
363.882	70.88
364.109	89.88
364.335	87.88
364.562	92.88
364.788	92.88
365.015	90.88
365.241	81.88
365.468	90.88
365.694	88.88
365.92	78.88
366.147	77.88
366.373	91.88
366.599	88.88
366.826	87.88
367.052	85.88
367.278	94.88
367.505	71.88
367.731	92.88
367.957	98.88
368.184	83.88
368.41	82.88
368.636	91.88
368.862	95.88
369.089	84.88
369.315	82.88
369.541	86.88
369.767	84.88
369.993	87.88
370.219	76.88
370.445	83.88
370.672	89.88
370.898	90.88
371.124	94.88
371.35	90.88
371.576	90.88
371.802	87.88
372.028	85.88
372.254	83.88
372.48	93.88
372.706	79.88
372.932	79.88
373.158	81.88
373.384	80.88
373.61	68.88
373.835	90.88
374.061	84.88
374.287	73.88
374.513	90.88
374.739	100.88
374.965	81.88
375.191	82.88
375.416	86.88
375.642	78.88
375.868	85.88
376.094	81.88
376.319	82.88
376.545	68.88
376.771	89.88
376.997	76.88
377.222	88.88
377.448	99.88
377.674	93.88
377.899	98.88
378.125	95.88
378.35	70.88
378.576	80.88
378.802	78.88
379.027	72.88
379.253	82.88
379.478	87.88
379.704	80.88
379.929	69.88
380.155	73.88
380.38	76.88
380.606	87.88
380.831	83.88
381.057	91.88
381.282	86.88
381.507	85.88
381.733	75.88
381.958	94.88
382.184	77.88
382.409	66.88
382.634	75.88
382.86	83.88
383.085	78.88
383.31	71.88
383.535	88.88
383.761	92.88
383.986	88.88
384.211	96.88
384.436	99.88
384.662	103.88
384.887	78.88
385.112	81.88
385.337	85.88
385.562	99.88
385.787	84.88
386.013	68.88
386.238	74.88
386.463	95.88
386.688	81.88
386.913	89.88
387.138	83.88
387.363	81.88
387.588	92.88
387.813	88.88
388.038	98.88
388.263	88.88
388.488	89.88
388.713	93.88
388.938	72.88
389.163	83.88
389.387	81.88
389.612	76.88
389.837	88.88
390.062	86.88
390.287	81.88
390.512	69.88
390.736	83.88
390.961	85.88
391.186	84.88
391.411	87.88
391.636	86.88
391.86	90.88
392.085	76.88
392.31	84.88
392.534	91.88
392.759	84.88
392.984	95.88
393.208	90.88
393.433	82.88
393.658	92.88
393.882	92.88
394.107	87.88
394.331	72.88
394.556	77.88
394.78	90.88
395.005	77.88
395.229	73.88
395.454	88.88
395.678	90.88
395.903	80.88
396.127	68.88
396.352	78.88
396.576	77.88
396.801	87.88
397.025	84.88
397.249	87.88
397.474	92.88
397.698	90.88
397.922	79.88
398.147	70.88
398.371	90.88
398.595	93.88
398.82	86.88
399.044	81.88
399.268	95.88
399.492	96.88
399.717	86.88
399.941	83.88
400.165	95.88
400.389	79.88
400.613	93.88
400.837	78.88
401.062	91.88
401.286	86.88
401.51	86.88
401.734	93.88
401.958	82.88
402.182	76.88
402.406	90.88
402.63	76.88
402.854	75.88
403.078	87.88
403.302	84.88
403.526	71.88
403.75	83.88
403.974	78.88
404.198	71.88
404.422	73.88
404.645	80.88
404.869	74.88
405.093	74.88
405.317	89.88
405.541	106.88
405.765	90.88
405.988	78.88
406.212	84.88
406.436	79.88
406.66	90.88
406.883	82.88
407.107	68.88
407.331	87.88
407.555	86.88
407.778	88.88
408.002	100.88
408.226	71.88
408.449	90.88
408.673	80.88
408.896	95.88
409.12	86.88
409.344	87.88
409.567	79.88
409.791	82.88
410.014	83.88
410.238	79.88
410.461	81.88
410.685	95.88
410.908	81.88
411.132	97.88
411.355	75.88
411.578	80.88
411.802	87.88
412.025	71.88
412.249	96.88
412.472	77.88
412.695	86.88
412.919	69.88
413.142	87.88
413.365	85.88
413.589	75.88
413.812	86.88
414.035	91.88
414.258	77.88
414.482	94.88
414.705	81.88
414.928	79.88
415.151	78.88
415.374	94.88
415.597	82.88
415.821	85.88
416.044	89.88
416.267	98.88
416.49	92.88
416.713	88.88
416.936	92.88
417.159	87.88
417.382	79.88
417.605	91.88
417.828	91.88
418.051	92.88
418.274	92.88
418.497	82.88
418.72	67.88
418.943	79.88
419.166	92.88
419.389	80.88
419.611	81.88
419.834	81.88
420.057	70.88
420.28	74.88
420.503	83.88
420.726	94.88
420.948	90.88
421.171	84.88
421.394	75.88
421.617	95.88
421.839	77.88
422.062	73.88
422.285	82.88
422.507	80.88
422.73	75.88
422.953	68.88
423.175	92.88
423.398	82.88
423.621	82.88
423.843	85.88
424.066	83.88
424.288	80.88
424.511	83.88
424.733	88.88
424.956	82.88
425.178	76.88
425.401	87.88
425.623	69.88
425.846	78.88
426.068	90.88
426.291	68.88
426.513	75.88
426.735	86.88
426.958	74.88
427.18	82.88
427.402	91.88
427.625	69.88
427.847	90.88
428.069	86.88
428.292	84.88
428.514	92.88
428.736	80.88
428.958	64.88
429.181	69.88
429.403	98.88
429.625	88.88
429.847	80.88
430.069	91.88
430.292	62.88
430.514	75.88
430.736	78.88
430.958	82.88
431.18	91.88
431.402	84.88
431.624	90.88
431.846	63.88
432.068	90.88
432.29	76.88
432.512	85.88
432.734	76.88
432.956	92.88
433.178	85.88
433.4	72.88
433.622	90.88
433.844	75.88
434.066	98.88
434.287	74.88
434.509	77.88
434.731	65.88
434.953	80.88
435.175	84.88
435.397	87.88
435.618	82.88
435.84	76.88
436.062	82.88
436.284	79.88
436.505	84.88
436.727	82.88
436.949	82.88
437.17	91.88
437.392	94.88
437.614	84.88
437.835	88.88
438.057	83.88
438.278	82.88
438.5	82.88
438.721	79.88
438.943	96.88
439.165	76.88
439.386	80.88
439.608	79.88
439.829	87.88
440.05	82.88
440.272	90.88
440.493	76.88
440.715	89.88
440.936	93.88
441.158	72.88
441.379	87.88
441.6	86.88
441.822	76.88
442.043	58.88
442.264	82.88
442.486	73.88
442.707	84.88
442.928	80.88
443.149	88.88
443.371	92.88
443.592	88.88
443.813	85.88
444.034	76.88
444.255	88.88
444.476	79.88
444.698	76.88
444.919	87.88
445.14	164.88
445.361	138.88
445.582	84.88
445.803	84.88
446.024	71.88
446.245	69.88
446.466	79.88
446.687	82.88
446.908	72.88
447.129	88.88
447.35	88.88
447.571	75.88
447.792	79.88
448.013	82.88
448.234	77.88
448.455	83.88
448.675	92.88
448.896	82.88
449.117	81.88
449.338	83.88
449.559	82.88
449.779	83.88
450	83.88
450.221	78.88
450.442	78.88
450.662	94.88
450.883	80.88
451.104	87.88
451.324	72.88
451.545	68.88
451.766	86.88
451.986	78.88
452.207	92.88
452.428	78.88
452.648	78.88
452.869	95.88
453.089	88.88
453.31	86.88
453.53	84.88
453.751	95.88
453.971	98.88
454.192	78.88
454.412	76.88
454.633	98.88
454.853	81.88
455.073	74.88
455.294	83.88
455.514	78.88
455.734	73.88
455.955	93.88
456.175	88.88
456.395	73.88
456.616	69.88
456.836	83.88
457.056	80.88
457.276	80.88
457.497	83.88
457.717	66.88
457.937	91.88
458.157	99.88
458.377	80.88
458.598	74.88
458.818	72.88
459.038	69.88
459.258	85.88
459.478	92.88
459.698	82.88
459.918	84.88
460.138	92.88
460.358	89.88
460.578	81.88
460.798	82.88
461.018	74.88
461.238	87.88
461.458	76.88
461.678	86.88
461.898	82.88
462.118	78.88
462.338	73.88
462.558	87.88
462.777	80.88
462.997	85.88
463.217	79.88
463.437	87.88
463.657	80.88
463.876	80.88
464.096	88.88
464.316	66.88
464.536	85.88
464.755	92.88
464.975	80.88
465.195	78.88
465.414	71.88
465.634	78.88
465.854	91.88
466.073	86.88
466.293	88.88
466.512	93.88
466.732	76.88
466.951	85.88
467.171	81.88
467.391	82.88
467.61	80.88
467.829	81.88
468.049	74.88
468.268	75.88
468.488	78.88
468.707	68.88
468.927	86.88
469.146	75.88
469.365	82.88
469.585	81.88
469.804	88.88
470.023	83.88
470.243	86.88
470.462	80.88
470.681	91.88
470.901	91.88
471.12	82.88
471.339	86.88
471.558	92.88
471.777	79.88
471.997	74.88
472.216	76.88
472.435	70.88
472.654	80.88
472.873	79.88
473.092	81.88
473.311	85.88
473.53	90.88
473.749	85.88
473.968	85.88
474.187	90.88
474.406	82.88
474.625	81.88
474.844	75.88
475.063	76.88
475.282	80.88
475.501	77.88
475.72	89.88
475.939	82.88
476.158	80.88
476.377	83.88
476.596	82.88
476.814	79.88
477.033	77.88
477.252	88.88
477.471	86.88
477.69	89.88
477.908	75.88
478.127	84.88
478.346	91.88
478.564	102.88
478.783	88.88
479.002	74.88
479.22	95.88
479.439	83.88
479.658	95.88
479.876	75.88
480.095	85.88
480.313	70.88
480.532	78.88
480.751	75.88
480.969	86.88
481.188	90.88
481.406	91.88
481.624	84.88
481.843	81.88
482.061	89.88
482.28	91.88
482.498	76.88
482.717	83.88
482.935	77.88
483.153	88.88
483.372	64.88
483.59	78.88
483.808	76.88
484.027	75.88
484.245	80.88
484.463	77.88
484.681	82.88
484.9	87.88
485.118	80.88
485.336	75.88
485.554	92.88
485.772	92.88
485.99	81.88
486.209	86.88
486.427	90.88
486.645	76.88
486.863	79.88
487.081	88.88
487.299	75.88
487.517	88.88
487.735	83.88
487.953	88.88
488.171	89.88
488.389	86.88
488.607	86.88
488.825	89.88
489.043	90.88
489.261	83.88
489.479	93.88
489.696	90.88
489.914	91.88
490.132	79.88
490.35	86.88
490.568	79.88
490.786	93.88
491.003	84.88
491.221	78.88
491.439	96.88
491.657	87.88
491.874	91.88
492.092	92.88
492.31	92.88
492.527	77.88
492.745	92.88
492.963	91.88
493.18	104.88
493.398	86.88
493.615	89.88
493.833	90.88
494.05	84.88
494.268	75.88
494.485	84.88
494.703	72.88
494.92	89.88
495.138	83.88
495.355	75.88
495.573	94.88
495.79	67.88
496.008	90.88
496.225	83.88
496.442	84.88
496.66	95.88
496.877	99.88
497.094	80.88
497.312	97.88
497.529	90.88
497.746	104.88
497.963	77.88
498.181	84.88
498.398	94.88
498.615	75.88
498.832	94.88
499.049	88.88
499.267	94.88
499.484	89.88
499.701	82.88
499.918	83.88
500.135	81.88
500.352	79.88
500.569	109.88
500.786	83.88
501.003	87.88
501.22	86.88
501.437	91.88
501.654	83.88
501.871	77.88
502.088	90.88
502.305	94.88
502.522	87.88
502.739	90.88
502.956	67.88
503.172	77.88
503.389	93.88
503.606	92.88
503.823	93.88
504.04	74.88
504.256	78.88
504.473	84.88
504.69	87.88
504.907	90.88
505.123	80.88
505.34	82.88
505.557	91.88
505.773	78.88
505.99	87.88
506.207	79.88
506.423	99.88
506.64	77.88
506.856	85.88
507.073	67.88
507.289	76.88
507.506	99.88
507.722	89.88
507.939	82.88
508.155	73.88
508.372	81.88
508.588	84.88
508.805	77.88
509.021	86.88
509.238	79.88
509.454	83.88
509.67	87.88
509.887	91.88
510.103	87.88
510.319	96.88
510.536	83.88
510.752	84.88
510.968	81.88
511.184	94.88
511.401	76.88
511.617	104.88
511.833	82.88
512.049	91.88
512.265	78.88
512.481	78.88
512.698	84.88
512.914	71.88
513.13	76.88
513.346	79.88
513.562	82.88
513.778	92.88
513.994	83.88
514.21	93.88
514.426	79.88
514.642	82.88
514.858	81.88
515.074	82.88
515.29	90.88
515.506	87.88
515.721	82.88
515.937	87.88
516.153	66.88
516.369	86.88
516.585	77.88
516.801	87.88
517.016	82.88
517.232	82.88
517.448	91.88
517.664	70.88
517.879	83.88
518.095	78.88
518.311	89.88
518.527	73.88
518.742	81.88
518.958	75.88
519.173	93.88
519.389	94.88
519.605	97.88
519.82	72.88
520.036	62.88
