Data from StdD_HRD10591_096.txt Node
Date: Fri May 16 15:32:09 EDT 2025
User: Yrep
Spectrometer: HR+D1059
Trigger mode: 1
Integration Time (sec): 1.000000E-1
Scans to average: 1
Electric dark correction enabled: true
Nonlinearity correction enabled: false
Boxcar width: 0
XAxis mode: Wavelengths
Number of Pixels in Spectrum: 2048
>>>>>Begin Spectral Data<<<<<
223.165	-4.44
223.4	-4.44
223.635	-4.44
223.869	-33.44
224.104	-10.44
224.338	-19.44
224.573	-25.44
224.808	-21.44
225.042	-6.44
225.277	3.56
225.511	-5.44
225.746	14.56
225.98	-2.44
226.215	11.56
226.449	28.56
226.683	17.56
226.918	17.56
227.152	35.56
227.387	46.56
227.621	25.56
227.856	38.56
228.09	47.56
228.324	45.56
228.559	46.56
228.793	53.56
229.027	75.56
229.262	67.56
229.496	58.56
229.73	75.56
229.964	88.56
230.199	82.56
230.433	73.56
230.667	85.56
230.901	74.56
231.136	67.56
231.37	81.56
231.604	83.56
231.838	78.56
232.072	79.56
232.306	74.56
232.541	87.56
232.775	68.56
233.009	85.56
233.243	75.56
233.477	81.56
233.711	87.56
233.945	78.56
234.179	76.56
234.413	77.56
234.647	80.56
234.881	93.56
235.115	80.56
235.349	87.56
235.583	83.56
235.817	63.56
236.051	73.56
236.285	74.56
236.519	69.56
236.753	71.56
236.987	85.56
237.221	85.56
237.455	65.56
237.689	70.56
237.922	77.56
238.156	77.56
238.39	87.56
238.624	77.56
238.858	85.56
239.091	67.56
239.325	75.56
239.559	78.56
239.793	83.56
240.027	78.56
240.26	76.56
240.494	73.56
240.728	65.56
240.961	83.56
241.195	84.56
241.429	76.56
241.662	66.56
241.896	70.56
242.13	88.56
242.363	67.56
242.597	79.56
242.83	73.56
243.064	74.56
243.298	79.56
243.531	65.56
243.765	74.56
243.998	80.56
244.232	81.56
244.465	73.56
244.699	79.56
244.932	79.56
245.166	75.56
245.399	81.56
245.633	95.56
245.866	75.56
246.099	88.56
246.333	70.56
246.566	71.56
246.8	81.56
247.033	83.56
247.266	81.56
247.5	83.56
247.733	85.56
247.966	88.56
248.2	82.56
248.433	74.56
248.666	63.56
248.899	69.56
249.133	81.56
249.366	87.56
249.599	86.56
249.832	81.56
250.066	80.56
250.299	78.56
250.532	80.56
250.765	82.56
250.998	73.56
251.231	72.56
251.465	77.56
251.698	67.56
251.931	69.56
252.164	83.56
252.397	81.56
252.63	80.56
252.863	84.56
253.096	83.56
253.329	90.56
253.562	71.56
253.795	79.56
254.028	74.56
254.261	85.56
254.494	75.56
254.727	77.56
254.96	76.56
255.193	74.56
255.426	79.56
255.659	81.56
255.892	81.56
256.124	78.56
256.357	71.56
256.59	88.56
256.823	83.56
257.056	63.56
257.289	71.56
257.521	77.56
257.754	78.56
257.987	76.56
258.22	90.56
258.452	82.56
258.685	78.56
258.918	85.56
259.151	75.56
259.383	89.56
259.616	74.56
259.849	67.56
260.081	81.56
260.314	74.56
260.547	85.56
260.779	90.56
261.012	77.56
261.244	77.56
261.477	97.56
261.71	74.56
261.942	77.56
262.175	86.56
262.407	70.56
262.64	70.56
262.872	77.56
263.105	71.56
263.337	85.56
263.57	87.56
263.802	82.56
264.035	85.56
264.267	70.56
264.499	71.56
264.732	86.56
264.964	86.56
265.197	82.56
265.429	62.56
265.661	73.56
265.894	69.56
266.126	87.56
266.358	72.56
266.591	80.56
266.823	82.56
267.055	71.56
267.287	70.56
267.52	87.56
267.752	79.56
267.984	80.56
268.216	81.56
268.448	75.56
268.681	84.56
268.913	80.56
269.145	68.56
269.377	75.56
269.609	76.56
269.841	72.56
270.073	82.56
270.306	75.56
270.538	75.56
270.77	84.56
271.002	75.56
271.234	78.56
271.466	82.56
271.698	74.56
271.93	67.56
272.162	85.56
272.394	85.56
272.626	79.56
272.858	85.56
273.09	85.56
273.322	79.56
273.553	86.56
273.785	75.56
274.017	79.56
274.249	71.56
274.481	78.56
274.713	85.56
274.945	86.56
275.176	65.56
275.408	87.56
275.64	84.56
275.872	85.56
276.104	70.56
276.335	89.56
276.567	95.56
276.799	81.56
277.031	85.56
277.262	97.56
277.494	88.56
277.726	87.56
277.957	86.56
278.189	94.56
278.421	80.56
278.652	74.56
278.884	79.56
279.115	92.56
279.347	74.56
279.579	82.56
279.81	85.56
280.042	92.56
280.273	80.56
280.505	91.56
280.736	82.56
280.968	79.56
281.199	87.56
281.431	78.56
281.662	76.56
281.894	78.56
282.125	83.56
282.356	77.56
282.588	72.56
282.819	78.56
283.051	82.56
283.282	88.56
283.513	71.56
283.745	80.56
283.976	69.56
284.207	84.56
284.439	91.56
284.67	79.56
284.901	94.56
285.132	82.56
285.364	78.56
285.595	86.56
285.826	80.56
286.057	91.56
286.288	81.56
286.52	90.56
286.751	85.56
286.982	91.56
287.213	82.56
287.444	86.56
287.675	83.56
287.906	79.56
288.138	75.56
288.369	72.56
288.6	77.56
288.831	64.56
289.062	79.56
289.293	94.56
289.524	81.56
289.755	90.56
289.986	77.56
290.217	74.56
290.448	86.56
290.679	77.56
290.91	79.56
291.141	87.56
291.371	74.56
291.602	91.56
291.833	74.56
292.064	95.56
292.295	82.56
292.526	91.56
292.757	93.56
292.987	80.56
293.218	73.56
293.449	84.56
293.68	89.56
293.91	90.56
294.141	89.56
294.372	76.56
294.603	92.56
294.833	72.56
295.064	87.56
295.295	79.56
295.525	94.56
295.756	87.56
295.987	90.56
296.217	77.56
296.448	71.56
296.679	87.56
296.909	78.56
297.14	85.56
297.37	85.56
297.601	85.56
297.831	79.56
298.062	81.56
298.292	79.56
298.523	95.56
298.753	77.56
298.984	80.56
299.214	91.56
299.445	85.56
299.675	96.56
299.905	96.56
300.136	90.56
300.366	87.56
300.597	93.56
300.827	91.56
301.057	85.56
301.288	81.56
301.518	86.56
301.748	76.56
301.979	83.56
302.209	64.56
302.439	77.56
302.669	81.56
302.9	82.56
303.13	83.56
303.36	95.56
303.59	78.56
303.82	86.56
304.051	88.56
304.281	66.56
304.511	86.56
304.741	89.56
304.971	82.56
305.201	80.56
305.431	70.56
305.661	80.56
305.891	59.56
306.121	87.56
306.352	81.56
306.582	99.56
306.812	71.56
307.042	77.56
307.272	81.56
307.502	71.56
307.731	83.56
307.961	84.56
308.191	79.56
308.421	88.56
308.651	77.56
308.881	80.56
309.111	65.56
309.341	88.56
309.571	94.56
309.8	81.56
310.03	64.56
310.26	78.56
310.49	95.56
310.72	103.56
310.949	94.56
311.179	85.56
311.409	95.56
311.639	90.56
311.868	91.56
312.098	88.56
312.328	89.56
312.557	98.56
312.787	71.56
313.017	81.56
313.246	77.56
313.476	79.56
313.706	93.56
313.935	86.56
314.165	79.56
314.394	90.56
314.624	91.56
314.853	81.56
315.083	78.56
315.312	105.56
315.542	98.56
315.771	87.56
316.001	89.56
316.23	86.56
316.46	76.56
316.689	82.56
316.919	62.56
317.148	75.56
317.377	73.56
317.607	89.56
317.836	89.56
318.065	80.56
318.295	85.56
318.524	95.56
318.753	87.56
318.983	78.56
319.212	88.56
319.441	74.56
319.67	77.56
319.9	82.56
320.129	89.56
320.358	105.56
320.587	89.56
320.816	88.56
321.046	72.56
321.275	82.56
321.504	85.56
321.733	94.56
321.962	80.56
322.191	74.56
322.42	85.56
322.649	91.56
322.878	76.56
323.108	87.56
323.337	88.56
323.566	86.56
323.795	87.56
324.024	87.56
324.253	90.56
324.482	76.56
324.71	76.56
324.939	92.56
325.168	73.56
325.397	82.56
325.626	72.56
325.855	75.56
326.084	88.56
326.313	95.56
326.542	77.56
326.77	82.56
326.999	83.56
327.228	78.56
327.457	69.56
327.686	85.56
327.914	77.56
328.143	75.56
328.372	89.56
328.6	76.56
328.829	74.56
329.058	68.56
329.287	81.56
329.515	74.56
329.744	70.56
329.972	84.56
330.201	83.56
330.43	85.56
330.658	91.56
330.887	93.56
331.115	103.56
331.344	88.56
331.572	79.56
331.801	95.56
332.03	88.56
332.258	98.56
332.486	92.56
332.715	87.56
332.943	80.56
333.172	93.56
333.4	86.56
333.629	81.56
333.857	99.56
334.085	90.56
334.314	74.56
334.542	71.56
334.771	87.56
334.999	85.56
335.227	79.56
335.455	67.56
335.684	72.56
335.912	79.56
336.14	80.56
336.369	89.56
336.597	72.56
336.825	75.56
337.053	88.56
337.281	96.56
337.51	81.56
337.738	80.56
337.966	70.56
338.194	64.56
338.422	86.56
338.65	81.56
338.878	78.56
339.106	89.56
339.334	74.56
339.562	76.56
339.79	70.56
340.018	78.56
340.246	80.56
340.474	81.56
340.702	81.56
340.93	93.56
341.158	71.56
341.386	82.56
341.614	68.56
341.842	67.56
342.07	87.56
342.298	95.56
342.526	102.56
342.754	81.56
342.981	69.56
343.209	77.56
343.437	88.56
343.665	81.56
343.893	80.56
344.12	92.56
344.348	81.56
344.576	82.56
344.804	82.56
345.031	90.56
345.259	88.56
345.487	95.56
345.714	75.56
345.942	78.56
346.17	74.56
346.397	73.56
346.625	81.56
346.853	85.56
347.08	74.56
347.308	85.56
347.535	87.56
347.763	93.56
347.99	81.56
348.218	95.56
348.445	82.56
348.673	85.56
348.9	91.56
349.128	90.56
349.355	83.56
349.583	74.56
349.81	93.56
350.037	75.56
350.265	80.56
350.492	81.56
350.72	80.56
350.947	89.56
351.174	83.56
351.402	76.56
351.629	65.56
351.856	75.56
352.083	80.56
352.311	80.56
352.538	86.56
352.765	67.56
352.992	88.56
353.22	93.56
353.447	87.56
353.674	82.56
353.901	83.56
354.128	86.56
354.355	86.56
354.583	86.56
354.81	76.56
355.037	97.56
355.264	77.56
355.491	80.56
355.718	78.56
355.945	89.56
356.172	75.56
356.399	83.56
356.626	73.56
356.853	74.56
357.08	83.56
357.307	75.56
357.534	82.56
357.761	82.56
357.988	87.56
358.215	77.56
358.441	76.56
358.668	89.56
358.895	85.56
359.122	81.56
359.349	96.56
359.576	80.56
359.802	83.56
360.029	81.56
360.256	85.56
360.483	86.56
360.709	88.56
360.936	83.56
361.163	69.56
361.39	71.56
361.616	81.56
361.843	84.56
362.07	80.56
362.296	75.56
362.523	71.56
362.749	72.56
362.976	94.56
363.203	97.56
363.429	82.56
363.656	67.56
363.882	83.56
364.109	80.56
364.335	64.56
364.562	75.56
364.788	84.56
365.015	85.56
365.241	93.56
365.468	68.56
365.694	72.56
365.92	89.56
366.147	87.56
366.373	84.56
366.599	71.56
366.826	80.56
367.052	79.56
367.278	89.56
367.505	77.56
367.731	86.56
367.957	67.56
368.184	90.56
368.41	77.56
368.636	77.56
368.862	88.56
369.089	81.56
369.315	84.56
369.541	78.56
369.767	77.56
369.993	81.56
370.219	91.56
370.445	83.56
370.672	86.56
370.898	89.56
371.124	91.56
371.35	82.56
371.576	74.56
371.802	76.56
372.028	70.56
372.254	72.56
372.48	74.56
372.706	96.56
372.932	94.56
373.158	78.56
373.384	87.56
373.61	90.56
373.835	73.56
374.061	85.56
374.287	75.56
374.513	83.56
374.739	74.56
374.965	93.56
375.191	77.56
375.416	73.56
375.642	88.56
375.868	73.56
376.094	73.56
376.319	71.56
376.545	85.56
376.771	84.56
376.997	74.56
377.222	82.56
377.448	68.56
377.674	81.56
377.899	78.56
378.125	84.56
378.35	89.56
378.576	95.56
378.802	81.56
379.027	79.56
379.253	84.56
379.478	89.56
379.704	79.56
379.929	72.56
380.155	85.56
380.38	61.56
380.606	89.56
380.831	85.56
381.057	89.56
381.282	77.56
381.507	81.56
381.733	80.56
381.958	85.56
382.184	85.56
382.409	81.56
382.634	89.56
382.86	80.56
383.085	79.56
383.31	83.56
383.535	101.56
383.761	95.56
383.986	81.56
384.211	70.56
384.436	73.56
384.662	85.56
384.887	78.56
385.112	85.56
385.337	75.56
385.562	67.56
385.787	79.56
386.013	70.56
386.238	88.56
386.463	82.56
386.688	90.56
386.913	87.56
387.138	89.56
387.363	77.56
387.588	84.56
387.813	78.56
388.038	80.56
388.263	70.56
388.488	89.56
388.713	95.56
388.938	84.56
389.163	71.56
389.387	83.56
389.612	82.56
389.837	88.56
390.062	87.56
390.287	66.56
390.512	79.56
390.736	82.56
390.961	82.56
391.186	80.56
391.411	81.56
391.636	85.56
391.86	75.56
392.085	67.56
392.31	80.56
392.534	81.56
392.759	89.56
392.984	80.56
393.208	81.56
393.433	86.56
393.658	89.56
393.882	79.56
394.107	83.56
394.331	77.56
394.556	88.56
394.78	92.56
395.005	85.56
395.229	72.56
395.454	79.56
395.678	75.56
395.903	81.56
396.127	90.56
396.352	79.56
396.576	77.56
396.801	78.56
397.025	75.56
397.249	83.56
397.474	87.56
397.698	91.56
397.922	89.56
398.147	74.56
398.371	64.56
398.595	80.56
398.82	79.56
399.044	75.56
399.268	78.56
399.492	77.56
399.717	88.56
399.941	79.56
400.165	89.56
400.389	61.56
400.613	89.56
400.837	79.56
401.062	77.56
401.286	73.56
401.51	72.56
401.734	82.56
401.958	86.56
402.182	91.56
402.406	88.56
402.63	95.56
402.854	77.56
403.078	67.56
403.302	71.56
403.526	82.56
403.75	79.56
403.974	88.56
404.198	89.56
404.422	81.56
404.645	99.56
404.869	82.56
405.093	91.56
405.317	77.56
405.541	62.56
405.765	82.56
405.988	81.56
406.212	77.56
406.436	77.56
406.66	83.56
406.883	75.56
407.107	85.56
407.331	73.56
407.555	78.56
407.778	84.56
408.002	78.56
408.226	68.56
408.449	79.56
408.673	69.56
408.896	76.56
409.12	81.56
409.344	75.56
409.567	78.56
409.791	74.56
410.014	79.56
410.238	77.56
410.461	81.56
410.685	85.56
410.908	76.56
411.132	74.56
411.355	82.56
411.578	82.56
411.802	67.56
412.025	74.56
412.249	91.56
412.472	90.56
412.695	79.56
412.919	73.56
413.142	85.56
413.365	90.56
413.589	79.56
413.812	77.56
414.035	82.56
414.258	71.56
414.482	75.56
414.705	77.56
414.928	82.56
415.151	89.56
415.374	75.56
415.597	76.56
415.821	81.56
416.044	82.56
416.267	78.56
416.49	88.56
416.713	84.56
416.936	77.56
417.159	67.56
417.382	80.56
417.605	86.56
417.828	84.56
418.051	78.56
418.274	65.56
418.497	77.56
418.72	91.56
418.943	84.56
419.166	77.56
419.389	91.56
419.611	76.56
419.834	73.56
420.057	84.56
420.28	81.56
420.503	75.56
420.726	99.56
420.948	83.56
421.171	81.56
421.394	78.56
421.617	86.56
421.839	96.56
422.062	71.56
422.285	74.56
422.507	88.56
422.73	91.56
422.953	80.56
423.175	77.56
423.398	87.56
423.621	85.56
423.843	84.56
424.066	72.56
424.288	74.56
424.511	72.56
424.733	105.56
424.956	72.56
425.178	78.56
425.401	73.56
425.623	93.56
425.846	75.56
426.068	90.56
426.291	75.56
426.513	85.56
426.735	76.56
426.958	72.56
427.18	90.56
427.402	82.56
427.625	77.56
427.847	79.56
428.069	74.56
428.292	93.56
428.514	77.56
428.736	86.56
428.958	91.56
429.181	71.56
429.403	86.56
429.625	81.56
429.847	69.56
430.069	92.56
430.292	93.56
430.514	89.56
430.736	84.56
430.958	76.56
431.18	74.56
431.402	88.56
431.624	88.56
431.846	89.56
432.068	72.56
432.29	87.56
432.512	89.56
432.734	85.56
432.956	82.56
433.178	92.56
433.4	77.56
433.622	75.56
433.844	68.56
434.066	86.56
434.287	85.56
434.509	77.56
434.731	76.56
434.953	91.56
435.175	84.56
435.397	91.56
435.618	75.56
435.84	73.56
436.062	79.56
436.284	95.56
436.505	79.56
436.727	82.56
436.949	91.56
437.17	85.56
437.392	96.56
437.614	87.56
437.835	73.56
438.057	74.56
438.278	85.56
438.5	90.56
438.721	69.56
438.943	87.56
439.165	87.56
439.386	95.56
439.608	87.56
439.829	66.56
440.05	86.56
440.272	79.56
440.493	72.56
440.715	77.56
440.936	87.56
441.158	81.56
441.379	89.56
441.6	89.56
441.822	75.56
442.043	80.56
442.264	90.56
442.486	87.56
442.707	73.56
442.928	95.56
443.149	73.56
443.371	90.56
443.592	87.56
443.813	77.56
444.034	83.56
444.255	101.56
444.476	75.56
444.698	70.56
444.919	79.56
445.14	174.56
445.361	109.56
445.582	89.56
445.803	76.56
446.024	81.56
446.245	86.56
446.466	75.56
446.687	77.56
446.908	79.56
447.129	77.56
447.35	87.56
447.571	88.56
447.792	85.56
448.013	75.56
448.234	86.56
448.455	79.56
448.675	94.56
448.896	80.56
449.117	97.56
449.338	87.56
449.559	75.56
449.779	80.56
450	86.56
450.221	85.56
450.442	90.56
450.662	74.56
450.883	79.56
451.104	86.56
451.324	86.56
451.545	75.56
451.766	88.56
451.986	77.56
452.207	82.56
452.428	78.56
452.648	82.56
452.869	73.56
453.089	70.56
453.31	78.56
453.53	58.56
453.751	79.56
453.971	88.56
454.192	85.56
454.412	77.56
454.633	85.56
454.853	80.56
455.073	83.56
455.294	73.56
455.514	77.56
455.734	86.56
455.955	91.56
456.175	87.56
456.395	72.56
456.616	81.56
456.836	80.56
457.056	93.56
457.276	73.56
457.497	73.56
457.717	71.56
457.937	81.56
458.157	85.56
458.377	88.56
458.598	79.56
458.818	93.56
459.038	86.56
459.258	70.56
459.478	81.56
459.698	76.56
459.918	85.56
460.138	79.56
460.358	85.56
460.578	74.56
460.798	98.56
461.018	78.56
461.238	101.56
461.458	82.56
461.678	82.56
461.898	83.56
462.118	89.56
462.338	83.56
462.558	81.56
462.777	91.56
462.997	83.56
463.217	92.56
463.437	81.56
463.657	72.56
463.876	81.56
464.096	75.56
464.316	77.56
464.536	71.56
464.755	81.56
464.975	92.56
465.195	70.56
465.414	74.56
465.634	91.56
465.854	81.56
466.073	93.56
466.293	88.56
466.512	81.56
466.732	71.56
466.951	89.56
467.171	87.56
467.391	69.56
467.61	69.56
467.829	86.56
468.049	92.56
468.268	80.56
468.488	80.56
468.707	84.56
468.927	71.56
469.146	81.56
469.365	75.56
469.585	82.56
469.804	75.56
470.023	79.56
470.243	85.56
470.462	82.56
470.681	79.56
470.901	73.56
471.12	85.56
471.339	80.56
471.558	85.56
471.777	83.56
471.997	81.56
472.216	60.56
472.435	84.56
472.654	88.56
472.873	86.56
473.092	93.56
473.311	87.56
473.53	81.56
473.749	91.56
473.968	90.56
474.187	72.56
474.406	76.56
474.625	85.56
474.844	75.56
475.063	85.56
475.282	83.56
475.501	92.56
475.72	85.56
475.939	85.56
476.158	61.56
476.377	67.56
476.596	86.56
476.814	77.56
477.033	74.56
477.252	73.56
477.471	86.56
477.69	85.56
477.908	93.56
478.127	75.56
478.346	80.56
478.564	91.56
478.783	81.56
479.002	91.56
479.22	80.56
479.439	76.56
479.658	95.56
479.876	88.56
480.095	87.56
480.313	82.56
480.532	78.56
480.751	76.56
480.969	73.56
481.188	91.56
481.406	77.56
481.624	77.56
481.843	89.56
482.061	81.56
482.28	86.56
482.498	81.56
482.717	78.56
482.935	62.56
483.153	78.56
483.372	90.56
483.59	80.56
483.808	87.56
484.027	75.56
484.245	70.56
484.463	77.56
484.681	86.56
484.9	105.56
485.118	78.56
485.336	71.56
485.554	78.56
485.772	85.56
485.99	76.56
486.209	85.56
486.427	76.56
486.645	87.56
486.863	75.56
487.081	79.56
487.299	87.56
487.517	74.56
487.735	78.56
487.953	88.56
488.171	100.56
488.389	77.56
488.607	93.56
488.825	80.56
489.043	90.56
489.261	82.56
489.479	95.56
489.696	89.56
489.914	91.56
490.132	87.56
490.35	88.56
490.568	85.56
490.786	74.56
491.003	70.56
491.221	82.56
491.439	87.56
491.657	73.56
491.874	81.56
492.092	85.56
492.31	98.56
492.527	89.56
492.745	85.56
492.963	81.56
493.18	90.56
493.398	93.56
493.615	84.56
493.833	89.56
494.05	89.56
494.268	84.56
494.485	79.56
494.703	81.56
494.92	90.56
495.138	80.56
495.355	79.56
495.573	85.56
495.79	87.56
496.008	78.56
496.225	82.56
496.442	86.56
496.66	90.56
496.877	81.56
497.094	86.56
497.312	77.56
497.529	87.56
497.746	83.56
497.963	89.56
498.181	74.56
498.398	85.56
498.615	71.56
498.832	90.56
499.049	84.56
499.267	91.56
499.484	91.56
499.701	98.56
499.918	90.56
500.135	87.56
500.352	87.56
500.569	92.56
500.786	85.56
501.003	78.56
501.22	83.56
501.437	86.56
501.654	73.56
501.871	85.56
502.088	77.56
502.305	78.56
502.522	91.56
502.739	79.56
502.956	76.56
503.172	93.56
503.389	75.56
503.606	79.56
503.823	84.56
504.04	87.56
504.256	87.56
504.473	77.56
504.69	87.56
504.907	85.56
505.123	80.56
505.34	97.56
505.557	98.56
505.773	85.56
505.99	86.56
506.207	64.56
506.423	81.56
506.64	86.56
506.856	87.56
507.073	72.56
507.289	85.56
507.506	79.56
507.722	71.56
507.939	73.56
508.155	78.56
508.372	75.56
508.588	72.56
508.805	91.56
509.021	86.56
509.238	83.56
509.454	86.56
509.67	94.56
509.887	81.56
510.103	80.56
510.319	83.56
510.536	82.56
510.752	79.56
510.968	83.56
511.184	92.56
511.401	80.56
511.617	86.56
511.833	80.56
512.049	77.56
512.265	76.56
512.481	69.56
512.698	85.56
512.914	78.56
513.13	71.56
513.346	79.56
513.562	84.56
513.778	84.56
513.994	81.56
514.21	85.56
514.426	82.56
514.642	77.56
514.858	76.56
515.074	85.56
515.29	77.56
515.506	75.56
515.721	83.56
515.937	83.56
516.153	86.56
516.369	76.56
516.585	85.56
516.801	90.56
517.016	78.56
517.232	83.56
517.448	92.56
517.664	82.56
517.879	85.56
518.095	91.56
518.311	85.56
518.527	74.56
518.742	67.56
518.958	82.56
519.173	87.56
519.389	93.56
519.605	87.56
519.82	75.56
520.036	74.56
520.251	76.56
