Data from StdD_HRD10591_047.txt Node
Date: Fri May 16 15:31:44 EDT 2025
User: Yrep
Spectrometer: HR+D1059
Trigger mode: 1
Integration Time (sec): 1.000000E-1
Scans to average: 1
Electric dark correction enabled: true
Nonlinearity correction enabled: false
Boxcar width: 0
XAxis mode: Wavelengths
Number of Pixels in Spectrum: 2048
>>>>>Begin Spectral Data<<<<<
223.165	-29.5
223.4	-29.5
223.635	-29.5
223.869	-14.5
224.104	-18.5
224.338	-9.5
224.573	-11.5
224.808	-26.5
225.042	3.5
225.277	3.5
225.511	1.5
225.746	10.5
225.98	-4.5
226.215	7.5
226.449	17.5
226.683	19.5
226.918	22.5
227.152	28.5
227.387	28.5
227.621	27.5
227.856	16.5
228.09	28.5
228.324	39.5
228.559	46.5
228.793	70.5
229.027	47.5
229.262	65.5
229.496	65.5
229.73	70.5
229.964	67.5
230.199	80.5
230.433	72.5
230.667	85.5
230.901	58.5
231.136	73.5
231.37	65.5
231.604	78.5
231.838	82.5
232.072	80.5
232.306	81.5
232.541	78.5
232.775	62.5
233.009	66.5
233.243	77.5
233.477	69.5
233.711	64.5
233.945	70.5
234.179	68.5
234.413	77.5
234.647	56.5
234.881	79.5
235.115	70.5
235.349	82.5
235.583	76.5
235.817	73.5
236.051	67.5
236.285	70.5
236.519	84.5
236.753	68.5
236.987	64.5
237.221	82.5
237.455	80.5
237.689	77.5
237.922	71.5
238.156	70.5
238.39	63.5
238.624	84.5
238.858	70.5
239.091	82.5
239.325	64.5
239.559	80.5
239.793	52.5
240.027	76.5
240.26	74.5
240.494	61.5
240.728	60.5
240.961	59.5
241.195	68.5
241.429	78.5
241.662	56.5
241.896	70.5
242.13	50.5
242.363	59.5
242.597	65.5
242.83	74.5
243.064	65.5
243.298	71.5
243.531	69.5
243.765	63.5
243.998	54.5
244.232	62.5
244.465	69.5
244.699	62.5
244.932	66.5
245.166	58.5
245.399	63.5
245.633	73.5
245.866	64.5
246.099	69.5
246.333	66.5
246.566	68.5
246.8	70.5
247.033	67.5
247.266	63.5
247.5	70.5
247.733	75.5
247.966	68.5
248.2	80.5
248.433	83.5
248.666	67.5
248.899	83.5
249.133	78.5
249.366	91.5
249.599	59.5
249.832	71.5
250.066	68.5
250.299	57.5
250.532	63.5
250.765	75.5
250.998	78.5
251.231	79.5
251.465	66.5
251.698	76.5
251.931	90.5
252.164	78.5
252.397	73.5
252.63	76.5
252.863	85.5
253.096	72.5
253.329	61.5
253.562	83.5
253.795	66.5
254.028	75.5
254.261	72.5
254.494	77.5
254.727	60.5
254.96	75.5
255.193	74.5
255.426	65.5
255.659	74.5
255.892	84.5
256.124	77.5
256.357	74.5
256.59	64.5
256.823	65.5
257.056	78.5
257.289	65.5
257.521	65.5
257.754	64.5
257.987	82.5
258.22	76.5
258.452	77.5
258.685	76.5
258.918	80.5
259.151	69.5
259.383	68.5
259.616	67.5
259.849	70.5
260.081	81.5
260.314	72.5
260.547	77.5
260.779	74.5
261.012	85.5
261.244	79.5
261.477	75.5
261.71	75.5
261.942	67.5
262.175	72.5
262.407	63.5
262.64	65.5
262.872	66.5
263.105	78.5
263.337	74.5
263.57	75.5
263.802	79.5
264.035	76.5
264.267	75.5
264.499	78.5
264.732	84.5
264.964	78.5
265.197	55.5
265.429	80.5
265.661	71.5
265.894	62.5
266.126	76.5
266.358	82.5
266.591	76.5
266.823	69.5
267.055	87.5
267.287	73.5
267.52	77.5
267.752	74.5
267.984	72.5
268.216	83.5
268.448	71.5
268.681	89.5
268.913	77.5
269.145	82.5
269.377	73.5
269.609	85.5
269.841	74.5
270.073	82.5
270.306	73.5
270.538	68.5
270.77	64.5
271.002	90.5
271.234	74.5
271.466	70.5
271.698	83.5
271.93	68.5
272.162	78.5
272.394	82.5
272.626	74.5
272.858	71.5
273.09	78.5
273.322	84.5
273.553	72.5
273.785	91.5
274.017	84.5
274.249	84.5
274.481	88.5
274.713	74.5
274.945	75.5
275.176	71.5
275.408	73.5
275.64	82.5
275.872	59.5
276.104	71.5
276.335	90.5
276.567	69.5
276.799	77.5
277.031	79.5
277.262	78.5
277.494	68.5
277.726	69.5
277.957	96.5
278.189	87.5
278.421	78.5
278.652	82.5
278.884	71.5
279.115	64.5
279.347	94.5
279.579	79.5
279.81	82.5
280.042	64.5
280.273	68.5
280.505	74.5
280.736	72.5
280.968	77.5
281.199	92.5
281.431	79.5
281.662	76.5
281.894	87.5
282.125	91.5
282.356	81.5
282.588	81.5
282.819	71.5
283.051	74.5
283.282	76.5
283.513	75.5
283.745	79.5
283.976	92.5
284.207	75.5
284.439	80.5
284.67	79.5
284.901	85.5
285.132	92.5
285.364	86.5
285.595	87.5
285.826	79.5
286.057	75.5
286.288	74.5
286.52	75.5
286.751	84.5
286.982	74.5
287.213	73.5
287.444	69.5
287.675	82.5
287.906	90.5
288.138	85.5
288.369	85.5
288.6	89.5
288.831	86.5
289.062	80.5
289.293	79.5
289.524	64.5
289.755	79.5
289.986	74.5
290.217	77.5
290.448	90.5
290.679	78.5
290.91	83.5
291.141	82.5
291.371	68.5
291.602	68.5
291.833	75.5
292.064	74.5
292.295	67.5
292.526	80.5
292.757	82.5
292.987	70.5
293.218	79.5
293.449	74.5
293.68	80.5
293.91	81.5
294.141	79.5
294.372	77.5
294.603	78.5
294.833	94.5
295.064	84.5
295.295	68.5
295.525	70.5
295.756	71.5
295.987	85.5
296.217	90.5
296.448	72.5
296.679	69.5
296.909	76.5
297.14	78.5
297.37	80.5
297.601	68.5
297.831	70.5
298.062	85.5
298.292	86.5
298.523	79.5
298.753	82.5
298.984	72.5
299.214	82.5
299.445	79.5
299.675	70.5
299.905	86.5
300.136	74.5
300.366	67.5
300.597	87.5
300.827	78.5
301.057	81.5
301.288	92.5
301.518	91.5
301.748	83.5
301.979	99.5
302.209	82.5
302.439	84.5
302.669	87.5
302.9	79.5
303.13	86.5
303.36	90.5
303.59	85.5
303.82	82.5
304.051	72.5
304.281	84.5
304.511	76.5
304.741	84.5
304.971	81.5
305.201	82.5
305.431	84.5
305.661	88.5
305.891	95.5
306.121	71.5
306.352	72.5
306.582	77.5
306.812	63.5
307.042	73.5
307.272	91.5
307.502	83.5
307.731	77.5
307.961	82.5
308.191	63.5
308.421	88.5
308.651	72.5
308.881	80.5
309.111	70.5
309.341	79.5
309.571	67.5
309.8	71.5
310.03	78.5
310.26	87.5
310.49	72.5
310.72	74.5
310.949	74.5
311.179	70.5
311.409	77.5
311.639	76.5
311.868	80.5
312.098	89.5
312.328	89.5
312.557	88.5
312.787	86.5
313.017	73.5
313.246	76.5
313.476	83.5
313.706	84.5
313.935	76.5
314.165	90.5
314.394	83.5
314.624	72.5
314.853	75.5
315.083	74.5
315.312	68.5
315.542	80.5
315.771	73.5
316.001	76.5
316.23	93.5
316.46	87.5
316.689	67.5
316.919	83.5
317.148	78.5
317.377	88.5
317.607	87.5
317.836	61.5
318.065	72.5
318.295	78.5
318.524	65.5
318.753	70.5
318.983	82.5
319.212	95.5
319.441	72.5
319.67	86.5
319.9	87.5
320.129	71.5
320.358	77.5
320.587	68.5
320.816	80.5
321.046	71.5
321.275	76.5
321.504	79.5
321.733	76.5
321.962	71.5
322.191	70.5
322.42	72.5
322.649	85.5
322.878	69.5
323.108	68.5
323.337	80.5
323.566	89.5
323.795	82.5
324.024	79.5
324.253	85.5
324.482	86.5
324.71	82.5
324.939	72.5
325.168	76.5
325.397	87.5
325.626	83.5
325.855	85.5
326.084	71.5
326.313	76.5
326.542	100.5
326.77	78.5
326.999	74.5
327.228	72.5
327.457	87.5
327.686	89.5
327.914	89.5
328.143	69.5
328.372	82.5
328.6	82.5
328.829	80.5
329.058	88.5
329.287	78.5
329.515	84.5
329.744	82.5
329.972	83.5
330.201	78.5
330.43	78.5
330.658	82.5
330.887	75.5
331.115	73.5
331.344	73.5
331.572	94.5
331.801	74.5
332.03	75.5
332.258	90.5
332.486	84.5
332.715	88.5
332.943	73.5
333.172	82.5
333.4	84.5
333.629	82.5
333.857	63.5
334.085	68.5
334.314	80.5
334.542	79.5
334.771	75.5
334.999	68.5
335.227	90.5
335.455	76.5
335.684	94.5
335.912	98.5
336.14	92.5
336.369	80.5
336.597	75.5
336.825	83.5
337.053	88.5
337.281	85.5
337.51	93.5
337.738	70.5
337.966	83.5
338.194	74.5
338.422	82.5
338.65	58.5
338.878	98.5
339.106	75.5
339.334	74.5
339.562	85.5
339.79	79.5
340.018	73.5
340.246	68.5
340.474	79.5
340.702	75.5
340.93	74.5
341.158	78.5
341.386	85.5
341.614	78.5
341.842	72.5
342.07	83.5
342.298	74.5
342.526	87.5
342.754	66.5
342.981	79.5
343.209	74.5
343.437	96.5
343.665	77.5
343.893	74.5
344.12	83.5
344.348	94.5
344.576	79.5
344.804	71.5
345.031	82.5
345.259	77.5
345.487	77.5
345.714	70.5
345.942	73.5
346.17	63.5
346.397	67.5
346.625	82.5
346.853	61.5
347.08	85.5
347.308	78.5
347.535	74.5
347.763	74.5
347.99	83.5
348.218	80.5
348.445	70.5
348.673	82.5
348.9	81.5
349.128	65.5
349.355	83.5
349.583	85.5
349.81	76.5
350.037	69.5
350.265	74.5
350.492	72.5
350.72	83.5
350.947	77.5
351.174	82.5
351.402	74.5
351.629	89.5
351.856	80.5
352.083	88.5
352.311	88.5
352.538	87.5
352.765	74.5
352.992	86.5
353.22	87.5
353.447	76.5
353.674	89.5
353.901	84.5
354.128	64.5
354.355	76.5
354.583	73.5
354.81	76.5
355.037	65.5
355.264	72.5
355.491	84.5
355.718	76.5
355.945	69.5
356.172	77.5
356.399	90.5
356.626	74.5
356.853	70.5
357.08	80.5
357.307	79.5
357.534	62.5
357.761	87.5
357.988	76.5
358.215	71.5
358.441	70.5
358.668	74.5
358.895	82.5
359.122	60.5
359.349	76.5
359.576	67.5
359.802	82.5
360.029	59.5
360.256	65.5
360.483	66.5
360.709	85.5
360.936	75.5
361.163	83.5
361.39	75.5
361.616	87.5
361.843	72.5
362.07	68.5
362.296	88.5
362.523	71.5
362.749	70.5
362.976	92.5
363.203	65.5
363.429	83.5
363.656	74.5
363.882	87.5
364.109	85.5
364.335	74.5
364.562	80.5
364.788	86.5
365.015	70.5
365.241	77.5
365.468	81.5
365.694	75.5
365.92	63.5
366.147	72.5
366.373	90.5
366.599	73.5
366.826	73.5
367.052	64.5
367.278	86.5
367.505	72.5
367.731	85.5
367.957	72.5
368.184	83.5
368.41	74.5
368.636	76.5
368.862	85.5
369.089	94.5
369.315	84.5
369.541	87.5
369.767	71.5
369.993	77.5
370.219	95.5
370.445	84.5
370.672	88.5
370.898	83.5
371.124	59.5
371.35	71.5
371.576	74.5
371.802	76.5
372.028	79.5
372.254	87.5
372.48	75.5
372.706	77.5
372.932	76.5
373.158	78.5
373.384	84.5
373.61	86.5
373.835	83.5
374.061	93.5
374.287	77.5
374.513	79.5
374.739	80.5
374.965	76.5
375.191	76.5
375.416	73.5
375.642	70.5
375.868	85.5
376.094	90.5
376.319	76.5
376.545	70.5
376.771	67.5
376.997	68.5
377.222	82.5
377.448	69.5
377.674	68.5
377.899	61.5
378.125	80.5
378.35	78.5
378.576	93.5
378.802	76.5
379.027	88.5
379.253	100.5
379.478	77.5
379.704	75.5
379.929	82.5
380.155	72.5
380.38	90.5
380.606	86.5
380.831	82.5
381.057	88.5
381.282	68.5
381.507	69.5
381.733	83.5
381.958	68.5
382.184	78.5
382.409	74.5
382.634	80.5
382.86	79.5
383.085	69.5
383.31	69.5
383.535	65.5
383.761	87.5
383.986	78.5
384.211	83.5
384.436	70.5
384.662	88.5
384.887	59.5
385.112	59.5
385.337	83.5
385.562	76.5
385.787	82.5
386.013	72.5
386.238	75.5
386.463	74.5
386.688	93.5
386.913	82.5
387.138	89.5
387.363	74.5
387.588	69.5
387.813	79.5
388.038	71.5
388.263	82.5
388.488	76.5
388.713	82.5
388.938	76.5
389.163	84.5
389.387	69.5
389.612	74.5
389.837	85.5
390.062	83.5
390.287	58.5
390.512	86.5
390.736	84.5
390.961	76.5
391.186	80.5
391.411	87.5
391.636	82.5
391.86	77.5
392.085	93.5
392.31	86.5
392.534	83.5
392.759	59.5
392.984	94.5
393.208	76.5
393.433	74.5
393.658	81.5
393.882	65.5
394.107	88.5
394.331	94.5
394.556	74.5
394.78	66.5
395.005	68.5
395.229	69.5
395.454	78.5
395.678	79.5
395.903	71.5
396.127	88.5
396.352	88.5
396.576	77.5
396.801	85.5
397.025	87.5
397.249	71.5
397.474	84.5
397.698	82.5
397.922	70.5
398.147	67.5
398.371	70.5
398.595	67.5
398.82	75.5
399.044	68.5
399.268	83.5
399.492	84.5
399.717	83.5
399.941	67.5
400.165	85.5
400.389	80.5
400.613	96.5
400.837	87.5
401.062	81.5
401.286	82.5
401.51	69.5
401.734	55.5
401.958	68.5
402.182	70.5
402.406	82.5
402.63	79.5
402.854	84.5
403.078	91.5
403.302	54.5
403.526	86.5
403.75	85.5
403.974	76.5
404.198	80.5
404.422	77.5
404.645	82.5
404.869	77.5
405.093	76.5
405.317	64.5
405.541	82.5
405.765	78.5
405.988	65.5
406.212	86.5
406.436	78.5
406.66	67.5
406.883	70.5
407.107	83.5
407.331	85.5
407.555	80.5
407.778	70.5
408.002	79.5
408.226	83.5
408.449	71.5
408.673	95.5
408.896	86.5
409.12	78.5
409.344	77.5
409.567	77.5
409.791	75.5
410.014	89.5
410.238	70.5
410.461	67.5
410.685	70.5
410.908	86.5
411.132	77.5
411.355	61.5
411.578	70.5
411.802	88.5
412.025	85.5
412.249	73.5
412.472	82.5
412.695	78.5
412.919	80.5
413.142	78.5
413.365	77.5
413.589	77.5
413.812	70.5
414.035	87.5
414.258	91.5
414.482	78.5
414.705	70.5
414.928	76.5
415.151	77.5
415.374	69.5
415.597	74.5
415.821	72.5
416.044	61.5
416.267	88.5
416.49	64.5
416.713	73.5
416.936	87.5
417.159	87.5
417.382	91.5
417.605	81.5
417.828	77.5
418.051	98.5
418.274	77.5
418.497	72.5
418.72	78.5
418.943	83.5
419.166	80.5
419.389	85.5
419.611	79.5
419.834	70.5
420.057	79.5
420.28	83.5
420.503	76.5
420.726	85.5
420.948	83.5
421.171	82.5
421.394	60.5
421.617	78.5
421.839	73.5
422.062	80.5
422.285	74.5
422.507	68.5
422.73	88.5
422.953	95.5
423.175	67.5
423.398	68.5
423.621	73.5
423.843	83.5
424.066	87.5
424.288	80.5
424.511	78.5
424.733	94.5
424.956	89.5
425.178	88.5
425.401	74.5
425.623	68.5
425.846	76.5
426.068	71.5
426.291	71.5
426.513	85.5
426.735	80.5
426.958	75.5
427.18	83.5
427.402	84.5
427.625	85.5
427.847	76.5
428.069	65.5
428.292	64.5
428.514	80.5
428.736	84.5
428.958	75.5
429.181	74.5
429.403	79.5
429.625	88.5
429.847	86.5
430.069	86.5
430.292	75.5
430.514	72.5
430.736	71.5
430.958	63.5
431.18	86.5
431.402	67.5
431.624	79.5
431.846	75.5
432.068	83.5
432.29	70.5
432.512	98.5
432.734	85.5
432.956	68.5
433.178	79.5
433.4	80.5
433.622	73.5
433.844	81.5
434.066	68.5
434.287	73.5
434.509	73.5
434.731	69.5
434.953	71.5
435.175	75.5
435.397	82.5
435.618	74.5
435.84	70.5
436.062	70.5
436.284	70.5
436.505	81.5
436.727	77.5
436.949	83.5
437.17	74.5
437.392	72.5
437.614	78.5
437.835	73.5
438.057	71.5
438.278	92.5
438.5	77.5
438.721	82.5
438.943	74.5
439.165	76.5
439.386	80.5
439.608	87.5
439.829	76.5
440.05	78.5
440.272	86.5
440.493	85.5
440.715	77.5
440.936	69.5
441.158	88.5
441.379	70.5
441.6	71.5
441.822	88.5
442.043	72.5
442.264	70.5
442.486	85.5
442.707	90.5
442.928	66.5
443.149	72.5
443.371	71.5
443.592	84.5
443.813	68.5
444.034	80.5
444.255	80.5
444.476	93.5
444.698	81.5
444.919	70.5
445.14	149.5
445.361	119.5
445.582	74.5
445.803	81.5
446.024	79.5
446.245	78.5
446.466	91.5
446.687	70.5
446.908	60.5
447.129	76.5
447.35	75.5
447.571	84.5
447.792	72.5
448.013	62.5
448.234	64.5
448.455	98.5
448.675	79.5
448.896	76.5
449.117	89.5
449.338	74.5
449.559	71.5
449.779	84.5
450	84.5
450.221	77.5
450.442	74.5
450.662	81.5
450.883	60.5
451.104	83.5
451.324	76.5
451.545	74.5
451.766	79.5
451.986	81.5
452.207	84.5
452.428	76.5
452.648	78.5
452.869	64.5
453.089	89.5
453.31	73.5
453.53	88.5
453.751	75.5
453.971	86.5
454.192	88.5
454.412	83.5
454.633	82.5
454.853	79.5
455.073	94.5
455.294	85.5
455.514	76.5
455.734	74.5
455.955	77.5
456.175	88.5
456.395	85.5
456.616	82.5
456.836	78.5
457.056	92.5
457.276	79.5
457.497	72.5
457.717	73.5
457.937	76.5
458.157	83.5
458.377	86.5
458.598	77.5
458.818	50.5
459.038	88.5
459.258	79.5
459.478	62.5
459.698	68.5
459.918	78.5
460.138	74.5
460.358	76.5
460.578	94.5
460.798	65.5
461.018	79.5
461.238	77.5
461.458	76.5
461.678	68.5
461.898	87.5
462.118	74.5
462.338	54.5
462.558	91.5
462.777	85.5
462.997	77.5
463.217	80.5
463.437	78.5
463.657	90.5
463.876	83.5
464.096	73.5
464.316	78.5
464.536	76.5
464.755	82.5
464.975	79.5
465.195	95.5
465.414	84.5
465.634	80.5
465.854	77.5
466.073	70.5
466.293	71.5
466.512	65.5
466.732	62.5
466.951	78.5
467.171	61.5
467.391	66.5
467.61	83.5
467.829	89.5
468.049	82.5
468.268	74.5
468.488	67.5
468.707	55.5
468.927	80.5
469.146	80.5
469.365	80.5
469.585	87.5
469.804	72.5
470.023	72.5
470.243	75.5
470.462	94.5
470.681	80.5
470.901	80.5
471.12	77.5
471.339	81.5
471.558	88.5
471.777	74.5
471.997	74.5
472.216	94.5
472.435	84.5
472.654	80.5
472.873	82.5
473.092	75.5
473.311	68.5
473.53	81.5
473.749	91.5
473.968	89.5
474.187	82.5
474.406	83.5
474.625	68.5
474.844	87.5
475.063	70.5
475.282	84.5
475.501	78.5
475.72	87.5
475.939	71.5
476.158	77.5
476.377	82.5
476.596	77.5
476.814	83.5
477.033	88.5
477.252	70.5
477.471	72.5
477.69	84.5
477.908	78.5
478.127	79.5
478.346	82.5
478.564	68.5
478.783	80.5
479.002	75.5
479.22	86.5
479.439	80.5
479.658	77.5
479.876	74.5
480.095	69.5
480.313	85.5
480.532	82.5
480.751	74.5
480.969	78.5
481.188	71.5
481.406	69.5
481.624	81.5
481.843	78.5
482.061	87.5
482.28	93.5
482.498	73.5
482.717	83.5
482.935	82.5
483.153	74.5
483.372	72.5
483.59	76.5
483.808	80.5
484.027	75.5
484.245	74.5
484.463	82.5
484.681	78.5
484.9	79.5
485.118	70.5
485.336	88.5
485.554	75.5
485.772	62.5
485.99	79.5
486.209	88.5
486.427	89.5
486.645	64.5
486.863	66.5
487.081	85.5
487.299	64.5
487.517	82.5
487.735	68.5
487.953	80.5
488.171	80.5
488.389	77.5
488.607	91.5
488.825	80.5
489.043	70.5
489.261	85.5
489.479	82.5
489.696	98.5
489.914	75.5
490.132	80.5
490.35	76.5
490.568	83.5
490.786	75.5
491.003	74.5
491.221	83.5
491.439	84.5
491.657	70.5
491.874	70.5
492.092	82.5
492.31	82.5
492.527	76.5
492.745	75.5
492.963	82.5
493.18	82.5
493.398	92.5
493.615	94.5
493.833	88.5
494.05	84.5
494.268	86.5
494.485	82.5
494.703	88.5
494.92	78.5
495.138	85.5
495.355	90.5
495.573	78.5
495.79	85.5
496.008	82.5
496.225	83.5
496.442	75.5
496.66	79.5
496.877	68.5
497.094	82.5
497.312	87.5
497.529	88.5
497.746	71.5
497.963	81.5
498.181	77.5
498.398	90.5
498.615	86.5
498.832	83.5
499.049	87.5
499.267	87.5
499.484	92.5
499.701	88.5
499.918	86.5
500.135	70.5
500.352	78.5
500.569	89.5
500.786	79.5
501.003	72.5
501.22	94.5
501.437	85.5
501.654	64.5
501.871	79.5
502.088	82.5
502.305	76.5
502.522	98.5
502.739	84.5
502.956	74.5
503.172	84.5
503.389	82.5
503.606	72.5
503.823	92.5
504.04	71.5
504.256	73.5
504.473	91.5
504.69	85.5
504.907	102.5
505.123	75.5
505.34	79.5
505.557	88.5
505.773	87.5
505.99	86.5
506.207	85.5
506.423	76.5
506.64	74.5
506.856	84.5
507.073	83.5
507.289	74.5
507.506	71.5
507.722	82.5
507.939	70.5
508.155	73.5
508.372	85.5
508.588	71.5
508.805	69.5
509.021	65.5
509.238	85.5
509.454	73.5
509.67	82.5
509.887	88.5
510.103	71.5
510.319	86.5
510.536	73.5
510.752	82.5
510.968	73.5
511.184	66.5
511.401	64.5
511.617	74.5
511.833	73.5
512.049	74.5
512.265	78.5
512.481	71.5
512.698	67.5
512.914	77.5
513.13	82.5
513.346	47.5
513.562	84.5
513.778	74.5
513.994	85.5
514.21	90.5
514.426	76.5
514.642	76.5
514.858	71.5
515.074	70.5
515.29	67.5
515.506	73.5
515.721	80.5
515.937	74.5
516.153	78.5
516.369	79.5
516.585	71.5
516.801	71.5
517.016	83.5
517.232	76.5
517.448	71.5
517.664	66.5
517.879	74.5
518.095	75.5
518.311	87.5
518.527	67.5
518.742	69.5
518.958	75.5
519.173	68.5
519.389	88.5
519.605	80.5
519.82	69.5
520.036	76.5
520.251	92.5
520.467	72.5
520.682	92.5
520.898	74.5
521.113	75.5
521.329	82.5
521.544	62.5
521.76	75.5
521.975	77.5
522.19	77.5
522.406	84.5
522.621	74.5
522.836	80.5
523.052	75.5
523.267	84.5
523.482	74.5
523.698	74.5
523.913	71.5
524.128	78.5
524.343	87.5
524.559	69.5
524.774	95.5
524.989	79.5
525.204	85.5
525.419	75.5
525.634	79.5
525.849	87.5
526.064	82.5
526.28	79.5
526.495	91.5
526.71	92.5
526.925	63.5
527.14	72.5
527.355	85.5
527.57	83.5
527.785	84.5
527.999	76.5
528.214	71.5
528.429	71.5
528.644	82.5
528.859	78.5
529.074	75.5
529.289	93.5
529.503	81.5
529.718	73.5
529.933	72.5
530.148	80.5
530.363	80.5
530.577	77.5
530.792	74.5
531.007	78.5
531.221	74.5
531.436	73.5
531.651	68.5
531.865	70.5
532.08	61.5
532.295	99.5
532.509	74.5
532.724	71.5
532.938	79.5
533.153	80.5
533.367	92.5
533.582	80.5
533.796	92.5
534.011	72.5
534.225	69.5
534.44	83.5
534.654	75.5
534.868	62.5
535.083	92.5
535.297	77.5
535.511	79.5
535.726	79.5
535.94	72.5
536.154	76.5
536.369	66.5
536.583	78.5
536.797	90.5
537.011	77.5
537.225	64.5
537.44	70.5
537.654	73.5
537.868	69.5
538.082	82.5
538.296	89.5
538.51	89.5
538.724	79.5
538.938	88.5
539.153	78.5
539.367	84.5
539.581	91.5
539.795	74.5
540.009	87.5
540.222	79.5
540.436	82.5
540.65	76.5
540.864	78.5
