Data from StdD_HRD10591_085.txt Node
Date: Fri May 16 15:32:03 EDT 2025
User: Yrep
Spectrometer: HR+D1059
Trigger mode: 1
Integration Time (sec): 1.000000E-1
Scans to average: 1
Electric dark correction enabled: true
Nonlinearity correction enabled: false
Boxcar width: 0
XAxis mode: Wavelengths
Number of Pixels in Spectrum: 2048
>>>>>Begin Spectral Data<<<<<
223.165	-16.25
223.4	-16.25
223.635	-16.25
223.869	-19.25
224.104	-4.25
224.338	4.75
224.573	-20.25
224.808	-24.25
225.042	-19.25
225.277	-10.25
225.511	0.75
225.746	3.75
225.98	-2.25
226.215	0.75
226.449	10.75
226.683	23.75
226.918	25.75
227.152	45.75
227.387	37.75
227.621	36.75
227.856	37.75
228.09	44.75
228.324	47.75
228.559	44.75
228.793	56.75
229.027	51.75
229.262	44.75
229.496	68.75
229.73	73.75
229.964	59.75
230.199	72.75
230.433	82.75
230.667	67.75
230.901	71.75
231.136	88.75
231.37	76.75
231.604	65.75
231.838	71.75
232.072	70.75
232.306	73.75
232.541	78.75
232.775	73.75
233.009	82.75
233.243	69.75
233.477	84.75
233.711	77.75
233.945	69.75
234.179	75.75
234.413	79.75
234.647	83.75
234.881	75.75
235.115	78.75
235.349	75.75
235.583	87.75
235.817	80.75
236.051	81.75
236.285	94.75
236.519	70.75
236.753	88.75
236.987	87.75
237.221	93.75
237.455	77.75
237.689	78.75
237.922	88.75
238.156	70.75
238.39	62.75
238.624	59.75
238.858	73.75
239.091	71.75
239.325	72.75
239.559	69.75
239.793	80.75
240.027	91.75
240.26	76.75
240.494	76.75
240.728	75.75
240.961	85.75
241.195	64.75
241.429	73.75
241.662	63.75
241.896	56.75
242.13	69.75
242.363	86.75
242.597	66.75
242.83	62.75
243.064	67.75
243.298	76.75
243.531	89.75
243.765	71.75
243.998	69.75
244.232	79.75
244.465	69.75
244.699	85.75
244.932	54.75
245.166	71.75
245.399	72.75
245.633	78.75
245.866	81.75
246.099	69.75
246.333	85.75
246.566	84.75
246.8	74.75
247.033	62.75
247.266	80.75
247.5	63.75
247.733	77.75
247.966	81.75
248.2	64.75
248.433	78.75
248.666	75.75
248.899	80.75
249.133	80.75
249.366	72.75
249.599	79.75
249.832	84.75
250.066	91.75
250.299	77.75
250.532	71.75
250.765	88.75
250.998	67.75
251.231	73.75
251.465	66.75
251.698	64.75
251.931	63.75
252.164	75.75
252.397	73.75
252.63	72.75
252.863	76.75
253.096	76.75
253.329	75.75
253.562	65.75
253.795	65.75
254.028	68.75
254.261	77.75
254.494	66.75
254.727	81.75
254.96	88.75
255.193	75.75
255.426	71.75
255.659	78.75
255.892	81.75
256.124	87.75
256.357	83.75
256.59	63.75
256.823	81.75
257.056	71.75
257.289	72.75
257.521	82.75
257.754	82.75
257.987	80.75
258.22	79.75
258.452	77.75
258.685	84.75
258.918	81.75
259.151	78.75
259.383	85.75
259.616	69.75
259.849	57.75
260.081	81.75
260.314	83.75
260.547	83.75
260.779	84.75
261.012	77.75
261.244	80.75
261.477	84.75
261.71	69.75
261.942	81.75
262.175	77.75
262.407	60.75
262.64	81.75
262.872	96.75
263.105	85.75
263.337	85.75
263.57	74.75
263.802	79.75
264.035	87.75
264.267	77.75
264.499	75.75
264.732	80.75
264.964	89.75
265.197	87.75
265.429	73.75
265.661	65.75
265.894	94.75
266.126	79.75
266.358	70.75
266.591	80.75
266.823	63.75
267.055	83.75
267.287	80.75
267.52	76.75
267.752	69.75
267.984	94.75
268.216	81.75
268.448	89.75
268.681	91.75
268.913	84.75
269.145	72.75
269.377	78.75
269.609	81.75
269.841	71.75
270.073	66.75
270.306	86.75
270.538	86.75
270.77	74.75
271.002	86.75
271.234	82.75
271.466	80.75
271.698	78.75
271.93	80.75
272.162	86.75
272.394	86.75
272.626	67.75
272.858	66.75
273.09	75.75
273.322	101.75
273.553	79.75
273.785	92.75
274.017	85.75
274.249	88.75
274.481	88.75
274.713	63.75
274.945	80.75
275.176	71.75
275.408	87.75
275.64	86.75
275.872	88.75
276.104	91.75
276.335	80.75
276.567	77.75
276.799	92.75
277.031	77.75
277.262	84.75
277.494	81.75
277.726	91.75
277.957	70.75
278.189	83.75
278.421	87.75
278.652	79.75
278.884	89.75
279.115	78.75
279.347	77.75
279.579	88.75
279.81	89.75
280.042	66.75
280.273	77.75
280.505	76.75
280.736	79.75
280.968	88.75
281.199	88.75
281.431	81.75
281.662	85.75
281.894	64.75
282.125	94.75
282.356	68.75
282.588	69.75
282.819	85.75
283.051	86.75
283.282	80.75
283.513	71.75
283.745	90.75
283.976	75.75
284.207	87.75
284.439	77.75
284.67	74.75
284.901	81.75
285.132	96.75
285.364	86.75
285.595	83.75
285.826	81.75
286.057	94.75
286.288	73.75
286.52	82.75
286.751	83.75
286.982	70.75
287.213	80.75
287.444	92.75
287.675	87.75
287.906	88.75
288.138	88.75
288.369	86.75
288.6	76.75
288.831	85.75
289.062	82.75
289.293	94.75
289.524	89.75
289.755	75.75
289.986	79.75
290.217	80.75
290.448	71.75
290.679	83.75
290.91	88.75
291.141	80.75
291.371	80.75
291.602	84.75
291.833	77.75
292.064	85.75
292.295	68.75
292.526	81.75
292.757	80.75
292.987	99.75
293.218	73.75
293.449	84.75
293.68	85.75
293.91	94.75
294.141	83.75
294.372	77.75
294.603	78.75
294.833	78.75
295.064	81.75
295.295	73.75
295.525	85.75
295.756	85.75
295.987	71.75
296.217	94.75
296.448	87.75
296.679	69.75
296.909	94.75
297.14	81.75
297.37	80.75
297.601	75.75
297.831	103.75
298.062	85.75
298.292	81.75
298.523	91.75
298.753	67.75
298.984	88.75
299.214	59.75
299.445	87.75
299.675	76.75
299.905	99.75
300.136	87.75
300.366	71.75
300.597	74.75
300.827	83.75
301.057	85.75
301.288	70.75
301.518	100.75
301.748	79.75
301.979	90.75
302.209	81.75
302.439	84.75
302.669	81.75
302.9	73.75
303.13	87.75
303.36	80.75
303.59	72.75
303.82	96.75
304.051	92.75
304.281	91.75
304.511	83.75
304.741	79.75
304.971	92.75
305.201	87.75
305.431	77.75
305.661	80.75
305.891	86.75
306.121	93.75
306.352	82.75
306.582	70.75
306.812	78.75
307.042	70.75
307.272	85.75
307.502	78.75
307.731	83.75
307.961	71.75
308.191	86.75
308.421	78.75
308.651	88.75
308.881	55.75
309.111	79.75
309.341	91.75
309.571	85.75
309.8	90.75
310.03	71.75
310.26	81.75
310.49	78.75
310.72	96.75
310.949	95.75
311.179	65.75
311.409	90.75
311.639	75.75
311.868	78.75
312.098	78.75
312.328	90.75
312.557	79.75
312.787	83.75
313.017	81.75
313.246	83.75
313.476	68.75
313.706	93.75
313.935	90.75
314.165	73.75
314.394	91.75
314.624	70.75
314.853	70.75
315.083	66.75
315.312	79.75
315.542	70.75
315.771	83.75
316.001	79.75
316.23	93.75
316.46	82.75
316.689	82.75
316.919	77.75
317.148	87.75
317.377	81.75
317.607	101.75
317.836	87.75
318.065	76.75
318.295	83.75
318.524	77.75
318.753	82.75
318.983	85.75
319.212	84.75
319.441	83.75
319.67	71.75
319.9	79.75
320.129	81.75
320.358	70.75
320.587	69.75
320.816	86.75
321.046	73.75
321.275	76.75
321.504	76.75
321.733	76.75
321.962	77.75
322.191	72.75
322.42	72.75
322.649	70.75
322.878	72.75
323.108	95.75
323.337	78.75
323.566	87.75
323.795	83.75
324.024	89.75
324.253	75.75
324.482	68.75
324.71	77.75
324.939	94.75
325.168	79.75
325.397	76.75
325.626	80.75
325.855	96.75
326.084	78.75
326.313	71.75
326.542	83.75
326.77	86.75
326.999	94.75
327.228	89.75
327.457	76.75
327.686	71.75
327.914	81.75
328.143	80.75
328.372	85.75
328.6	85.75
328.829	81.75
329.058	85.75
329.287	87.75
329.515	92.75
329.744	71.75
329.972	83.75
330.201	85.75
330.43	89.75
330.658	75.75
330.887	84.75
331.115	73.75
331.344	80.75
331.572	80.75
331.801	74.75
332.03	85.75
332.258	83.75
332.486	89.75
332.715	80.75
332.943	72.75
333.172	76.75
333.4	75.75
333.629	75.75
333.857	74.75
334.085	86.75
334.314	73.75
334.542	83.75
334.771	73.75
334.999	80.75
335.227	101.75
335.455	78.75
335.684	78.75
335.912	84.75
336.14	77.75
336.369	94.75
336.597	75.75
336.825	80.75
337.053	89.75
337.281	85.75
337.51	73.75
337.738	98.75
337.966	91.75
338.194	77.75
338.422	79.75
338.65	87.75
338.878	86.75
339.106	93.75
339.334	83.75
339.562	85.75
339.79	81.75
340.018	84.75
340.246	73.75
340.474	88.75
340.702	86.75
340.93	87.75
341.158	83.75
341.386	82.75
341.614	81.75
341.842	81.75
342.07	69.75
342.298	77.75
342.526	76.75
342.754	82.75
342.981	70.75
343.209	82.75
343.437	91.75
343.665	77.75
343.893	78.75
344.12	71.75
344.348	89.75
344.576	105.75
344.804	88.75
345.031	61.75
345.259	75.75
345.487	73.75
345.714	73.75
345.942	68.75
346.17	87.75
346.397	91.75
346.625	77.75
346.853	77.75
347.08	77.75
347.308	81.75
347.535	70.75
347.763	68.75
347.99	95.75
348.218	81.75
348.445	82.75
348.673	83.75
348.9	95.75
349.128	87.75
349.355	87.75
349.583	84.75
349.81	74.75
350.037	77.75
350.265	89.75
350.492	75.75
350.72	88.75
350.947	81.75
351.174	73.75
351.402	83.75
351.629	77.75
351.856	73.75
352.083	82.75
352.311	81.75
352.538	73.75
352.765	81.75
352.992	83.75
353.22	91.75
353.447	85.75
353.674	81.75
353.901	73.75
354.128	80.75
354.355	67.75
354.583	71.75
354.81	70.75
355.037	81.75
355.264	77.75
355.491	87.75
355.718	80.75
355.945	76.75
356.172	96.75
356.399	80.75
356.626	85.75
356.853	73.75
357.08	83.75
357.307	89.75
357.534	68.75
357.761	91.75
357.988	79.75
358.215	79.75
358.441	76.75
358.668	63.75
358.895	76.75
359.122	83.75
359.349	74.75
359.576	73.75
359.802	77.75
360.029	78.75
360.256	89.75
360.483	72.75
360.709	86.75
360.936	85.75
361.163	83.75
361.39	85.75
361.616	67.75
361.843	80.75
362.07	93.75
362.296	84.75
362.523	89.75
362.749	82.75
362.976	79.75
363.203	87.75
363.429	75.75
363.656	68.75
363.882	75.75
364.109	64.75
364.335	76.75
364.562	76.75
364.788	85.75
365.015	79.75
365.241	79.75
365.468	72.75
365.694	85.75
365.92	68.75
366.147	72.75
366.373	56.75
366.599	75.75
366.826	88.75
367.052	89.75
367.278	91.75
367.505	80.75
367.731	99.75
367.957	90.75
368.184	73.75
368.41	80.75
368.636	64.75
368.862	69.75
369.089	81.75
369.315	100.75
369.541	87.75
369.767	84.75
369.993	90.75
370.219	81.75
370.445	82.75
370.672	87.75
370.898	78.75
371.124	83.75
371.35	69.75
371.576	78.75
371.802	85.75
372.028	70.75
372.254	73.75
372.48	75.75
372.706	83.75
372.932	89.75
373.158	75.75
373.384	88.75
373.61	85.75
373.835	88.75
374.061	79.75
374.287	67.75
374.513	81.75
374.739	69.75
374.965	79.75
375.191	91.75
375.416	57.75
375.642	82.75
375.868	75.75
376.094	70.75
376.319	81.75
376.545	80.75
376.771	73.75
376.997	84.75
377.222	83.75
377.448	90.75
377.674	79.75
377.899	79.75
378.125	79.75
378.35	77.75
378.576	88.75
378.802	80.75
379.027	66.75
379.253	79.75
379.478	77.75
379.704	78.75
379.929	79.75
380.155	69.75
380.38	63.75
380.606	61.75
380.831	84.75
381.057	90.75
381.282	72.75
381.507	75.75
381.733	89.75
381.958	87.75
382.184	91.75
382.409	83.75
382.634	81.75
382.86	73.75
383.085	89.75
383.31	74.75
383.535	78.75
383.761	89.75
383.986	60.75
384.211	67.75
384.436	77.75
384.662	71.75
384.887	79.75
385.112	72.75
385.337	74.75
385.562	76.75
385.787	75.75
386.013	77.75
386.238	84.75
386.463	72.75
386.688	93.75
386.913	75.75
387.138	85.75
387.363	91.75
387.588	90.75
387.813	88.75
388.038	76.75
388.263	73.75
388.488	78.75
388.713	77.75
388.938	75.75
389.163	81.75
389.387	73.75
389.612	92.75
389.837	89.75
390.062	72.75
390.287	92.75
390.512	84.75
390.736	66.75
390.961	60.75
391.186	59.75
391.411	70.75
391.636	77.75
391.86	77.75
392.085	65.75
392.31	76.75
392.534	73.75
392.759	83.75
392.984	70.75
393.208	87.75
393.433	86.75
393.658	77.75
393.882	77.75
394.107	80.75
394.331	74.75
394.556	82.75
394.78	73.75
395.005	81.75
395.229	83.75
395.454	76.75
395.678	81.75
395.903	93.75
396.127	89.75
396.352	73.75
396.576	78.75
396.801	79.75
397.025	76.75
397.249	73.75
397.474	75.75
397.698	81.75
397.922	76.75
398.147	73.75
398.371	85.75
398.595	95.75
398.82	65.75
399.044	75.75
399.268	80.75
399.492	83.75
399.717	78.75
399.941	77.75
400.165	68.75
400.389	81.75
400.613	63.75
400.837	90.75
401.062	87.75
401.286	83.75
401.51	84.75
401.734	75.75
401.958	81.75
402.182	73.75
402.406	83.75
402.63	84.75
402.854	94.75
403.078	87.75
403.302	72.75
403.526	68.75
403.75	78.75
403.974	67.75
404.198	70.75
404.422	59.75
404.645	70.75
404.869	76.75
405.093	76.75
405.317	73.75
405.541	74.75
405.765	78.75
405.988	84.75
406.212	75.75
406.436	80.75
406.66	74.75
406.883	81.75
407.107	69.75
407.331	65.75
407.555	63.75
407.778	76.75
408.002	79.75
408.226	68.75
408.449	79.75
408.673	87.75
408.896	78.75
409.12	79.75
409.344	74.75
409.567	79.75
409.791	85.75
410.014	84.75
410.238	87.75
410.461	88.75
410.685	78.75
410.908	79.75
411.132	88.75
411.355	87.75
411.578	81.75
411.802	87.75
412.025	83.75
412.249	81.75
412.472	83.75
412.695	80.75
412.919	75.75
413.142	85.75
413.365	89.75
413.589	83.75
413.812	81.75
414.035	73.75
414.258	81.75
414.482	62.75
414.705	76.75
414.928	88.75
415.151	75.75
415.374	85.75
415.597	92.75
415.821	67.75
416.044	70.75
416.267	67.75
416.49	90.75
416.713	88.75
416.936	71.75
417.159	86.75
417.382	93.75
417.605	68.75
417.828	71.75
418.051	77.75
418.274	76.75
418.497	73.75
418.72	84.75
418.943	70.75
419.166	62.75
419.389	94.75
419.611	73.75
419.834	77.75
420.057	87.75
420.28	65.75
420.503	73.75
420.726	63.75
420.948	71.75
421.171	69.75
421.394	83.75
421.617	77.75
421.839	72.75
422.062	72.75
422.285	74.75
422.507	67.75
422.73	76.75
422.953	66.75
423.175	72.75
423.398	86.75
423.621	84.75
423.843	75.75
424.066	78.75
424.288	79.75
424.511	81.75
424.733	87.75
424.956	80.75
425.178	75.75
425.401	94.75
425.623	78.75
425.846	86.75
426.068	78.75
426.291	82.75
426.513	65.75
426.735	89.75
426.958	92.75
427.18	86.75
427.402	91.75
427.625	88.75
427.847	66.75
428.069	73.75
428.292	66.75
428.514	65.75
428.736	65.75
428.958	77.75
429.181	82.75
429.403	88.75
429.625	84.75
429.847	88.75
430.069	88.75
430.292	81.75
430.514	75.75
430.736	74.75
430.958	63.75
431.18	64.75
431.402	78.75
431.624	84.75
431.846	66.75
432.068	80.75
432.29	78.75
432.512	80.75
432.734	84.75
432.956	76.75
433.178	88.75
433.4	96.75
433.622	77.75
433.844	90.75
434.066	75.75
434.287	88.75
434.509	83.75
434.731	84.75
434.953	73.75
435.175	78.75
435.397	83.75
435.618	80.75
435.84	80.75
436.062	91.75
436.284	77.75
436.505	84.75
436.727	76.75
436.949	82.75
437.17	93.75
437.392	80.75
437.614	86.75
437.835	64.75
438.057	63.75
438.278	77.75
438.5	79.75
438.721	88.75
438.943	86.75
439.165	64.75
439.386	80.75
439.608	81.75
439.829	84.75
440.05	58.75
440.272	72.75
440.493	84.75
440.715	68.75
440.936	91.75
441.158	83.75
441.379	83.75
441.6	80.75
441.822	77.75
442.043	80.75
442.264	76.75
442.486	86.75
442.707	78.75
442.928	87.75
443.149	76.75
443.371	76.75
443.592	77.75
443.813	84.75
444.034	85.75
444.255	94.75
444.476	84.75
444.698	76.75
444.919	76.75
445.14	171.75
445.361	123.75
445.582	71.75
445.803	58.75
446.024	80.75
446.245	63.75
446.466	81.75
446.687	80.75
446.908	79.75
447.129	102.75
447.35	71.75
447.571	73.75
447.792	63.75
448.013	73.75
448.234	95.75
448.455	87.75
448.675	95.75
448.896	77.75
449.117	73.75
449.338	73.75
449.559	87.75
449.779	54.75
450	70.75
450.221	77.75
450.442	65.75
450.662	76.75
450.883	79.75
451.104	102.75
451.324	84.75
451.545	88.75
451.766	86.75
451.986	84.75
452.207	90.75
452.428	78.75
452.648	77.75
452.869	71.75
453.089	73.75
453.31	81.75
453.53	81.75
453.751	59.75
453.971	74.75
454.192	75.75
454.412	70.75
454.633	75.75
454.853	79.75
455.073	62.75
455.294	87.75
455.514	83.75
455.734	73.75
455.955	76.75
456.175	82.75
456.395	80.75
456.616	83.75
456.836	81.75
457.056	66.75
457.276	83.75
457.497	84.75
457.717	88.75
457.937	66.75
458.157	83.75
458.377	89.75
458.598	83.75
458.818	84.75
459.038	72.75
459.258	79.75
459.478	87.75
459.698	63.75
459.918	72.75
460.138	83.75
460.358	73.75
460.578	86.75
460.798	85.75
461.018	88.75
461.238	92.75
461.458	84.75
461.678	74.75
461.898	83.75
462.118	77.75
462.338	66.75
462.558	86.75
462.777	87.75
462.997	83.75
463.217	69.75
463.437	92.75
463.657	93.75
463.876	86.75
464.096	79.75
464.316	71.75
464.536	93.75
464.755	85.75
464.975	72.75
465.195	79.75
465.414	71.75
465.634	80.75
465.854	82.75
466.073	63.75
466.293	81.75
466.512	73.75
466.732	77.75
466.951	71.75
467.171	84.75
467.391	71.75
467.61	71.75
467.829	84.75
468.049	99.75
468.268	79.75
468.488	68.75
468.707	76.75
468.927	89.75
469.146	90.75
469.365	71.75
469.585	85.75
469.804	91.75
470.023	77.75
470.243	79.75
470.462	78.75
470.681	79.75
470.901	94.75
471.12	78.75
471.339	69.75
471.558	64.75
471.777	87.75
471.997	74.75
472.216	74.75
472.435	77.75
472.654	70.75
472.873	71.75
473.092	82.75
473.311	67.75
473.53	61.75
473.749	76.75
473.968	82.75
474.187	86.75
474.406	88.75
474.625	84.75
474.844	82.75
475.063	66.75
475.282	77.75
475.501	67.75
475.72	76.75
475.939	85.75
476.158	69.75
476.377	92.75
476.596	89.75
476.814	93.75
477.033	86.75
477.252	76.75
477.471	76.75
477.69	72.75
477.908	83.75
478.127	85.75
478.346	84.75
478.564	86.75
478.783	74.75
479.002	73.75
479.22	82.75
479.439	56.75
479.658	66.75
479.876	79.75
480.095	68.75
480.313	69.75
480.532	97.75
480.751	81.75
480.969	63.75
481.188	76.75
481.406	88.75
481.624	73.75
481.843	76.75
482.061	90.75
482.28	75.75
482.498	79.75
482.717	85.75
482.935	77.75
483.153	74.75
483.372	79.75
483.59	76.75
483.808	89.75
484.027	88.75
484.245	80.75
484.463	69.75
484.681	80.75
484.9	65.75
485.118	82.75
485.336	90.75
485.554	79.75
485.772	83.75
485.99	90.75
486.209	78.75
486.427	89.75
486.645	88.75
486.863	78.75
487.081	78.75
487.299	70.75
487.517	75.75
487.735	81.75
487.953	73.75
488.171	70.75
488.389	85.75
488.607	81.75
488.825	68.75
489.043	68.75
489.261	69.75
489.479	77.75
489.696	90.75
489.914	90.75
490.132	77.75
490.35	92.75
490.568	76.75
490.786	92.75
491.003	86.75
491.221	96.75
491.439	83.75
491.657	85.75
491.874	84.75
492.092	79.75
492.31	83.75
492.527	87.75
492.745	85.75
492.963	89.75
493.18	70.75
493.398	83.75
493.615	81.75
493.833	85.75
494.05	89.75
494.268	80.75
494.485	81.75
494.703	97.75
494.92	94.75
495.138	69.75
495.355	83.75
495.573	91.75
495.79	82.75
496.008	77.75
496.225	91.75
496.442	88.75
496.66	82.75
496.877	74.75
497.094	91.75
497.312	87.75
497.529	85.75
497.746	80.75
497.963	65.75
498.181	80.75
498.398	79.75
498.615	89.75
498.832	81.75
499.049	80.75
499.267	87.75
499.484	59.75
499.701	87.75
499.918	81.75
500.135	86.75
500.352	89.75
500.569	84.75
500.786	85.75
501.003	74.75
501.22	67.75
501.437	81.75
501.654	75.75
501.871	77.75
502.088	79.75
502.305	77.75
502.522	72.75
502.739	71.75
502.956	72.75
503.172	81.75
503.389	65.75
503.606	89.75
503.823	87.75
504.04	83.75
504.256	79.75
504.473	79.75
504.69	65.75
504.907	82.75
505.123	77.75
505.34	88.75
505.557	80.75
505.773	65.75
505.99	81.75
506.207	86.75
506.423	77.75
506.64	89.75
506.856	77.75
507.073	84.75
507.289	71.75
507.506	80.75
507.722	63.75
507.939	83.75
508.155	91.75
508.372	73.75
508.588	85.75
508.805	75.75
509.021	85.75
509.238	89.75
509.454	80.75
509.67	83.75
509.887	89.75
510.103	81.75
510.319	93.75
510.536	81.75
510.752	89.75
510.968	76.75
511.184	71.75
511.401	83.75
511.617	76.75
511.833	66.75
512.049	88.75
512.265	73.75
512.481	88.75
512.698	79.75
512.914	92.75
513.13	85.75
513.346	71.75
513.562	73.75
513.778	78.75
513.994	67.75
514.21	83.75
514.426	87.75
514.642	93.75
514.858	81.75
515.074	95.75
515.29	102.75
515.506	70.75
515.721	90.75
515.937	74.75
516.153	86.75
516.369	82.75
516.585	53.75
516.801	77.75
517.016	76.75
517.232	81.75
517.448	85.75
517.664	91.75
517.879	75.75
518.095	63.75
518.311	58.75
518.527	91.75
518.742	75.75
518.958	73.75
519.173	97.75
519.389	93.75
519.605	65.75
519.82	70.75
520.036	65.75
520.251	86.75
