Data from StdD_HRD10591_014.txt Node
Date: Fri May 16 15:31:28 EDT 2025
User: Yrep
Spectrometer: HR+D1059
Trigger mode: 1
Integration Time (sec): 1.000000E-1
Scans to average: 1
Electric dark correction enabled: true
Nonlinearity correction enabled: false
Boxcar width: 0
XAxis mode: Wavelengths
Number of Pixels in Spectrum: 2048
>>>>>Begin Spectral Data<<<<<
223.165	-21.12
223.4	-21.12
223.635	-21.12
223.869	-28.12
224.104	-29.12
224.338	-15.12
224.573	-10.12
224.808	-14.12
225.042	-4.12
225.277	-10.12
225.511	4.88
225.746	12.88
225.98	4.88
226.215	23.88
226.449	4.88
226.683	18.88
226.918	25.88
227.152	35.88
227.387	16.88
227.621	33.88
227.856	44.88
228.09	43.88
228.324	46.88
228.559	47.88
228.793	54.88
229.027	54.88
229.262	58.88
229.496	52.88
229.73	71.88
229.964	55.88
230.199	71.88
230.433	66.88
230.667	64.88
230.901	84.88
231.136	71.88
231.37	65.88
231.604	71.88
231.838	56.88
232.072	73.88
232.306	74.88
232.541	80.88
232.775	75.88
233.009	79.88
233.243	72.88
233.477	60.88
233.711	77.88
233.945	76.88
234.179	66.88
234.413	75.88
234.647	78.88
234.881	81.88
235.115	78.88
235.349	64.88
235.583	72.88
235.817	84.88
236.051	62.88
236.285	71.88
236.519	73.88
236.753	59.88
236.987	70.88
237.221	69.88
237.455	63.88
237.689	63.88
237.922	63.88
238.156	73.88
238.39	69.88
238.624	81.88
238.858	75.88
239.091	73.88
239.325	85.88
239.559	85.88
239.793	76.88
240.027	78.88
240.26	82.88
240.494	76.88
240.728	74.88
240.961	79.88
241.195	73.88
241.429	52.88
241.662	59.88
241.896	77.88
242.13	76.88
242.363	69.88
242.597	71.88
242.83	70.88
243.064	66.88
243.298	73.88
243.531	63.88
243.765	76.88
243.998	59.88
244.232	85.88
244.465	75.88
244.699	70.88
244.932	64.88
245.166	77.88
245.399	69.88
245.633	61.88
245.866	56.88
246.099	78.88
246.333	62.88
246.566	63.88
246.8	55.88
247.033	62.88
247.266	70.88
247.5	84.88
247.733	76.88
247.966	84.88
248.2	77.88
248.433	80.88
248.666	84.88
248.899	82.88
249.133	80.88
249.366	74.88
249.599	62.88
249.832	84.88
250.066	77.88
250.299	71.88
250.532	76.88
250.765	74.88
250.998	63.88
251.231	64.88
251.465	63.88
251.698	78.88
251.931	76.88
252.164	72.88
252.397	74.88
252.63	74.88
252.863	68.88
253.096	73.88
253.329	81.88
253.562	75.88
253.795	76.88
254.028	81.88
254.261	74.88
254.494	70.88
254.727	90.88
254.96	67.88
255.193	82.88
255.426	62.88
255.659	78.88
255.892	69.88
256.124	58.88
256.357	81.88
256.59	67.88
256.823	58.88
257.056	76.88
257.289	69.88
257.521	72.88
257.754	72.88
257.987	74.88
258.22	71.88
258.452	64.88
258.685	79.88
258.918	79.88
259.151	87.88
259.383	67.88
259.616	77.88
259.849	86.88
260.081	83.88
260.314	88.88
260.547	74.88
260.779	78.88
261.012	69.88
261.244	71.88
261.477	79.88
261.71	71.88
261.942	72.88
262.175	83.88
262.407	64.88
262.64	62.88
262.872	74.88
263.105	88.88
263.337	84.88
263.57	78.88
263.802	75.88
264.035	72.88
264.267	62.88
264.499	56.88
264.732	76.88
264.964	78.88
265.197	79.88
265.429	83.88
265.661	73.88
265.894	74.88
266.126	75.88
266.358	86.88
266.591	75.88
266.823	89.88
267.055	66.88
267.287	73.88
267.52	77.88
267.752	76.88
267.984	71.88
268.216	66.88
268.448	81.88
268.681	84.88
268.913	70.88
269.145	81.88
269.377	68.88
269.609	70.88
269.841	55.88
270.073	77.88
270.306	78.88
270.538	80.88
270.77	63.88
271.002	77.88
271.234	69.88
271.466	73.88
271.698	65.88
271.93	82.88
272.162	85.88
272.394	85.88
272.626	78.88
272.858	86.88
273.09	81.88
273.322	79.88
273.553	97.88
273.785	87.88
274.017	64.88
274.249	63.88
274.481	81.88
274.713	72.88
274.945	65.88
275.176	79.88
275.408	69.88
275.64	86.88
275.872	72.88
276.104	69.88
276.335	84.88
276.567	74.88
276.799	75.88
277.031	77.88
277.262	84.88
277.494	74.88
277.726	89.88
277.957	73.88
278.189	73.88
278.421	62.88
278.652	89.88
278.884	73.88
279.115	81.88
279.347	71.88
279.579	69.88
279.81	73.88
280.042	88.88
280.273	69.88
280.505	74.88
280.736	80.88
280.968	79.88
281.199	83.88
281.431	76.88
281.662	71.88
281.894	80.88
282.125	85.88
282.356	67.88
282.588	77.88
282.819	79.88
283.051	70.88
283.282	74.88
283.513	75.88
283.745	95.88
283.976	77.88
284.207	64.88
284.439	66.88
284.67	78.88
284.901	93.88
285.132	74.88
285.364	78.88
285.595	83.88
285.826	71.88
286.057	81.88
286.288	83.88
286.52	71.88
286.751	66.88
286.982	87.88
287.213	87.88
287.444	62.88
287.675	82.88
287.906	77.88
288.138	64.88
288.369	86.88
288.6	75.88
288.831	73.88
289.062	85.88
289.293	72.88
289.524	76.88
289.755	82.88
289.986	81.88
290.217	79.88
290.448	82.88
290.679	93.88
290.91	74.88
291.141	74.88
291.371	87.88
291.602	80.88
291.833	80.88
292.064	78.88
292.295	67.88
292.526	75.88
292.757	70.88
292.987	82.88
293.218	76.88
293.449	81.88
293.68	78.88
293.91	84.88
294.141	69.88
294.372	83.88
294.603	75.88
294.833	87.88
295.064	77.88
295.295	84.88
295.525	84.88
295.756	84.88
295.987	83.88
296.217	80.88
296.448	79.88
296.679	77.88
296.909	97.88
297.14	89.88
297.37	76.88
297.601	70.88
297.831	90.88
298.062	85.88
298.292	69.88
298.523	82.88
298.753	74.88
298.984	71.88
299.214	74.88
299.445	76.88
299.675	89.88
299.905	68.88
300.136	85.88
300.366	75.88
300.597	67.88
300.827	83.88
301.057	77.88
301.288	88.88
301.518	66.88
301.748	79.88
301.979	100.88
302.209	83.88
302.439	83.88
302.669	79.88
302.9	82.88
303.13	84.88
303.36	86.88
303.59	71.88
303.82	88.88
304.051	83.88
304.281	77.88
304.511	85.88
304.741	76.88
304.971	80.88
305.201	81.88
305.431	74.88
305.661	80.88
305.891	74.88
306.121	72.88
306.352	77.88
306.582	83.88
306.812	85.88
307.042	86.88
307.272	82.88
307.502	74.88
307.731	73.88
307.961	83.88
308.191	72.88
308.421	69.88
308.651	82.88
308.881	77.88
309.111	91.88
309.341	74.88
309.571	76.88
309.8	74.88
310.03	73.88
310.26	82.88
310.49	77.88
310.72	75.88
310.949	83.88
311.179	90.88
311.409	86.88
311.639	74.88
311.868	87.88
312.098	83.88
312.328	73.88
312.557	82.88
312.787	87.88
313.017	62.88
313.246	77.88
313.476	77.88
313.706	83.88
313.935	71.88
314.165	84.88
314.394	83.88
314.624	81.88
314.853	74.88
315.083	97.88
315.312	73.88
315.542	78.88
315.771	72.88
316.001	77.88
316.23	82.88
316.46	76.88
316.689	75.88
316.919	79.88
317.148	77.88
317.377	82.88
317.607	88.88
317.836	90.88
318.065	71.88
318.295	85.88
318.524	75.88
318.753	80.88
318.983	81.88
319.212	80.88
319.441	82.88
319.67	70.88
319.9	73.88
320.129	71.88
320.358	90.88
320.587	91.88
320.816	69.88
321.046	79.88
321.275	67.88
321.504	85.88
321.733	73.88
321.962	80.88
322.191	92.88
322.42	75.88
322.649	74.88
322.878	79.88
323.108	81.88
323.337	81.88
323.566	75.88
323.795	81.88
324.024	74.88
324.253	75.88
324.482	69.88
324.71	79.88
324.939	59.88
325.168	78.88
325.397	82.88
325.626	69.88
325.855	65.88
326.084	82.88
326.313	90.88
326.542	74.88
326.77	83.88
326.999	71.88
327.228	74.88
327.457	84.88
327.686	86.88
327.914	79.88
328.143	79.88
328.372	76.88
328.6	77.88
328.829	72.88
329.058	78.88
329.287	79.88
329.515	80.88
329.744	85.88
329.972	80.88
330.201	76.88
330.43	74.88
330.658	79.88
330.887	87.88
331.115	75.88
331.344	73.88
331.572	94.88
331.801	80.88
332.03	81.88
332.258	86.88
332.486	79.88
332.715	71.88
332.943	82.88
333.172	79.88
333.4	67.88
333.629	65.88
333.857	70.88
334.085	69.88
334.314	79.88
334.542	83.88
334.771	79.88
334.999	77.88
335.227	78.88
335.455	80.88
335.684	91.88
335.912	81.88
336.14	77.88
336.369	62.88
336.597	62.88
336.825	88.88
337.053	93.88
337.281	82.88
337.51	75.88
337.738	80.88
337.966	80.88
338.194	93.88
338.422	73.88
338.65	81.88
338.878	79.88
339.106	79.88
339.334	69.88
339.562	76.88
339.79	75.88
340.018	96.88
340.246	92.88
340.474	79.88
340.702	81.88
340.93	87.88
341.158	79.88
341.386	84.88
341.614	81.88
341.842	80.88
342.07	85.88
342.298	75.88
342.526	76.88
342.754	74.88
342.981	86.88
343.209	78.88
343.437	84.88
343.665	86.88
343.893	78.88
344.12	77.88
344.348	71.88
344.576	79.88
344.804	87.88
345.031	84.88
345.259	79.88
345.487	78.88
345.714	87.88
345.942	87.88
346.17	71.88
346.397	79.88
346.625	70.88
346.853	82.88
347.08	69.88
347.308	62.88
347.535	73.88
347.763	75.88
347.99	77.88
348.218	75.88
348.445	76.88
348.673	80.88
348.9	75.88
349.128	79.88
349.355	71.88
349.583	79.88
349.81	82.88
350.037	77.88
350.265	73.88
350.492	84.88
350.72	80.88
350.947	75.88
351.174	72.88
351.402	64.88
351.629	69.88
351.856	62.88
352.083	75.88
352.311	72.88
352.538	84.88
352.765	86.88
352.992	77.88
353.22	58.88
353.447	88.88
353.674	91.88
353.901	88.88
354.128	91.88
354.355	76.88
354.583	71.88
354.81	84.88
355.037	75.88
355.264	76.88
355.491	90.88
355.718	77.88
355.945	79.88
356.172	92.88
356.399	79.88
356.626	86.88
356.853	82.88
357.08	70.88
357.307	93.88
357.534	73.88
357.761	92.88
357.988	89.88
358.215	84.88
358.441	83.88
358.668	85.88
358.895	79.88
359.122	94.88
359.349	82.88
359.576	74.88
359.802	85.88
360.029	81.88
360.256	85.88
360.483	75.88
360.709	90.88
360.936	82.88
361.163	74.88
361.39	82.88
361.616	63.88
361.843	89.88
362.07	69.88
362.296	81.88
362.523	68.88
362.749	68.88
362.976	81.88
363.203	77.88
363.429	77.88
363.656	85.88
363.882	63.88
364.109	77.88
364.335	69.88
364.562	86.88
364.788	68.88
365.015	95.88
365.241	82.88
365.468	73.88
365.694	85.88
365.92	71.88
366.147	74.88
366.373	78.88
366.599	71.88
366.826	81.88
367.052	80.88
367.278	78.88
367.505	73.88
367.731	87.88
367.957	75.88
368.184	69.88
368.41	69.88
368.636	73.88
368.862	91.88
369.089	89.88
369.315	87.88
369.541	76.88
369.767	81.88
369.993	67.88
370.219	65.88
370.445	85.88
370.672	74.88
370.898	78.88
371.124	82.88
371.35	82.88
371.576	66.88
371.802	67.88
372.028	78.88
372.254	83.88
372.48	83.88
372.706	82.88
372.932	82.88
373.158	83.88
373.384	72.88
373.61	69.88
373.835	85.88
374.061	74.88
374.287	67.88
374.513	77.88
374.739	76.88
374.965	66.88
375.191	80.88
375.416	83.88
375.642	77.88
375.868	75.88
376.094	82.88
376.319	71.88
376.545	90.88
376.771	77.88
376.997	76.88
377.222	74.88
377.448	86.88
377.674	82.88
377.899	87.88
378.125	82.88
378.35	69.88
378.576	75.88
378.802	78.88
379.027	74.88
379.253	79.88
379.478	74.88
379.704	73.88
379.929	79.88
380.155	89.88
380.38	74.88
380.606	78.88
380.831	86.88
381.057	97.88
381.282	78.88
381.507	67.88
381.733	89.88
381.958	76.88
382.184	74.88
382.409	75.88
382.634	71.88
382.86	72.88
383.085	95.88
383.31	88.88
383.535	85.88
383.761	73.88
383.986	85.88
384.211	62.88
384.436	80.88
384.662	75.88
384.887	71.88
385.112	77.88
385.337	94.88
385.562	75.88
385.787	68.88
386.013	76.88
386.238	86.88
386.463	77.88
386.688	89.88
386.913	87.88
387.138	63.88
387.363	69.88
387.588	81.88
387.813	79.88
388.038	72.88
388.263	81.88
388.488	80.88
388.713	78.88
388.938	78.88
389.163	84.88
389.387	77.88
389.612	89.88
389.837	72.88
390.062	87.88
390.287	65.88
390.512	73.88
390.736	84.88
390.961	80.88
391.186	77.88
391.411	74.88
391.636	77.88
391.86	77.88
392.085	84.88
392.31	82.88
392.534	72.88
392.759	77.88
392.984	85.88
393.208	86.88
393.433	75.88
393.658	81.88
393.882	64.88
394.107	76.88
394.331	80.88
394.556	66.88
394.78	79.88
395.005	81.88
395.229	83.88
395.454	80.88
395.678	72.88
395.903	79.88
396.127	78.88
396.352	93.88
396.576	78.88
396.801	86.88
397.025	57.88
397.249	82.88
397.474	81.88
397.698	81.88
397.922	81.88
398.147	93.88
398.371	64.88
398.595	86.88
398.82	69.88
399.044	87.88
399.268	73.88
399.492	76.88
399.717	85.88
399.941	85.88
400.165	83.88
400.389	83.88
400.613	82.88
400.837	85.88
401.062	63.88
401.286	69.88
401.51	76.88
401.734	78.88
401.958	77.88
402.182	84.88
402.406	80.88
402.63	86.88
402.854	84.88
403.078	75.88
403.302	77.88
403.526	84.88
403.75	98.88
403.974	80.88
404.198	73.88
404.422	85.88
404.645	80.88
404.869	82.88
405.093	86.88
405.317	80.88
405.541	91.88
405.765	79.88
405.988	87.88
406.212	82.88
406.436	63.88
406.66	68.88
406.883	85.88
407.107	78.88
407.331	67.88
407.555	71.88
407.778	81.88
408.002	66.88
408.226	93.88
408.449	83.88
408.673	87.88
408.896	90.88
409.12	55.88
409.344	83.88
409.567	74.88
409.791	93.88
410.014	76.88
410.238	86.88
410.461	85.88
410.685	73.88
410.908	78.88
411.132	70.88
411.355	90.88
411.578	87.88
411.802	91.88
412.025	74.88
412.249	71.88
412.472	78.88
412.695	79.88
412.919	80.88
413.142	78.88
413.365	75.88
413.589	86.88
413.812	81.88
414.035	78.88
414.258	71.88
414.482	85.88
414.705	78.88
414.928	82.88
415.151	80.88
415.374	70.88
415.597	64.88
415.821	72.88
416.044	70.88
416.267	74.88
416.49	79.88
416.713	73.88
416.936	83.88
417.159	85.88
417.382	81.88
417.605	93.88
417.828	81.88
418.051	76.88
418.274	78.88
418.497	74.88
418.72	60.88
418.943	92.88
419.166	79.88
419.389	73.88
419.611	60.88
419.834	75.88
420.057	67.88
420.28	74.88
420.503	85.88
420.726	81.88
420.948	83.88
421.171	88.88
421.394	76.88
421.617	71.88
421.839	72.88
422.062	79.88
422.285	69.88
422.507	92.88
422.73	73.88
422.953	78.88
423.175	84.88
423.398	69.88
423.621	78.88
423.843	67.88
424.066	71.88
424.288	66.88
424.511	77.88
424.733	75.88
424.956	67.88
425.178	81.88
425.401	87.88
425.623	77.88
425.846	83.88
426.068	76.88
426.291	79.88
426.513	81.88
426.735	78.88
426.958	66.88
427.18	84.88
427.402	69.88
427.625	76.88
427.847	77.88
428.069	70.88
428.292	71.88
428.514	82.88
428.736	78.88
428.958	77.88
429.181	78.88
429.403	90.88
429.625	88.88
429.847	76.88
430.069	74.88
430.292	73.88
430.514	69.88
430.736	77.88
430.958	78.88
431.18	85.88
431.402	78.88
431.624	79.88
431.846	91.88
432.068	69.88
432.29	75.88
432.512	80.88
432.734	69.88
432.956	77.88
433.178	85.88
433.4	76.88
433.622	84.88
433.844	74.88
434.066	78.88
434.287	76.88
434.509	70.88
434.731	76.88
434.953	78.88
435.175	75.88
435.397	79.88
435.618	76.88
435.84	84.88
436.062	81.88
436.284	74.88
436.505	79.88
436.727	67.88
436.949	69.88
437.17	74.88
437.392	63.88
437.614	77.88
437.835	63.88
438.057	79.88
438.278	76.88
438.5	75.88
438.721	69.88
438.943	77.88
439.165	83.88
439.386	76.88
439.608	87.88
439.829	78.88
440.05	75.88
440.272	82.88
440.493	77.88
440.715	79.88
440.936	87.88
441.158	76.88
441.379	81.88
441.6	74.88
441.822	84.88
442.043	74.88
442.264	79.88
442.486	75.88
442.707	80.88
442.928	68.88
443.149	90.88
443.371	88.88
443.592	84.88
443.813	74.88
444.034	87.88
444.255	85.88
444.476	72.88
444.698	69.88
444.919	85.88
445.14	163.88
445.361	118.88
445.582	90.88
445.803	78.88
446.024	69.88
446.245	89.88
446.466	85.88
446.687	82.88
446.908	81.88
447.129	76.88
447.35	96.88
447.571	66.88
447.792	80.88
448.013	86.88
448.234	75.88
448.455	67.88
448.675	83.88
448.896	88.88
449.117	89.88
449.338	67.88
449.559	85.88
449.779	77.88
450	86.88
450.221	74.88
450.442	93.88
450.662	79.88
450.883	73.88
451.104	89.88
451.324	67.88
451.545	81.88
451.766	79.88
451.986	82.88
452.207	88.88
452.428	78.88
452.648	94.88
452.869	85.88
453.089	73.88
453.31	83.88
453.53	79.88
453.751	71.88
453.971	83.88
454.192	74.88
454.412	95.88
454.633	90.88
454.853	82.88
455.073	87.88
455.294	77.88
455.514	68.88
455.734	68.88
455.955	76.88
456.175	73.88
456.395	72.88
456.616	79.88
456.836	77.88
457.056	71.88
457.276	93.88
457.497	63.88
457.717	75.88
457.937	81.88
458.157	81.88
458.377	75.88
458.598	81.88
458.818	82.88
459.038	70.88
459.258	70.88
459.478	47.88
459.698	71.88
459.918	88.88
460.138	83.88
460.358	77.88
460.578	76.88
460.798	68.88
461.018	71.88
461.238	85.88
461.458	81.88
461.678	62.88
461.898	83.88
462.118	87.88
462.338	75.88
462.558	78.88
462.777	69.88
462.997	66.88
463.217	93.88
463.437	72.88
463.657	87.88
463.876	71.88
464.096	75.88
464.316	70.88
464.536	64.88
464.755	74.88
464.975	89.88
465.195	79.88
465.414	98.88
465.634	100.88
465.854	81.88
466.073	94.88
466.293	75.88
466.512	69.88
466.732	89.88
466.951	90.88
467.171	94.88
467.391	76.88
467.61	78.88
467.829	86.88
468.049	68.88
468.268	88.88
468.488	98.88
468.707	77.88
468.927	91.88
469.146	72.88
469.365	92.88
469.585	89.88
469.804	87.88
470.023	89.88
470.243	68.88
470.462	81.88
470.681	75.88
470.901	69.88
471.12	83.88
471.339	81.88
471.558	90.88
471.777	82.88
471.997	75.88
472.216	83.88
472.435	72.88
472.654	71.88
472.873	77.88
473.092	77.88
473.311	59.88
473.53	82.88
473.749	99.88
473.968	85.88
474.187	77.88
474.406	71.88
474.625	84.88
474.844	85.88
475.063	87.88
475.282	67.88
475.501	81.88
475.72	86.88
475.939	81.88
476.158	78.88
476.377	78.88
476.596	84.88
476.814	77.88
477.033	70.88
477.252	77.88
477.471	74.88
477.69	66.88
477.908	71.88
478.127	72.88
478.346	79.88
478.564	98.88
478.783	72.88
479.002	85.88
479.22	79.88
479.439	85.88
479.658	78.88
479.876	75.88
480.095	76.88
480.313	77.88
480.532	90.88
480.751	87.88
480.969	74.88
481.188	81.88
481.406	75.88
481.624	62.88
481.843	84.88
482.061	73.88
482.28	76.88
482.498	81.88
482.717	76.88
482.935	72.88
483.153	82.88
483.372	73.88
483.59	86.88
483.808	97.88
484.027	82.88
484.245	82.88
484.463	72.88
484.681	90.88
484.9	74.88
485.118	72.88
485.336	73.88
485.554	89.88
485.772	88.88
485.99	84.88
486.209	81.88
486.427	75.88
486.645	77.88
486.863	83.88
487.081	63.88
487.299	88.88
487.517	89.88
487.735	88.88
487.953	87.88
488.171	90.88
488.389	93.88
488.607	79.88
488.825	76.88
489.043	79.88
489.261	78.88
489.479	77.88
489.696	94.88
489.914	75.88
490.132	91.88
490.35	77.88
490.568	85.88
490.786	87.88
491.003	91.88
491.221	82.88
491.439	78.88
491.657	76.88
491.874	91.88
492.092	86.88
492.31	79.88
492.527	78.88
492.745	88.88
492.963	87.88
493.18	73.88
493.398	73.88
493.615	75.88
493.833	90.88
494.05	82.88
494.268	83.88
494.485	84.88
494.703	79.88
494.92	88.88
495.138	87.88
495.355	91.88
495.573	91.88
495.79	83.88
496.008	84.88
496.225	71.88
496.442	82.88
496.66	85.88
496.877	69.88
497.094	91.88
497.312	84.88
497.529	75.88
497.746	74.88
497.963	86.88
498.181	74.88
498.398	84.88
498.615	65.88
498.832	78.88
499.049	75.88
499.267	83.88
499.484	66.88
499.701	86.88
499.918	86.88
500.135	74.88
500.352	75.88
500.569	74.88
500.786	82.88
501.003	81.88
501.22	75.88
501.437	75.88
501.654	81.88
501.871	85.88
502.088	56.88
502.305	81.88
502.522	73.88
502.739	70.88
502.956	86.88
503.172	91.88
503.389	63.88
503.606	77.88
503.823	88.88
504.04	89.88
504.256	81.88
504.473	66.88
504.69	75.88
504.907	87.88
505.123	85.88
505.34	70.88
505.557	82.88
505.773	85.88
505.99	83.88
506.207	74.88
506.423	78.88
506.64	73.88
506.856	85.88
507.073	91.88
507.289	69.88
507.506	76.88
507.722	72.88
507.939	78.88
508.155	72.88
508.372	77.88
508.588	83.88
508.805	79.88
509.021	78.88
509.238	73.88
509.454	79.88
509.67	71.88
509.887	74.88
510.103	70.88
510.319	86.88
510.536	92.88
510.752	75.88
510.968	97.88
511.184	89.88
511.401	93.88
511.617	81.88
511.833	63.88
512.049	65.88
512.265	92.88
512.481	71.88
512.698	74.88
512.914	75.88
513.13	76.88
513.346	76.88
513.562	83.88
513.778	80.88
513.994	77.88
514.21	73.88
514.426	83.88
514.642	79.88
514.858	72.88
515.074	71.88
515.29	76.88
515.506	78.88
515.721	81.88
515.937	55.88
516.153	77.88
516.369	86.88
516.585	91.88
516.801	91.88
517.016	77.88
517.232	66.88
517.448	75.88
517.664	73.88
517.879	70.88
518.095	79.88
518.311	66.88
518.527	82.88
518.742	94.88
518.958	78.88
519.173	81.88
519.389	74.88
519.605	71.88
519.82	63.88
520.036	86.88
520.251	77.88
