Data from StdD_HRD10591_093.txt Node
Date: Fri May 16 15:32:07 EDT 2025
User: Yrep
Spectrometer: HR+D1059
Trigger mode: 1
Integration Time (sec): 1.000000E-1
Scans to average: 1
Electric dark correction enabled: true
Nonlinearity correction enabled: false
Boxcar width: 0
XAxis mode: Wavelengths
Number of Pixels in Spectrum: 2048
>>>>>Begin Spectral Data<<<<<
223.165	-22.69
223.4	-22.69
223.635	-22.69
223.869	-17.69
224.104	-19.69
224.338	-16.69
224.573	-10.69
224.808	-9.69
225.042	1.31
225.277	-13.69
225.511	-16.69
225.746	9.31
225.98	9.31
226.215	16.31
226.449	17.31
226.683	22.31
226.918	23.31
227.152	28.31
227.387	46.31
227.621	46.31
227.856	51.31
228.09	48.31
228.324	48.31
228.559	57.31
228.793	49.31
229.027	67.31
229.262	59.31
229.496	71.31
229.73	61.31
229.964	78.31
230.199	64.31
230.433	75.31
230.667	85.31
230.901	64.31
231.136	68.31
231.37	75.31
231.604	66.31
231.838	61.31
232.072	77.31
232.306	75.31
232.541	86.31
232.775	85.31
233.009	85.31
233.243	80.31
233.477	81.31
233.711	77.31
233.945	68.31
234.179	95.31
234.413	71.31
234.647	77.31
234.881	87.31
235.115	88.31
235.349	72.31
235.583	68.31
235.817	95.31
236.051	76.31
236.285	73.31
236.519	87.31
236.753	82.31
236.987	84.31
237.221	86.31
237.455	74.31
237.689	79.31
237.922	76.31
238.156	81.31
238.39	69.31
238.624	87.31
238.858	61.31
239.091	71.31
239.325	81.31
239.559	77.31
239.793	79.31
240.027	89.31
240.26	77.31
240.494	64.31
240.728	73.31
240.961	64.31
241.195	75.31
241.429	84.31
241.662	81.31
241.896	73.31
242.13	88.31
242.363	86.31
242.597	79.31
242.83	68.31
243.064	79.31
243.298	65.31
243.531	76.31
243.765	70.31
243.998	72.31
244.232	75.31
244.465	79.31
244.699	78.31
244.932	78.31
245.166	69.31
245.399	77.31
245.633	82.31
245.866	65.31
246.099	74.31
246.333	65.31
246.566	73.31
246.8	76.31
247.033	77.31
247.266	92.31
247.5	66.31
247.733	74.31
247.966	81.31
248.2	72.31
248.433	69.31
248.666	70.31
248.899	85.31
249.133	87.31
249.366	82.31
249.599	80.31
249.832	80.31
250.066	75.31
250.299	88.31
250.532	82.31
250.765	89.31
250.998	76.31
251.231	69.31
251.465	78.31
251.698	77.31
251.931	67.31
252.164	73.31
252.397	90.31
252.63	66.31
252.863	82.31
253.096	80.31
253.329	76.31
253.562	75.31
253.795	85.31
254.028	81.31
254.261	77.31
254.494	66.31
254.727	75.31
254.96	65.31
255.193	81.31
255.426	72.31
255.659	66.31
255.892	73.31
256.124	67.31
256.357	62.31
256.59	77.31
256.823	83.31
257.056	77.31
257.289	80.31
257.521	88.31
257.754	78.31
257.987	82.31
258.22	89.31
258.452	83.31
258.685	89.31
258.918	87.31
259.151	66.31
259.383	81.31
259.616	84.31
259.849	81.31
260.081	66.31
260.314	73.31
260.547	78.31
260.779	76.31
261.012	77.31
261.244	82.31
261.477	85.31
261.71	68.31
261.942	71.31
262.175	86.31
262.407	82.31
262.64	79.31
262.872	83.31
263.105	87.31
263.337	82.31
263.57	82.31
263.802	86.31
264.035	88.31
264.267	87.31
264.499	91.31
264.732	78.31
264.964	73.31
265.197	82.31
265.429	86.31
265.661	83.31
265.894	97.31
266.126	77.31
266.358	76.31
266.591	81.31
266.823	85.31
267.055	73.31
267.287	76.31
267.52	73.31
267.752	88.31
267.984	79.31
268.216	74.31
268.448	78.31
268.681	80.31
268.913	69.31
269.145	78.31
269.377	90.31
269.609	85.31
269.841	81.31
270.073	87.31
270.306	73.31
270.538	81.31
270.77	77.31
271.002	79.31
271.234	93.31
271.466	85.31
271.698	95.31
271.93	84.31
272.162	83.31
272.394	87.31
272.626	77.31
272.858	89.31
273.09	94.31
273.322	85.31
273.553	87.31
273.785	81.31
274.017	86.31
274.249	70.31
274.481	79.31
274.713	99.31
274.945	101.31
275.176	95.31
275.408	83.31
275.64	82.31
275.872	81.31
276.104	80.31
276.335	87.31
276.567	76.31
276.799	75.31
277.031	83.31
277.262	89.31
277.494	89.31
277.726	85.31
277.957	82.31
278.189	77.31
278.421	83.31
278.652	76.31
278.884	78.31
279.115	64.31
279.347	86.31
279.579	66.31
279.81	84.31
280.042	81.31
280.273	67.31
280.505	93.31
280.736	79.31
280.968	70.31
281.199	84.31
281.431	87.31
281.662	84.31
281.894	100.31
282.125	89.31
282.356	95.31
282.588	87.31
282.819	102.31
283.051	88.31
283.282	85.31
283.513	87.31
283.745	75.31
283.976	84.31
284.207	81.31
284.439	72.31
284.67	81.31
284.901	89.31
285.132	95.31
285.364	86.31
285.595	89.31
285.826	80.31
286.057	69.31
286.288	103.31
286.52	76.31
286.751	74.31
286.982	83.31
287.213	82.31
287.444	91.31
287.675	86.31
287.906	72.31
288.138	83.31
288.369	85.31
288.6	76.31
288.831	66.31
289.062	106.31
289.293	87.31
289.524	91.31
289.755	76.31
289.986	83.31
290.217	83.31
290.448	91.31
290.679	82.31
290.91	74.31
291.141	81.31
291.371	96.31
291.602	93.31
291.833	85.31
292.064	61.31
292.295	74.31
292.526	85.31
292.757	87.31
292.987	92.31
293.218	96.31
293.449	83.31
293.68	74.31
293.91	79.31
294.141	91.31
294.372	81.31
294.603	81.31
294.833	87.31
295.064	67.31
295.295	85.31
295.525	86.31
295.756	78.31
295.987	87.31
296.217	83.31
296.448	90.31
296.679	72.31
296.909	75.31
297.14	86.31
297.37	81.31
297.601	87.31
297.831	77.31
298.062	73.31
298.292	82.31
298.523	79.31
298.753	75.31
298.984	78.31
299.214	71.31
299.445	78.31
299.675	70.31
299.905	84.31
300.136	88.31
300.366	76.31
300.597	77.31
300.827	90.31
301.057	94.31
301.288	72.31
301.518	93.31
301.748	81.31
301.979	85.31
302.209	81.31
302.439	68.31
302.669	65.31
302.9	82.31
303.13	87.31
303.36	80.31
303.59	81.31
303.82	77.31
304.051	81.31
304.281	87.31
304.511	89.31
304.741	74.31
304.971	77.31
305.201	89.31
305.431	71.31
305.661	89.31
305.891	81.31
306.121	80.31
306.352	92.31
306.582	80.31
306.812	94.31
307.042	83.31
307.272	70.31
307.502	74.31
307.731	91.31
307.961	78.31
308.191	78.31
308.421	81.31
308.651	81.31
308.881	77.31
309.111	73.31
309.341	83.31
309.571	76.31
309.8	78.31
310.03	67.31
310.26	81.31
310.49	77.31
310.72	85.31
310.949	83.31
311.179	81.31
311.409	77.31
311.639	79.31
311.868	76.31
312.098	83.31
312.328	79.31
312.557	81.31
312.787	74.31
313.017	85.31
313.246	80.31
313.476	92.31
313.706	80.31
313.935	79.31
314.165	81.31
314.394	79.31
314.624	88.31
314.853	84.31
315.083	91.31
315.312	77.31
315.542	95.31
315.771	81.31
316.001	67.31
316.23	71.31
316.46	89.31
316.689	83.31
316.919	66.31
317.148	78.31
317.377	82.31
317.607	76.31
317.836	95.31
318.065	85.31
318.295	84.31
318.524	64.31
318.753	89.31
318.983	82.31
319.212	83.31
319.441	88.31
319.67	78.31
319.9	82.31
320.129	79.31
320.358	82.31
320.587	76.31
320.816	79.31
321.046	94.31
321.275	88.31
321.504	93.31
321.733	91.31
321.962	72.31
322.191	97.31
322.42	77.31
322.649	90.31
322.878	82.31
323.108	91.31
323.337	95.31
323.566	86.31
323.795	89.31
324.024	64.31
324.253	82.31
324.482	79.31
324.71	80.31
324.939	94.31
325.168	74.31
325.397	70.31
325.626	78.31
325.855	89.31
326.084	90.31
326.313	79.31
326.542	71.31
326.77	75.31
326.999	83.31
327.228	90.31
327.457	85.31
327.686	101.31
327.914	71.31
328.143	81.31
328.372	83.31
328.6	88.31
328.829	96.31
329.058	98.31
329.287	91.31
329.515	101.31
329.744	85.31
329.972	89.31
330.201	71.31
330.43	79.31
330.658	86.31
330.887	68.31
331.115	86.31
331.344	77.31
331.572	78.31
331.801	70.31
332.03	86.31
332.258	78.31
332.486	67.31
332.715	86.31
332.943	94.31
333.172	81.31
333.4	85.31
333.629	98.31
333.857	98.31
334.085	74.31
334.314	90.31
334.542	84.31
334.771	74.31
334.999	73.31
335.227	78.31
335.455	85.31
335.684	90.31
335.912	85.31
336.14	71.31
336.369	88.31
336.597	89.31
336.825	79.31
337.053	72.31
337.281	83.31
337.51	93.31
337.738	88.31
337.966	86.31
338.194	87.31
338.422	89.31
338.65	80.31
338.878	77.31
339.106	72.31
339.334	85.31
339.562	74.31
339.79	94.31
340.018	83.31
340.246	99.31
340.474	86.31
340.702	81.31
340.93	85.31
341.158	75.31
341.386	79.31
341.614	82.31
341.842	75.31
342.07	73.31
342.298	75.31
342.526	81.31
342.754	84.31
342.981	83.31
343.209	88.31
343.437	86.31
343.665	76.31
343.893	89.31
344.12	87.31
344.348	82.31
344.576	91.31
344.804	97.31
345.031	74.31
345.259	75.31
345.487	88.31
345.714	85.31
345.942	70.31
346.17	66.31
346.397	86.31
346.625	85.31
346.853	78.31
347.08	91.31
347.308	82.31
347.535	87.31
347.763	82.31
347.99	81.31
348.218	91.31
348.445	86.31
348.673	81.31
348.9	85.31
349.128	81.31
349.355	91.31
349.583	90.31
349.81	82.31
350.037	81.31
350.265	85.31
350.492	89.31
350.72	90.31
350.947	92.31
351.174	98.31
351.402	79.31
351.629	75.31
351.856	78.31
352.083	98.31
352.311	82.31
352.538	92.31
352.765	86.31
352.992	97.31
353.22	88.31
353.447	90.31
353.674	83.31
353.901	83.31
354.128	70.31
354.355	80.31
354.583	77.31
354.81	87.31
355.037	85.31
355.264	86.31
355.491	96.31
355.718	85.31
355.945	77.31
356.172	63.31
356.399	84.31
356.626	89.31
356.853	82.31
357.08	89.31
357.307	76.31
357.534	79.31
357.761	87.31
357.988	93.31
358.215	85.31
358.441	75.31
358.668	88.31
358.895	87.31
359.122	71.31
359.349	83.31
359.576	91.31
359.802	79.31
360.029	74.31
360.256	86.31
360.483	80.31
360.709	87.31
360.936	89.31
361.163	93.31
361.39	69.31
361.616	90.31
361.843	85.31
362.07	85.31
362.296	79.31
362.523	86.31
362.749	88.31
362.976	94.31
363.203	73.31
363.429	64.31
363.656	85.31
363.882	84.31
364.109	85.31
364.335	98.31
364.562	78.31
364.788	78.31
365.015	85.31
365.241	80.31
365.468	89.31
365.694	91.31
365.92	74.31
366.147	82.31
366.373	95.31
366.599	80.31
366.826	82.31
367.052	76.31
367.278	97.31
367.505	92.31
367.731	75.31
367.957	85.31
368.184	88.31
368.41	77.31
368.636	79.31
368.862	91.31
369.089	90.31
369.315	84.31
369.541	74.31
369.767	87.31
369.993	94.31
370.219	92.31
370.445	81.31
370.672	82.31
370.898	80.31
371.124	70.31
371.35	87.31
371.576	87.31
371.802	85.31
372.028	84.31
372.254	85.31
372.48	74.31
372.706	90.31
372.932	84.31
373.158	79.31
373.384	101.31
373.61	85.31
373.835	94.31
374.061	85.31
374.287	75.31
374.513	83.31
374.739	77.31
374.965	77.31
375.191	89.31
375.416	80.31
375.642	91.31
375.868	89.31
376.094	71.31
376.319	97.31
376.545	79.31
376.771	69.31
376.997	82.31
377.222	79.31
377.448	86.31
377.674	85.31
377.899	88.31
378.125	88.31
378.35	92.31
378.576	82.31
378.802	70.31
379.027	83.31
379.253	85.31
379.478	85.31
379.704	79.31
379.929	83.31
380.155	81.31
380.38	90.31
380.606	75.31
380.831	82.31
381.057	90.31
381.282	98.31
381.507	71.31
381.733	87.31
381.958	80.31
382.184	91.31
382.409	72.31
382.634	77.31
382.86	87.31
383.085	77.31
383.31	89.31
383.535	89.31
383.761	81.31
383.986	72.31
384.211	67.31
384.436	88.31
384.662	87.31
384.887	95.31
385.112	81.31
385.337	75.31
385.562	75.31
385.787	74.31
386.013	77.31
386.238	86.31
386.463	85.31
386.688	95.31
386.913	82.31
387.138	73.31
387.363	78.31
387.588	69.31
387.813	65.31
388.038	81.31
388.263	86.31
388.488	79.31
388.713	90.31
388.938	85.31
389.163	83.31
389.387	77.31
389.612	70.31
389.837	82.31
390.062	85.31
390.287	88.31
390.512	80.31
390.736	80.31
390.961	86.31
391.186	81.31
391.411	76.31
391.636	86.31
391.86	94.31
392.085	88.31
392.31	70.31
392.534	77.31
392.759	83.31
392.984	94.31
393.208	82.31
393.433	86.31
393.658	79.31
393.882	72.31
394.107	75.31
394.331	79.31
394.556	81.31
394.78	87.31
395.005	89.31
395.229	73.31
395.454	72.31
395.678	78.31
395.903	73.31
396.127	79.31
396.352	75.31
396.576	66.31
396.801	86.31
397.025	96.31
397.249	81.31
397.474	74.31
397.698	95.31
397.922	80.31
398.147	86.31
398.371	81.31
398.595	89.31
398.82	85.31
399.044	82.31
399.268	75.31
399.492	84.31
399.717	73.31
399.941	79.31
400.165	67.31
400.389	73.31
400.613	89.31
400.837	81.31
401.062	77.31
401.286	87.31
401.51	79.31
401.734	94.31
401.958	72.31
402.182	88.31
402.406	78.31
402.63	80.31
402.854	96.31
403.078	72.31
403.302	68.31
403.526	73.31
403.75	68.31
403.974	67.31
404.198	80.31
404.422	94.31
404.645	77.31
404.869	85.31
405.093	81.31
405.317	75.31
405.541	84.31
405.765	81.31
405.988	75.31
406.212	77.31
406.436	68.31
406.66	78.31
406.883	86.31
407.107	78.31
407.331	85.31
407.555	82.31
407.778	85.31
408.002	87.31
408.226	78.31
408.449	67.31
408.673	85.31
408.896	79.31
409.12	74.31
409.344	75.31
409.567	87.31
409.791	86.31
410.014	82.31
410.238	78.31
410.461	73.31
410.685	99.31
410.908	76.31
411.132	84.31
411.355	78.31
411.578	81.31
411.802	91.31
412.025	90.31
412.249	75.31
412.472	59.31
412.695	72.31
412.919	85.31
413.142	85.31
413.365	68.31
413.589	83.31
413.812	82.31
414.035	90.31
414.258	92.31
414.482	79.31
414.705	94.31
414.928	92.31
415.151	87.31
415.374	83.31
415.597	89.31
415.821	61.31
416.044	82.31
416.267	83.31
416.49	70.31
416.713	78.31
416.936	82.31
417.159	76.31
417.382	93.31
417.605	95.31
417.828	70.31
418.051	59.31
418.274	69.31
418.497	80.31
418.72	70.31
418.943	89.31
419.166	82.31
419.389	72.31
419.611	74.31
419.834	86.31
420.057	81.31
420.28	87.31
420.503	88.31
420.726	82.31
420.948	89.31
421.171	83.31
421.394	77.31
421.617	88.31
421.839	85.31
422.062	74.31
422.285	77.31
422.507	75.31
422.73	69.31
422.953	80.31
423.175	87.31
423.398	85.31
423.621	70.31
423.843	78.31
424.066	89.31
424.288	86.31
424.511	98.31
424.733	78.31
424.956	76.31
425.178	83.31
425.401	83.31
425.623	88.31
425.846	86.31
426.068	77.31
426.291	85.31
426.513	66.31
426.735	87.31
426.958	78.31
427.18	87.31
427.402	68.31
427.625	75.31
427.847	73.31
428.069	71.31
428.292	79.31
428.514	70.31
428.736	73.31
428.958	81.31
429.181	79.31
429.403	82.31
429.625	75.31
429.847	68.31
430.069	86.31
430.292	84.31
430.514	75.31
430.736	84.31
430.958	73.31
431.18	66.31
431.402	66.31
431.624	71.31
431.846	95.31
432.068	94.31
432.29	87.31
432.512	75.31
432.734	73.31
432.956	81.31
433.178	71.31
433.4	91.31
433.622	85.31
433.844	68.31
434.066	86.31
434.287	72.31
434.509	81.31
434.731	71.31
434.953	73.31
435.175	79.31
435.397	63.31
435.618	90.31
435.84	78.31
436.062	83.31
436.284	86.31
436.505	69.31
436.727	79.31
436.949	83.31
437.17	73.31
437.392	79.31
437.614	83.31
437.835	79.31
438.057	71.31
438.278	89.31
438.5	71.31
438.721	77.31
438.943	89.31
439.165	70.31
439.386	78.31
439.608	78.31
439.829	84.31
440.05	75.31
440.272	73.31
440.493	73.31
440.715	86.31
440.936	94.31
441.158	86.31
441.379	82.31
441.6	70.31
441.822	79.31
442.043	80.31
442.264	79.31
442.486	85.31
442.707	87.31
442.928	76.31
443.149	72.31
443.371	80.31
443.592	76.31
443.813	82.31
444.034	83.31
444.255	88.31
444.476	80.31
444.698	77.31
444.919	76.31
445.14	165.31
445.361	119.31
445.582	82.31
445.803	74.31
446.024	69.31
446.245	87.31
446.466	91.31
446.687	73.31
446.908	83.31
447.129	75.31
447.35	97.31
447.571	83.31
447.792	86.31
448.013	73.31
448.234	79.31
448.455	67.31
448.675	83.31
448.896	83.31
449.117	67.31
449.338	84.31
449.559	73.31
449.779	75.31
450	69.31
450.221	79.31
450.442	89.31
450.662	79.31
450.883	78.31
451.104	71.31
451.324	87.31
451.545	74.31
451.766	76.31
451.986	80.31
452.207	73.31
452.428	95.31
452.648	91.31
452.869	80.31
453.089	71.31
453.31	73.31
453.53	87.31
453.751	87.31
453.971	83.31
454.192	80.31
454.412	70.31
454.633	78.31
454.853	78.31
455.073	86.31
455.294	80.31
455.514	88.31
455.734	86.31
455.955	67.31
456.175	78.31
456.395	74.31
456.616	86.31
456.836	61.31
457.056	75.31
457.276	74.31
457.497	69.31
457.717	71.31
457.937	81.31
458.157	75.31
458.377	75.31
458.598	80.31
458.818	71.31
459.038	75.31
459.258	83.31
459.478	78.31
459.698	76.31
459.918	80.31
460.138	83.31
460.358	79.31
460.578	93.31
460.798	73.31
461.018	80.31
461.238	81.31
461.458	67.31
461.678	83.31
461.898	73.31
462.118	73.31
462.338	91.31
462.558	78.31
462.777	76.31
462.997	71.31
463.217	86.31
463.437	85.31
463.657	82.31
463.876	79.31
464.096	59.31
464.316	81.31
464.536	91.31
464.755	71.31
464.975	82.31
465.195	75.31
465.414	67.31
465.634	83.31
465.854	86.31
466.073	84.31
466.293	86.31
466.512	69.31
466.732	81.31
466.951	85.31
467.171	79.31
467.391	73.31
467.61	81.31
467.829	83.31
468.049	75.31
468.268	85.31
468.488	81.31
468.707	87.31
468.927	91.31
469.146	81.31
469.365	86.31
469.585	90.31
469.804	79.31
470.023	78.31
470.243	87.31
470.462	74.31
470.681	80.31
470.901	70.31
471.12	62.31
471.339	92.31
471.558	97.31
471.777	74.31
471.997	76.31
472.216	83.31
472.435	82.31
472.654	90.31
472.873	102.31
473.092	81.31
473.311	79.31
473.53	92.31
473.749	82.31
473.968	92.31
474.187	86.31
474.406	85.31
474.625	87.31
474.844	95.31
475.063	80.31
475.282	81.31
475.501	85.31
475.72	85.31
475.939	91.31
476.158	70.31
476.377	83.31
476.596	65.31
476.814	89.31
477.033	83.31
477.252	74.31
477.471	74.31
477.69	94.31
477.908	77.31
478.127	92.31
478.346	81.31
478.564	64.31
478.783	91.31
479.002	85.31
479.22	93.31
479.439	95.31
479.658	70.31
479.876	86.31
480.095	54.31
480.313	79.31
480.532	85.31
480.751	87.31
480.969	84.31
481.188	80.31
481.406	78.31
481.624	80.31
481.843	73.31
482.061	76.31
482.28	64.31
482.498	77.31
482.717	86.31
482.935	81.31
483.153	77.31
483.372	82.31
483.59	91.31
483.808	86.31
484.027	77.31
484.245	75.31
484.463	73.31
484.681	96.31
484.9	73.31
485.118	80.31
485.336	79.31
485.554	92.31
485.772	70.31
485.99	77.31
486.209	91.31
486.427	83.31
486.645	79.31
486.863	79.31
487.081	101.31
487.299	78.31
487.517	93.31
487.735	97.31
487.953	96.31
488.171	80.31
488.389	81.31
488.607	78.31
488.825	85.31
489.043	74.31
489.261	85.31
489.479	74.31
489.696	87.31
489.914	90.31
490.132	82.31
490.35	84.31
490.568	96.31
490.786	81.31
491.003	85.31
491.221	68.31
491.439	86.31
491.657	87.31
491.874	97.31
492.092	90.31
492.31	95.31
492.527	80.31
492.745	80.31
492.963	78.31
493.18	78.31
493.398	92.31
493.615	93.31
493.833	83.31
494.05	78.31
494.268	90.31
494.485	80.31
494.703	81.31
494.92	75.31
495.138	90.31
495.355	89.31
495.573	84.31
495.79	88.31
496.008	72.31
496.225	74.31
496.442	83.31
496.66	89.31
496.877	84.31
497.094	83.31
497.312	78.31
497.529	81.31
497.746	77.31
497.963	74.31
498.181	83.31
498.398	73.31
498.615	77.31
498.832	80.31
499.049	68.31
499.267	88.31
499.484	82.31
499.701	80.31
499.918	85.31
500.135	87.31
500.352	88.31
500.569	83.31
500.786	90.31
501.003	86.31
501.22	84.31
501.437	81.31
501.654	72.31
501.871	94.31
502.088	75.31
502.305	86.31
502.522	85.31
502.739	83.31
502.956	71.31
503.172	79.31
503.389	99.31
503.606	89.31
503.823	88.31
504.04	87.31
504.256	88.31
504.473	77.31
504.69	84.31
504.907	85.31
505.123	80.31
505.34	83.31
505.557	77.31
505.773	81.31
505.99	84.31
506.207	80.31
506.423	76.31
506.64	86.31
506.856	85.31
507.073	87.31
507.289	88.31
507.506	74.31
507.722	81.31
507.939	85.31
508.155	86.31
508.372	81.31
508.588	97.31
508.805	88.31
509.021	82.31
509.238	91.31
509.454	75.31
509.67	85.31
509.887	73.31
510.103	73.31
510.319	85.31
510.536	93.31
510.752	77.31
510.968	75.31
511.184	78.31
511.401	77.31
511.617	86.31
511.833	74.31
512.049	88.31
512.265	88.31
512.481	79.31
512.698	75.31
512.914	90.31
513.13	89.31
513.346	66.31
513.562	68.31
513.778	80.31
513.994	79.31
514.21	89.31
514.426	79.31
514.642	79.31
514.858	68.31
515.074	81.31
515.29	77.31
515.506	63.31
515.721	96.31
515.937	77.31
516.153	91.31
516.369	89.31
516.585	74.31
516.801	61.31
517.016	81.31
517.232	66.31
517.448	92.31
517.664	90.31
517.879	98.31
518.095	83.31
518.311	76.31
518.527	82.31
518.742	83.31
518.958	80.31
519.173	82.31
519.389	86.31
519.605	85.31
519.82	83.31
520.036	89.31
520.251	83.31
