Data from StdD_HRD10591_071.txt Node
Date: Fri May 16 15:31:56 EDT 2025
User: Yrep
Spectrometer: HR+D1059
Trigger mode: 1
Integration Time (sec): 1.000000E-1
Scans to average: 1
Electric dark correction enabled: true
Nonlinearity correction enabled: false
Boxcar width: 0
XAxis mode: Wavelengths
Number of Pixels in Spectrum: 2048
>>>>>Begin Spectral Data<<<<<
223.165	-18.81
223.4	-18.81
223.635	-18.81
223.869	-21.81
224.104	-15.81
224.338	-22.81
224.573	-24.81
224.808	2.19
225.042	-5.81
225.277	0.19
225.511	-9.81
225.746	18.19
225.98	-6.81
226.215	17.19
226.449	3.19
226.683	23.19
226.918	34.19
227.152	28.19
227.387	47.19
227.621	47.19
227.856	46.19
228.09	70.19
228.324	72.19
228.559	43.19
228.793	49.19
229.027	77.19
229.262	66.19
229.496	58.19
229.73	77.19
229.964	69.19
230.199	80.19
230.433	83.19
230.667	86.19
230.901	78.19
231.136	71.19
231.37	80.19
231.604	77.19
231.838	91.19
232.072	91.19
232.306	83.19
232.541	80.19
232.775	66.19
233.009	73.19
233.243	78.19
233.477	71.19
233.711	74.19
233.945	88.19
234.179	90.19
234.413	74.19
234.647	82.19
234.881	72.19
235.115	73.19
235.349	87.19
235.583	82.19
235.817	75.19
236.051	80.19
236.285	75.19
236.519	88.19
236.753	87.19
236.987	71.19
237.221	67.19
237.455	73.19
237.689	86.19
237.922	70.19
238.156	78.19
238.39	80.19
238.624	72.19
238.858	66.19
239.091	68.19
239.325	87.19
239.559	84.19
239.793	77.19
240.027	69.19
240.26	70.19
240.494	71.19
240.728	66.19
240.961	71.19
241.195	83.19
241.429	63.19
241.662	67.19
241.896	68.19
242.13	84.19
242.363	73.19
242.597	86.19
242.83	73.19
243.064	75.19
243.298	75.19
243.531	72.19
243.765	69.19
243.998	91.19
244.232	81.19
244.465	66.19
244.699	87.19
244.932	74.19
245.166	70.19
245.399	78.19
245.633	75.19
245.866	69.19
246.099	84.19
246.333	75.19
246.566	66.19
246.8	60.19
247.033	75.19
247.266	77.19
247.5	77.19
247.733	80.19
247.966	69.19
248.2	94.19
248.433	78.19
248.666	65.19
248.899	73.19
249.133	83.19
249.366	81.19
249.599	66.19
249.832	75.19
250.066	76.19
250.299	88.19
250.532	77.19
250.765	81.19
250.998	74.19
251.231	69.19
251.465	87.19
251.698	79.19
251.931	79.19
252.164	80.19
252.397	75.19
252.63	62.19
252.863	76.19
253.096	86.19
253.329	82.19
253.562	75.19
253.795	72.19
254.028	79.19
254.261	82.19
254.494	77.19
254.727	69.19
254.96	77.19
255.193	95.19
255.426	66.19
255.659	63.19
255.892	73.19
256.124	75.19
256.357	84.19
256.59	85.19
256.823	82.19
257.056	82.19
257.289	87.19
257.521	87.19
257.754	80.19
257.987	80.19
258.22	85.19
258.452	78.19
258.685	87.19
258.918	74.19
259.151	73.19
259.383	80.19
259.616	75.19
259.849	76.19
260.081	75.19
260.314	87.19
260.547	83.19
260.779	86.19
261.012	71.19
261.244	71.19
261.477	88.19
261.71	85.19
261.942	79.19
262.175	83.19
262.407	88.19
262.64	86.19
262.872	90.19
263.105	75.19
263.337	74.19
263.57	78.19
263.802	74.19
264.035	80.19
264.267	92.19
264.499	79.19
264.732	79.19
264.964	75.19
265.197	67.19
265.429	85.19
265.661	86.19
265.894	89.19
266.126	78.19
266.358	77.19
266.591	78.19
266.823	82.19
267.055	73.19
267.287	82.19
267.52	86.19
267.752	77.19
267.984	88.19
268.216	81.19
268.448	95.19
268.681	87.19
268.913	78.19
269.145	80.19
269.377	103.19
269.609	73.19
269.841	62.19
270.073	73.19
270.306	88.19
270.538	76.19
270.77	88.19
271.002	67.19
271.234	79.19
271.466	76.19
271.698	81.19
271.93	73.19
272.162	89.19
272.394	70.19
272.626	67.19
272.858	77.19
273.09	79.19
273.322	81.19
273.553	81.19
273.785	86.19
274.017	83.19
274.249	84.19
274.481	76.19
274.713	93.19
274.945	76.19
275.176	73.19
275.408	77.19
275.64	85.19
275.872	82.19
276.104	92.19
276.335	72.19
276.567	82.19
276.799	83.19
277.031	84.19
277.262	80.19
277.494	85.19
277.726	81.19
277.957	83.19
278.189	82.19
278.421	90.19
278.652	83.19
278.884	93.19
279.115	87.19
279.347	90.19
279.579	78.19
279.81	65.19
280.042	86.19
280.273	85.19
280.505	75.19
280.736	95.19
280.968	77.19
281.199	75.19
281.431	86.19
281.662	85.19
281.894	78.19
282.125	89.19
282.356	77.19
282.588	97.19
282.819	89.19
283.051	88.19
283.282	86.19
283.513	81.19
283.745	83.19
283.976	80.19
284.207	83.19
284.439	73.19
284.67	83.19
284.901	79.19
285.132	86.19
285.364	93.19
285.595	79.19
285.826	83.19
286.057	80.19
286.288	70.19
286.52	91.19
286.751	94.19
286.982	91.19
287.213	78.19
287.444	94.19
287.675	86.19
287.906	77.19
288.138	87.19
288.369	91.19
288.6	83.19
288.831	80.19
289.062	82.19
289.293	75.19
289.524	83.19
289.755	78.19
289.986	73.19
290.217	70.19
290.448	75.19
290.679	93.19
290.91	79.19
291.141	81.19
291.371	89.19
291.602	85.19
291.833	82.19
292.064	66.19
292.295	67.19
292.526	80.19
292.757	94.19
292.987	81.19
293.218	76.19
293.449	80.19
293.68	88.19
293.91	71.19
294.141	89.19
294.372	79.19
294.603	80.19
294.833	79.19
295.064	75.19
295.295	91.19
295.525	85.19
295.756	89.19
295.987	79.19
296.217	85.19
296.448	75.19
296.679	76.19
296.909	89.19
297.14	69.19
297.37	61.19
297.601	73.19
297.831	85.19
298.062	90.19
298.292	85.19
298.523	80.19
298.753	75.19
298.984	75.19
299.214	89.19
299.445	86.19
299.675	75.19
299.905	81.19
300.136	70.19
300.366	78.19
300.597	78.19
300.827	77.19
301.057	80.19
301.288	88.19
301.518	71.19
301.748	87.19
301.979	92.19
302.209	77.19
302.439	77.19
302.669	85.19
302.9	71.19
303.13	89.19
303.36	73.19
303.59	80.19
303.82	92.19
304.051	79.19
304.281	87.19
304.511	93.19
304.741	87.19
304.971	71.19
305.201	89.19
305.431	71.19
305.661	85.19
305.891	77.19
306.121	81.19
306.352	81.19
306.582	90.19
306.812	85.19
307.042	79.19
307.272	75.19
307.502	92.19
307.731	77.19
307.961	80.19
308.191	87.19
308.421	101.19
308.651	93.19
308.881	89.19
309.111	80.19
309.341	84.19
309.571	93.19
309.8	92.19
310.03	76.19
310.26	81.19
310.49	86.19
310.72	95.19
310.949	82.19
311.179	74.19
311.409	80.19
311.639	81.19
311.868	77.19
312.098	85.19
312.328	92.19
312.557	76.19
312.787	80.19
313.017	81.19
313.246	87.19
313.476	78.19
313.706	82.19
313.935	78.19
314.165	84.19
314.394	91.19
314.624	73.19
314.853	89.19
315.083	71.19
315.312	80.19
315.542	86.19
315.771	80.19
316.001	80.19
316.23	82.19
316.46	96.19
316.689	79.19
316.919	83.19
317.148	90.19
317.377	86.19
317.607	84.19
317.836	84.19
318.065	79.19
318.295	87.19
318.524	89.19
318.753	88.19
318.983	78.19
319.212	82.19
319.441	89.19
319.67	101.19
319.9	85.19
320.129	81.19
320.358	96.19
320.587	86.19
320.816	99.19
321.046	103.19
321.275	83.19
321.504	81.19
321.733	86.19
321.962	87.19
322.191	84.19
322.42	88.19
322.649	87.19
322.878	87.19
323.108	83.19
323.337	84.19
323.566	74.19
323.795	77.19
324.024	85.19
324.253	86.19
324.482	93.19
324.71	71.19
324.939	82.19
325.168	78.19
325.397	80.19
325.626	80.19
325.855	82.19
326.084	88.19
326.313	73.19
326.542	78.19
326.77	77.19
326.999	76.19
327.228	94.19
327.457	66.19
327.686	77.19
327.914	80.19
328.143	86.19
328.372	69.19
328.6	77.19
328.829	86.19
329.058	93.19
329.287	78.19
329.515	81.19
329.744	87.19
329.972	73.19
330.201	86.19
330.43	101.19
330.658	67.19
330.887	80.19
331.115	78.19
331.344	71.19
331.572	84.19
331.801	82.19
332.03	104.19
332.258	73.19
332.486	89.19
332.715	75.19
332.943	95.19
333.172	77.19
333.4	89.19
333.629	86.19
333.857	82.19
334.085	73.19
334.314	82.19
334.542	87.19
334.771	71.19
334.999	77.19
335.227	74.19
335.455	74.19
335.684	90.19
335.912	79.19
336.14	74.19
336.369	93.19
336.597	86.19
336.825	78.19
337.053	90.19
337.281	84.19
337.51	73.19
337.738	92.19
337.966	82.19
338.194	79.19
338.422	90.19
338.65	93.19
338.878	69.19
339.106	79.19
339.334	86.19
339.562	81.19
339.79	82.19
340.018	86.19
340.246	77.19
340.474	70.19
340.702	80.19
340.93	89.19
341.158	82.19
341.386	91.19
341.614	81.19
341.842	75.19
342.07	75.19
342.298	96.19
342.526	78.19
342.754	87.19
342.981	73.19
343.209	76.19
343.437	96.19
343.665	93.19
343.893	75.19
344.12	89.19
344.348	78.19
344.576	80.19
344.804	95.19
345.031	73.19
345.259	82.19
345.487	76.19
345.714	68.19
345.942	79.19
346.17	78.19
346.397	88.19
346.625	89.19
346.853	74.19
347.08	77.19
347.308	87.19
347.535	89.19
347.763	98.19
347.99	88.19
348.218	96.19
348.445	86.19
348.673	70.19
348.9	80.19
349.128	83.19
349.355	79.19
349.583	73.19
349.81	85.19
350.037	81.19
350.265	81.19
350.492	66.19
350.72	73.19
350.947	75.19
351.174	70.19
351.402	75.19
351.629	83.19
351.856	73.19
352.083	75.19
352.311	82.19
352.538	67.19
352.765	85.19
352.992	88.19
353.22	66.19
353.447	94.19
353.674	82.19
353.901	73.19
354.128	93.19
354.355	71.19
354.583	80.19
354.81	94.19
355.037	68.19
355.264	82.19
355.491	82.19
355.718	80.19
355.945	81.19
356.172	86.19
356.399	82.19
356.626	89.19
356.853	68.19
357.08	88.19
357.307	86.19
357.534	69.19
357.761	77.19
357.988	81.19
358.215	81.19
358.441	80.19
358.668	71.19
358.895	77.19
359.122	78.19
359.349	70.19
359.576	92.19
359.802	87.19
360.029	90.19
360.256	90.19
360.483	88.19
360.709	82.19
360.936	91.19
361.163	75.19
361.39	98.19
361.616	76.19
361.843	95.19
362.07	85.19
362.296	67.19
362.523	84.19
362.749	78.19
362.976	73.19
363.203	90.19
363.429	79.19
363.656	73.19
363.882	85.19
364.109	80.19
364.335	84.19
364.562	83.19
364.788	89.19
365.015	87.19
365.241	83.19
365.468	72.19
365.694	83.19
365.92	82.19
366.147	84.19
366.373	75.19
366.599	73.19
366.826	72.19
367.052	77.19
367.278	89.19
367.505	89.19
367.731	88.19
367.957	83.19
368.184	82.19
368.41	69.19
368.636	78.19
368.862	88.19
369.089	79.19
369.315	84.19
369.541	70.19
369.767	82.19
369.993	88.19
370.219	85.19
370.445	71.19
370.672	84.19
370.898	72.19
371.124	82.19
371.35	70.19
371.576	65.19
371.802	80.19
372.028	79.19
372.254	83.19
372.48	75.19
372.706	66.19
372.932	74.19
373.158	77.19
373.384	74.19
373.61	79.19
373.835	84.19
374.061	81.19
374.287	90.19
374.513	81.19
374.739	67.19
374.965	68.19
375.191	79.19
375.416	65.19
375.642	89.19
375.868	77.19
376.094	85.19
376.319	98.19
376.545	85.19
376.771	89.19
376.997	80.19
377.222	85.19
377.448	88.19
377.674	72.19
377.899	80.19
378.125	71.19
378.35	75.19
378.576	75.19
378.802	87.19
379.027	83.19
379.253	87.19
379.478	83.19
379.704	90.19
379.929	83.19
380.155	101.19
380.38	73.19
380.606	78.19
380.831	83.19
381.057	101.19
381.282	79.19
381.507	91.19
381.733	79.19
381.958	92.19
382.184	93.19
382.409	88.19
382.634	66.19
382.86	70.19
383.085	79.19
383.31	74.19
383.535	81.19
383.761	74.19
383.986	88.19
384.211	83.19
384.436	84.19
384.662	89.19
384.887	86.19
385.112	80.19
385.337	72.19
385.562	83.19
385.787	84.19
386.013	91.19
386.238	79.19
386.463	83.19
386.688	85.19
386.913	89.19
387.138	88.19
387.363	81.19
387.588	91.19
387.813	93.19
388.038	66.19
388.263	78.19
388.488	88.19
388.713	71.19
388.938	71.19
389.163	83.19
389.387	71.19
389.612	91.19
389.837	74.19
390.062	98.19
390.287	84.19
390.512	83.19
390.736	70.19
390.961	80.19
391.186	79.19
391.411	77.19
391.636	87.19
391.86	77.19
392.085	74.19
392.31	84.19
392.534	71.19
392.759	84.19
392.984	82.19
393.208	72.19
393.433	78.19
393.658	82.19
393.882	74.19
394.107	82.19
394.331	75.19
394.556	87.19
394.78	64.19
395.005	92.19
395.229	73.19
395.454	91.19
395.678	81.19
395.903	85.19
396.127	87.19
396.352	82.19
396.576	85.19
396.801	69.19
397.025	97.19
397.249	90.19
397.474	76.19
397.698	76.19
397.922	91.19
398.147	102.19
398.371	79.19
398.595	94.19
398.82	77.19
399.044	81.19
399.268	70.19
399.492	77.19
399.717	78.19
399.941	87.19
400.165	79.19
400.389	88.19
400.613	84.19
400.837	87.19
401.062	81.19
401.286	82.19
401.51	82.19
401.734	77.19
401.958	77.19
402.182	83.19
402.406	67.19
402.63	86.19
402.854	81.19
403.078	79.19
403.302	76.19
403.526	92.19
403.75	67.19
403.974	77.19
404.198	86.19
404.422	67.19
404.645	66.19
404.869	79.19
405.093	78.19
405.317	74.19
405.541	79.19
405.765	86.19
405.988	85.19
406.212	88.19
406.436	82.19
406.66	95.19
406.883	76.19
407.107	86.19
407.331	71.19
407.555	72.19
407.778	78.19
408.002	78.19
408.226	73.19
408.449	86.19
408.673	77.19
408.896	75.19
409.12	78.19
409.344	89.19
409.567	85.19
409.791	84.19
410.014	80.19
410.238	82.19
410.461	80.19
410.685	91.19
410.908	65.19
411.132	79.19
411.355	85.19
411.578	85.19
411.802	90.19
412.025	85.19
412.249	82.19
412.472	79.19
412.695	87.19
412.919	92.19
413.142	73.19
413.365	79.19
413.589	67.19
413.812	87.19
414.035	78.19
414.258	93.19
414.482	85.19
414.705	71.19
414.928	86.19
415.151	77.19
415.374	78.19
415.597	79.19
415.821	79.19
416.044	86.19
416.267	77.19
416.49	74.19
416.713	85.19
416.936	80.19
417.159	74.19
417.382	80.19
417.605	79.19
417.828	75.19
418.051	74.19
418.274	91.19
418.497	88.19
418.72	105.19
418.943	82.19
419.166	90.19
419.389	78.19
419.611	80.19
419.834	98.19
420.057	70.19
420.28	79.19
420.503	85.19
420.726	89.19
420.948	71.19
421.171	77.19
421.394	74.19
421.617	87.19
421.839	84.19
422.062	75.19
422.285	79.19
422.507	64.19
422.73	87.19
422.953	62.19
423.175	72.19
423.398	68.19
423.621	89.19
423.843	77.19
424.066	78.19
424.288	89.19
424.511	66.19
424.733	68.19
424.956	80.19
425.178	83.19
425.401	87.19
425.623	89.19
425.846	74.19
426.068	73.19
426.291	72.19
426.513	77.19
426.735	77.19
426.958	75.19
427.18	65.19
427.402	75.19
427.625	89.19
427.847	85.19
428.069	82.19
428.292	79.19
428.514	90.19
428.736	82.19
428.958	90.19
429.181	77.19
429.403	87.19
429.625	90.19
429.847	75.19
430.069	85.19
430.292	77.19
430.514	81.19
430.736	80.19
430.958	83.19
431.18	95.19
431.402	93.19
431.624	74.19
431.846	85.19
432.068	79.19
432.29	81.19
432.512	72.19
432.734	83.19
432.956	88.19
433.178	82.19
433.4	73.19
433.622	83.19
433.844	81.19
434.066	85.19
434.287	81.19
434.509	76.19
434.731	79.19
434.953	81.19
435.175	82.19
435.397	83.19
435.618	82.19
435.84	86.19
436.062	79.19
436.284	77.19
436.505	67.19
436.727	86.19
436.949	89.19
437.17	86.19
437.392	87.19
437.614	76.19
437.835	77.19
438.057	84.19
438.278	82.19
438.5	61.19
438.721	90.19
438.943	83.19
439.165	77.19
439.386	84.19
439.608	75.19
439.829	79.19
440.05	73.19
440.272	89.19
440.493	68.19
440.715	83.19
440.936	72.19
441.158	84.19
441.379	78.19
441.6	85.19
441.822	77.19
442.043	66.19
442.264	80.19
442.486	70.19
442.707	77.19
442.928	84.19
443.149	72.19
443.371	72.19
443.592	73.19
443.813	91.19
444.034	93.19
444.255	72.19
444.476	73.19
444.698	86.19
444.919	82.19
445.14	157.19
445.361	126.19
445.582	62.19
445.803	78.19
446.024	91.19
446.245	91.19
446.466	88.19
446.687	78.19
446.908	83.19
447.129	97.19
447.35	82.19
447.571	83.19
447.792	78.19
448.013	74.19
448.234	77.19
448.455	72.19
448.675	71.19
448.896	85.19
449.117	75.19
449.338	89.19
449.559	75.19
449.779	71.19
450	89.19
450.221	89.19
450.442	88.19
450.662	74.19
450.883	77.19
451.104	85.19
451.324	88.19
451.545	84.19
451.766	67.19
451.986	72.19
452.207	85.19
452.428	70.19
452.648	85.19
452.869	79.19
453.089	80.19
453.31	77.19
453.53	75.19
453.751	72.19
453.971	77.19
454.192	74.19
454.412	68.19
454.633	68.19
454.853	78.19
455.073	87.19
455.294	86.19
455.514	86.19
455.734	76.19
455.955	78.19
456.175	86.19
456.395	86.19
456.616	78.19
456.836	72.19
457.056	80.19
457.276	66.19
457.497	94.19
457.717	78.19
457.937	80.19
458.157	77.19
458.377	78.19
458.598	83.19
458.818	84.19
459.038	87.19
459.258	77.19
459.478	72.19
459.698	93.19
459.918	77.19
460.138	76.19
460.358	81.19
460.578	83.19
460.798	74.19
461.018	79.19
461.238	72.19
461.458	89.19
461.678	93.19
461.898	67.19
462.118	89.19
462.338	81.19
462.558	85.19
462.777	83.19
462.997	85.19
463.217	74.19
463.437	78.19
463.657	73.19
463.876	77.19
464.096	86.19
464.316	76.19
464.536	89.19
464.755	73.19
464.975	67.19
465.195	85.19
465.414	79.19
465.634	85.19
465.854	75.19
466.073	87.19
466.293	78.19
466.512	75.19
466.732	87.19
466.951	86.19
467.171	93.19
467.391	76.19
467.61	85.19
467.829	81.19
468.049	94.19
468.268	82.19
468.488	91.19
468.707	79.19
468.927	83.19
469.146	89.19
469.365	83.19
469.585	70.19
469.804	87.19
470.023	82.19
470.243	77.19
470.462	91.19
470.681	72.19
470.901	88.19
471.12	68.19
471.339	81.19
471.558	75.19
471.777	83.19
471.997	61.19
472.216	71.19
472.435	64.19
472.654	74.19
472.873	77.19
473.092	93.19
473.311	80.19
473.53	93.19
473.749	86.19
473.968	77.19
474.187	75.19
474.406	74.19
474.625	87.19
474.844	91.19
475.063	81.19
475.282	102.19
475.501	71.19
475.72	87.19
475.939	86.19
476.158	85.19
476.377	63.19
476.596	73.19
476.814	87.19
477.033	77.19
477.252	68.19
477.471	74.19
477.69	72.19
477.908	73.19
478.127	67.19
478.346	91.19
478.564	77.19
478.783	79.19
479.002	83.19
479.22	72.19
479.439	82.19
479.658	80.19
479.876	89.19
480.095	81.19
480.313	79.19
480.532	77.19
480.751	91.19
480.969	85.19
481.188	79.19
481.406	81.19
481.624	78.19
481.843	79.19
482.061	87.19
482.28	86.19
482.498	78.19
482.717	75.19
482.935	92.19
483.153	77.19
483.372	86.19
483.59	79.19
483.808	65.19
484.027	91.19
484.245	85.19
484.463	75.19
484.681	96.19
484.9	69.19
485.118	70.19
485.336	89.19
485.554	73.19
485.772	81.19
485.99	86.19
486.209	95.19
486.427	73.19
486.645	79.19
486.863	75.19
487.081	74.19
487.299	73.19
487.517	75.19
487.735	93.19
487.953	93.19
488.171	92.19
488.389	86.19
488.607	82.19
488.825	75.19
489.043	72.19
489.261	94.19
489.479	85.19
489.696	82.19
489.914	70.19
490.132	86.19
490.35	85.19
490.568	82.19
490.786	95.19
491.003	95.19
491.221	82.19
491.439	81.19
491.657	83.19
491.874	84.19
492.092	82.19
492.31	78.19
492.527	91.19
492.745	93.19
492.963	101.19
493.18	88.19
493.398	87.19
493.615	86.19
493.833	86.19
494.05	86.19
494.268	82.19
494.485	81.19
494.703	79.19
494.92	76.19
495.138	83.19
495.355	88.19
495.573	98.19
495.79	91.19
496.008	73.19
496.225	85.19
496.442	95.19
496.66	103.19
496.877	90.19
497.094	83.19
497.312	90.19
497.529	79.19
497.746	85.19
497.963	86.19
498.181	89.19
498.398	79.19
498.615	86.19
498.832	96.19
499.049	79.19
499.267	72.19
499.484	80.19
499.701	91.19
499.918	78.19
500.135	85.19
500.352	79.19
500.569	71.19
500.786	95.19
501.003	74.19
501.22	89.19
501.437	83.19
501.654	85.19
501.871	85.19
502.088	71.19
502.305	80.19
502.522	88.19
502.739	85.19
502.956	75.19
503.172	87.19
503.389	94.19
503.606	78.19
503.823	82.19
504.04	78.19
504.256	88.19
504.473	71.19
504.69	81.19
504.907	92.19
505.123	79.19
505.34	74.19
505.557	81.19
505.773	87.19
505.99	87.19
506.207	89.19
506.423	77.19
506.64	86.19
506.856	81.19
507.073	66.19
507.289	97.19
507.506	86.19
507.722	92.19
507.939	89.19
508.155	84.19
508.372	84.19
508.588	82.19
508.805	78.19
509.021	87.19
509.238	81.19
509.454	80.19
509.67	86.19
509.887	89.19
510.103	76.19
510.319	77.19
510.536	86.19
510.752	78.19
510.968	94.19
511.184	92.19
511.401	83.19
511.617	80.19
511.833	79.19
512.049	86.19
512.265	81.19
512.481	87.19
512.698	88.19
512.914	94.19
513.13	93.19
513.346	79.19
513.562	75.19
513.778	69.19
513.994	95.19
514.21	82.19
514.426	95.19
514.642	99.19
514.858	78.19
515.074	79.19
515.29	87.19
515.506	77.19
515.721	85.19
515.937	94.19
516.153	84.19
516.369	71.19
516.585	87.19
516.801	76.19
517.016	64.19
517.232	81.19
517.448	75.19
517.664	75.19
517.879	90.19
518.095	77.19
518.311	78.19
518.527	77.19
518.742	80.19
518.958	79.19
519.173	73.19
519.389	76.19
519.605	71.19
519.82	70.19
520.036	87.19
520.251	81.19
