Data from StdD_HRD10591_069.txt Node
Date: Fri May 16 15:31:55 EDT 2025
User: Yrep
Spectrometer: HR+D1059
Trigger mode: 1
Integration Time (sec): 1.000000E-1
Scans to average: 1
Electric dark correction enabled: true
Nonlinearity correction enabled: false
Boxcar width: 0
XAxis mode: Wavelengths
Number of Pixels in Spectrum: 2048
>>>>>Begin Spectral Data<<<<<
223.165	-20.12
223.4	-20.12
223.635	-20.12
223.869	-14.12
224.104	-15.12
224.338	-23.12
224.573	-12.12
224.808	-15.12
225.042	3.88
225.277	-14.12
225.511	-4.12
225.746	1.88
225.98	17.88
226.215	12.88
226.449	13.88
226.683	14.88
226.918	16.88
227.152	35.88
227.387	31.88
227.621	23.88
227.856	28.88
228.09	47.88
228.324	63.88
228.559	63.88
228.793	74.88
229.027	71.88
229.262	54.88
229.496	71.88
229.73	81.88
229.964	88.88
230.199	66.88
230.433	79.88
230.667	75.88
230.901	74.88
231.136	80.88
231.37	89.88
231.604	83.88
231.838	87.88
232.072	87.88
232.306	78.88
232.541	73.88
232.775	81.88
233.009	72.88
233.243	86.88
233.477	87.88
233.711	72.88
233.945	78.88
234.179	83.88
234.413	89.88
234.647	70.88
234.881	82.88
235.115	72.88
235.349	80.88
235.583	63.88
235.817	74.88
236.051	80.88
236.285	87.88
236.519	65.88
236.753	77.88
236.987	67.88
237.221	67.88
237.455	69.88
237.689	66.88
237.922	75.88
238.156	71.88
238.39	74.88
238.624	67.88
238.858	83.88
239.091	72.88
239.325	63.88
239.559	84.88
239.793	90.88
240.027	69.88
240.26	76.88
240.494	79.88
240.728	69.88
240.961	67.88
241.195	94.88
241.429	83.88
241.662	73.88
241.896	69.88
242.13	79.88
242.363	75.88
242.597	75.88
242.83	66.88
243.064	76.88
243.298	73.88
243.531	68.88
243.765	69.88
243.998	78.88
244.232	86.88
244.465	76.88
244.699	74.88
244.932	70.88
245.166	86.88
245.399	99.88
245.633	81.88
245.866	77.88
246.099	84.88
246.333	72.88
246.566	78.88
246.8	86.88
247.033	71.88
247.266	73.88
247.5	75.88
247.733	69.88
247.966	73.88
248.2	80.88
248.433	69.88
248.666	97.88
248.899	69.88
249.133	58.88
249.366	88.88
249.599	79.88
249.832	83.88
250.066	89.88
250.299	87.88
250.532	78.88
250.765	79.88
250.998	73.88
251.231	77.88
251.465	84.88
251.698	67.88
251.931	62.88
252.164	88.88
252.397	74.88
252.63	83.88
252.863	73.88
253.096	80.88
253.329	75.88
253.562	80.88
253.795	64.88
254.028	94.88
254.261	88.88
254.494	92.88
254.727	66.88
254.96	71.88
255.193	87.88
255.426	87.88
255.659	84.88
255.892	73.88
256.124	64.88
256.357	90.88
256.59	90.88
256.823	71.88
257.056	72.88
257.289	83.88
257.521	71.88
257.754	79.88
257.987	67.88
258.22	79.88
258.452	83.88
258.685	71.88
258.918	75.88
259.151	82.88
259.383	80.88
259.616	69.88
259.849	72.88
260.081	68.88
260.314	73.88
260.547	80.88
260.779	80.88
261.012	80.88
261.244	73.88
261.477	84.88
261.71	72.88
261.942	71.88
262.175	88.88
262.407	76.88
262.64	78.88
262.872	87.88
263.105	80.88
263.337	79.88
263.57	71.88
263.802	76.88
264.035	80.88
264.267	71.88
264.499	72.88
264.732	87.88
264.964	87.88
265.197	94.88
265.429	72.88
265.661	72.88
265.894	81.88
266.126	74.88
266.358	76.88
266.591	79.88
266.823	88.88
267.055	67.88
267.287	71.88
267.52	70.88
267.752	75.88
267.984	83.88
268.216	68.88
268.448	62.88
268.681	88.88
268.913	73.88
269.145	87.88
269.377	90.88
269.609	86.88
269.841	78.88
270.073	72.88
270.306	77.88
270.538	78.88
270.77	87.88
271.002	77.88
271.234	80.88
271.466	96.88
271.698	75.88
271.93	76.88
272.162	77.88
272.394	86.88
272.626	95.88
272.858	68.88
273.09	85.88
273.322	77.88
273.553	83.88
273.785	91.88
274.017	77.88
274.249	86.88
274.481	96.88
274.713	77.88
274.945	76.88
275.176	79.88
275.408	74.88
275.64	94.88
275.872	77.88
276.104	84.88
276.335	77.88
276.567	66.88
276.799	87.88
277.031	85.88
277.262	83.88
277.494	79.88
277.726	75.88
277.957	80.88
278.189	79.88
278.421	82.88
278.652	77.88
278.884	87.88
279.115	90.88
279.347	88.88
279.579	88.88
279.81	85.88
280.042	91.88
280.273	92.88
280.505	80.88
280.736	82.88
280.968	74.88
281.199	75.88
281.431	76.88
281.662	93.88
281.894	81.88
282.125	72.88
282.356	91.88
282.588	96.88
282.819	66.88
283.051	85.88
283.282	75.88
283.513	82.88
283.745	63.88
283.976	83.88
284.207	77.88
284.439	87.88
284.67	82.88
284.901	80.88
285.132	92.88
285.364	87.88
285.595	91.88
285.826	72.88
286.057	78.88
286.288	76.88
286.52	75.88
286.751	77.88
286.982	79.88
287.213	85.88
287.444	79.88
287.675	70.88
287.906	102.88
288.138	83.88
288.369	75.88
288.6	79.88
288.831	73.88
289.062	81.88
289.293	97.88
289.524	94.88
289.755	83.88
289.986	92.88
290.217	101.88
290.448	79.88
290.679	84.88
290.91	77.88
291.141	69.88
291.371	76.88
291.602	86.88
291.833	87.88
292.064	88.88
292.295	89.88
292.526	81.88
292.757	86.88
292.987	80.88
293.218	77.88
293.449	79.88
293.68	87.88
293.91	76.88
294.141	86.88
294.372	79.88
294.603	82.88
294.833	84.88
295.064	86.88
295.295	97.88
295.525	84.88
295.756	72.88
295.987	85.88
296.217	87.88
296.448	84.88
296.679	75.88
296.909	65.88
297.14	79.88
297.37	87.88
297.601	76.88
297.831	89.88
298.062	85.88
298.292	91.88
298.523	89.88
298.753	85.88
298.984	85.88
299.214	79.88
299.445	89.88
299.675	89.88
299.905	88.88
300.136	87.88
300.366	79.88
300.597	86.88
300.827	69.88
301.057	84.88
301.288	75.88
301.518	88.88
301.748	91.88
301.979	87.88
302.209	74.88
302.439	90.88
302.669	79.88
302.9	75.88
303.13	75.88
303.36	76.88
303.59	75.88
303.82	90.88
304.051	91.88
304.281	75.88
304.511	80.88
304.741	80.88
304.971	78.88
305.201	88.88
305.431	83.88
305.661	74.88
305.891	93.88
306.121	78.88
306.352	85.88
306.582	85.88
306.812	82.88
307.042	89.88
307.272	84.88
307.502	77.88
307.731	67.88
307.961	76.88
308.191	80.88
308.421	75.88
308.651	75.88
308.881	96.88
309.111	93.88
309.341	84.88
309.571	72.88
309.8	83.88
310.03	86.88
310.26	96.88
310.49	86.88
310.72	85.88
310.949	85.88
311.179	86.88
311.409	87.88
311.639	101.88
311.868	88.88
312.098	90.88
312.328	99.88
312.557	85.88
312.787	88.88
313.017	97.88
313.246	85.88
313.476	89.88
313.706	86.88
313.935	79.88
314.165	83.88
314.394	87.88
314.624	84.88
314.853	74.88
315.083	86.88
315.312	84.88
315.542	83.88
315.771	85.88
316.001	75.88
316.23	71.88
316.46	76.88
316.689	75.88
316.919	72.88
317.148	83.88
317.377	60.88
317.607	76.88
317.836	83.88
318.065	79.88
318.295	84.88
318.524	89.88
318.753	93.88
318.983	94.88
319.212	80.88
319.441	69.88
319.67	91.88
319.9	83.88
320.129	83.88
320.358	80.88
320.587	73.88
320.816	75.88
321.046	80.88
321.275	87.88
321.504	77.88
321.733	74.88
321.962	92.88
322.191	89.88
322.42	86.88
322.649	105.88
322.878	89.88
323.108	89.88
323.337	81.88
323.566	75.88
323.795	72.88
324.024	78.88
324.253	84.88
324.482	83.88
324.71	89.88
324.939	77.88
325.168	83.88
325.397	84.88
325.626	66.88
325.855	91.88
326.084	72.88
326.313	83.88
326.542	85.88
326.77	89.88
326.999	93.88
327.228	93.88
327.457	76.88
327.686	92.88
327.914	87.88
328.143	83.88
328.372	72.88
328.6	76.88
328.829	70.88
329.058	92.88
329.287	81.88
329.515	88.88
329.744	87.88
329.972	79.88
330.201	89.88
330.43	72.88
330.658	78.88
330.887	76.88
331.115	77.88
331.344	78.88
331.572	93.88
331.801	90.88
332.03	93.88
332.258	89.88
332.486	72.88
332.715	88.88
332.943	91.88
333.172	97.88
333.4	78.88
333.629	84.88
333.857	71.88
334.085	90.88
334.314	80.88
334.542	85.88
334.771	79.88
334.999	86.88
335.227	84.88
335.455	79.88
335.684	94.88
335.912	100.88
336.14	85.88
336.369	80.88
336.597	76.88
336.825	107.88
337.053	80.88
337.281	81.88
337.51	76.88
337.738	91.88
337.966	82.88
338.194	73.88
338.422	75.88
338.65	91.88
338.878	88.88
339.106	89.88
339.334	77.88
339.562	75.88
339.79	77.88
340.018	70.88
340.246	78.88
340.474	77.88
340.702	83.88
340.93	89.88
341.158	79.88
341.386	82.88
341.614	74.88
341.842	103.88
342.07	74.88
342.298	84.88
342.526	69.88
342.754	88.88
342.981	81.88
343.209	77.88
343.437	86.88
343.665	78.88
343.893	78.88
344.12	88.88
344.348	83.88
344.576	93.88
344.804	79.88
345.031	80.88
345.259	97.88
345.487	94.88
345.714	78.88
345.942	79.88
346.17	91.88
346.397	91.88
346.625	86.88
346.853	86.88
347.08	81.88
347.308	68.88
347.535	83.88
347.763	75.88
347.99	85.88
348.218	78.88
348.445	85.88
348.673	81.88
348.9	88.88
349.128	80.88
349.355	82.88
349.583	88.88
349.81	93.88
350.037	74.88
350.265	83.88
350.492	71.88
350.72	88.88
350.947	78.88
351.174	73.88
351.402	65.88
351.629	80.88
351.856	81.88
352.083	84.88
352.311	85.88
352.538	72.88
352.765	70.88
352.992	103.88
353.22	73.88
353.447	85.88
353.674	100.88
353.901	99.88
354.128	80.88
354.355	75.88
354.583	81.88
354.81	77.88
355.037	79.88
355.264	87.88
355.491	84.88
355.718	80.88
355.945	95.88
356.172	86.88
356.399	86.88
356.626	88.88
356.853	75.88
357.08	80.88
357.307	69.88
357.534	83.88
357.761	93.88
357.988	84.88
358.215	91.88
358.441	79.88
358.668	77.88
358.895	70.88
359.122	81.88
359.349	79.88
359.576	89.88
359.802	99.88
360.029	80.88
360.256	84.88
360.483	86.88
360.709	83.88
360.936	94.88
361.163	87.88
361.39	80.88
361.616	77.88
361.843	86.88
362.07	87.88
362.296	65.88
362.523	94.88
362.749	85.88
362.976	74.88
363.203	92.88
363.429	73.88
363.656	74.88
363.882	80.88
364.109	84.88
364.335	83.88
364.562	75.88
364.788	85.88
365.015	65.88
365.241	76.88
365.468	73.88
365.694	87.88
365.92	83.88
366.147	76.88
366.373	87.88
366.599	69.88
366.826	81.88
367.052	94.88
367.278	80.88
367.505	84.88
367.731	88.88
367.957	86.88
368.184	68.88
368.41	85.88
368.636	91.88
368.862	73.88
369.089	77.88
369.315	86.88
369.541	86.88
369.767	90.88
369.993	80.88
370.219	86.88
370.445	87.88
370.672	85.88
370.898	92.88
371.124	85.88
371.35	74.88
371.576	85.88
371.802	85.88
372.028	79.88
372.254	79.88
372.48	72.88
372.706	69.88
372.932	84.88
373.158	83.88
373.384	87.88
373.61	87.88
373.835	76.88
374.061	75.88
374.287	84.88
374.513	87.88
374.739	82.88
374.965	71.88
375.191	74.88
375.416	83.88
375.642	89.88
375.868	66.88
376.094	74.88
376.319	85.88
376.545	86.88
376.771	88.88
376.997	86.88
377.222	80.88
377.448	89.88
377.674	81.88
377.899	75.88
378.125	77.88
378.35	88.88
378.576	93.88
378.802	77.88
379.027	68.88
379.253	83.88
379.478	65.88
379.704	79.88
379.929	84.88
380.155	90.88
380.38	76.88
380.606	79.88
380.831	83.88
381.057	88.88
381.282	88.88
381.507	82.88
381.733	87.88
381.958	87.88
382.184	80.88
382.409	93.88
382.634	95.88
382.86	85.88
383.085	82.88
383.31	85.88
383.535	69.88
383.761	83.88
383.986	83.88
384.211	84.88
384.436	65.88
384.662	78.88
384.887	80.88
385.112	86.88
385.337	77.88
385.562	77.88
385.787	89.88
386.013	72.88
386.238	62.88
386.463	68.88
386.688	95.88
386.913	65.88
387.138	63.88
387.363	84.88
387.588	85.88
387.813	82.88
388.038	89.88
388.263	82.88
388.488	71.88
388.713	68.88
388.938	87.88
389.163	94.88
389.387	76.88
389.612	84.88
389.837	78.88
390.062	75.88
390.287	88.88
390.512	83.88
390.736	83.88
390.961	79.88
391.186	72.88
391.411	76.88
391.636	79.88
391.86	75.88
392.085	86.88
392.31	67.88
392.534	77.88
392.759	69.88
392.984	74.88
393.208	76.88
393.433	79.88
393.658	85.88
393.882	72.88
394.107	79.88
394.331	85.88
394.556	78.88
394.78	85.88
395.005	78.88
395.229	86.88
395.454	73.88
395.678	94.88
395.903	89.88
396.127	90.88
396.352	79.88
396.576	77.88
396.801	83.88
397.025	78.88
397.249	75.88
397.474	90.88
397.698	86.88
397.922	71.88
398.147	73.88
398.371	72.88
398.595	90.88
398.82	76.88
399.044	68.88
399.268	80.88
399.492	76.88
399.717	84.88
399.941	81.88
400.165	86.88
400.389	80.88
400.613	70.88
400.837	83.88
401.062	83.88
401.286	80.88
401.51	83.88
401.734	97.88
401.958	79.88
402.182	86.88
402.406	87.88
402.63	90.88
402.854	87.88
403.078	78.88
403.302	95.88
403.526	80.88
403.75	90.88
403.974	73.88
404.198	91.88
404.422	65.88
404.645	69.88
404.869	75.88
405.093	77.88
405.317	83.88
405.541	76.88
405.765	84.88
405.988	76.88
406.212	75.88
406.436	83.88
406.66	78.88
406.883	97.88
407.107	66.88
407.331	78.88
407.555	77.88
407.778	71.88
408.002	68.88
408.226	79.88
408.449	65.88
408.673	79.88
408.896	87.88
409.12	86.88
409.344	83.88
409.567	82.88
409.791	91.88
410.014	87.88
410.238	83.88
410.461	81.88
410.685	86.88
410.908	72.88
411.132	79.88
411.355	75.88
411.578	88.88
411.802	86.88
412.025	77.88
412.249	68.88
412.472	80.88
412.695	92.88
412.919	65.88
413.142	82.88
413.365	82.88
413.589	80.88
413.812	76.88
414.035	89.88
414.258	77.88
414.482	91.88
414.705	79.88
414.928	89.88
415.151	76.88
415.374	93.88
415.597	78.88
415.821	87.88
416.044	76.88
416.267	84.88
416.49	75.88
416.713	64.88
416.936	73.88
417.159	90.88
417.382	95.88
417.605	77.88
417.828	73.88
418.051	91.88
418.274	77.88
418.497	84.88
418.72	87.88
418.943	89.88
419.166	78.88
419.389	71.88
419.611	74.88
419.834	76.88
420.057	84.88
420.28	76.88
420.503	82.88
420.726	86.88
420.948	72.88
421.171	71.88
421.394	70.88
421.617	73.88
421.839	77.88
422.062	72.88
422.285	86.88
422.507	80.88
422.73	82.88
422.953	95.88
423.175	75.88
423.398	70.88
423.621	70.88
423.843	82.88
424.066	80.88
424.288	83.88
424.511	67.88
424.733	72.88
424.956	80.88
425.178	82.88
425.401	84.88
425.623	77.88
425.846	90.88
426.068	77.88
426.291	87.88
426.513	75.88
426.735	81.88
426.958	83.88
427.18	80.88
427.402	76.88
427.625	68.88
427.847	67.88
428.069	87.88
428.292	91.88
428.514	78.88
428.736	75.88
428.958	67.88
429.181	84.88
429.403	90.88
429.625	69.88
429.847	79.88
430.069	93.88
430.292	103.88
430.514	67.88
430.736	88.88
430.958	83.88
431.18	76.88
431.402	80.88
431.624	82.88
431.846	71.88
432.068	83.88
432.29	92.88
432.512	71.88
432.734	87.88
432.956	79.88
433.178	79.88
433.4	106.88
433.622	96.88
433.844	83.88
434.066	81.88
434.287	81.88
434.509	80.88
434.731	66.88
434.953	83.88
435.175	76.88
435.397	79.88
435.618	79.88
435.84	74.88
436.062	87.88
436.284	87.88
436.505	86.88
436.727	85.88
436.949	71.88
437.17	73.88
437.392	93.88
437.614	92.88
437.835	80.88
438.057	61.88
438.278	91.88
438.5	83.88
438.721	74.88
438.943	89.88
439.165	80.88
439.386	74.88
439.608	82.88
439.829	72.88
440.05	76.88
440.272	80.88
440.493	88.88
440.715	82.88
440.936	82.88
441.158	77.88
441.379	80.88
441.6	66.88
441.822	92.88
442.043	76.88
442.264	83.88
442.486	75.88
442.707	67.88
442.928	81.88
443.149	65.88
443.371	84.88
443.592	74.88
443.813	80.88
444.034	83.88
444.255	77.88
444.476	71.88
444.698	88.88
444.919	91.88
445.14	165.88
445.361	110.88
445.582	87.88
445.803	88.88
446.024	93.88
446.245	93.88
446.466	79.88
446.687	77.88
446.908	86.88
447.129	93.88
447.35	86.88
447.571	75.88
447.792	81.88
448.013	80.88
448.234	71.88
448.455	68.88
448.675	81.88
448.896	82.88
449.117	91.88
449.338	74.88
449.559	85.88
449.779	75.88
450	82.88
450.221	77.88
450.442	79.88
450.662	89.88
450.883	87.88
451.104	80.88
451.324	79.88
451.545	96.88
451.766	79.88
451.986	80.88
452.207	64.88
452.428	68.88
452.648	86.88
452.869	78.88
453.089	84.88
453.31	85.88
453.53	73.88
453.751	78.88
453.971	81.88
454.192	75.88
454.412	75.88
454.633	77.88
454.853	87.88
455.073	92.88
455.294	85.88
455.514	83.88
455.734	68.88
455.955	76.88
456.175	92.88
456.395	97.88
456.616	81.88
456.836	71.88
457.056	86.88
457.276	87.88
457.497	79.88
457.717	85.88
457.937	75.88
458.157	86.88
458.377	73.88
458.598	70.88
458.818	69.88
459.038	69.88
459.258	78.88
459.478	79.88
459.698	74.88
459.918	83.88
460.138	78.88
460.358	66.88
460.578	75.88
460.798	79.88
461.018	79.88
461.238	79.88
461.458	65.88
461.678	81.88
461.898	80.88
462.118	87.88
462.338	81.88
462.558	73.88
462.777	85.88
462.997	83.88
463.217	85.88
463.437	88.88
463.657	82.88
463.876	69.88
464.096	89.88
464.316	76.88
464.536	87.88
464.755	86.88
464.975	91.88
465.195	76.88
465.414	84.88
465.634	86.88
465.854	79.88
466.073	101.88
466.293	74.88
466.512	74.88
466.732	83.88
466.951	82.88
467.171	86.88
467.391	79.88
467.61	77.88
467.829	78.88
468.049	87.88
468.268	91.88
468.488	77.88
468.707	92.88
468.927	67.88
469.146	73.88
469.365	93.88
469.585	72.88
469.804	75.88
470.023	79.88
470.243	80.88
470.462	71.88
470.681	92.88
470.901	75.88
471.12	71.88
471.339	78.88
471.558	75.88
471.777	64.88
471.997	80.88
472.216	81.88
472.435	85.88
472.654	75.88
472.873	85.88
473.092	84.88
473.311	84.88
473.53	78.88
473.749	86.88
473.968	80.88
474.187	69.88
474.406	81.88
474.625	85.88
474.844	90.88
475.063	79.88
475.282	77.88
475.501	71.88
475.72	74.88
475.939	83.88
476.158	93.88
476.377	76.88
476.596	75.88
476.814	71.88
477.033	66.88
477.252	81.88
477.471	92.88
477.69	95.88
477.908	72.88
478.127	79.88
478.346	79.88
478.564	76.88
478.783	82.88
479.002	87.88
479.22	85.88
479.439	86.88
479.658	73.88
479.876	69.88
480.095	75.88
480.313	73.88
480.532	94.88
480.751	81.88
480.969	79.88
481.188	83.88
481.406	88.88
481.624	87.88
481.843	67.88
482.061	84.88
482.28	87.88
482.498	92.88
482.717	78.88
482.935	77.88
483.153	84.88
483.372	86.88
483.59	71.88
483.808	79.88
484.027	79.88
484.245	76.88
484.463	75.88
484.681	86.88
484.9	81.88
485.118	80.88
485.336	86.88
485.554	84.88
485.772	76.88
485.99	76.88
486.209	70.88
486.427	81.88
486.645	80.88
486.863	84.88
487.081	75.88
487.299	75.88
487.517	69.88
487.735	93.88
487.953	78.88
488.171	79.88
488.389	91.88
488.607	77.88
488.825	81.88
489.043	82.88
489.261	79.88
489.479	71.88
489.696	94.88
489.914	81.88
490.132	85.88
490.35	80.88
490.568	86.88
490.786	76.88
491.003	78.88
491.221	81.88
491.439	79.88
491.657	78.88
491.874	76.88
492.092	79.88
492.31	71.88
492.527	83.88
492.745	87.88
492.963	79.88
493.18	74.88
493.398	88.88
493.615	89.88
493.833	69.88
494.05	84.88
494.268	72.88
494.485	84.88
494.703	94.88
494.92	105.88
495.138	83.88
495.355	76.88
495.573	90.88
495.79	87.88
496.008	74.88
496.225	89.88
496.442	81.88
496.66	78.88
496.877	74.88
497.094	79.88
497.312	80.88
497.529	85.88
497.746	65.88
497.963	95.88
498.181	92.88
498.398	78.88
498.615	77.88
498.832	91.88
499.049	66.88
499.267	75.88
499.484	86.88
499.701	73.88
499.918	86.88
500.135	79.88
500.352	78.88
500.569	71.88
500.786	84.88
501.003	96.88
501.22	80.88
501.437	87.88
501.654	70.88
501.871	83.88
502.088	74.88
502.305	76.88
502.522	87.88
502.739	78.88
502.956	82.88
503.172	87.88
503.389	90.88
503.606	73.88
503.823	81.88
504.04	86.88
504.256	82.88
504.473	83.88
504.69	87.88
504.907	89.88
505.123	89.88
505.34	90.88
505.557	81.88
505.773	91.88
505.99	69.88
506.207	79.88
506.423	86.88
506.64	74.88
506.856	74.88
507.073	71.88
507.289	90.88
507.506	79.88
507.722	81.88
507.939	86.88
508.155	81.88
508.372	76.88
508.588	91.88
508.805	88.88
509.021	84.88
509.238	75.88
509.454	79.88
509.67	84.88
509.887	57.88
510.103	80.88
510.319	85.88
510.536	92.88
510.752	77.88
510.968	84.88
511.184	77.88
511.401	74.88
511.617	84.88
511.833	77.88
512.049	70.88
512.265	81.88
512.481	87.88
512.698	80.88
512.914	79.88
513.13	91.88
513.346	80.88
513.562	81.88
513.778	81.88
513.994	74.88
514.21	80.88
514.426	88.88
514.642	86.88
514.858	86.88
515.074	71.88
515.29	80.88
515.506	88.88
515.721	83.88
515.937	90.88
516.153	86.88
516.369	88.88
516.585	84.88
516.801	76.88
517.016	78.88
517.232	91.88
517.448	75.88
517.664	79.88
517.879	79.88
518.095	79.88
518.311	73.88
518.527	92.88
518.742	59.88
518.958	81.88
519.173	89.88
519.389	63.88
519.605	62.88
519.82	63.88
520.036	69.88
520.251	83.88
