Data from StdD_HRD10591_061.txt Node
Date: Fri May 16 15:31:51 EDT 2025
User: Yrep
Spectrometer: HR+D1059
Trigger mode: 1
Integration Time (sec): 1.000000E-1
Scans to average: 1
Electric dark correction enabled: true
Nonlinearity correction enabled: false
Boxcar width: 0
XAxis mode: Wavelengths
Number of Pixels in Spectrum: 2048
>>>>>Begin Spectral Data<<<<<
223.165	-10.81
223.4	-10.81
223.635	-10.81
223.869	-18.81
224.104	-10.81
224.338	-10.81
224.573	-10.81
224.808	-15.81
225.042	-7.81
225.277	-6.81
225.511	-11.81
225.746	-0.81
225.98	13.19
226.215	10.19
226.449	19.19
226.683	13.19
226.918	24.19
227.152	25.19
227.387	39.19
227.621	49.19
227.856	36.19
228.09	49.19
228.324	49.19
228.559	56.19
228.793	57.19
229.027	42.19
229.262	62.19
229.496	63.19
229.73	67.19
229.964	76.19
230.199	66.19
230.433	69.19
230.667	90.19
230.901	83.19
231.136	83.19
231.37	70.19
231.604	98.19
231.838	87.19
232.072	82.19
232.306	81.19
232.541	97.19
232.775	92.19
233.009	91.19
233.243	84.19
233.477	72.19
233.711	75.19
233.945	88.19
234.179	71.19
234.413	67.19
234.647	65.19
234.881	77.19
235.115	72.19
235.349	69.19
235.583	62.19
235.817	82.19
236.051	88.19
236.285	78.19
236.519	80.19
236.753	92.19
236.987	84.19
237.221	81.19
237.455	71.19
237.689	78.19
237.922	68.19
238.156	91.19
238.39	77.19
238.624	81.19
238.858	82.19
239.091	76.19
239.325	82.19
239.559	74.19
239.793	67.19
240.027	75.19
240.26	78.19
240.494	71.19
240.728	68.19
240.961	63.19
241.195	88.19
241.429	84.19
241.662	81.19
241.896	77.19
242.13	86.19
242.363	67.19
242.597	70.19
242.83	85.19
243.064	77.19
243.298	75.19
243.531	72.19
243.765	80.19
243.998	72.19
244.232	82.19
244.465	72.19
244.699	72.19
244.932	81.19
245.166	66.19
245.399	94.19
245.633	76.19
245.866	84.19
246.099	83.19
246.333	80.19
246.566	93.19
246.8	76.19
247.033	86.19
247.266	79.19
247.5	73.19
247.733	91.19
247.966	69.19
248.2	70.19
248.433	73.19
248.666	74.19
248.899	78.19
249.133	75.19
249.366	75.19
249.599	73.19
249.832	75.19
250.066	73.19
250.299	88.19
250.532	69.19
250.765	80.19
250.998	73.19
251.231	70.19
251.465	78.19
251.698	87.19
251.931	71.19
252.164	86.19
252.397	76.19
252.63	87.19
252.863	61.19
253.096	78.19
253.329	90.19
253.562	73.19
253.795	65.19
254.028	72.19
254.261	73.19
254.494	73.19
254.727	87.19
254.96	91.19
255.193	71.19
255.426	82.19
255.659	87.19
255.892	89.19
256.124	87.19
256.357	81.19
256.59	78.19
256.823	69.19
257.056	85.19
257.289	79.19
257.521	78.19
257.754	81.19
257.987	66.19
258.22	85.19
258.452	71.19
258.685	89.19
258.918	83.19
259.151	79.19
259.383	75.19
259.616	80.19
259.849	84.19
260.081	82.19
260.314	94.19
260.547	64.19
260.779	55.19
261.012	85.19
261.244	81.19
261.477	83.19
261.71	85.19
261.942	87.19
262.175	81.19
262.407	77.19
262.64	80.19
262.872	78.19
263.105	99.19
263.337	88.19
263.57	87.19
263.802	94.19
264.035	81.19
264.267	67.19
264.499	103.19
264.732	92.19
264.964	84.19
265.197	75.19
265.429	85.19
265.661	85.19
265.894	82.19
266.126	79.19
266.358	84.19
266.591	77.19
266.823	84.19
267.055	93.19
267.287	69.19
267.52	91.19
267.752	82.19
267.984	87.19
268.216	82.19
268.448	74.19
268.681	79.19
268.913	82.19
269.145	87.19
269.377	82.19
269.609	81.19
269.841	79.19
270.073	95.19
270.306	86.19
270.538	87.19
270.77	77.19
271.002	84.19
271.234	87.19
271.466	63.19
271.698	82.19
271.93	81.19
272.162	80.19
272.394	88.19
272.626	63.19
272.858	75.19
273.09	80.19
273.322	82.19
273.553	75.19
273.785	81.19
274.017	80.19
274.249	83.19
274.481	81.19
274.713	82.19
274.945	88.19
275.176	86.19
275.408	77.19
275.64	89.19
275.872	80.19
276.104	80.19
276.335	84.19
276.567	91.19
276.799	78.19
277.031	95.19
277.262	75.19
277.494	87.19
277.726	83.19
277.957	78.19
278.189	69.19
278.421	70.19
278.652	92.19
278.884	81.19
279.115	79.19
279.347	75.19
279.579	71.19
279.81	84.19
280.042	81.19
280.273	82.19
280.505	60.19
280.736	77.19
280.968	90.19
281.199	83.19
281.431	86.19
281.662	92.19
281.894	76.19
282.125	75.19
282.356	85.19
282.588	79.19
282.819	82.19
283.051	96.19
283.282	85.19
283.513	90.19
283.745	74.19
283.976	81.19
284.207	87.19
284.439	92.19
284.67	86.19
284.901	98.19
285.132	76.19
285.364	78.19
285.595	78.19
285.826	94.19
286.057	85.19
286.288	78.19
286.52	59.19
286.751	89.19
286.982	91.19
287.213	79.19
287.444	86.19
287.675	88.19
287.906	80.19
288.138	83.19
288.369	91.19
288.6	90.19
288.831	76.19
289.062	101.19
289.293	88.19
289.524	87.19
289.755	71.19
289.986	78.19
290.217	83.19
290.448	73.19
290.679	78.19
290.91	89.19
291.141	68.19
291.371	97.19
291.602	78.19
291.833	84.19
292.064	83.19
292.295	87.19
292.526	67.19
292.757	79.19
292.987	90.19
293.218	85.19
293.449	79.19
293.68	87.19
293.91	90.19
294.141	101.19
294.372	77.19
294.603	85.19
294.833	73.19
295.064	86.19
295.295	84.19
295.525	83.19
295.756	98.19
295.987	88.19
296.217	87.19
296.448	91.19
296.679	77.19
296.909	96.19
297.14	88.19
297.37	89.19
297.601	92.19
297.831	81.19
298.062	80.19
298.292	93.19
298.523	68.19
298.753	104.19
298.984	86.19
299.214	75.19
299.445	76.19
299.675	86.19
299.905	75.19
300.136	67.19
300.366	78.19
300.597	88.19
300.827	73.19
301.057	88.19
301.288	90.19
301.518	80.19
301.748	81.19
301.979	106.19
302.209	88.19
302.439	85.19
302.669	73.19
302.9	76.19
303.13	89.19
303.36	79.19
303.59	92.19
303.82	81.19
304.051	73.19
304.281	86.19
304.511	79.19
304.741	83.19
304.971	74.19
305.201	93.19
305.431	69.19
305.661	85.19
305.891	87.19
306.121	85.19
306.352	73.19
306.582	91.19
306.812	89.19
307.042	83.19
307.272	87.19
307.502	73.19
307.731	91.19
307.961	84.19
308.191	85.19
308.421	66.19
308.651	89.19
308.881	77.19
309.111	89.19
309.341	93.19
309.571	78.19
309.8	79.19
310.03	74.19
310.26	83.19
310.49	83.19
310.72	94.19
310.949	82.19
311.179	88.19
311.409	82.19
311.639	77.19
311.868	88.19
312.098	96.19
312.328	86.19
312.557	87.19
312.787	80.19
313.017	102.19
313.246	82.19
313.476	84.19
313.706	72.19
313.935	92.19
314.165	77.19
314.394	74.19
314.624	90.19
314.853	78.19
315.083	79.19
315.312	92.19
315.542	79.19
315.771	77.19
316.001	81.19
316.23	85.19
316.46	98.19
316.689	91.19
316.919	75.19
317.148	78.19
317.377	80.19
317.607	87.19
317.836	79.19
318.065	82.19
318.295	80.19
318.524	76.19
318.753	88.19
318.983	75.19
319.212	81.19
319.441	93.19
319.67	91.19
319.9	87.19
320.129	78.19
320.358	97.19
320.587	88.19
320.816	83.19
321.046	93.19
321.275	82.19
321.504	72.19
321.733	77.19
321.962	80.19
322.191	82.19
322.42	84.19
322.649	80.19
322.878	81.19
323.108	103.19
323.337	93.19
323.566	71.19
323.795	86.19
324.024	81.19
324.253	89.19
324.482	108.19
324.71	90.19
324.939	89.19
325.168	80.19
325.397	91.19
325.626	86.19
325.855	85.19
326.084	69.19
326.313	92.19
326.542	77.19
326.77	77.19
326.999	86.19
327.228	93.19
327.457	91.19
327.686	81.19
327.914	80.19
328.143	77.19
328.372	87.19
328.6	74.19
328.829	72.19
329.058	74.19
329.287	83.19
329.515	85.19
329.744	86.19
329.972	85.19
330.201	82.19
330.43	77.19
330.658	75.19
330.887	82.19
331.115	84.19
331.344	75.19
331.572	75.19
331.801	86.19
332.03	88.19
332.258	84.19
332.486	91.19
332.715	85.19
332.943	79.19
333.172	79.19
333.4	95.19
333.629	85.19
333.857	89.19
334.085	85.19
334.314	80.19
334.542	89.19
334.771	78.19
334.999	80.19
335.227	81.19
335.455	77.19
335.684	91.19
335.912	69.19
336.14	84.19
336.369	79.19
336.597	69.19
336.825	82.19
337.053	78.19
337.281	86.19
337.51	68.19
337.738	81.19
337.966	61.19
338.194	73.19
338.422	83.19
338.65	85.19
338.878	98.19
339.106	92.19
339.334	84.19
339.562	90.19
339.79	73.19
340.018	75.19
340.246	84.19
340.474	89.19
340.702	101.19
340.93	81.19
341.158	82.19
341.386	83.19
341.614	79.19
341.842	78.19
342.07	81.19
342.298	83.19
342.526	93.19
342.754	91.19
342.981	85.19
343.209	92.19
343.437	102.19
343.665	74.19
343.893	77.19
344.12	83.19
344.348	82.19
344.576	82.19
344.804	82.19
345.031	85.19
345.259	77.19
345.487	71.19
345.714	87.19
345.942	88.19
346.17	90.19
346.397	94.19
346.625	87.19
346.853	86.19
347.08	88.19
347.308	88.19
347.535	93.19
347.763	87.19
347.99	75.19
348.218	92.19
348.445	77.19
348.673	76.19
348.9	83.19
349.128	77.19
349.355	88.19
349.583	76.19
349.81	91.19
350.037	84.19
350.265	83.19
350.492	70.19
350.72	77.19
350.947	83.19
351.174	89.19
351.402	87.19
351.629	92.19
351.856	81.19
352.083	64.19
352.311	74.19
352.538	71.19
352.765	74.19
352.992	90.19
353.22	83.19
353.447	86.19
353.674	90.19
353.901	81.19
354.128	87.19
354.355	85.19
354.583	89.19
354.81	88.19
355.037	75.19
355.264	71.19
355.491	86.19
355.718	74.19
355.945	86.19
356.172	68.19
356.399	70.19
356.626	76.19
356.853	77.19
357.08	98.19
357.307	87.19
357.534	94.19
357.761	93.19
357.988	86.19
358.215	89.19
358.441	70.19
358.668	72.19
358.895	81.19
359.122	73.19
359.349	78.19
359.576	83.19
359.802	72.19
360.029	78.19
360.256	83.19
360.483	69.19
360.709	82.19
360.936	81.19
361.163	80.19
361.39	82.19
361.616	101.19
361.843	95.19
362.07	76.19
362.296	77.19
362.523	72.19
362.749	81.19
362.976	81.19
363.203	81.19
363.429	72.19
363.656	81.19
363.882	80.19
364.109	79.19
364.335	77.19
364.562	57.19
364.788	91.19
365.015	71.19
365.241	76.19
365.468	94.19
365.694	76.19
365.92	80.19
366.147	69.19
366.373	95.19
366.599	70.19
366.826	74.19
367.052	102.19
367.278	74.19
367.505	88.19
367.731	78.19
367.957	87.19
368.184	97.19
368.41	75.19
368.636	72.19
368.862	90.19
369.089	86.19
369.315	92.19
369.541	89.19
369.767	72.19
369.993	82.19
370.219	79.19
370.445	83.19
370.672	79.19
370.898	99.19
371.124	92.19
371.35	91.19
371.576	82.19
371.802	73.19
372.028	84.19
372.254	86.19
372.48	73.19
372.706	77.19
372.932	79.19
373.158	77.19
373.384	93.19
373.61	75.19
373.835	76.19
374.061	88.19
374.287	85.19
374.513	85.19
374.739	77.19
374.965	94.19
375.191	82.19
375.416	94.19
375.642	74.19
375.868	87.19
376.094	77.19
376.319	86.19
376.545	71.19
376.771	75.19
376.997	75.19
377.222	72.19
377.448	101.19
377.674	81.19
377.899	75.19
378.125	96.19
378.35	90.19
378.576	76.19
378.802	59.19
379.027	83.19
379.253	100.19
379.478	67.19
379.704	64.19
379.929	81.19
380.155	57.19
380.38	72.19
380.606	81.19
380.831	75.19
381.057	84.19
381.282	79.19
381.507	78.19
381.733	89.19
381.958	73.19
382.184	74.19
382.409	73.19
382.634	79.19
382.86	92.19
383.085	85.19
383.31	73.19
383.535	91.19
383.761	78.19
383.986	83.19
384.211	79.19
384.436	73.19
384.662	97.19
384.887	90.19
385.112	80.19
385.337	81.19
385.562	83.19
385.787	77.19
386.013	98.19
386.238	85.19
386.463	69.19
386.688	86.19
386.913	81.19
387.138	79.19
387.363	86.19
387.588	73.19
387.813	91.19
388.038	79.19
388.263	86.19
388.488	90.19
388.713	70.19
388.938	79.19
389.163	65.19
389.387	78.19
389.612	86.19
389.837	82.19
390.062	63.19
390.287	83.19
390.512	81.19
390.736	85.19
390.961	88.19
391.186	89.19
391.411	85.19
391.636	79.19
391.86	93.19
392.085	92.19
392.31	76.19
392.534	79.19
392.759	81.19
392.984	78.19
393.208	74.19
393.433	80.19
393.658	79.19
393.882	76.19
394.107	81.19
394.331	81.19
394.556	78.19
394.78	80.19
395.005	74.19
395.229	81.19
395.454	79.19
395.678	78.19
395.903	75.19
396.127	86.19
396.352	91.19
396.576	78.19
396.801	85.19
397.025	102.19
397.249	71.19
397.474	102.19
397.698	90.19
397.922	86.19
398.147	61.19
398.371	83.19
398.595	73.19
398.82	91.19
399.044	77.19
399.268	78.19
399.492	90.19
399.717	82.19
399.941	60.19
400.165	91.19
400.389	81.19
400.613	89.19
400.837	75.19
401.062	89.19
401.286	77.19
401.51	73.19
401.734	77.19
401.958	90.19
402.182	95.19
402.406	80.19
402.63	66.19
402.854	94.19
403.078	89.19
403.302	84.19
403.526	65.19
403.75	90.19
403.974	65.19
404.198	79.19
404.422	77.19
404.645	92.19
404.869	73.19
405.093	81.19
405.317	85.19
405.541	84.19
405.765	89.19
405.988	87.19
406.212	81.19
406.436	68.19
406.66	70.19
406.883	73.19
407.107	85.19
407.331	89.19
407.555	73.19
407.778	74.19
408.002	90.19
408.226	71.19
408.449	101.19
408.673	88.19
408.896	64.19
409.12	84.19
409.344	82.19
409.567	76.19
409.791	84.19
410.014	84.19
410.238	81.19
410.461	95.19
410.685	82.19
410.908	89.19
411.132	89.19
411.355	89.19
411.578	84.19
411.802	83.19
412.025	78.19
412.249	76.19
412.472	77.19
412.695	76.19
412.919	91.19
413.142	89.19
413.365	85.19
413.589	98.19
413.812	96.19
414.035	89.19
414.258	82.19
414.482	85.19
414.705	94.19
414.928	78.19
415.151	87.19
415.374	91.19
415.597	89.19
415.821	88.19
416.044	82.19
416.267	77.19
416.49	77.19
416.713	74.19
416.936	74.19
417.159	84.19
417.382	81.19
417.605	79.19
417.828	74.19
418.051	81.19
418.274	70.19
418.497	81.19
418.72	75.19
418.943	98.19
419.166	79.19
419.389	93.19
419.611	75.19
419.834	87.19
420.057	87.19
420.28	77.19
420.503	86.19
420.726	85.19
420.948	74.19
421.171	79.19
421.394	64.19
421.617	72.19
421.839	85.19
422.062	85.19
422.285	74.19
422.507	83.19
422.73	91.19
422.953	80.19
423.175	67.19
423.398	77.19
423.621	85.19
423.843	89.19
424.066	65.19
424.288	87.19
424.511	74.19
424.733	75.19
424.956	74.19
425.178	82.19
425.401	83.19
425.623	80.19
425.846	76.19
426.068	78.19
426.291	78.19
426.513	76.19
426.735	74.19
426.958	87.19
427.18	86.19
427.402	86.19
427.625	72.19
427.847	88.19
428.069	78.19
428.292	77.19
428.514	79.19
428.736	86.19
428.958	97.19
429.181	74.19
429.403	74.19
429.625	81.19
429.847	69.19
430.069	82.19
430.292	84.19
430.514	79.19
430.736	93.19
430.958	87.19
431.18	83.19
431.402	77.19
431.624	93.19
431.846	92.19
432.068	70.19
432.29	71.19
432.512	86.19
432.734	66.19
432.956	67.19
433.178	96.19
433.4	80.19
433.622	89.19
433.844	87.19
434.066	89.19
434.287	64.19
434.509	81.19
434.731	78.19
434.953	64.19
435.175	88.19
435.397	82.19
435.618	81.19
435.84	80.19
436.062	69.19
436.284	74.19
436.505	85.19
436.727	85.19
436.949	81.19
437.17	75.19
437.392	94.19
437.614	81.19
437.835	81.19
438.057	68.19
438.278	67.19
438.5	71.19
438.721	85.19
438.943	85.19
439.165	86.19
439.386	89.19
439.608	70.19
439.829	83.19
440.05	84.19
440.272	74.19
440.493	67.19
440.715	93.19
440.936	78.19
441.158	81.19
441.379	82.19
441.6	79.19
441.822	102.19
442.043	89.19
442.264	79.19
442.486	83.19
442.707	82.19
442.928	83.19
443.149	86.19
443.371	81.19
443.592	77.19
443.813	86.19
444.034	89.19
444.255	88.19
444.476	85.19
444.698	75.19
444.919	89.19
445.14	159.19
445.361	125.19
445.582	86.19
445.803	81.19
446.024	85.19
446.245	88.19
446.466	89.19
446.687	94.19
446.908	82.19
447.129	94.19
447.35	80.19
447.571	83.19
447.792	89.19
448.013	85.19
448.234	72.19
448.455	66.19
448.675	87.19
448.896	75.19
449.117	83.19
449.338	89.19
449.559	82.19
449.779	66.19
450	91.19
450.221	79.19
450.442	92.19
450.662	80.19
450.883	85.19
451.104	94.19
451.324	84.19
451.545	75.19
451.766	80.19
451.986	80.19
452.207	90.19
452.428	89.19
452.648	87.19
452.869	91.19
453.089	94.19
453.31	72.19
453.53	91.19
453.751	86.19
453.971	79.19
454.192	86.19
454.412	70.19
454.633	79.19
454.853	87.19
455.073	69.19
455.294	89.19
455.514	82.19
455.734	83.19
455.955	68.19
456.175	83.19
456.395	77.19
456.616	85.19
456.836	87.19
457.056	90.19
457.276	77.19
457.497	74.19
457.717	85.19
457.937	74.19
458.157	82.19
458.377	77.19
458.598	78.19
458.818	81.19
459.038	86.19
459.258	77.19
459.478	75.19
459.698	77.19
459.918	88.19
460.138	79.19
460.358	85.19
460.578	93.19
460.798	90.19
461.018	75.19
461.238	79.19
461.458	73.19
461.678	81.19
461.898	86.19
462.118	89.19
462.338	85.19
462.558	78.19
462.777	87.19
462.997	88.19
463.217	87.19
463.437	73.19
463.657	93.19
463.876	72.19
464.096	85.19
464.316	87.19
464.536	85.19
464.755	79.19
464.975	101.19
465.195	97.19
465.414	98.19
465.634	97.19
465.854	81.19
466.073	86.19
466.293	82.19
466.512	81.19
466.732	78.19
466.951	82.19
467.171	82.19
467.391	78.19
467.61	80.19
467.829	86.19
468.049	86.19
468.268	81.19
468.488	81.19
468.707	88.19
468.927	85.19
469.146	77.19
469.365	78.19
469.585	88.19
469.804	78.19
470.023	92.19
470.243	87.19
470.462	103.19
470.681	77.19
470.901	94.19
471.12	93.19
471.339	88.19
471.558	97.19
471.777	75.19
471.997	79.19
472.216	79.19
472.435	87.19
472.654	82.19
472.873	89.19
473.092	81.19
473.311	81.19
473.53	85.19
473.749	92.19
473.968	82.19
474.187	78.19
474.406	90.19
474.625	83.19
474.844	86.19
475.063	81.19
475.282	71.19
475.501	86.19
475.72	73.19
475.939	76.19
476.158	81.19
476.377	84.19
476.596	87.19
476.814	82.19
477.033	90.19
477.252	86.19
477.471	88.19
477.69	85.19
477.908	71.19
478.127	88.19
478.346	82.19
478.564	81.19
478.783	90.19
479.002	91.19
479.22	89.19
479.439	72.19
479.658	92.19
479.876	79.19
480.095	82.19
480.313	89.19
480.532	92.19
480.751	92.19
480.969	93.19
481.188	87.19
481.406	65.19
481.624	94.19
481.843	65.19
482.061	76.19
482.28	59.19
482.498	79.19
482.717	83.19
482.935	75.19
483.153	91.19
483.372	81.19
483.59	90.19
483.808	85.19
484.027	76.19
484.245	93.19
484.463	93.19
484.681	89.19
484.9	86.19
485.118	89.19
485.336	75.19
485.554	76.19
485.772	75.19
485.99	86.19
486.209	81.19
486.427	84.19
486.645	81.19
486.863	80.19
487.081	87.19
487.299	96.19
487.517	90.19
487.735	80.19
487.953	95.19
488.171	88.19
488.389	85.19
488.607	81.19
488.825	85.19
489.043	75.19
489.261	99.19
489.479	93.19
489.696	82.19
489.914	92.19
490.132	89.19
490.35	79.19
490.568	85.19
490.786	83.19
491.003	80.19
491.221	98.19
491.439	87.19
491.657	95.19
491.874	78.19
492.092	85.19
492.31	88.19
492.527	90.19
492.745	90.19
492.963	88.19
493.18	84.19
493.398	76.19
493.615	86.19
493.833	66.19
494.05	82.19
494.268	81.19
494.485	101.19
494.703	83.19
494.92	73.19
495.138	99.19
495.355	94.19
495.573	89.19
495.79	80.19
496.008	85.19
496.225	80.19
496.442	89.19
496.66	91.19
496.877	72.19
497.094	84.19
497.312	85.19
497.529	89.19
497.746	87.19
497.963	86.19
498.181	80.19
498.398	77.19
498.615	87.19
498.832	89.19
499.049	76.19
499.267	85.19
499.484	81.19
499.701	75.19
499.918	86.19
500.135	90.19
500.352	78.19
500.569	81.19
500.786	89.19
501.003	77.19
501.22	81.19
501.437	91.19
501.654	93.19
501.871	99.19
502.088	93.19
502.305	78.19
502.522	90.19
502.739	87.19
502.956	80.19
503.172	85.19
503.389	98.19
503.606	86.19
503.823	71.19
504.04	86.19
504.256	86.19
504.473	89.19
504.69	86.19
504.907	82.19
505.123	94.19
505.34	82.19
505.557	79.19
505.773	91.19
505.99	85.19
506.207	84.19
506.423	84.19
506.64	90.19
506.856	70.19
507.073	95.19
507.289	91.19
507.506	75.19
507.722	82.19
507.939	80.19
508.155	94.19
508.372	74.19
508.588	81.19
508.805	87.19
509.021	80.19
509.238	79.19
509.454	87.19
509.67	78.19
509.887	84.19
510.103	73.19
510.319	97.19
510.536	104.19
510.752	66.19
510.968	75.19
511.184	83.19
511.401	70.19
511.617	78.19
511.833	79.19
512.049	86.19
512.265	105.19
512.481	75.19
512.698	98.19
512.914	90.19
513.13	99.19
513.346	86.19
513.562	79.19
513.778	89.19
513.994	78.19
514.21	77.19
514.426	77.19
514.642	74.19
514.858	81.19
515.074	90.19
515.29	81.19
515.506	77.19
515.721	88.19
515.937	86.19
516.153	85.19
516.369	74.19
516.585	84.19
516.801	89.19
517.016	83.19
517.232	87.19
517.448	96.19
517.664	88.19
517.879	87.19
518.095	79.19
518.311	87.19
518.527	79.19
518.742	88.19
518.958	87.19
519.173	87.19
519.389	93.19
519.605	79.19
519.82	70.19
520.036	88.19
