Data from StdD_HRD10591_083.txt Node
Date: Fri May 16 15:32:02 EDT 2025
User: Yrep
Spectrometer: HR+D1059
Trigger mode: 1
Integration Time (sec): 1.000000E-1
Scans to average: 1
Electric dark correction enabled: true
Nonlinearity correction enabled: false
Boxcar width: 0
XAxis mode: Wavelengths
Number of Pixels in Spectrum: 2048
>>>>>Begin Spectral Data<<<<<
223.165	-8.56
223.4	-8.56
223.635	-8.56
223.869	-16.56
224.104	-14.56
224.338	-14.56
224.573	-18.56
224.808	-21.56
225.042	-2.56
225.277	5.44
225.511	-1.56
225.746	0.44
225.98	12.44
226.215	5.44
226.449	17.44
226.683	12.44
226.918	14.44
227.152	30.44
227.387	27.44
227.621	34.44
227.856	43.44
228.09	43.44
228.324	48.44
228.559	48.44
228.793	51.44
229.027	54.44
229.262	55.44
229.496	73.44
229.73	76.44
229.964	59.44
230.199	75.44
230.433	72.44
230.667	81.44
230.901	92.44
231.136	66.44
231.37	69.44
231.604	76.44
231.838	78.44
232.072	65.44
232.306	70.44
232.541	91.44
232.775	80.44
233.009	78.44
233.243	83.44
233.477	74.44
233.711	67.44
233.945	79.44
234.179	83.44
234.413	87.44
234.647	76.44
234.881	74.44
235.115	61.44
235.349	75.44
235.583	78.44
235.817	88.44
236.051	76.44
236.285	83.44
236.519	79.44
236.753	71.44
236.987	87.44
237.221	75.44
237.455	71.44
237.689	75.44
237.922	80.44
238.156	77.44
238.39	59.44
238.624	72.44
238.858	75.44
239.091	85.44
239.325	85.44
239.559	73.44
239.793	69.44
240.027	69.44
240.26	55.44
240.494	62.44
240.728	86.44
240.961	75.44
241.195	78.44
241.429	83.44
241.662	59.44
241.896	80.44
242.13	76.44
242.363	68.44
242.597	75.44
242.83	68.44
243.064	76.44
243.298	69.44
243.531	70.44
243.765	63.44
243.998	71.44
244.232	80.44
244.465	80.44
244.699	76.44
244.932	69.44
245.166	76.44
245.399	70.44
245.633	92.44
245.866	80.44
246.099	86.44
246.333	80.44
246.566	74.44
246.8	95.44
247.033	83.44
247.266	71.44
247.5	66.44
247.733	84.44
247.966	79.44
248.2	83.44
248.433	86.44
248.666	87.44
248.899	80.44
249.133	75.44
249.366	79.44
249.599	86.44
249.832	76.44
250.066	89.44
250.299	69.44
250.532	80.44
250.765	80.44
250.998	82.44
251.231	76.44
251.465	69.44
251.698	71.44
251.931	81.44
252.164	71.44
252.397	73.44
252.63	91.44
252.863	73.44
253.096	77.44
253.329	80.44
253.562	87.44
253.795	85.44
254.028	84.44
254.261	72.44
254.494	68.44
254.727	80.44
254.96	75.44
255.193	78.44
255.426	68.44
255.659	76.44
255.892	81.44
256.124	91.44
256.357	75.44
256.59	76.44
256.823	71.44
257.056	86.44
257.289	78.44
257.521	86.44
257.754	75.44
257.987	69.44
258.22	79.44
258.452	82.44
258.685	80.44
258.918	85.44
259.151	88.44
259.383	90.44
259.616	89.44
259.849	64.44
260.081	73.44
260.314	80.44
260.547	85.44
260.779	83.44
261.012	78.44
261.244	63.44
261.477	78.44
261.71	83.44
261.942	81.44
262.175	87.44
262.407	82.44
262.64	62.44
262.872	83.44
263.105	69.44
263.337	80.44
263.57	84.44
263.802	85.44
264.035	83.44
264.267	64.44
264.499	81.44
264.732	86.44
264.964	75.44
265.197	75.44
265.429	88.44
265.661	85.44
265.894	81.44
266.126	79.44
266.358	70.44
266.591	72.44
266.823	83.44
267.055	63.44
267.287	86.44
267.52	89.44
267.752	88.44
267.984	76.44
268.216	81.44
268.448	73.44
268.681	77.44
268.913	77.44
269.145	87.44
269.377	77.44
269.609	79.44
269.841	73.44
270.073	90.44
270.306	87.44
270.538	82.44
270.77	81.44
271.002	79.44
271.234	80.44
271.466	80.44
271.698	77.44
271.93	72.44
272.162	73.44
272.394	86.44
272.626	58.44
272.858	88.44
273.09	93.44
273.322	73.44
273.553	85.44
273.785	95.44
274.017	71.44
274.249	72.44
274.481	78.44
274.713	87.44
274.945	83.44
275.176	82.44
275.408	77.44
275.64	89.44
275.872	76.44
276.104	87.44
276.335	78.44
276.567	75.44
276.799	83.44
277.031	76.44
277.262	75.44
277.494	78.44
277.726	83.44
277.957	86.44
278.189	78.44
278.421	80.44
278.652	84.44
278.884	82.44
279.115	69.44
279.347	91.44
279.579	83.44
279.81	64.44
280.042	75.44
280.273	87.44
280.505	77.44
280.736	81.44
280.968	73.44
281.199	91.44
281.431	85.44
281.662	79.44
281.894	92.44
282.125	79.44
282.356	69.44
282.588	91.44
282.819	76.44
283.051	85.44
283.282	78.44
283.513	89.44
283.745	83.44
283.976	88.44
284.207	97.44
284.439	76.44
284.67	77.44
284.901	75.44
285.132	80.44
285.364	57.44
285.595	87.44
285.826	74.44
286.057	80.44
286.288	90.44
286.52	77.44
286.751	80.44
286.982	88.44
287.213	65.44
287.444	64.44
287.675	85.44
287.906	90.44
288.138	91.44
288.369	93.44
288.6	76.44
288.831	86.44
289.062	92.44
289.293	86.44
289.524	84.44
289.755	84.44
289.986	87.44
290.217	77.44
290.448	81.44
290.679	81.44
290.91	79.44
291.141	76.44
291.371	90.44
291.602	91.44
291.833	74.44
292.064	90.44
292.295	81.44
292.526	87.44
292.757	64.44
292.987	86.44
293.218	78.44
293.449	87.44
293.68	71.44
293.91	77.44
294.141	79.44
294.372	79.44
294.603	84.44
294.833	87.44
295.064	77.44
295.295	80.44
295.525	82.44
295.756	90.44
295.987	77.44
296.217	81.44
296.448	84.44
296.679	75.44
296.909	71.44
297.14	101.44
297.37	79.44
297.601	87.44
297.831	83.44
298.062	89.44
298.292	86.44
298.523	88.44
298.753	86.44
298.984	72.44
299.214	68.44
299.445	83.44
299.675	79.44
299.905	89.44
300.136	85.44
300.366	89.44
300.597	83.44
300.827	85.44
301.057	85.44
301.288	79.44
301.518	80.44
301.748	84.44
301.979	101.44
302.209	80.44
302.439	77.44
302.669	89.44
302.9	84.44
303.13	84.44
303.36	78.44
303.59	81.44
303.82	91.44
304.051	89.44
304.281	86.44
304.511	82.44
304.741	82.44
304.971	77.44
305.201	86.44
305.431	90.44
305.661	73.44
305.891	86.44
306.121	78.44
306.352	93.44
306.582	72.44
306.812	87.44
307.042	72.44
307.272	83.44
307.502	71.44
307.731	71.44
307.961	84.44
308.191	83.44
308.421	94.44
308.651	84.44
308.881	81.44
309.111	88.44
309.341	91.44
309.571	95.44
309.8	76.44
310.03	87.44
310.26	82.44
310.49	73.44
310.72	88.44
310.949	93.44
311.179	84.44
311.409	89.44
311.639	71.44
311.868	71.44
312.098	99.44
312.328	75.44
312.557	91.44
312.787	89.44
313.017	91.44
313.246	92.44
313.476	84.44
313.706	78.44
313.935	77.44
314.165	79.44
314.394	78.44
314.624	80.44
314.853	95.44
315.083	83.44
315.312	84.44
315.542	71.44
315.771	80.44
316.001	78.44
316.23	78.44
316.46	83.44
316.689	87.44
316.919	84.44
317.148	111.44
317.377	93.44
317.607	84.44
317.836	88.44
318.065	85.44
318.295	86.44
318.524	71.44
318.753	83.44
318.983	88.44
319.212	93.44
319.441	92.44
319.67	76.44
319.9	88.44
320.129	73.44
320.358	89.44
320.587	74.44
320.816	85.44
321.046	85.44
321.275	84.44
321.504	83.44
321.733	89.44
321.962	82.44
322.191	88.44
322.42	88.44
322.649	81.44
322.878	79.44
323.108	88.44
323.337	79.44
323.566	93.44
323.795	74.44
324.024	92.44
324.253	90.44
324.482	92.44
324.71	78.44
324.939	93.44
325.168	84.44
325.397	84.44
325.626	103.44
325.855	88.44
326.084	79.44
326.313	75.44
326.542	85.44
326.77	81.44
326.999	81.44
327.228	88.44
327.457	76.44
327.686	74.44
327.914	86.44
328.143	104.44
328.372	67.44
328.6	82.44
328.829	90.44
329.058	86.44
329.287	79.44
329.515	83.44
329.744	71.44
329.972	79.44
330.201	68.44
330.43	72.44
330.658	83.44
330.887	75.44
331.115	79.44
331.344	89.44
331.572	85.44
331.801	79.44
332.03	73.44
332.258	84.44
332.486	75.44
332.715	95.44
332.943	87.44
333.172	80.44
333.4	75.44
333.629	85.44
333.857	65.44
334.085	85.44
334.314	83.44
334.542	81.44
334.771	85.44
334.999	93.44
335.227	75.44
335.455	76.44
335.684	93.44
335.912	89.44
336.14	80.44
336.369	73.44
336.597	88.44
336.825	83.44
337.053	83.44
337.281	78.44
337.51	67.44
337.738	85.44
337.966	78.44
338.194	96.44
338.422	86.44
338.65	88.44
338.878	80.44
339.106	82.44
339.334	89.44
339.562	81.44
339.79	90.44
340.018	73.44
340.246	73.44
340.474	81.44
340.702	71.44
340.93	80.44
341.158	84.44
341.386	94.44
341.614	80.44
341.842	77.44
342.07	86.44
342.298	85.44
342.526	85.44
342.754	99.44
342.981	87.44
343.209	81.44
343.437	89.44
343.665	84.44
343.893	100.44
344.12	77.44
344.348	79.44
344.576	84.44
344.804	86.44
345.031	90.44
345.259	73.44
345.487	75.44
345.714	84.44
345.942	88.44
346.17	87.44
346.397	95.44
346.625	80.44
346.853	83.44
347.08	83.44
347.308	87.44
347.535	71.44
347.763	93.44
347.99	99.44
348.218	81.44
348.445	74.44
348.673	82.44
348.9	85.44
349.128	85.44
349.355	87.44
349.583	84.44
349.81	91.44
350.037	89.44
350.265	74.44
350.492	83.44
350.72	65.44
350.947	72.44
351.174	88.44
351.402	75.44
351.629	80.44
351.856	85.44
352.083	86.44
352.311	91.44
352.538	77.44
352.765	78.44
352.992	93.44
353.22	88.44
353.447	99.44
353.674	79.44
353.901	76.44
354.128	92.44
354.355	69.44
354.583	89.44
354.81	72.44
355.037	99.44
355.264	80.44
355.491	82.44
355.718	71.44
355.945	69.44
356.172	70.44
356.399	90.44
356.626	75.44
356.853	86.44
357.08	94.44
357.307	83.44
357.534	71.44
357.761	91.44
357.988	92.44
358.215	86.44
358.441	64.44
358.668	77.44
358.895	83.44
359.122	86.44
359.349	82.44
359.576	83.44
359.802	108.44
360.029	85.44
360.256	81.44
360.483	73.44
360.709	68.44
360.936	100.44
361.163	77.44
361.39	88.44
361.616	91.44
361.843	81.44
362.07	86.44
362.296	92.44
362.523	65.44
362.749	81.44
362.976	72.44
363.203	75.44
363.429	83.44
363.656	89.44
363.882	87.44
364.109	81.44
364.335	88.44
364.562	75.44
364.788	72.44
365.015	92.44
365.241	74.44
365.468	92.44
365.694	84.44
365.92	83.44
366.147	91.44
366.373	82.44
366.599	77.44
366.826	83.44
367.052	83.44
367.278	93.44
367.505	72.44
367.731	88.44
367.957	75.44
368.184	79.44
368.41	79.44
368.636	84.44
368.862	95.44
369.089	94.44
369.315	72.44
369.541	80.44
369.767	90.44
369.993	99.44
370.219	71.44
370.445	69.44
370.672	71.44
370.898	84.44
371.124	81.44
371.35	74.44
371.576	99.44
371.802	79.44
372.028	89.44
372.254	89.44
372.48	75.44
372.706	78.44
372.932	73.44
373.158	81.44
373.384	73.44
373.61	85.44
373.835	91.44
374.061	88.44
374.287	68.44
374.513	68.44
374.739	62.44
374.965	81.44
375.191	77.44
375.416	71.44
375.642	64.44
375.868	85.44
376.094	81.44
376.319	83.44
376.545	81.44
376.771	88.44
376.997	82.44
377.222	88.44
377.448	69.44
377.674	81.44
377.899	87.44
378.125	84.44
378.35	80.44
378.576	79.44
378.802	89.44
379.027	78.44
379.253	67.44
379.478	86.44
379.704	86.44
379.929	73.44
380.155	75.44
380.38	68.44
380.606	72.44
380.831	89.44
381.057	86.44
381.282	85.44
381.507	75.44
381.733	87.44
381.958	79.44
382.184	77.44
382.409	70.44
382.634	74.44
382.86	89.44
383.085	70.44
383.31	83.44
383.535	81.44
383.761	84.44
383.986	93.44
384.211	85.44
384.436	77.44
384.662	83.44
384.887	68.44
385.112	74.44
385.337	82.44
385.562	72.44
385.787	78.44
386.013	91.44
386.238	79.44
386.463	83.44
386.688	101.44
386.913	91.44
387.138	73.44
387.363	93.44
387.588	85.44
387.813	89.44
388.038	82.44
388.263	80.44
388.488	90.44
388.713	80.44
388.938	65.44
389.163	80.44
389.387	76.44
389.612	81.44
389.837	78.44
390.062	87.44
390.287	75.44
390.512	83.44
390.736	69.44
390.961	85.44
391.186	83.44
391.411	83.44
391.636	87.44
391.86	80.44
392.085	81.44
392.31	76.44
392.534	74.44
392.759	78.44
392.984	69.44
393.208	84.44
393.433	81.44
393.658	85.44
393.882	77.44
394.107	94.44
394.331	86.44
394.556	89.44
394.78	75.44
395.005	85.44
395.229	69.44
395.454	76.44
395.678	74.44
395.903	81.44
396.127	83.44
396.352	79.44
396.576	80.44
396.801	87.44
397.025	79.44
397.249	92.44
397.474	79.44
397.698	80.44
397.922	84.44
398.147	103.44
398.371	83.44
398.595	84.44
398.82	64.44
399.044	81.44
399.268	86.44
399.492	83.44
399.717	96.44
399.941	81.44
400.165	62.44
400.389	82.44
400.613	67.44
400.837	61.44
401.062	75.44
401.286	68.44
401.51	85.44
401.734	92.44
401.958	80.44
402.182	77.44
402.406	70.44
402.63	67.44
402.854	81.44
403.078	81.44
403.302	84.44
403.526	90.44
403.75	83.44
403.974	91.44
404.198	77.44
404.422	82.44
404.645	79.44
404.869	64.44
405.093	89.44
405.317	80.44
405.541	82.44
405.765	78.44
405.988	70.44
406.212	68.44
406.436	88.44
406.66	87.44
406.883	81.44
407.107	88.44
407.331	76.44
407.555	78.44
407.778	84.44
408.002	77.44
408.226	63.44
408.449	67.44
408.673	78.44
408.896	76.44
409.12	87.44
409.344	66.44
409.567	79.44
409.791	75.44
410.014	83.44
410.238	94.44
410.461	76.44
410.685	83.44
410.908	79.44
411.132	79.44
411.355	83.44
411.578	80.44
411.802	72.44
412.025	78.44
412.249	76.44
412.472	80.44
412.695	68.44
412.919	84.44
413.142	83.44
413.365	85.44
413.589	84.44
413.812	73.44
414.035	89.44
414.258	76.44
414.482	83.44
414.705	74.44
414.928	92.44
415.151	67.44
415.374	75.44
415.597	84.44
415.821	89.44
416.044	79.44
416.267	85.44
416.49	71.44
416.713	72.44
416.936	80.44
417.159	78.44
417.382	75.44
417.605	84.44
417.828	79.44
418.051	79.44
418.274	71.44
418.497	69.44
418.72	83.44
418.943	73.44
419.166	96.44
419.389	73.44
419.611	83.44
419.834	84.44
420.057	64.44
420.28	88.44
420.503	63.44
420.726	72.44
420.948	92.44
421.171	75.44
421.394	77.44
421.617	80.44
421.839	81.44
422.062	70.44
422.285	74.44
422.507	78.44
422.73	74.44
422.953	90.44
423.175	74.44
423.398	65.44
423.621	85.44
423.843	73.44
424.066	85.44
424.288	71.44
424.511	83.44
424.733	84.44
424.956	76.44
425.178	91.44
425.401	80.44
425.623	77.44
425.846	88.44
426.068	88.44
426.291	76.44
426.513	86.44
426.735	77.44
426.958	88.44
427.18	87.44
427.402	93.44
427.625	80.44
427.847	78.44
428.069	87.44
428.292	92.44
428.514	80.44
428.736	84.44
428.958	87.44
429.181	87.44
429.403	77.44
429.625	84.44
429.847	72.44
430.069	64.44
430.292	85.44
430.514	75.44
430.736	87.44
430.958	81.44
431.18	76.44
431.402	77.44
431.624	79.44
431.846	84.44
432.068	94.44
432.29	83.44
432.512	89.44
432.734	75.44
432.956	87.44
433.178	92.44
433.4	84.44
433.622	89.44
433.844	75.44
434.066	74.44
434.287	74.44
434.509	83.44
434.731	75.44
434.953	77.44
435.175	70.44
435.397	73.44
435.618	80.44
435.84	94.44
436.062	87.44
436.284	85.44
436.505	89.44
436.727	70.44
436.949	77.44
437.17	75.44
437.392	77.44
437.614	81.44
437.835	70.44
438.057	72.44
438.278	71.44
438.5	70.44
438.721	80.44
438.943	89.44
439.165	91.44
439.386	89.44
439.608	93.44
439.829	81.44
440.05	75.44
440.272	74.44
440.493	77.44
440.715	87.44
440.936	77.44
441.158	81.44
441.379	82.44
441.6	100.44
441.822	81.44
442.043	79.44
442.264	79.44
442.486	72.44
442.707	66.44
442.928	87.44
443.149	71.44
443.371	74.44
443.592	75.44
443.813	76.44
444.034	85.44
444.255	75.44
444.476	85.44
444.698	83.44
444.919	76.44
445.14	158.44
445.361	121.44
445.582	71.44
445.803	71.44
446.024	72.44
446.245	69.44
446.466	85.44
446.687	92.44
446.908	95.44
447.129	84.44
447.35	85.44
447.571	71.44
447.792	80.44
448.013	77.44
448.234	90.44
448.455	78.44
448.675	79.44
448.896	87.44
449.117	90.44
449.338	100.44
449.559	89.44
449.779	72.44
450	86.44
450.221	69.44
450.442	90.44
450.662	89.44
450.883	90.44
451.104	89.44
451.324	79.44
451.545	72.44
451.766	82.44
451.986	67.44
452.207	84.44
452.428	72.44
452.648	99.44
452.869	81.44
453.089	78.44
453.31	75.44
453.53	71.44
453.751	81.44
453.971	80.44
454.192	62.44
454.412	80.44
454.633	62.44
454.853	72.44
455.073	78.44
455.294	79.44
455.514	95.44
455.734	96.44
455.955	87.44
456.175	74.44
456.395	89.44
456.616	70.44
456.836	84.44
457.056	69.44
457.276	76.44
457.497	81.44
457.717	73.44
457.937	68.44
458.157	67.44
458.377	73.44
458.598	77.44
458.818	88.44
459.038	79.44
459.258	87.44
459.478	73.44
459.698	85.44
459.918	82.44
460.138	80.44
460.358	84.44
460.578	81.44
460.798	90.44
461.018	72.44
461.238	75.44
461.458	81.44
461.678	72.44
461.898	78.44
462.118	76.44
462.338	75.44
462.558	80.44
462.777	87.44
462.997	72.44
463.217	71.44
463.437	84.44
463.657	80.44
463.876	75.44
464.096	92.44
464.316	76.44
464.536	69.44
464.755	89.44
464.975	81.44
465.195	92.44
465.414	85.44
465.634	85.44
465.854	78.44
466.073	69.44
466.293	81.44
466.512	85.44
466.732	75.44
466.951	88.44
467.171	83.44
467.391	86.44
467.61	79.44
467.829	86.44
468.049	75.44
468.268	71.44
468.488	88.44
468.707	77.44
468.927	85.44
469.146	91.44
469.365	88.44
469.585	76.44
469.804	92.44
470.023	71.44
470.243	77.44
470.462	87.44
470.681	76.44
470.901	85.44
471.12	81.44
471.339	87.44
471.558	78.44
471.777	80.44
471.997	77.44
472.216	71.44
472.435	63.44
472.654	76.44
472.873	76.44
473.092	84.44
473.311	75.44
473.53	76.44
473.749	95.44
473.968	83.44
474.187	87.44
474.406	84.44
474.625	89.44
474.844	74.44
475.063	73.44
475.282	74.44
475.501	68.44
475.72	93.44
475.939	74.44
476.158	75.44
476.377	81.44
476.596	84.44
476.814	87.44
477.033	80.44
477.252	82.44
477.471	79.44
477.69	81.44
477.908	79.44
478.127	88.44
478.346	81.44
478.564	90.44
478.783	77.44
479.002	73.44
479.22	68.44
479.439	79.44
479.658	81.44
479.876	76.44
480.095	74.44
480.313	87.44
480.532	79.44
480.751	81.44
480.969	83.44
481.188	84.44
481.406	67.44
481.624	88.44
481.843	76.44
482.061	75.44
482.28	77.44
482.498	75.44
482.717	85.44
482.935	72.44
483.153	79.44
483.372	79.44
483.59	90.44
483.808	71.44
484.027	83.44
484.245	80.44
484.463	73.44
484.681	96.44
484.9	80.44
485.118	76.44
485.336	75.44
485.554	79.44
485.772	79.44
485.99	70.44
486.209	77.44
486.427	81.44
486.645	83.44
486.863	89.44
487.081	73.44
487.299	80.44
487.517	79.44
487.735	77.44
487.953	69.44
488.171	94.44
488.389	75.44
488.607	85.44
488.825	74.44
489.043	90.44
489.261	92.44
489.479	93.44
489.696	76.44
489.914	77.44
490.132	71.44
490.35	80.44
490.568	89.44
490.786	80.44
491.003	93.44
491.221	85.44
491.439	90.44
491.657	78.44
491.874	75.44
492.092	91.44
492.31	88.44
492.527	77.44
492.745	87.44
492.963	93.44
493.18	91.44
493.398	80.44
493.615	86.44
493.833	64.44
494.05	93.44
494.268	79.44
494.485	104.44
494.703	85.44
494.92	80.44
495.138	76.44
495.355	92.44
495.573	90.44
495.79	96.44
496.008	87.44
496.225	79.44
496.442	90.44
496.66	79.44
496.877	93.44
497.094	83.44
497.312	89.44
497.529	67.44
497.746	88.44
497.963	80.44
498.181	88.44
498.398	89.44
498.615	72.44
498.832	77.44
499.049	62.44
499.267	85.44
499.484	85.44
499.701	77.44
499.918	103.44
500.135	72.44
500.352	89.44
500.569	84.44
500.786	90.44
501.003	78.44
501.22	101.44
501.437	95.44
501.654	88.44
501.871	81.44
502.088	88.44
502.305	79.44
502.522	85.44
502.739	77.44
502.956	71.44
503.172	76.44
503.389	95.44
503.606	79.44
503.823	86.44
504.04	89.44
504.256	83.44
504.473	89.44
504.69	86.44
504.907	84.44
505.123	82.44
505.34	93.44
505.557	88.44
505.773	80.44
505.99	82.44
506.207	89.44
506.423	98.44
506.64	97.44
506.856	97.44
507.073	81.44
507.289	81.44
507.506	89.44
507.722	84.44
507.939	92.44
508.155	93.44
508.372	93.44
508.588	75.44
508.805	71.44
509.021	73.44
509.238	99.44
509.454	69.44
509.67	69.44
509.887	83.44
510.103	72.44
510.319	63.44
510.536	88.44
510.752	76.44
510.968	84.44
511.184	81.44
511.401	79.44
511.617	85.44
511.833	91.44
512.049	91.44
512.265	80.44
512.481	85.44
512.698	70.44
512.914	81.44
513.13	85.44
513.346	83.44
513.562	85.44
513.778	81.44
513.994	64.44
514.21	88.44
514.426	76.44
514.642	59.44
514.858	92.44
515.074	83.44
515.29	79.44
515.506	88.44
515.721	83.44
515.937	79.44
516.153	69.44
516.369	78.44
516.585	93.44
516.801	73.44
517.016	81.44
517.232	72.44
517.448	92.44
517.664	93.44
517.879	85.44
518.095	80.44
518.311	91.44
518.527	89.44
518.742	96.44
518.958	76.44
519.173	88.44
519.389	91.44
519.605	80.44
519.82	83.44
520.036	75.44
520.251	65.44
