Data from StdD_HRD10591_015.txt Node
Date: Fri May 16 15:31:28 EDT 2025
User: Yrep
Spectrometer: HR+D1059
Trigger mode: 1
Integration Time (sec): 1.000000E-1
Scans to average: 1
Electric dark correction enabled: true
Nonlinearity correction enabled: false
Boxcar width: 0
XAxis mode: Wavelengths
Number of Pixels in Spectrum: 2048
>>>>>Begin Spectral Data<<<<<
223.165	-27.62
223.4	-27.62
223.635	-27.62
223.869	-16.62
224.104	-29.62
224.338	-24.62
224.573	-3.62
224.808	-3.62
225.042	-5.62
225.277	0.38
225.511	-3.62
225.746	11.38
225.98	2.38
226.215	19.38
226.449	8.38
226.683	32.38
226.918	15.38
227.152	25.38
227.387	44.38
227.621	44.38
227.856	39.38
228.09	48.38
228.324	53.38
228.559	51.38
228.793	59.38
229.027	62.38
229.262	61.38
229.496	70.38
229.73	67.38
229.964	57.38
230.199	67.38
230.433	76.38
230.667	67.38
230.901	66.38
231.136	90.38
231.37	70.38
231.604	66.38
231.838	70.38
232.072	84.38
232.306	78.38
232.541	82.38
232.775	82.38
233.009	73.38
233.243	87.38
233.477	87.38
233.711	76.38
233.945	73.38
234.179	82.38
234.413	79.38
234.647	75.38
234.881	72.38
235.115	75.38
235.349	79.38
235.583	84.38
235.817	85.38
236.051	76.38
236.285	82.38
236.519	90.38
236.753	75.38
236.987	78.38
237.221	76.38
237.455	74.38
237.689	66.38
237.922	81.38
238.156	77.38
238.39	77.38
238.624	70.38
238.858	72.38
239.091	80.38
239.325	79.38
239.559	72.38
239.793	74.38
240.027	63.38
240.26	64.38
240.494	84.38
240.728	78.38
240.961	80.38
241.195	79.38
241.429	72.38
241.662	89.38
241.896	75.38
242.13	68.38
242.363	72.38
242.597	70.38
242.83	63.38
243.064	82.38
243.298	72.38
243.531	62.38
243.765	78.38
243.998	77.38
244.232	67.38
244.465	75.38
244.699	79.38
244.932	73.38
245.166	86.38
245.399	73.38
245.633	74.38
245.866	73.38
246.099	76.38
246.333	76.38
246.566	67.38
246.8	73.38
247.033	69.38
247.266	80.38
247.5	62.38
247.733	66.38
247.966	85.38
248.2	84.38
248.433	72.38
248.666	68.38
248.899	75.38
249.133	71.38
249.366	85.38
249.599	77.38
249.832	75.38
250.066	80.38
250.299	76.38
250.532	83.38
250.765	74.38
250.998	74.38
251.231	80.38
251.465	69.38
251.698	75.38
251.931	69.38
252.164	82.38
252.397	78.38
252.63	68.38
252.863	79.38
253.096	86.38
253.329	70.38
253.562	88.38
253.795	88.38
254.028	76.38
254.261	66.38
254.494	74.38
254.727	94.38
254.96	82.38
255.193	74.38
255.426	70.38
255.659	81.38
255.892	96.38
256.124	65.38
256.357	91.38
256.59	94.38
256.823	79.38
257.056	81.38
257.289	80.38
257.521	66.38
257.754	84.38
257.987	90.38
258.22	77.38
258.452	88.38
258.685	78.38
258.918	76.38
259.151	74.38
259.383	82.38
259.616	80.38
259.849	86.38
260.081	83.38
260.314	78.38
260.547	72.38
260.779	87.38
261.012	81.38
261.244	74.38
261.477	81.38
261.71	78.38
261.942	80.38
262.175	77.38
262.407	76.38
262.64	79.38
262.872	77.38
263.105	67.38
263.337	76.38
263.57	81.38
263.802	76.38
264.035	81.38
264.267	85.38
264.499	80.38
264.732	81.38
264.964	92.38
265.197	93.38
265.429	81.38
265.661	84.38
265.894	79.38
266.126	81.38
266.358	81.38
266.591	87.38
266.823	84.38
267.055	76.38
267.287	88.38
267.52	91.38
267.752	86.38
267.984	88.38
268.216	81.38
268.448	85.38
268.681	73.38
268.913	80.38
269.145	76.38
269.377	68.38
269.609	84.38
269.841	97.38
270.073	70.38
270.306	81.38
270.538	84.38
270.77	87.38
271.002	78.38
271.234	78.38
271.466	76.38
271.698	73.38
271.93	78.38
272.162	95.38
272.394	84.38
272.626	86.38
272.858	87.38
273.09	80.38
273.322	71.38
273.553	77.38
273.785	81.38
274.017	86.38
274.249	76.38
274.481	84.38
274.713	78.38
274.945	71.38
275.176	74.38
275.408	76.38
275.64	71.38
275.872	85.38
276.104	82.38
276.335	70.38
276.567	87.38
276.799	79.38
277.031	71.38
277.262	88.38
277.494	80.38
277.726	87.38
277.957	73.38
278.189	77.38
278.421	85.38
278.652	79.38
278.884	94.38
279.115	68.38
279.347	79.38
279.579	82.38
279.81	79.38
280.042	85.38
280.273	82.38
280.505	81.38
280.736	93.38
280.968	87.38
281.199	71.38
281.431	84.38
281.662	81.38
281.894	77.38
282.125	74.38
282.356	84.38
282.588	94.38
282.819	80.38
283.051	81.38
283.282	76.38
283.513	79.38
283.745	73.38
283.976	82.38
284.207	82.38
284.439	75.38
284.67	94.38
284.901	80.38
285.132	87.38
285.364	76.38
285.595	90.38
285.826	91.38
286.057	76.38
286.288	88.38
286.52	88.38
286.751	94.38
286.982	79.38
287.213	95.38
287.444	74.38
287.675	74.38
287.906	84.38
288.138	92.38
288.369	73.38
288.6	83.38
288.831	102.38
289.062	65.38
289.293	92.38
289.524	88.38
289.755	80.38
289.986	79.38
290.217	89.38
290.448	89.38
290.679	82.38
290.91	97.38
291.141	90.38
291.371	89.38
291.602	87.38
291.833	70.38
292.064	75.38
292.295	86.38
292.526	78.38
292.757	80.38
292.987	100.38
293.218	67.38
293.449	87.38
293.68	84.38
293.91	74.38
294.141	82.38
294.372	93.38
294.603	86.38
294.833	73.38
295.064	77.38
295.295	95.38
295.525	84.38
295.756	80.38
295.987	71.38
296.217	76.38
296.448	79.38
296.679	84.38
296.909	96.38
297.14	92.38
297.37	88.38
297.601	89.38
297.831	109.38
298.062	84.38
298.292	75.38
298.523	86.38
298.753	76.38
298.984	69.38
299.214	69.38
299.445	72.38
299.675	86.38
299.905	82.38
300.136	76.38
300.366	82.38
300.597	80.38
300.827	85.38
301.057	82.38
301.288	95.38
301.518	88.38
301.748	100.38
301.979	106.38
302.209	81.38
302.439	79.38
302.669	84.38
302.9	89.38
303.13	82.38
303.36	93.38
303.59	85.38
303.82	98.38
304.051	98.38
304.281	78.38
304.511	82.38
304.741	86.38
304.971	90.38
305.201	85.38
305.431	90.38
305.661	82.38
305.891	76.38
306.121	80.38
306.352	80.38
306.582	81.38
306.812	88.38
307.042	72.38
307.272	78.38
307.502	72.38
307.731	68.38
307.961	83.38
308.191	85.38
308.421	80.38
308.651	78.38
308.881	80.38
309.111	80.38
309.341	93.38
309.571	80.38
309.8	80.38
310.03	85.38
310.26	90.38
310.49	85.38
310.72	98.38
310.949	75.38
311.179	68.38
311.409	80.38
311.639	80.38
311.868	80.38
312.098	78.38
312.328	75.38
312.557	74.38
312.787	91.38
313.017	88.38
313.246	85.38
313.476	76.38
313.706	88.38
313.935	73.38
314.165	93.38
314.394	70.38
314.624	76.38
314.853	85.38
315.083	88.38
315.312	70.38
315.542	80.38
315.771	86.38
316.001	94.38
316.23	79.38
316.46	88.38
316.689	70.38
316.919	80.38
317.148	100.38
317.377	92.38
317.607	83.38
317.836	83.38
318.065	77.38
318.295	84.38
318.524	83.38
318.753	82.38
318.983	86.38
319.212	94.38
319.441	78.38
319.67	76.38
319.9	79.38
320.129	66.38
320.358	89.38
320.587	80.38
320.816	78.38
321.046	85.38
321.275	95.38
321.504	90.38
321.733	80.38
321.962	74.38
322.191	69.38
322.42	100.38
322.649	82.38
322.878	79.38
323.108	86.38
323.337	64.38
323.566	67.38
323.795	89.38
324.024	75.38
324.253	86.38
324.482	63.38
324.71	98.38
324.939	93.38
325.168	73.38
325.397	80.38
325.626	84.38
325.855	84.38
326.084	93.38
326.313	87.38
326.542	73.38
326.77	81.38
326.999	82.38
327.228	88.38
327.457	94.38
327.686	86.38
327.914	70.38
328.143	81.38
328.372	78.38
328.6	69.38
328.829	93.38
329.058	82.38
329.287	68.38
329.515	92.38
329.744	82.38
329.972	89.38
330.201	90.38
330.43	93.38
330.658	74.38
330.887	85.38
331.115	74.38
331.344	82.38
331.572	77.38
331.801	73.38
332.03	89.38
332.258	88.38
332.486	85.38
332.715	77.38
332.943	80.38
333.172	88.38
333.4	83.38
333.629	74.38
333.857	78.38
334.085	95.38
334.314	76.38
334.542	79.38
334.771	72.38
334.999	86.38
335.227	76.38
335.455	76.38
335.684	79.38
335.912	94.38
336.14	67.38
336.369	88.38
336.597	92.38
336.825	78.38
337.053	86.38
337.281	87.38
337.51	82.38
337.738	90.38
337.966	89.38
338.194	84.38
338.422	82.38
338.65	74.38
338.878	81.38
339.106	76.38
339.334	75.38
339.562	98.38
339.79	84.38
340.018	89.38
340.246	78.38
340.474	80.38
340.702	89.38
340.93	76.38
341.158	77.38
341.386	81.38
341.614	77.38
341.842	82.38
342.07	85.38
342.298	83.38
342.526	71.38
342.754	75.38
342.981	70.38
343.209	81.38
343.437	93.38
343.665	70.38
343.893	80.38
344.12	84.38
344.348	70.38
344.576	86.38
344.804	88.38
345.031	81.38
345.259	87.38
345.487	79.38
345.714	86.38
345.942	100.38
346.17	77.38
346.397	87.38
346.625	76.38
346.853	76.38
347.08	71.38
347.308	103.38
347.535	84.38
347.763	85.38
347.99	80.38
348.218	73.38
348.445	73.38
348.673	88.38
348.9	78.38
349.128	81.38
349.355	60.38
349.583	80.38
349.81	77.38
350.037	82.38
350.265	74.38
350.492	80.38
350.72	85.38
350.947	73.38
351.174	76.38
351.402	86.38
351.629	73.38
351.856	72.38
352.083	86.38
352.311	85.38
352.538	78.38
352.765	80.38
352.992	63.38
353.22	66.38
353.447	86.38
353.674	87.38
353.901	91.38
354.128	80.38
354.355	79.38
354.583	78.38
354.81	83.38
355.037	80.38
355.264	83.38
355.491	77.38
355.718	87.38
355.945	86.38
356.172	84.38
356.399	85.38
356.626	82.38
356.853	81.38
357.08	71.38
357.307	69.38
357.534	88.38
357.761	80.38
357.988	76.38
358.215	71.38
358.441	94.38
358.668	100.38
358.895	71.38
359.122	76.38
359.349	78.38
359.576	79.38
359.802	95.38
360.029	86.38
360.256	78.38
360.483	81.38
360.709	73.38
360.936	90.38
361.163	96.38
361.39	76.38
361.616	88.38
361.843	80.38
362.07	89.38
362.296	84.38
362.523	85.38
362.749	78.38
362.976	78.38
363.203	97.38
363.429	63.38
363.656	85.38
363.882	82.38
364.109	97.38
364.335	86.38
364.562	94.38
364.788	81.38
365.015	79.38
365.241	76.38
365.468	81.38
365.694	84.38
365.92	74.38
366.147	88.38
366.373	77.38
366.599	81.38
366.826	73.38
367.052	74.38
367.278	96.38
367.505	97.38
367.731	85.38
367.957	97.38
368.184	84.38
368.41	76.38
368.636	90.38
368.862	94.38
369.089	76.38
369.315	76.38
369.541	63.38
369.767	80.38
369.993	98.38
370.219	71.38
370.445	73.38
370.672	75.38
370.898	93.38
371.124	70.38
371.35	81.38
371.576	71.38
371.802	80.38
372.028	87.38
372.254	82.38
372.48	74.38
372.706	71.38
372.932	76.38
373.158	72.38
373.384	73.38
373.61	78.38
373.835	78.38
374.061	67.38
374.287	78.38
374.513	93.38
374.739	86.38
374.965	79.38
375.191	80.38
375.416	64.38
375.642	65.38
375.868	78.38
376.094	90.38
376.319	88.38
376.545	84.38
376.771	74.38
376.997	82.38
377.222	86.38
377.448	80.38
377.674	79.38
377.899	81.38
378.125	94.38
378.35	92.38
378.576	64.38
378.802	94.38
379.027	77.38
379.253	72.38
379.478	76.38
379.704	86.38
379.929	83.38
380.155	90.38
380.38	90.38
380.606	75.38
380.831	74.38
381.057	84.38
381.282	72.38
381.507	69.38
381.733	77.38
381.958	74.38
382.184	96.38
382.409	90.38
382.634	74.38
382.86	92.38
383.085	77.38
383.31	81.38
383.535	89.38
383.761	89.38
383.986	83.38
384.211	88.38
384.436	80.38
384.662	97.38
384.887	78.38
385.112	86.38
385.337	67.38
385.562	69.38
385.787	65.38
386.013	82.38
386.238	69.38
386.463	77.38
386.688	92.38
386.913	80.38
387.138	94.38
387.363	86.38
387.588	87.38
387.813	77.38
388.038	94.38
388.263	70.38
388.488	87.38
388.713	84.38
388.938	70.38
389.163	71.38
389.387	53.38
389.612	84.38
389.837	74.38
390.062	75.38
390.287	86.38
390.512	73.38
390.736	71.38
390.961	73.38
391.186	72.38
391.411	71.38
391.636	89.38
391.86	70.38
392.085	72.38
392.31	100.38
392.534	81.38
392.759	89.38
392.984	87.38
393.208	70.38
393.433	70.38
393.658	88.38
393.882	81.38
394.107	74.38
394.331	80.38
394.556	74.38
394.78	94.38
395.005	78.38
395.229	92.38
395.454	77.38
395.678	88.38
395.903	91.38
396.127	73.38
396.352	80.38
396.576	60.38
396.801	81.38
397.025	65.38
397.249	88.38
397.474	76.38
397.698	95.38
397.922	97.38
398.147	78.38
398.371	82.38
398.595	77.38
398.82	93.38
399.044	76.38
399.268	86.38
399.492	89.38
399.717	92.38
399.941	90.38
400.165	70.38
400.389	78.38
400.613	70.38
400.837	80.38
401.062	71.38
401.286	83.38
401.51	69.38
401.734	72.38
401.958	76.38
402.182	61.38
402.406	68.38
402.63	84.38
402.854	77.38
403.078	72.38
403.302	82.38
403.526	79.38
403.75	93.38
403.974	80.38
404.198	82.38
404.422	91.38
404.645	84.38
404.869	65.38
405.093	74.38
405.317	95.38
405.541	77.38
405.765	78.38
405.988	84.38
406.212	76.38
406.436	85.38
406.66	81.38
406.883	80.38
407.107	77.38
407.331	78.38
407.555	74.38
407.778	101.38
408.002	82.38
408.226	79.38
408.449	78.38
408.673	70.38
408.896	80.38
409.12	84.38
409.344	83.38
409.567	74.38
409.791	89.38
410.014	90.38
410.238	78.38
410.461	86.38
410.685	87.38
410.908	63.38
411.132	82.38
411.355	80.38
411.578	74.38
411.802	76.38
412.025	89.38
412.249	64.38
412.472	77.38
412.695	78.38
412.919	85.38
413.142	75.38
413.365	86.38
413.589	68.38
413.812	86.38
414.035	76.38
414.258	72.38
414.482	86.38
414.705	85.38
414.928	78.38
415.151	86.38
415.374	92.38
415.597	76.38
415.821	87.38
416.044	82.38
416.267	95.38
416.49	80.38
416.713	102.38
416.936	80.38
417.159	73.38
417.382	93.38
417.605	71.38
417.828	84.38
418.051	85.38
418.274	75.38
418.497	82.38
418.72	96.38
418.943	76.38
419.166	77.38
419.389	80.38
419.611	67.38
419.834	90.38
420.057	98.38
420.28	81.38
420.503	85.38
420.726	84.38
420.948	88.38
421.171	78.38
421.394	65.38
421.617	67.38
421.839	74.38
422.062	89.38
422.285	71.38
422.507	77.38
422.73	69.38
422.953	70.38
423.175	77.38
423.398	94.38
423.621	88.38
423.843	82.38
424.066	91.38
424.288	94.38
424.511	80.38
424.733	72.38
424.956	89.38
425.178	80.38
425.401	85.38
425.623	84.38
425.846	79.38
426.068	74.38
426.291	81.38
426.513	78.38
426.735	95.38
426.958	89.38
427.18	82.38
427.402	74.38
427.625	90.38
427.847	76.38
428.069	76.38
428.292	84.38
428.514	89.38
428.736	77.38
428.958	74.38
429.181	85.38
429.403	82.38
429.625	71.38
429.847	84.38
430.069	89.38
430.292	84.38
430.514	93.38
430.736	92.38
430.958	71.38
431.18	81.38
431.402	84.38
431.624	79.38
431.846	82.38
432.068	75.38
432.29	85.38
432.512	76.38
432.734	81.38
432.956	77.38
433.178	87.38
433.4	79.38
433.622	83.38
433.844	83.38
434.066	85.38
434.287	81.38
434.509	80.38
434.731	92.38
434.953	78.38
435.175	95.38
435.397	88.38
435.618	77.38
435.84	93.38
436.062	90.38
436.284	76.38
436.505	70.38
436.727	73.38
436.949	78.38
437.17	76.38
437.392	77.38
437.614	78.38
437.835	90.38
438.057	78.38
438.278	85.38
438.5	65.38
438.721	82.38
438.943	93.38
439.165	81.38
439.386	67.38
439.608	71.38
439.829	74.38
440.05	92.38
440.272	79.38
440.493	81.38
440.715	79.38
440.936	78.38
441.158	89.38
441.379	76.38
441.6	84.38
441.822	88.38
442.043	91.38
442.264	80.38
442.486	90.38
442.707	90.38
442.928	78.38
443.149	71.38
443.371	73.38
443.592	77.38
443.813	82.38
444.034	79.38
444.255	95.38
444.476	82.38
444.698	73.38
444.919	78.38
445.14	181.38
445.361	126.38
445.582	86.38
445.803	78.38
446.024	67.38
446.245	86.38
446.466	85.38
446.687	90.38
446.908	73.38
447.129	57.38
447.35	82.38
447.571	100.38
447.792	71.38
448.013	82.38
448.234	86.38
448.455	80.38
448.675	80.38
448.896	80.38
449.117	65.38
449.338	78.38
449.559	86.38
449.779	76.38
450	77.38
450.221	88.38
450.442	89.38
450.662	70.38
450.883	72.38
451.104	85.38
451.324	74.38
451.545	82.38
451.766	76.38
451.986	105.38
452.207	88.38
452.428	81.38
452.648	82.38
452.869	80.38
453.089	84.38
453.31	78.38
453.53	79.38
453.751	82.38
453.971	79.38
454.192	77.38
454.412	92.38
454.633	75.38
454.853	92.38
455.073	74.38
455.294	76.38
455.514	104.38
455.734	73.38
455.955	76.38
456.175	84.38
456.395	76.38
456.616	76.38
456.836	82.38
457.056	74.38
457.276	69.38
457.497	81.38
457.717	88.38
457.937	93.38
458.157	85.38
458.377	73.38
458.598	67.38
458.818	85.38
459.038	83.38
459.258	89.38
459.478	85.38
459.698	74.38
459.918	84.38
460.138	78.38
460.358	80.38
460.578	70.38
460.798	91.38
461.018	70.38
461.238	81.38
461.458	88.38
461.678	69.38
461.898	81.38
462.118	92.38
462.338	84.38
462.558	93.38
462.777	77.38
462.997	91.38
463.217	77.38
463.437	67.38
463.657	80.38
463.876	89.38
464.096	79.38
464.316	89.38
464.536	77.38
464.755	92.38
464.975	80.38
465.195	81.38
465.414	81.38
465.634	75.38
465.854	86.38
466.073	83.38
466.293	83.38
466.512	70.38
466.732	73.38
466.951	65.38
467.171	86.38
467.391	74.38
467.61	94.38
467.829	88.38
468.049	81.38
468.268	85.38
468.488	70.38
468.707	94.38
468.927	84.38
469.146	67.38
469.365	80.38
469.585	72.38
469.804	79.38
470.023	78.38
470.243	93.38
470.462	85.38
470.681	81.38
470.901	73.38
471.12	80.38
471.339	91.38
471.558	89.38
471.777	99.38
471.997	83.38
472.216	74.38
472.435	87.38
472.654	74.38
472.873	88.38
473.092	79.38
473.311	93.38
473.53	96.38
473.749	84.38
473.968	77.38
474.187	85.38
474.406	84.38
474.625	88.38
474.844	57.38
475.063	77.38
475.282	94.38
475.501	82.38
475.72	84.38
475.939	85.38
476.158	80.38
476.377	72.38
476.596	67.38
476.814	79.38
477.033	68.38
477.252	79.38
477.471	88.38
477.69	93.38
477.908	102.38
478.127	74.38
478.346	81.38
478.564	85.38
478.783	68.38
479.002	73.38
479.22	80.38
479.439	81.38
479.658	88.38
479.876	85.38
480.095	90.38
480.313	73.38
480.532	79.38
480.751	77.38
480.969	82.38
481.188	93.38
481.406	75.38
481.624	73.38
481.843	79.38
482.061	82.38
482.28	80.38
482.498	104.38
482.717	76.38
482.935	74.38
483.153	81.38
483.372	77.38
483.59	85.38
483.808	72.38
484.027	76.38
484.245	74.38
484.463	72.38
484.681	79.38
484.9	79.38
485.118	78.38
485.336	82.38
485.554	88.38
485.772	72.38
485.99	69.38
486.209	82.38
486.427	74.38
486.645	102.38
486.863	93.38
487.081	84.38
487.299	91.38
487.517	81.38
487.735	80.38
487.953	79.38
488.171	78.38
488.389	84.38
488.607	79.38
488.825	77.38
489.043	97.38
489.261	84.38
489.479	75.38
489.696	91.38
489.914	77.38
490.132	90.38
490.35	85.38
490.568	92.38
490.786	83.38
491.003	88.38
491.221	101.38
491.439	84.38
491.657	91.38
491.874	94.38
492.092	76.38
492.31	78.38
492.527	82.38
492.745	86.38
492.963	81.38
493.18	85.38
493.398	75.38
493.615	85.38
493.833	84.38
494.05	87.38
494.268	84.38
494.485	89.38
494.703	76.38
494.92	91.38
495.138	72.38
495.355	82.38
495.573	72.38
495.79	83.38
496.008	88.38
496.225	85.38
496.442	89.38
496.66	94.38
496.877	90.38
497.094	92.38
497.312	70.38
497.529	96.38
497.746	92.38
497.963	81.38
498.181	84.38
498.398	79.38
498.615	77.38
498.832	71.38
499.049	86.38
499.267	82.38
499.484	80.38
499.701	79.38
499.918	74.38
500.135	92.38
500.352	74.38
500.569	88.38
500.786	87.38
501.003	80.38
501.22	76.38
501.437	80.38
501.654	86.38
501.871	81.38
502.088	72.38
502.305	74.38
502.522	93.38
502.739	86.38
502.956	82.38
503.172	87.38
503.389	79.38
503.606	76.38
503.823	83.38
504.04	85.38
504.256	84.38
504.473	89.38
504.69	81.38
504.907	88.38
505.123	69.38
505.34	78.38
505.557	84.38
505.773	83.38
505.99	79.38
506.207	72.38
506.423	70.38
506.64	85.38
506.856	90.38
507.073	73.38
507.289	83.38
507.506	86.38
507.722	76.38
507.939	83.38
508.155	80.38
508.372	72.38
508.588	78.38
508.805	84.38
509.021	76.38
509.238	88.38
509.454	93.38
509.67	71.38
509.887	88.38
510.103	85.38
510.319	73.38
510.536	79.38
510.752	81.38
510.968	72.38
511.184	72.38
511.401	76.38
511.617	64.38
511.833	79.38
512.049	78.38
512.265	80.38
512.481	75.38
512.698	85.38
512.914	87.38
513.13	72.38
513.346	89.38
513.562	93.38
513.778	93.38
513.994	86.38
514.21	74.38
514.426	82.38
514.642	79.38
514.858	75.38
515.074	86.38
515.29	80.38
515.506	84.38
515.721	72.38
515.937	88.38
516.153	69.38
516.369	74.38
516.585	73.38
516.801	78.38
517.016	76.38
517.232	70.38
517.448	82.38
517.664	69.38
517.879	77.38
518.095	74.38
518.311	80.38
518.527	77.38
518.742	71.38
518.958	77.38
519.173	77.38
519.389	69.38
519.605	72.38
519.82	69.38
520.036	82.38
