Data from StdD_HRD10591_008.txt Node
Date: Fri May 16 15:31:25 EDT 2025
User: Yrep
Spectrometer: HR+D1059
Trigger mode: 1
Integration Time (sec): 1.000000E-1
Scans to average: 1
Electric dark correction enabled: true
Nonlinearity correction enabled: false
Boxcar width: 0
XAxis mode: Wavelengths
Number of Pixels in Spectrum: 2048
>>>>>Begin Spectral Data<<<<<
223.165	-13.38
223.4	-13.38
223.635	-13.38
223.869	-17.38
224.104	-26.38
224.338	-19.38
224.573	-19.38
224.808	-15.38
225.042	-7.38
225.277	-12.38
225.511	4.62
225.746	6.62
225.98	17.62
226.215	10.62
226.449	2.62
226.683	17.62
226.918	33.62
227.152	37.62
227.387	38.62
227.621	36.62
227.856	38.62
228.09	39.62
228.324	52.62
228.559	45.62
228.793	50.62
229.027	46.62
229.262	59.62
229.496	70.62
229.73	56.62
229.964	68.62
230.199	66.62
230.433	70.62
230.667	73.62
230.901	64.62
231.136	80.62
231.37	68.62
231.604	69.62
231.838	59.62
232.072	78.62
232.306	66.62
232.541	72.62
232.775	84.62
233.009	80.62
233.243	81.62
233.477	78.62
233.711	76.62
233.945	78.62
234.179	71.62
234.413	64.62
234.647	72.62
234.881	70.62
235.115	73.62
235.349	66.62
235.583	64.62
235.817	60.62
236.051	65.62
236.285	72.62
236.519	73.62
236.753	71.62
236.987	73.62
237.221	80.62
237.455	76.62
237.689	74.62
237.922	68.62
238.156	73.62
238.39	75.62
238.624	66.62
238.858	70.62
239.091	79.62
239.325	63.62
239.559	63.62
239.793	66.62
240.027	70.62
240.26	70.62
240.494	66.62
240.728	71.62
240.961	74.62
241.195	76.62
241.429	72.62
241.662	60.62
241.896	61.62
242.13	59.62
242.363	60.62
242.597	67.62
242.83	54.62
243.064	72.62
243.298	83.62
243.531	73.62
243.765	65.62
243.998	74.62
244.232	66.62
244.465	66.62
244.699	72.62
244.932	81.62
245.166	77.62
245.399	76.62
245.633	72.62
245.866	60.62
246.099	89.62
246.333	82.62
246.566	74.62
246.8	75.62
247.033	87.62
247.266	63.62
247.5	88.62
247.733	73.62
247.966	82.62
248.2	71.62
248.433	78.62
248.666	82.62
248.899	77.62
249.133	71.62
249.366	66.62
249.599	68.62
249.832	79.62
250.066	76.62
250.299	78.62
250.532	74.62
250.765	82.62
250.998	74.62
251.231	72.62
251.465	59.62
251.698	85.62
251.931	68.62
252.164	72.62
252.397	62.62
252.63	67.62
252.863	60.62
253.096	76.62
253.329	71.62
253.562	71.62
253.795	81.62
254.028	74.62
254.261	72.62
254.494	61.62
254.727	71.62
254.96	58.62
255.193	68.62
255.426	70.62
255.659	72.62
255.892	75.62
256.124	83.62
256.357	76.62
256.59	81.62
256.823	79.62
257.056	74.62
257.289	83.62
257.521	80.62
257.754	76.62
257.987	78.62
258.22	67.62
258.452	85.62
258.685	70.62
258.918	74.62
259.151	82.62
259.383	87.62
259.616	74.62
259.849	66.62
260.081	60.62
260.314	70.62
260.547	74.62
260.779	71.62
261.012	78.62
261.244	71.62
261.477	75.62
261.71	76.62
261.942	64.62
262.175	63.62
262.407	71.62
262.64	76.62
262.872	70.62
263.105	71.62
263.337	91.62
263.57	67.62
263.802	74.62
264.035	80.62
264.267	66.62
264.499	83.62
264.732	76.62
264.964	70.62
265.197	68.62
265.429	68.62
265.661	66.62
265.894	79.62
266.126	70.62
266.358	70.62
266.591	75.62
266.823	77.62
267.055	78.62
267.287	72.62
267.52	74.62
267.752	75.62
267.984	74.62
268.216	68.62
268.448	80.62
268.681	73.62
268.913	66.62
269.145	76.62
269.377	78.62
269.609	64.62
269.841	72.62
270.073	85.62
270.306	85.62
270.538	89.62
270.77	70.62
271.002	72.62
271.234	67.62
271.466	87.62
271.698	68.62
271.93	70.62
272.162	74.62
272.394	70.62
272.626	71.62
272.858	84.62
273.09	72.62
273.322	67.62
273.553	73.62
273.785	77.62
274.017	70.62
274.249	70.62
274.481	74.62
274.713	69.62
274.945	72.62
275.176	66.62
275.408	68.62
275.64	74.62
275.872	74.62
276.104	75.62
276.335	70.62
276.567	78.62
276.799	85.62
277.031	76.62
277.262	66.62
277.494	84.62
277.726	92.62
277.957	66.62
278.189	73.62
278.421	87.62
278.652	81.62
278.884	83.62
279.115	72.62
279.347	74.62
279.579	71.62
279.81	73.62
280.042	78.62
280.273	68.62
280.505	84.62
280.736	52.62
280.968	60.62
281.199	67.62
281.431	82.62
281.662	86.62
281.894	68.62
282.125	78.62
282.356	82.62
282.588	75.62
282.819	76.62
283.051	83.62
283.282	80.62
283.513	74.62
283.745	71.62
283.976	64.62
284.207	75.62
284.439	91.62
284.67	86.62
284.901	81.62
285.132	90.62
285.364	78.62
285.595	79.62
285.826	78.62
286.057	92.62
286.288	78.62
286.52	79.62
286.751	71.62
286.982	68.62
287.213	80.62
287.444	68.62
287.675	63.62
287.906	72.62
288.138	78.62
288.369	73.62
288.6	75.62
288.831	74.62
289.062	82.62
289.293	83.62
289.524	80.62
289.755	74.62
289.986	78.62
290.217	73.62
290.448	67.62
290.679	72.62
290.91	90.62
291.141	91.62
291.371	84.62
291.602	84.62
291.833	73.62
292.064	82.62
292.295	78.62
292.526	74.62
292.757	61.62
292.987	86.62
293.218	75.62
293.449	69.62
293.68	91.62
293.91	85.62
294.141	64.62
294.372	82.62
294.603	71.62
294.833	69.62
295.064	88.62
295.295	85.62
295.525	77.62
295.756	65.62
295.987	84.62
296.217	67.62
296.448	80.62
296.679	80.62
296.909	79.62
297.14	76.62
297.37	83.62
297.601	76.62
297.831	84.62
298.062	70.62
298.292	75.62
298.523	64.62
298.753	69.62
298.984	70.62
299.214	80.62
299.445	72.62
299.675	75.62
299.905	78.62
300.136	82.62
300.366	75.62
300.597	94.62
300.827	76.62
301.057	69.62
301.288	96.62
301.518	84.62
301.748	68.62
301.979	85.62
302.209	70.62
302.439	79.62
302.669	76.62
302.9	81.62
303.13	68.62
303.36	80.62
303.59	74.62
303.82	88.62
304.051	77.62
304.281	78.62
304.511	60.62
304.741	74.62
304.971	74.62
305.201	82.62
305.431	77.62
305.661	83.62
305.891	69.62
306.121	87.62
306.352	76.62
306.582	87.62
306.812	79.62
307.042	79.62
307.272	74.62
307.502	76.62
307.731	80.62
307.961	81.62
308.191	62.62
308.421	87.62
308.651	82.62
308.881	70.62
309.111	79.62
309.341	81.62
309.571	74.62
309.8	68.62
310.03	79.62
310.26	86.62
310.49	87.62
310.72	83.62
310.949	83.62
311.179	83.62
311.409	80.62
311.639	84.62
311.868	89.62
312.098	85.62
312.328	91.62
312.557	75.62
312.787	78.62
313.017	76.62
313.246	75.62
313.476	87.62
313.706	74.62
313.935	76.62
314.165	68.62
314.394	76.62
314.624	75.62
314.853	73.62
315.083	84.62
315.312	76.62
315.542	78.62
315.771	81.62
316.001	65.62
316.23	84.62
316.46	75.62
316.689	76.62
316.919	75.62
317.148	72.62
317.377	66.62
317.607	83.62
317.836	76.62
318.065	76.62
318.295	73.62
318.524	76.62
318.753	84.62
318.983	82.62
319.212	86.62
319.441	80.62
319.67	72.62
319.9	83.62
320.129	71.62
320.358	76.62
320.587	90.62
320.816	70.62
321.046	59.62
321.275	72.62
321.504	74.62
321.733	75.62
321.962	78.62
322.191	82.62
322.42	76.62
322.649	76.62
322.878	73.62
323.108	81.62
323.337	84.62
323.566	83.62
323.795	77.62
324.024	75.62
324.253	89.62
324.482	91.62
324.71	73.62
324.939	90.62
325.168	67.62
325.397	67.62
325.626	91.62
325.855	73.62
326.084	68.62
326.313	66.62
326.542	77.62
326.77	85.62
326.999	69.62
327.228	72.62
327.457	68.62
327.686	83.62
327.914	88.62
328.143	78.62
328.372	89.62
328.6	78.62
328.829	65.62
329.058	72.62
329.287	65.62
329.515	65.62
329.744	90.62
329.972	83.62
330.201	58.62
330.43	75.62
330.658	77.62
330.887	79.62
331.115	75.62
331.344	64.62
331.572	74.62
331.801	72.62
332.03	78.62
332.258	74.62
332.486	73.62
332.715	87.62
332.943	64.62
333.172	83.62
333.4	78.62
333.629	74.62
333.857	76.62
334.085	69.62
334.314	79.62
334.542	82.62
334.771	74.62
334.999	71.62
335.227	67.62
335.455	63.62
335.684	75.62
335.912	86.62
336.14	62.62
336.369	74.62
336.597	87.62
336.825	78.62
337.053	68.62
337.281	73.62
337.51	77.62
337.738	75.62
337.966	84.62
338.194	75.62
338.422	76.62
338.65	74.62
338.878	71.62
339.106	56.62
339.334	74.62
339.562	80.62
339.79	68.62
340.018	78.62
340.246	74.62
340.474	71.62
340.702	88.62
340.93	69.62
341.158	59.62
341.386	78.62
341.614	73.62
341.842	87.62
342.07	86.62
342.298	69.62
342.526	82.62
342.754	72.62
342.981	64.62
343.209	56.62
343.437	88.62
343.665	82.62
343.893	90.62
344.12	80.62
344.348	74.62
344.576	79.62
344.804	82.62
345.031	92.62
345.259	84.62
345.487	89.62
345.714	80.62
345.942	62.62
346.17	78.62
346.397	63.62
346.625	66.62
346.853	67.62
347.08	83.62
347.308	83.62
347.535	70.62
347.763	64.62
347.99	65.62
348.218	95.62
348.445	94.62
348.673	62.62
348.9	80.62
349.128	79.62
349.355	66.62
349.583	79.62
349.81	83.62
350.037	90.62
350.265	76.62
350.492	66.62
350.72	85.62
350.947	67.62
351.174	81.62
351.402	83.62
351.629	72.62
351.856	84.62
352.083	80.62
352.311	78.62
352.538	90.62
352.765	67.62
352.992	80.62
353.22	76.62
353.447	73.62
353.674	75.62
353.901	86.62
354.128	79.62
354.355	84.62
354.583	83.62
354.81	76.62
355.037	82.62
355.264	74.62
355.491	66.62
355.718	71.62
355.945	72.62
356.172	94.62
356.399	90.62
356.626	69.62
356.853	74.62
357.08	81.62
357.307	80.62
357.534	76.62
357.761	76.62
357.988	77.62
358.215	80.62
358.441	86.62
358.668	87.62
358.895	89.62
359.122	92.62
359.349	73.62
359.576	71.62
359.802	79.62
360.029	66.62
360.256	62.62
360.483	61.62
360.709	77.62
360.936	76.62
361.163	77.62
361.39	70.62
361.616	88.62
361.843	73.62
362.07	70.62
362.296	76.62
362.523	89.62
362.749	73.62
362.976	59.62
363.203	76.62
363.429	83.62
363.656	79.62
363.882	76.62
364.109	63.62
364.335	81.62
364.562	75.62
364.788	76.62
365.015	69.62
365.241	82.62
365.468	83.62
365.694	69.62
365.92	58.62
366.147	80.62
366.373	92.62
366.599	78.62
366.826	80.62
367.052	82.62
367.278	65.62
367.505	74.62
367.731	76.62
367.957	74.62
368.184	74.62
368.41	74.62
368.636	82.62
368.862	88.62
369.089	71.62
369.315	72.62
369.541	67.62
369.767	85.62
369.993	78.62
370.219	67.62
370.445	82.62
370.672	76.62
370.898	77.62
371.124	87.62
371.35	76.62
371.576	82.62
371.802	79.62
372.028	95.62
372.254	71.62
372.48	86.62
372.706	82.62
372.932	76.62
373.158	72.62
373.384	81.62
373.61	73.62
373.835	82.62
374.061	84.62
374.287	77.62
374.513	76.62
374.739	71.62
374.965	65.62
375.191	78.62
375.416	66.62
375.642	83.62
375.868	62.62
376.094	73.62
376.319	61.62
376.545	60.62
376.771	71.62
376.997	70.62
377.222	79.62
377.448	89.62
377.674	80.62
377.899	80.62
378.125	69.62
378.35	76.62
378.576	71.62
378.802	58.62
379.027	78.62
379.253	70.62
379.478	79.62
379.704	82.62
379.929	76.62
380.155	92.62
380.38	73.62
380.606	79.62
380.831	71.62
381.057	90.62
381.282	79.62
381.507	56.62
381.733	72.62
381.958	68.62
382.184	81.62
382.409	87.62
382.634	79.62
382.86	63.62
383.085	71.62
383.31	80.62
383.535	74.62
383.761	70.62
383.986	77.62
384.211	71.62
384.436	76.62
384.662	63.62
384.887	90.62
385.112	80.62
385.337	91.62
385.562	79.62
385.787	85.62
386.013	73.62
386.238	81.62
386.463	82.62
386.688	84.62
386.913	72.62
387.138	75.62
387.363	72.62
387.588	82.62
387.813	89.62
388.038	73.62
388.263	76.62
388.488	70.62
388.713	80.62
388.938	66.62
389.163	83.62
389.387	64.62
389.612	64.62
389.837	80.62
390.062	75.62
390.287	73.62
390.512	83.62
390.736	76.62
390.961	72.62
391.186	89.62
391.411	68.62
391.636	67.62
391.86	72.62
392.085	82.62
392.31	74.62
392.534	73.62
392.759	79.62
392.984	68.62
393.208	70.62
393.433	69.62
393.658	72.62
393.882	72.62
394.107	78.62
394.331	75.62
394.556	74.62
394.78	75.62
395.005	70.62
395.229	85.62
395.454	67.62
395.678	69.62
395.903	84.62
396.127	73.62
396.352	69.62
396.576	87.62
396.801	82.62
397.025	55.62
397.249	84.62
397.474	70.62
397.698	80.62
397.922	83.62
398.147	78.62
398.371	76.62
398.595	81.62
398.82	80.62
399.044	76.62
399.268	74.62
399.492	80.62
399.717	61.62
399.941	75.62
400.165	75.62
400.389	66.62
400.613	80.62
400.837	83.62
401.062	81.62
401.286	83.62
401.51	72.62
401.734	73.62
401.958	86.62
402.182	82.62
402.406	84.62
402.63	80.62
402.854	79.62
403.078	81.62
403.302	79.62
403.526	73.62
403.75	89.62
403.974	82.62
404.198	94.62
404.422	74.62
404.645	78.62
404.869	78.62
405.093	98.62
405.317	82.62
405.541	72.62
405.765	85.62
405.988	71.62
406.212	79.62
406.436	70.62
406.66	84.62
406.883	74.62
407.107	64.62
407.331	80.62
407.555	70.62
407.778	68.62
408.002	68.62
408.226	84.62
408.449	88.62
408.673	82.62
408.896	71.62
409.12	80.62
409.344	84.62
409.567	81.62
409.791	57.62
410.014	71.62
410.238	84.62
410.461	65.62
410.685	80.62
410.908	80.62
411.132	72.62
411.355	80.62
411.578	74.62
411.802	75.62
412.025	94.62
412.249	75.62
412.472	78.62
412.695	70.62
412.919	76.62
413.142	69.62
413.365	70.62
413.589	67.62
413.812	62.62
414.035	90.62
414.258	71.62
414.482	75.62
414.705	73.62
414.928	97.62
415.151	71.62
415.374	66.62
415.597	92.62
415.821	83.62
416.044	72.62
416.267	70.62
416.49	74.62
416.713	79.62
416.936	82.62
417.159	72.62
417.382	80.62
417.605	61.62
417.828	54.62
418.051	78.62
418.274	81.62
418.497	64.62
418.72	72.62
418.943	73.62
419.166	73.62
419.389	74.62
419.611	70.62
419.834	76.62
420.057	71.62
420.28	88.62
420.503	70.62
420.726	84.62
420.948	76.62
421.171	84.62
421.394	81.62
421.617	97.62
421.839	88.62
422.062	74.62
422.285	92.62
422.507	74.62
422.73	75.62
422.953	75.62
423.175	97.62
423.398	83.62
423.621	70.62
423.843	69.62
424.066	69.62
424.288	88.62
424.511	81.62
424.733	83.62
424.956	78.62
425.178	76.62
425.401	78.62
425.623	91.62
425.846	56.62
426.068	79.62
426.291	69.62
426.513	84.62
426.735	73.62
426.958	76.62
427.18	86.62
427.402	80.62
427.625	73.62
427.847	61.62
428.069	84.62
428.292	87.62
428.514	81.62
428.736	90.62
428.958	64.62
429.181	70.62
429.403	72.62
429.625	81.62
429.847	87.62
430.069	78.62
430.292	81.62
430.514	87.62
430.736	81.62
430.958	96.62
431.18	82.62
431.402	67.62
431.624	75.62
431.846	71.62
432.068	92.62
432.29	78.62
432.512	86.62
432.734	71.62
432.956	71.62
433.178	76.62
433.4	78.62
433.622	64.62
433.844	75.62
434.066	75.62
434.287	77.62
434.509	75.62
434.731	82.62
434.953	86.62
435.175	68.62
435.397	67.62
435.618	73.62
435.84	68.62
436.062	73.62
436.284	82.62
436.505	86.62
436.727	64.62
436.949	67.62
437.17	73.62
437.392	76.62
437.614	71.62
437.835	66.62
438.057	82.62
438.278	79.62
438.5	98.62
438.721	72.62
438.943	72.62
439.165	79.62
439.386	81.62
439.608	78.62
439.829	78.62
440.05	68.62
440.272	83.62
440.493	65.62
440.715	83.62
440.936	79.62
441.158	72.62
441.379	70.62
441.6	69.62
441.822	78.62
442.043	74.62
442.264	71.62
442.486	58.62
442.707	82.62
442.928	79.62
443.149	86.62
443.371	88.62
443.592	76.62
443.813	68.62
444.034	78.62
444.255	82.62
444.476	81.62
444.698	66.62
444.919	85.62
445.14	154.62
445.361	111.62
445.582	97.62
445.803	65.62
446.024	76.62
446.245	79.62
446.466	75.62
446.687	75.62
446.908	72.62
447.129	75.62
447.35	63.62
447.571	77.62
447.792	87.62
448.013	72.62
448.234	76.62
448.455	86.62
448.675	80.62
448.896	82.62
449.117	83.62
449.338	69.62
449.559	72.62
449.779	75.62
450	63.62
450.221	88.62
450.442	82.62
450.662	87.62
450.883	64.62
451.104	72.62
451.324	63.62
451.545	72.62
451.766	69.62
451.986	79.62
452.207	86.62
452.428	83.62
452.648	74.62
452.869	88.62
453.089	74.62
453.31	74.62
453.53	71.62
453.751	78.62
453.971	87.62
454.192	71.62
454.412	74.62
454.633	80.62
454.853	80.62
455.073	83.62
455.294	75.62
455.514	89.62
455.734	75.62
455.955	95.62
456.175	88.62
456.395	68.62
456.616	69.62
456.836	74.62
457.056	76.62
457.276	78.62
457.497	80.62
457.717	78.62
457.937	70.62
458.157	87.62
458.377	81.62
458.598	75.62
458.818	89.62
459.038	76.62
459.258	62.62
459.478	73.62
459.698	79.62
459.918	64.62
460.138	78.62
460.358	78.62
460.578	76.62
460.798	69.62
461.018	87.62
461.238	77.62
461.458	72.62
461.678	77.62
461.898	73.62
462.118	88.62
462.338	80.62
462.558	77.62
462.777	77.62
462.997	69.62
463.217	62.62
463.437	87.62
463.657	71.62
463.876	72.62
464.096	76.62
464.316	83.62
464.536	77.62
464.755	76.62
464.975	77.62
465.195	91.62
465.414	73.62
465.634	82.62
465.854	82.62
466.073	80.62
466.293	80.62
466.512	84.62
466.732	71.62
466.951	82.62
467.171	64.62
467.391	81.62
467.61	75.62
467.829	70.62
468.049	80.62
468.268	91.62
468.488	82.62
468.707	83.62
468.927	89.62
469.146	68.62
469.365	86.62
469.585	83.62
469.804	84.62
470.023	78.62
470.243	89.62
470.462	81.62
470.681	80.62
470.901	89.62
471.12	79.62
471.339	70.62
471.558	80.62
471.777	74.62
471.997	76.62
472.216	79.62
472.435	68.62
472.654	76.62
472.873	74.62
473.092	65.62
473.311	78.62
473.53	88.62
473.749	93.62
473.968	73.62
474.187	91.62
474.406	79.62
474.625	78.62
474.844	80.62
475.063	74.62
475.282	75.62
475.501	82.62
475.72	66.62
475.939	87.62
476.158	79.62
476.377	65.62
476.596	72.62
476.814	80.62
477.033	79.62
477.252	79.62
477.471	83.62
477.69	80.62
477.908	83.62
478.127	82.62
478.346	81.62
478.564	75.62
478.783	84.62
479.002	81.62
479.22	68.62
479.439	80.62
479.658	75.62
479.876	80.62
480.095	80.62
480.313	78.62
480.532	72.62
480.751	76.62
480.969	70.62
481.188	84.62
481.406	88.62
481.624	74.62
481.843	67.62
482.061	74.62
482.28	73.62
482.498	87.62
482.717	83.62
482.935	60.62
483.153	76.62
483.372	59.62
483.59	69.62
483.808	83.62
484.027	87.62
484.245	69.62
484.463	64.62
484.681	80.62
484.9	85.62
485.118	66.62
485.336	75.62
485.554	75.62
485.772	67.62
485.99	69.62
486.209	87.62
486.427	78.62
486.645	83.62
486.863	83.62
487.081	74.62
487.299	79.62
487.517	78.62
487.735	88.62
487.953	95.62
488.171	68.62
488.389	72.62
488.607	78.62
488.825	78.62
489.043	94.62
489.261	82.62
489.479	74.62
489.696	75.62
489.914	80.62
490.132	69.62
490.35	71.62
490.568	80.62
490.786	78.62
491.003	82.62
491.221	91.62
491.439	77.62
491.657	80.62
491.874	94.62
492.092	94.62
492.31	93.62
492.527	74.62
492.745	74.62
492.963	78.62
493.18	97.62
493.398	75.62
493.615	88.62
493.833	72.62
494.05	80.62
494.268	72.62
494.485	86.62
494.703	82.62
494.92	94.62
495.138	78.62
495.355	81.62
495.573	72.62
495.79	82.62
496.008	82.62
496.225	76.62
496.442	70.62
496.66	82.62
496.877	74.62
497.094	88.62
497.312	78.62
497.529	77.62
497.746	85.62
497.963	82.62
498.181	79.62
498.398	67.62
498.615	70.62
498.832	77.62
499.049	90.62
499.267	80.62
499.484	66.62
499.701	68.62
499.918	83.62
500.135	73.62
500.352	87.62
500.569	90.62
500.786	82.62
501.003	72.62
501.22	67.62
501.437	70.62
501.654	74.62
501.871	75.62
502.088	68.62
502.305	89.62
502.522	78.62
502.739	72.62
502.956	78.62
503.172	76.62
503.389	78.62
503.606	73.62
503.823	84.62
504.04	95.62
504.256	85.62
504.473	68.62
504.69	78.62
504.907	74.62
505.123	83.62
505.34	69.62
505.557	71.62
505.773	82.62
505.99	66.62
506.207	84.62
506.423	72.62
506.64	68.62
506.856	80.62
507.073	83.62
507.289	72.62
507.506	86.62
507.722	63.62
507.939	50.62
508.155	94.62
508.372	69.62
508.588	78.62
508.805	79.62
509.021	77.62
509.238	87.62
509.454	68.62
509.67	85.62
509.887	80.62
510.103	81.62
510.319	73.62
510.536	76.62
510.752	69.62
510.968	80.62
511.184	68.62
511.401	68.62
511.617	98.62
511.833	80.62
512.049	94.62
512.265	94.62
512.481	71.62
512.698	85.62
512.914	81.62
513.13	86.62
513.346	69.62
513.562	66.62
513.778	87.62
513.994	79.62
514.21	78.62
514.426	72.62
514.642	73.62
514.858	96.62
515.074	76.62
515.29	66.62
515.506	66.62
515.721	68.62
515.937	70.62
516.153	64.62
516.369	75.62
516.585	80.62
516.801	72.62
517.016	75.62
517.232	79.62
517.448	78.62
517.664	94.62
517.879	75.62
518.095	69.62
518.311	56.62
518.527	65.62
518.742	60.62
518.958	57.62
519.173	80.62
519.389	74.62
519.605	68.62
519.82	93.62
520.036	88.62
520.251	73.62
