Data from StdD_HRD10591_036.txt Node
Date: Fri May 16 15:31:39 EDT 2025
User: Yrep
Spectrometer: HR+D1059
Trigger mode: 1
Integration Time (sec): 1.000000E-1
Scans to average: 1
Electric dark correction enabled: true
Nonlinearity correction enabled: false
Boxcar width: 0
XAxis mode: Wavelengths
Number of Pixels in Spectrum: 2048
>>>>>Begin Spectral Data<<<<<
223.165	-21.38
223.4	-21.38
223.635	-21.38
223.869	-7.38
224.104	-20.38
224.338	-16.38
224.573	-14.38
224.808	-29.38
225.042	-5.38
225.277	-2.38
225.511	-16.38
225.746	1.62
225.98	15.62
226.215	21.62
226.449	14.62
226.683	28.62
226.918	23.62
227.152	27.62
227.387	33.62
227.621	41.62
227.856	45.62
228.09	38.62
228.324	43.62
228.559	73.62
228.793	70.62
229.027	60.62
229.262	59.62
229.496	63.62
229.73	61.62
229.964	60.62
230.199	67.62
230.433	75.62
230.667	83.62
230.901	76.62
231.136	73.62
231.37	78.62
231.604	78.62
231.838	82.62
232.072	70.62
232.306	68.62
232.541	86.62
232.775	76.62
233.009	90.62
233.243	101.62
233.477	85.62
233.711	73.62
233.945	73.62
234.179	76.62
234.413	84.62
234.647	73.62
234.881	80.62
235.115	76.62
235.349	62.62
235.583	77.62
235.817	73.62
236.051	73.62
236.285	74.62
236.519	84.62
236.753	75.62
236.987	88.62
237.221	65.62
237.455	82.62
237.689	91.62
237.922	73.62
238.156	73.62
238.39	76.62
238.624	62.62
238.858	73.62
239.091	82.62
239.325	82.62
239.559	70.62
239.793	67.62
240.027	73.62
240.26	77.62
240.494	81.62
240.728	71.62
240.961	78.62
241.195	87.62
241.429	85.62
241.662	72.62
241.896	78.62
242.13	94.62
242.363	77.62
242.597	75.62
242.83	71.62
243.064	75.62
243.298	93.62
243.531	70.62
243.765	73.62
243.998	88.62
244.232	66.62
244.465	86.62
244.699	85.62
244.932	82.62
245.166	84.62
245.399	91.62
245.633	80.62
245.866	73.62
246.099	92.62
246.333	73.62
246.566	67.62
246.8	78.62
247.033	71.62
247.266	87.62
247.5	81.62
247.733	96.62
247.966	79.62
248.2	66.62
248.433	65.62
248.666	87.62
248.899	82.62
249.133	81.62
249.366	84.62
249.599	78.62
249.832	63.62
250.066	77.62
250.299	61.62
250.532	80.62
250.765	78.62
250.998	81.62
251.231	82.62
251.465	67.62
251.698	79.62
251.931	66.62
252.164	80.62
252.397	79.62
252.63	81.62
252.863	89.62
253.096	85.62
253.329	73.62
253.562	67.62
253.795	80.62
254.028	82.62
254.261	73.62
254.494	78.62
254.727	92.62
254.96	73.62
255.193	64.62
255.426	66.62
255.659	73.62
255.892	73.62
256.124	73.62
256.357	82.62
256.59	87.62
256.823	87.62
257.056	66.62
257.289	76.62
257.521	82.62
257.754	80.62
257.987	84.62
258.22	72.62
258.452	78.62
258.685	73.62
258.918	73.62
259.151	66.62
259.383	92.62
259.616	87.62
259.849	90.62
260.081	85.62
260.314	88.62
260.547	79.62
260.779	73.62
261.012	85.62
261.244	77.62
261.477	101.62
261.71	67.62
261.942	86.62
262.175	80.62
262.407	82.62
262.64	78.62
262.872	81.62
263.105	89.62
263.337	83.62
263.57	78.62
263.802	70.62
264.035	71.62
264.267	78.62
264.499	94.62
264.732	94.62
264.964	88.62
265.197	85.62
265.429	89.62
265.661	88.62
265.894	82.62
266.126	78.62
266.358	77.62
266.591	82.62
266.823	78.62
267.055	86.62
267.287	98.62
267.52	77.62
267.752	83.62
267.984	91.62
268.216	96.62
268.448	79.62
268.681	89.62
268.913	89.62
269.145	94.62
269.377	91.62
269.609	73.62
269.841	82.62
270.073	89.62
270.306	79.62
270.538	87.62
270.77	64.62
271.002	78.62
271.234	67.62
271.466	93.62
271.698	89.62
271.93	81.62
272.162	89.62
272.394	99.62
272.626	90.62
272.858	81.62
273.09	89.62
273.322	88.62
273.553	81.62
273.785	71.62
274.017	80.62
274.249	82.62
274.481	82.62
274.713	72.62
274.945	77.62
275.176	84.62
275.408	80.62
275.64	71.62
275.872	80.62
276.104	80.62
276.335	76.62
276.567	80.62
276.799	77.62
277.031	75.62
277.262	83.62
277.494	80.62
277.726	72.62
277.957	79.62
278.189	79.62
278.421	71.62
278.652	83.62
278.884	86.62
279.115	83.62
279.347	78.62
279.579	66.62
279.81	83.62
280.042	78.62
280.273	87.62
280.505	70.62
280.736	84.62
280.968	87.62
281.199	89.62
281.431	92.62
281.662	78.62
281.894	77.62
282.125	86.62
282.356	77.62
282.588	90.62
282.819	86.62
283.051	77.62
283.282	62.62
283.513	92.62
283.745	99.62
283.976	95.62
284.207	90.62
284.439	96.62
284.67	86.62
284.901	89.62
285.132	83.62
285.364	87.62
285.595	94.62
285.826	78.62
286.057	86.62
286.288	79.62
286.52	91.62
286.751	88.62
286.982	90.62
287.213	75.62
287.444	86.62
287.675	80.62
287.906	81.62
288.138	83.62
288.369	94.62
288.6	93.62
288.831	79.62
289.062	85.62
289.293	92.62
289.524	96.62
289.755	86.62
289.986	67.62
290.217	72.62
290.448	86.62
290.679	99.62
290.91	85.62
291.141	67.62
291.371	96.62
291.602	95.62
291.833	80.62
292.064	82.62
292.295	83.62
292.526	68.62
292.757	76.62
292.987	81.62
293.218	87.62
293.449	87.62
293.68	71.62
293.91	74.62
294.141	79.62
294.372	82.62
294.603	73.62
294.833	86.62
295.064	93.62
295.295	87.62
295.525	88.62
295.756	94.62
295.987	83.62
296.217	78.62
296.448	78.62
296.679	89.62
296.909	79.62
297.14	94.62
297.37	86.62
297.601	85.62
297.831	83.62
298.062	89.62
298.292	79.62
298.523	83.62
298.753	81.62
298.984	82.62
299.214	87.62
299.445	88.62
299.675	86.62
299.905	67.62
300.136	89.62
300.366	74.62
300.597	85.62
300.827	74.62
301.057	79.62
301.288	68.62
301.518	80.62
301.748	81.62
301.979	106.62
302.209	82.62
302.439	88.62
302.669	97.62
302.9	85.62
303.13	87.62
303.36	82.62
303.59	82.62
303.82	87.62
304.051	85.62
304.281	86.62
304.511	93.62
304.741	84.62
304.971	84.62
305.201	77.62
305.431	69.62
305.661	64.62
305.891	80.62
306.121	82.62
306.352	83.62
306.582	73.62
306.812	80.62
307.042	80.62
307.272	90.62
307.502	90.62
307.731	85.62
307.961	81.62
308.191	82.62
308.421	79.62
308.651	87.62
308.881	81.62
309.111	81.62
309.341	82.62
309.571	83.62
309.8	91.62
310.03	82.62
310.26	86.62
310.49	71.62
310.72	95.62
310.949	81.62
311.179	76.62
311.409	78.62
311.639	78.62
311.868	84.62
312.098	90.62
312.328	74.62
312.557	103.62
312.787	78.62
313.017	86.62
313.246	79.62
313.476	75.62
313.706	79.62
313.935	79.62
314.165	87.62
314.394	87.62
314.624	90.62
314.853	93.62
315.083	97.62
315.312	85.62
315.542	78.62
315.771	78.62
316.001	88.62
316.23	87.62
316.46	96.62
316.689	74.62
316.919	82.62
317.148	85.62
317.377	79.62
317.607	82.62
317.836	86.62
318.065	79.62
318.295	79.62
318.524	77.62
318.753	68.62
318.983	84.62
319.212	99.62
319.441	77.62
319.67	83.62
319.9	94.62
320.129	91.62
320.358	99.62
320.587	79.62
320.816	77.62
321.046	79.62
321.275	86.62
321.504	94.62
321.733	91.62
321.962	73.62
322.191	81.62
322.42	72.62
322.649	85.62
322.878	71.62
323.108	85.62
323.337	88.62
323.566	76.62
323.795	88.62
324.024	86.62
324.253	93.62
324.482	66.62
324.71	81.62
324.939	94.62
325.168	80.62
325.397	93.62
325.626	85.62
325.855	77.62
326.084	70.62
326.313	66.62
326.542	85.62
326.77	86.62
326.999	86.62
327.228	79.62
327.457	85.62
327.686	85.62
327.914	94.62
328.143	93.62
328.372	80.62
328.6	89.62
328.829	94.62
329.058	89.62
329.287	72.62
329.515	91.62
329.744	96.62
329.972	97.62
330.201	73.62
330.43	82.62
330.658	79.62
330.887	78.62
331.115	82.62
331.344	92.62
331.572	85.62
331.801	75.62
332.03	85.62
332.258	83.62
332.486	87.62
332.715	87.62
332.943	78.62
333.172	79.62
333.4	75.62
333.629	95.62
333.857	74.62
334.085	89.62
334.314	86.62
334.542	87.62
334.771	80.62
334.999	74.62
335.227	84.62
335.455	103.62
335.684	99.62
335.912	89.62
336.14	74.62
336.369	73.62
336.597	83.62
336.825	75.62
337.053	72.62
337.281	92.62
337.51	88.62
337.738	77.62
337.966	79.62
338.194	83.62
338.422	85.62
338.65	77.62
338.878	80.62
339.106	77.62
339.334	73.62
339.562	78.62
339.79	84.62
340.018	84.62
340.246	78.62
340.474	89.62
340.702	66.62
340.93	80.62
341.158	83.62
341.386	76.62
341.614	79.62
341.842	78.62
342.07	82.62
342.298	82.62
342.526	83.62
342.754	96.62
342.981	86.62
343.209	96.62
343.437	95.62
343.665	76.62
343.893	79.62
344.12	82.62
344.348	80.62
344.576	94.62
344.804	85.62
345.031	82.62
345.259	75.62
345.487	81.62
345.714	78.62
345.942	83.62
346.17	78.62
346.397	81.62
346.625	87.62
346.853	93.62
347.08	84.62
347.308	89.62
347.535	92.62
347.763	81.62
347.99	90.62
348.218	75.62
348.445	80.62
348.673	78.62
348.9	74.62
349.128	89.62
349.355	71.62
349.583	85.62
349.81	79.62
350.037	74.62
350.265	71.62
350.492	83.62
350.72	77.62
350.947	88.62
351.174	73.62
351.402	70.62
351.629	83.62
351.856	62.62
352.083	85.62
352.311	78.62
352.538	77.62
352.765	81.62
352.992	95.62
353.22	83.62
353.447	83.62
353.674	84.62
353.901	76.62
354.128	92.62
354.355	78.62
354.583	87.62
354.81	88.62
355.037	85.62
355.264	79.62
355.491	81.62
355.718	86.62
355.945	92.62
356.172	77.62
356.399	79.62
356.626	78.62
356.853	80.62
357.08	93.62
357.307	92.62
357.534	88.62
357.761	79.62
357.988	79.62
358.215	67.62
358.441	77.62
358.668	82.62
358.895	67.62
359.122	94.62
359.349	94.62
359.576	75.62
359.802	75.62
360.029	74.62
360.256	86.62
360.483	89.62
360.709	80.62
360.936	90.62
361.163	80.62
361.39	80.62
361.616	88.62
361.843	66.62
362.07	69.62
362.296	69.62
362.523	90.62
362.749	78.62
362.976	75.62
363.203	85.62
363.429	82.62
363.656	85.62
363.882	88.62
364.109	91.62
364.335	87.62
364.562	63.62
364.788	83.62
365.015	81.62
365.241	94.62
365.468	105.62
365.694	78.62
365.92	81.62
366.147	80.62
366.373	67.62
366.599	81.62
366.826	79.62
367.052	74.62
367.278	86.62
367.505	73.62
367.731	82.62
367.957	81.62
368.184	86.62
368.41	71.62
368.636	89.62
368.862	87.62
369.089	87.62
369.315	73.62
369.541	77.62
369.767	73.62
369.993	86.62
370.219	93.62
370.445	73.62
370.672	91.62
370.898	86.62
371.124	87.62
371.35	76.62
371.576	76.62
371.802	89.62
372.028	82.62
372.254	82.62
372.48	78.62
372.706	75.62
372.932	75.62
373.158	93.62
373.384	76.62
373.61	80.62
373.835	83.62
374.061	75.62
374.287	91.62
374.513	82.62
374.739	73.62
374.965	71.62
375.191	85.62
375.416	81.62
375.642	80.62
375.868	84.62
376.094	86.62
376.319	89.62
376.545	85.62
376.771	72.62
376.997	75.62
377.222	88.62
377.448	82.62
377.674	86.62
377.899	93.62
378.125	77.62
378.35	89.62
378.576	91.62
378.802	76.62
379.027	74.62
379.253	91.62
379.478	77.62
379.704	75.62
379.929	81.62
380.155	95.62
380.38	80.62
380.606	91.62
380.831	83.62
381.057	89.62
381.282	88.62
381.507	87.62
381.733	91.62
381.958	92.62
382.184	98.62
382.409	79.62
382.634	91.62
382.86	93.62
383.085	88.62
383.31	77.62
383.535	85.62
383.761	88.62
383.986	82.62
384.211	85.62
384.436	84.62
384.662	76.62
384.887	76.62
385.112	74.62
385.337	88.62
385.562	90.62
385.787	92.62
386.013	67.62
386.238	85.62
386.463	81.62
386.688	82.62
386.913	76.62
387.138	81.62
387.363	91.62
387.588	74.62
387.813	77.62
388.038	94.62
388.263	71.62
388.488	77.62
388.713	87.62
388.938	86.62
389.163	76.62
389.387	72.62
389.612	78.62
389.837	82.62
390.062	90.62
390.287	85.62
390.512	68.62
390.736	85.62
390.961	90.62
391.186	74.62
391.411	79.62
391.636	82.62
391.86	77.62
392.085	78.62
392.31	83.62
392.534	79.62
392.759	72.62
392.984	92.62
393.208	74.62
393.433	76.62
393.658	89.62
393.882	96.62
394.107	83.62
394.331	95.62
394.556	81.62
394.78	82.62
395.005	70.62
395.229	75.62
395.454	87.62
395.678	82.62
395.903	76.62
396.127	78.62
396.352	82.62
396.576	82.62
396.801	82.62
397.025	68.62
397.249	78.62
397.474	94.62
397.698	70.62
397.922	77.62
398.147	70.62
398.371	88.62
398.595	74.62
398.82	70.62
399.044	80.62
399.268	76.62
399.492	84.62
399.717	87.62
399.941	87.62
400.165	80.62
400.389	91.62
400.613	76.62
400.837	82.62
401.062	87.62
401.286	66.62
401.51	85.62
401.734	89.62
401.958	79.62
402.182	85.62
402.406	73.62
402.63	84.62
402.854	75.62
403.078	71.62
403.302	75.62
403.526	92.62
403.75	90.62
403.974	76.62
404.198	83.62
404.422	79.62
404.645	74.62
404.869	74.62
405.093	81.62
405.317	92.62
405.541	81.62
405.765	85.62
405.988	89.62
406.212	78.62
406.436	77.62
406.66	105.62
406.883	87.62
407.107	81.62
407.331	86.62
407.555	91.62
407.778	92.62
408.002	87.62
408.226	75.62
408.449	78.62
408.673	73.62
408.896	78.62
409.12	78.62
409.344	84.62
409.567	90.62
409.791	81.62
410.014	80.62
410.238	87.62
410.461	73.62
410.685	88.62
410.908	81.62
411.132	75.62
411.355	70.62
411.578	97.62
411.802	85.62
412.025	70.62
412.249	79.62
412.472	86.62
412.695	76.62
412.919	76.62
413.142	85.62
413.365	91.62
413.589	64.62
413.812	72.62
414.035	79.62
414.258	88.62
414.482	75.62
414.705	69.62
414.928	74.62
415.151	74.62
415.374	93.62
415.597	75.62
415.821	77.62
416.044	81.62
416.267	89.62
416.49	84.62
416.713	90.62
416.936	74.62
417.159	80.62
417.382	88.62
417.605	102.62
417.828	72.62
418.051	82.62
418.274	92.62
418.497	81.62
418.72	84.62
418.943	88.62
419.166	74.62
419.389	73.62
419.611	74.62
419.834	82.62
420.057	81.62
420.28	85.62
420.503	75.62
420.726	67.62
420.948	88.62
421.171	83.62
421.394	83.62
421.617	90.62
421.839	79.62
422.062	75.62
422.285	74.62
422.507	82.62
422.73	94.62
422.953	67.62
423.175	77.62
423.398	67.62
423.621	79.62
423.843	96.62
424.066	87.62
424.288	84.62
424.511	88.62
424.733	90.62
424.956	74.62
425.178	92.62
425.401	78.62
425.623	77.62
425.846	77.62
426.068	82.62
426.291	79.62
426.513	66.62
426.735	75.62
426.958	71.62
427.18	78.62
427.402	77.62
427.625	85.62
427.847	72.62
428.069	83.62
428.292	82.62
428.514	83.62
428.736	79.62
428.958	72.62
429.181	62.62
429.403	87.62
429.625	87.62
429.847	71.62
430.069	88.62
430.292	76.62
430.514	71.62
430.736	69.62
430.958	87.62
431.18	83.62
431.402	79.62
431.624	68.62
431.846	84.62
432.068	79.62
432.29	78.62
432.512	78.62
432.734	89.62
432.956	81.62
433.178	81.62
433.4	83.62
433.622	97.62
433.844	88.62
434.066	88.62
434.287	75.62
434.509	68.62
434.731	90.62
434.953	82.62
435.175	72.62
435.397	90.62
435.618	84.62
435.84	78.62
436.062	88.62
436.284	74.62
436.505	75.62
436.727	94.62
436.949	77.62
437.17	79.62
437.392	88.62
437.614	82.62
437.835	76.62
438.057	84.62
438.278	87.62
438.5	70.62
438.721	68.62
438.943	75.62
439.165	83.62
439.386	90.62
439.608	82.62
439.829	74.62
440.05	85.62
440.272	74.62
440.493	71.62
440.715	85.62
440.936	85.62
441.158	71.62
441.379	86.62
441.6	105.62
441.822	89.62
442.043	87.62
442.264	78.62
442.486	79.62
442.707	88.62
442.928	95.62
443.149	80.62
443.371	103.62
443.592	75.62
443.813	73.62
444.034	87.62
444.255	80.62
444.476	78.62
444.698	70.62
444.919	79.62
445.14	157.62
445.361	123.62
445.582	80.62
445.803	91.62
446.024	87.62
446.245	82.62
446.466	75.62
446.687	76.62
446.908	88.62
447.129	88.62
447.35	65.62
447.571	86.62
447.792	82.62
448.013	82.62
448.234	86.62
448.455	69.62
448.675	79.62
448.896	85.62
449.117	95.62
449.338	91.62
449.559	91.62
449.779	84.62
450	84.62
450.221	87.62
450.442	80.62
450.662	90.62
450.883	85.62
451.104	65.62
451.324	91.62
451.545	91.62
451.766	78.62
451.986	69.62
452.207	74.62
452.428	74.62
452.648	89.62
452.869	82.62
453.089	73.62
453.31	84.62
453.53	85.62
453.751	88.62
453.971	74.62
454.192	77.62
454.412	67.62
454.633	93.62
454.853	85.62
455.073	67.62
455.294	81.62
455.514	81.62
455.734	82.62
455.955	80.62
456.175	84.62
456.395	78.62
456.616	79.62
456.836	78.62
457.056	86.62
457.276	85.62
457.497	87.62
457.717	77.62
457.937	71.62
458.157	67.62
458.377	76.62
458.598	77.62
458.818	88.62
459.038	77.62
459.258	85.62
459.478	71.62
459.698	74.62
459.918	66.62
460.138	76.62
460.358	85.62
460.578	75.62
460.798	80.62
461.018	68.62
461.238	81.62
461.458	94.62
461.678	79.62
461.898	87.62
462.118	86.62
462.338	77.62
462.558	62.62
462.777	77.62
462.997	80.62
463.217	78.62
463.437	77.62
463.657	73.62
463.876	89.62
464.096	84.62
464.316	77.62
464.536	82.62
464.755	79.62
464.975	88.62
465.195	71.62
465.414	83.62
465.634	74.62
465.854	62.62
466.073	74.62
466.293	69.62
466.512	73.62
466.732	82.62
466.951	77.62
467.171	84.62
467.391	83.62
467.61	78.62
467.829	87.62
468.049	90.62
468.268	72.62
468.488	81.62
468.707	79.62
468.927	83.62
469.146	65.62
469.365	87.62
469.585	82.62
469.804	76.62
470.023	67.62
470.243	89.62
470.462	70.62
470.681	80.62
470.901	80.62
471.12	80.62
471.339	91.62
471.558	75.62
471.777	79.62
471.997	74.62
472.216	82.62
472.435	84.62
472.654	80.62
472.873	96.62
473.092	77.62
473.311	87.62
473.53	86.62
473.749	82.62
473.968	90.62
474.187	79.62
474.406	87.62
474.625	79.62
474.844	95.62
475.063	74.62
475.282	87.62
475.501	78.62
475.72	87.62
475.939	73.62
476.158	88.62
476.377	87.62
476.596	93.62
476.814	88.62
477.033	91.62
477.252	87.62
477.471	87.62
477.69	75.62
477.908	79.62
478.127	104.62
478.346	78.62
478.564	71.62
478.783	74.62
479.002	85.62
479.22	93.62
479.439	88.62
479.658	95.62
479.876	102.62
480.095	83.62
480.313	76.62
480.532	94.62
480.751	86.62
480.969	79.62
481.188	85.62
481.406	93.62
481.624	74.62
481.843	88.62
482.061	78.62
482.28	69.62
482.498	85.62
482.717	79.62
482.935	73.62
483.153	76.62
483.372	82.62
483.59	86.62
483.808	94.62
484.027	77.62
484.245	86.62
484.463	94.62
484.681	99.62
484.9	97.62
485.118	69.62
485.336	79.62
485.554	64.62
485.772	80.62
485.99	84.62
486.209	77.62
486.427	75.62
486.645	80.62
486.863	85.62
487.081	72.62
487.299	67.62
487.517	72.62
487.735	77.62
487.953	86.62
488.171	84.62
488.389	81.62
488.607	81.62
488.825	91.62
489.043	88.62
489.261	98.62
489.479	80.62
489.696	75.62
489.914	75.62
490.132	81.62
490.35	78.62
490.568	78.62
490.786	77.62
491.003	91.62
491.221	73.62
491.439	81.62
491.657	85.62
491.874	92.62
492.092	77.62
492.31	85.62
492.527	86.62
492.745	88.62
492.963	105.62
493.18	96.62
493.398	67.62
493.615	94.62
493.833	72.62
494.05	89.62
494.268	83.62
494.485	73.62
494.703	81.62
494.92	82.62
495.138	80.62
495.355	78.62
495.573	82.62
495.79	80.62
496.008	81.62
496.225	81.62
496.442	74.62
496.66	85.62
496.877	81.62
497.094	93.62
497.312	60.62
497.529	89.62
497.746	89.62
497.963	75.62
498.181	78.62
498.398	87.62
498.615	82.62
498.832	86.62
499.049	81.62
499.267	68.62
499.484	87.62
499.701	64.62
499.918	87.62
500.135	84.62
500.352	81.62
500.569	90.62
500.786	96.62
501.003	90.62
501.22	83.62
501.437	74.62
501.654	88.62
501.871	82.62
502.088	85.62
502.305	91.62
502.522	93.62
502.739	85.62
502.956	83.62
503.172	75.62
503.389	89.62
503.606	82.62
503.823	94.62
504.04	83.62
504.256	79.62
504.473	85.62
504.69	80.62
504.907	86.62
505.123	74.62
505.34	84.62
505.557	93.62
505.773	80.62
505.99	79.62
506.207	75.62
506.423	65.62
506.64	81.62
506.856	95.62
507.073	87.62
507.289	75.62
507.506	79.62
507.722	76.62
507.939	76.62
508.155	69.62
508.372	85.62
508.588	83.62
508.805	78.62
509.021	84.62
509.238	88.62
509.454	71.62
509.67	79.62
509.887	89.62
510.103	75.62
510.319	66.62
510.536	81.62
510.752	80.62
510.968	86.62
511.184	83.62
511.401	82.62
511.617	83.62
511.833	92.62
512.049	77.62
512.265	61.62
512.481	73.62
512.698	83.62
512.914	81.62
513.13	91.62
513.346	89.62
513.562	81.62
513.778	79.62
513.994	66.62
514.21	79.62
514.426	77.62
514.642	77.62
514.858	85.62
515.074	75.62
515.29	82.62
515.506	66.62
515.721	80.62
515.937	88.62
516.153	101.62
516.369	89.62
516.585	70.62
516.801	75.62
517.016	87.62
517.232	78.62
517.448	82.62
517.664	84.62
517.879	74.62
518.095	78.62
518.311	87.62
518.527	97.62
518.742	79.62
518.958	94.62
519.173	88.62
519.389	72.62
519.605	80.62
519.82	89.62
520.036	74.62
