Data from StdD_HRD10591_022.txt Node
Date: Fri May 16 15:31:32 EDT 2025
User: Yrep
Spectrometer: HR+D1059
Trigger mode: 1
Integration Time (sec): 1.000000E-1
Scans to average: 1
Electric dark correction enabled: true
Nonlinearity correction enabled: false
Boxcar width: 0
XAxis mode: Wavelengths
Number of Pixels in Spectrum: 2048
>>>>>Begin Spectral Data<<<<<
223.165	-12.25
223.4	-12.25
223.635	-12.25
223.869	-7.25
224.104	-29.25
224.338	-19.25
224.573	-14.25
224.808	-9.25
225.042	-9.25
225.277	-18.25
225.511	6.75
225.746	4.75
225.98	9.75
226.215	10.75
226.449	11.75
226.683	26.75
226.918	18.75
227.152	29.75
227.387	43.75
227.621	32.75
227.856	46.75
228.09	46.75
228.324	55.75
228.559	51.75
228.793	57.75
229.027	51.75
229.262	74.75
229.496	56.75
229.73	66.75
229.964	74.75
230.199	72.75
230.433	77.75
230.667	78.75
230.901	68.75
231.136	72.75
231.37	83.75
231.604	90.75
231.838	94.75
232.072	92.75
232.306	82.75
232.541	72.75
232.775	89.75
233.009	85.75
233.243	79.75
233.477	86.75
233.711	90.75
233.945	77.75
234.179	66.75
234.413	79.75
234.647	86.75
234.881	77.75
235.115	76.75
235.349	68.75
235.583	83.75
235.817	88.75
236.051	70.75
236.285	81.75
236.519	66.75
236.753	59.75
236.987	84.75
237.221	72.75
237.455	72.75
237.689	76.75
237.922	70.75
238.156	80.75
238.39	81.75
238.624	84.75
238.858	79.75
239.091	68.75
239.325	78.75
239.559	82.75
239.793	74.75
240.027	79.75
240.26	78.75
240.494	95.75
240.728	74.75
240.961	82.75
241.195	68.75
241.429	60.75
241.662	69.75
241.896	78.75
242.13	87.75
242.363	83.75
242.597	80.75
242.83	86.75
243.064	73.75
243.298	70.75
243.531	74.75
243.765	61.75
243.998	71.75
244.232	91.75
244.465	83.75
244.699	85.75
244.932	80.75
245.166	80.75
245.399	83.75
245.633	77.75
245.866	74.75
246.099	76.75
246.333	69.75
246.566	78.75
246.8	64.75
247.033	88.75
247.266	88.75
247.5	83.75
247.733	81.75
247.966	67.75
248.2	72.75
248.433	84.75
248.666	81.75
248.899	75.75
249.133	83.75
249.366	80.75
249.599	83.75
249.832	82.75
250.066	76.75
250.299	76.75
250.532	92.75
250.765	80.75
250.998	79.75
251.231	75.75
251.465	70.75
251.698	72.75
251.931	79.75
252.164	76.75
252.397	82.75
252.63	89.75
252.863	76.75
253.096	90.75
253.329	97.75
253.562	81.75
253.795	79.75
254.028	68.75
254.261	88.75
254.494	78.75
254.727	73.75
254.96	75.75
255.193	73.75
255.426	83.75
255.659	80.75
255.892	68.75
256.124	69.75
256.357	66.75
256.59	64.75
256.823	79.75
257.056	78.75
257.289	70.75
257.521	82.75
257.754	70.75
257.987	75.75
258.22	78.75
258.452	83.75
258.685	78.75
258.918	65.75
259.151	81.75
259.383	83.75
259.616	75.75
259.849	82.75
260.081	82.75
260.314	69.75
260.547	76.75
260.779	67.75
261.012	67.75
261.244	85.75
261.477	78.75
261.71	87.75
261.942	81.75
262.175	77.75
262.407	79.75
262.64	85.75
262.872	79.75
263.105	70.75
263.337	83.75
263.57	91.75
263.802	80.75
264.035	73.75
264.267	90.75
264.499	83.75
264.732	92.75
264.964	84.75
265.197	70.75
265.429	83.75
265.661	76.75
265.894	80.75
266.126	93.75
266.358	75.75
266.591	69.75
266.823	77.75
267.055	79.75
267.287	89.75
267.52	85.75
267.752	76.75
267.984	83.75
268.216	85.75
268.448	87.75
268.681	92.75
268.913	81.75
269.145	79.75
269.377	78.75
269.609	77.75
269.841	80.75
270.073	88.75
270.306	72.75
270.538	84.75
270.77	83.75
271.002	95.75
271.234	73.75
271.466	77.75
271.698	79.75
271.93	95.75
272.162	92.75
272.394	95.75
272.626	82.75
272.858	87.75
273.09	90.75
273.322	91.75
273.553	88.75
273.785	95.75
274.017	96.75
274.249	94.75
274.481	79.75
274.713	79.75
274.945	83.75
275.176	75.75
275.408	88.75
275.64	83.75
275.872	86.75
276.104	78.75
276.335	86.75
276.567	82.75
276.799	86.75
277.031	79.75
277.262	83.75
277.494	75.75
277.726	86.75
277.957	76.75
278.189	91.75
278.421	88.75
278.652	82.75
278.884	89.75
279.115	85.75
279.347	80.75
279.579	90.75
279.81	87.75
280.042	76.75
280.273	68.75
280.505	76.75
280.736	97.75
280.968	75.75
281.199	75.75
281.431	79.75
281.662	90.75
281.894	71.75
282.125	81.75
282.356	83.75
282.588	71.75
282.819	96.75
283.051	66.75
283.282	82.75
283.513	86.75
283.745	90.75
283.976	88.75
284.207	94.75
284.439	88.75
284.67	86.75
284.901	79.75
285.132	78.75
285.364	89.75
285.595	86.75
285.826	83.75
286.057	102.75
286.288	90.75
286.52	91.75
286.751	87.75
286.982	88.75
287.213	74.75
287.444	83.75
287.675	80.75
287.906	89.75
288.138	96.75
288.369	81.75
288.6	96.75
288.831	89.75
289.062	72.75
289.293	77.75
289.524	77.75
289.755	79.75
289.986	80.75
290.217	84.75
290.448	82.75
290.679	94.75
290.91	82.75
291.141	83.75
291.371	83.75
291.602	66.75
291.833	94.75
292.064	92.75
292.295	83.75
292.526	83.75
292.757	84.75
292.987	83.75
293.218	87.75
293.449	85.75
293.68	90.75
293.91	87.75
294.141	99.75
294.372	92.75
294.603	87.75
294.833	83.75
295.064	78.75
295.295	79.75
295.525	75.75
295.756	64.75
295.987	78.75
296.217	93.75
296.448	89.75
296.679	74.75
296.909	85.75
297.14	82.75
297.37	86.75
297.601	79.75
297.831	70.75
298.062	74.75
298.292	85.75
298.523	82.75
298.753	82.75
298.984	94.75
299.214	92.75
299.445	90.75
299.675	70.75
299.905	94.75
300.136	74.75
300.366	82.75
300.597	75.75
300.827	91.75
301.057	84.75
301.288	83.75
301.518	84.75
301.748	97.75
301.979	92.75
302.209	83.75
302.439	74.75
302.669	95.75
302.9	87.75
303.13	95.75
303.36	89.75
303.59	92.75
303.82	68.75
304.051	86.75
304.281	83.75
304.511	79.75
304.741	93.75
304.971	89.75
305.201	83.75
305.431	83.75
305.661	79.75
305.891	79.75
306.121	98.75
306.352	68.75
306.582	79.75
306.812	76.75
307.042	78.75
307.272	80.75
307.502	83.75
307.731	87.75
307.961	99.75
308.191	92.75
308.421	81.75
308.651	95.75
308.881	79.75
309.111	89.75
309.341	92.75
309.571	91.75
309.8	87.75
310.03	78.75
310.26	88.75
310.49	90.75
310.72	82.75
310.949	92.75
311.179	91.75
311.409	82.75
311.639	89.75
311.868	74.75
312.098	108.75
312.328	91.75
312.557	83.75
312.787	79.75
313.017	90.75
313.246	91.75
313.476	74.75
313.706	100.75
313.935	72.75
314.165	81.75
314.394	93.75
314.624	80.75
314.853	78.75
315.083	87.75
315.312	85.75
315.542	83.75
315.771	88.75
316.001	85.75
316.23	87.75
316.46	73.75
316.689	91.75
316.919	88.75
317.148	87.75
317.377	88.75
317.607	84.75
317.836	93.75
318.065	76.75
318.295	90.75
318.524	94.75
318.753	77.75
318.983	66.75
319.212	78.75
319.441	97.75
319.67	88.75
319.9	90.75
320.129	77.75
320.358	89.75
320.587	73.75
320.816	80.75
321.046	90.75
321.275	86.75
321.504	63.75
321.733	71.75
321.962	80.75
322.191	82.75
322.42	78.75
322.649	74.75
322.878	79.75
323.108	92.75
323.337	81.75
323.566	91.75
323.795	85.75
324.024	64.75
324.253	89.75
324.482	75.75
324.71	73.75
324.939	86.75
325.168	90.75
325.397	81.75
325.626	86.75
325.855	68.75
326.084	89.75
326.313	81.75
326.542	82.75
326.77	95.75
326.999	93.75
327.228	86.75
327.457	86.75
327.686	91.75
327.914	78.75
328.143	90.75
328.372	84.75
328.6	87.75
328.829	86.75
329.058	91.75
329.287	84.75
329.515	78.75
329.744	87.75
329.972	82.75
330.201	83.75
330.43	89.75
330.658	86.75
330.887	89.75
331.115	81.75
331.344	62.75
331.572	78.75
331.801	66.75
332.03	76.75
332.258	88.75
332.486	90.75
332.715	93.75
332.943	90.75
333.172	79.75
333.4	75.75
333.629	86.75
333.857	97.75
334.085	81.75
334.314	71.75
334.542	87.75
334.771	83.75
334.999	75.75
335.227	80.75
335.455	82.75
335.684	78.75
335.912	81.75
336.14	94.75
336.369	80.75
336.597	92.75
336.825	72.75
337.053	66.75
337.281	80.75
337.51	96.75
337.738	88.75
337.966	89.75
338.194	82.75
338.422	84.75
338.65	91.75
338.878	84.75
339.106	93.75
339.334	86.75
339.562	83.75
339.79	87.75
340.018	91.75
340.246	80.75
340.474	84.75
340.702	90.75
340.93	97.75
341.158	85.75
341.386	91.75
341.614	84.75
341.842	82.75
342.07	92.75
342.298	82.75
342.526	78.75
342.754	89.75
342.981	97.75
343.209	91.75
343.437	95.75
343.665	78.75
343.893	73.75
344.12	88.75
344.348	94.75
344.576	67.75
344.804	96.75
345.031	90.75
345.259	77.75
345.487	79.75
345.714	79.75
345.942	77.75
346.17	88.75
346.397	94.75
346.625	71.75
346.853	90.75
347.08	70.75
347.308	73.75
347.535	88.75
347.763	92.75
347.99	83.75
348.218	93.75
348.445	85.75
348.673	67.75
348.9	96.75
349.128	87.75
349.355	83.75
349.583	81.75
349.81	87.75
350.037	78.75
350.265	82.75
350.492	80.75
350.72	74.75
350.947	102.75
351.174	91.75
351.402	93.75
351.629	77.75
351.856	78.75
352.083	89.75
352.311	96.75
352.538	87.75
352.765	90.75
352.992	81.75
353.22	78.75
353.447	86.75
353.674	90.75
353.901	84.75
354.128	77.75
354.355	75.75
354.583	91.75
354.81	74.75
355.037	73.75
355.264	91.75
355.491	79.75
355.718	78.75
355.945	95.75
356.172	82.75
356.399	75.75
356.626	81.75
356.853	69.75
357.08	76.75
357.307	82.75
357.534	73.75
357.761	80.75
357.988	78.75
358.215	90.75
358.441	83.75
358.668	79.75
358.895	82.75
359.122	87.75
359.349	73.75
359.576	81.75
359.802	84.75
360.029	91.75
360.256	78.75
360.483	88.75
360.709	79.75
360.936	91.75
361.163	96.75
361.39	76.75
361.616	94.75
361.843	84.75
362.07	84.75
362.296	81.75
362.523	80.75
362.749	79.75
362.976	88.75
363.203	86.75
363.429	85.75
363.656	71.75
363.882	90.75
364.109	91.75
364.335	80.75
364.562	89.75
364.788	75.75
365.015	72.75
365.241	83.75
365.468	94.75
365.694	91.75
365.92	77.75
366.147	80.75
366.373	89.75
366.599	94.75
366.826	79.75
367.052	75.75
367.278	78.75
367.505	82.75
367.731	76.75
367.957	81.75
368.184	69.75
368.41	82.75
368.636	83.75
368.862	76.75
369.089	86.75
369.315	83.75
369.541	84.75
369.767	83.75
369.993	64.75
370.219	87.75
370.445	77.75
370.672	90.75
370.898	75.75
371.124	82.75
371.35	78.75
371.576	73.75
371.802	74.75
372.028	84.75
372.254	97.75
372.48	79.75
372.706	79.75
372.932	74.75
373.158	86.75
373.384	88.75
373.61	79.75
373.835	91.75
374.061	75.75
374.287	74.75
374.513	70.75
374.739	83.75
374.965	86.75
375.191	79.75
375.416	83.75
375.642	82.75
375.868	80.75
376.094	75.75
376.319	80.75
376.545	88.75
376.771	71.75
376.997	80.75
377.222	71.75
377.448	71.75
377.674	83.75
377.899	102.75
378.125	68.75
378.35	87.75
378.576	87.75
378.802	84.75
379.027	82.75
379.253	90.75
379.478	75.75
379.704	85.75
379.929	82.75
380.155	77.75
380.38	80.75
380.606	74.75
380.831	80.75
381.057	89.75
381.282	90.75
381.507	82.75
381.733	64.75
381.958	95.75
382.184	96.75
382.409	75.75
382.634	67.75
382.86	89.75
383.085	84.75
383.31	91.75
383.535	88.75
383.761	91.75
383.986	71.75
384.211	93.75
384.436	91.75
384.662	82.75
384.887	71.75
385.112	86.75
385.337	83.75
385.562	75.75
385.787	82.75
386.013	92.75
386.238	82.75
386.463	70.75
386.688	108.75
386.913	83.75
387.138	79.75
387.363	86.75
387.588	82.75
387.813	84.75
388.038	74.75
388.263	94.75
388.488	92.75
388.713	79.75
388.938	88.75
389.163	83.75
389.387	99.75
389.612	84.75
389.837	87.75
390.062	93.75
390.287	80.75
390.512	89.75
390.736	105.75
390.961	94.75
391.186	88.75
391.411	83.75
391.636	78.75
391.86	76.75
392.085	86.75
392.31	82.75
392.534	68.75
392.759	75.75
392.984	58.75
393.208	88.75
393.433	76.75
393.658	94.75
393.882	82.75
394.107	80.75
394.331	83.75
394.556	86.75
394.78	91.75
395.005	82.75
395.229	87.75
395.454	90.75
395.678	93.75
395.903	70.75
396.127	89.75
396.352	82.75
396.576	67.75
396.801	75.75
397.025	84.75
397.249	84.75
397.474	92.75
397.698	75.75
397.922	83.75
398.147	84.75
398.371	74.75
398.595	77.75
398.82	94.75
399.044	86.75
399.268	79.75
399.492	78.75
399.717	75.75
399.941	88.75
400.165	91.75
400.389	82.75
400.613	92.75
400.837	99.75
401.062	78.75
401.286	71.75
401.51	88.75
401.734	74.75
401.958	78.75
402.182	86.75
402.406	81.75
402.63	74.75
402.854	87.75
403.078	84.75
403.302	64.75
403.526	83.75
403.75	76.75
403.974	81.75
404.198	92.75
404.422	69.75
404.645	86.75
404.869	61.75
405.093	67.75
405.317	90.75
405.541	88.75
405.765	86.75
405.988	78.75
406.212	90.75
406.436	74.75
406.66	95.75
406.883	78.75
407.107	79.75
407.331	86.75
407.555	84.75
407.778	74.75
408.002	75.75
408.226	80.75
408.449	82.75
408.673	80.75
408.896	74.75
409.12	79.75
409.344	68.75
409.567	75.75
409.791	80.75
410.014	92.75
410.238	81.75
410.461	86.75
410.685	87.75
410.908	79.75
411.132	90.75
411.355	67.75
411.578	80.75
411.802	87.75
412.025	77.75
412.249	83.75
412.472	77.75
412.695	90.75
412.919	80.75
413.142	94.75
413.365	79.75
413.589	84.75
413.812	87.75
414.035	88.75
414.258	97.75
414.482	90.75
414.705	70.75
414.928	79.75
415.151	62.75
415.374	80.75
415.597	82.75
415.821	75.75
416.044	88.75
416.267	68.75
416.49	86.75
416.713	84.75
416.936	92.75
417.159	82.75
417.382	73.75
417.605	92.75
417.828	98.75
418.051	79.75
418.274	85.75
418.497	98.75
418.72	79.75
418.943	86.75
419.166	81.75
419.389	95.75
419.611	75.75
419.834	93.75
420.057	86.75
420.28	89.75
420.503	82.75
420.726	85.75
420.948	80.75
421.171	82.75
421.394	78.75
421.617	72.75
421.839	92.75
422.062	78.75
422.285	87.75
422.507	74.75
422.73	72.75
422.953	87.75
423.175	86.75
423.398	79.75
423.621	79.75
423.843	86.75
424.066	85.75
424.288	89.75
424.511	73.75
424.733	85.75
424.956	73.75
425.178	79.75
425.401	77.75
425.623	89.75
425.846	82.75
426.068	91.75
426.291	85.75
426.513	100.75
426.735	80.75
426.958	87.75
427.18	82.75
427.402	91.75
427.625	83.75
427.847	78.75
428.069	72.75
428.292	94.75
428.514	78.75
428.736	85.75
428.958	86.75
429.181	98.75
429.403	78.75
429.625	92.75
429.847	89.75
430.069	84.75
430.292	94.75
430.514	92.75
430.736	86.75
430.958	103.75
431.18	73.75
431.402	93.75
431.624	84.75
431.846	84.75
432.068	76.75
432.29	72.75
432.512	75.75
432.734	76.75
432.956	90.75
433.178	90.75
433.4	71.75
433.622	89.75
433.844	88.75
434.066	76.75
434.287	69.75
434.509	85.75
434.731	78.75
434.953	92.75
435.175	75.75
435.397	95.75
435.618	97.75
435.84	81.75
436.062	82.75
436.284	87.75
436.505	72.75
436.727	70.75
436.949	79.75
437.17	85.75
437.392	89.75
437.614	80.75
437.835	80.75
438.057	87.75
438.278	92.75
438.5	83.75
438.721	73.75
438.943	92.75
439.165	88.75
439.386	86.75
439.608	72.75
439.829	77.75
440.05	73.75
440.272	94.75
440.493	75.75
440.715	91.75
440.936	85.75
441.158	95.75
441.379	88.75
441.6	89.75
441.822	80.75
442.043	90.75
442.264	91.75
442.486	86.75
442.707	61.75
442.928	76.75
443.149	88.75
443.371	86.75
443.592	83.75
443.813	91.75
444.034	90.75
444.255	76.75
444.476	90.75
444.698	86.75
444.919	89.75
445.14	151.75
445.361	105.75
445.582	86.75
445.803	62.75
446.024	82.75
446.245	86.75
446.466	78.75
446.687	69.75
446.908	72.75
447.129	91.75
447.35	73.75
447.571	87.75
447.792	83.75
448.013	83.75
448.234	86.75
448.455	65.75
448.675	80.75
448.896	80.75
449.117	83.75
449.338	91.75
449.559	84.75
449.779	84.75
450	78.75
450.221	87.75
450.442	90.75
450.662	79.75
450.883	81.75
451.104	86.75
451.324	89.75
451.545	88.75
451.766	80.75
451.986	81.75
452.207	76.75
452.428	86.75
452.648	76.75
452.869	90.75
453.089	88.75
453.31	88.75
453.53	75.75
453.751	77.75
453.971	81.75
454.192	83.75
454.412	93.75
454.633	67.75
454.853	82.75
455.073	84.75
455.294	76.75
455.514	98.75
455.734	86.75
455.955	89.75
456.175	86.75
456.395	76.75
456.616	85.75
456.836	97.75
457.056	84.75
457.276	83.75
457.497	86.75
457.717	76.75
457.937	82.75
458.157	83.75
458.377	81.75
458.598	75.75
458.818	76.75
459.038	74.75
459.258	72.75
459.478	80.75
459.698	90.75
459.918	86.75
460.138	80.75
460.358	80.75
460.578	75.75
460.798	86.75
461.018	83.75
461.238	77.75
461.458	68.75
461.678	91.75
461.898	78.75
462.118	82.75
462.338	89.75
462.558	82.75
462.777	88.75
462.997	76.75
463.217	81.75
463.437	75.75
463.657	76.75
463.876	81.75
464.096	74.75
464.316	79.75
464.536	82.75
464.755	76.75
464.975	86.75
465.195	89.75
465.414	83.75
465.634	98.75
465.854	88.75
466.073	89.75
466.293	81.75
466.512	82.75
466.732	91.75
466.951	90.75
467.171	90.75
467.391	97.75
467.61	96.75
467.829	78.75
468.049	82.75
468.268	85.75
468.488	71.75
468.707	83.75
468.927	76.75
469.146	72.75
469.365	72.75
469.585	84.75
469.804	98.75
470.023	84.75
470.243	85.75
470.462	72.75
470.681	85.75
470.901	91.75
471.12	99.75
471.339	84.75
471.558	94.75
471.777	71.75
471.997	83.75
472.216	81.75
472.435	94.75
472.654	78.75
472.873	84.75
473.092	94.75
473.311	95.75
473.53	90.75
473.749	96.75
473.968	89.75
474.187	78.75
474.406	85.75
474.625	81.75
474.844	82.75
475.063	87.75
475.282	90.75
475.501	90.75
475.72	78.75
475.939	75.75
476.158	69.75
476.377	79.75
476.596	83.75
476.814	83.75
477.033	85.75
477.252	87.75
477.471	85.75
477.69	86.75
477.908	77.75
478.127	92.75
478.346	75.75
478.564	87.75
478.783	86.75
479.002	87.75
479.22	83.75
479.439	94.75
479.658	81.75
479.876	78.75
480.095	88.75
480.313	82.75
480.532	76.75
480.751	90.75
480.969	82.75
481.188	64.75
481.406	73.75
481.624	81.75
481.843	84.75
482.061	84.75
482.28	81.75
482.498	91.75
482.717	76.75
482.935	97.75
483.153	60.75
483.372	80.75
483.59	77.75
483.808	73.75
484.027	86.75
484.245	76.75
484.463	79.75
484.681	93.75
484.9	75.75
485.118	81.75
485.336	74.75
485.554	95.75
485.772	68.75
485.99	78.75
486.209	82.75
486.427	75.75
486.645	95.75
486.863	80.75
487.081	104.75
487.299	97.75
487.517	86.75
487.735	77.75
487.953	84.75
488.171	91.75
488.389	100.75
488.607	82.75
488.825	92.75
489.043	63.75
489.261	94.75
489.479	82.75
489.696	78.75
489.914	82.75
490.132	80.75
490.35	78.75
490.568	78.75
490.786	80.75
491.003	87.75
491.221	77.75
491.439	90.75
491.657	76.75
491.874	89.75
492.092	103.75
492.31	90.75
492.527	87.75
492.745	90.75
492.963	99.75
493.18	104.75
493.398	99.75
493.615	84.75
493.833	77.75
494.05	82.75
494.268	88.75
494.485	75.75
494.703	103.75
494.92	91.75
495.138	77.75
495.355	73.75
495.573	61.75
495.79	91.75
496.008	92.75
496.225	99.75
496.442	82.75
496.66	103.75
496.877	106.75
497.094	94.75
497.312	86.75
497.529	84.75
497.746	99.75
497.963	80.75
498.181	83.75
498.398	82.75
498.615	73.75
498.832	84.75
499.049	102.75
499.267	97.75
499.484	67.75
499.701	97.75
499.918	94.75
500.135	72.75
500.352	82.75
500.569	99.75
500.786	83.75
501.003	90.75
501.22	92.75
501.437	88.75
501.654	88.75
501.871	82.75
502.088	78.75
502.305	75.75
502.522	82.75
502.739	73.75
502.956	86.75
503.172	80.75
503.389	87.75
503.606	73.75
503.823	91.75
504.04	101.75
504.256	84.75
504.473	82.75
504.69	82.75
504.907	81.75
505.123	77.75
505.34	84.75
505.557	84.75
505.773	86.75
505.99	93.75
506.207	99.75
506.423	81.75
506.64	82.75
506.856	80.75
507.073	100.75
507.289	76.75
507.506	84.75
507.722	90.75
507.939	86.75
508.155	85.75
508.372	92.75
508.588	77.75
508.805	88.75
509.021	78.75
509.238	74.75
509.454	78.75
509.67	76.75
509.887	82.75
510.103	68.75
510.319	91.75
510.536	81.75
510.752	77.75
510.968	82.75
511.184	78.75
511.401	77.75
511.617	97.75
511.833	98.75
512.049	84.75
512.265	86.75
512.481	80.75
512.698	82.75
512.914	73.75
513.13	63.75
513.346	69.75
513.562	82.75
513.778	82.75
513.994	77.75
514.21	87.75
514.426	89.75
514.642	75.75
514.858	82.75
515.074	88.75
515.29	81.75
515.506	79.75
515.721	76.75
515.937	80.75
516.153	76.75
516.369	78.75
516.585	64.75
516.801	97.75
517.016	81.75
517.232	91.75
517.448	102.75
517.664	81.75
517.879	78.75
518.095	88.75
518.311	91.75
518.527	75.75
518.742	84.75
518.958	88.75
519.173	93.75
519.389	80.75
519.605	84.75
519.82	96.75
520.036	94.75
