Data from StdD_HRD10591_095.txt Node
Date: Fri May 16 15:32:08 EDT 2025
User: Yrep
Spectrometer: HR+D1059
Trigger mode: 1
Integration Time (sec): 1.000000E-1
Scans to average: 1
Electric dark correction enabled: true
Nonlinearity correction enabled: false
Boxcar width: 0
XAxis mode: Wavelengths
Number of Pixels in Spectrum: 2048
>>>>>Begin Spectral Data<<<<<
223.165	-22.31
223.4	-22.31
223.635	-22.31
223.869	-4.31
224.104	-12.31
224.338	-21.31
224.573	-20.31
224.808	-22.31
225.042	-12.31
225.277	-13.31
225.511	-9.31
225.746	11.69
225.98	15.69
226.215	19.69
226.449	11.69
226.683	14.69
226.918	23.69
227.152	40.69
227.387	48.69
227.621	34.69
227.856	42.69
228.09	42.69
228.324	40.69
228.559	53.69
228.793	52.69
229.027	51.69
229.262	57.69
229.496	42.69
229.73	67.69
229.964	64.69
230.199	82.69
230.433	64.69
230.667	62.69
230.901	74.69
231.136	70.69
231.37	60.69
231.604	68.69
231.838	62.69
232.072	68.69
232.306	80.69
232.541	74.69
232.775	76.69
233.009	65.69
233.243	84.69
233.477	83.69
233.711	73.69
233.945	84.69
234.179	75.69
234.413	81.69
234.647	71.69
234.881	64.69
235.115	83.69
235.349	75.69
235.583	78.69
235.817	82.69
236.051	83.69
236.285	63.69
236.519	60.69
236.753	62.69
236.987	80.69
237.221	66.69
237.455	65.69
237.689	63.69
237.922	64.69
238.156	79.69
238.39	66.69
238.624	68.69
238.858	70.69
239.091	78.69
239.325	81.69
239.559	62.69
239.793	66.69
240.027	54.69
240.26	52.69
240.494	73.69
240.728	74.69
240.961	76.69
241.195	74.69
241.429	64.69
241.662	80.69
241.896	58.69
242.13	75.69
242.363	70.69
242.597	69.69
242.83	64.69
243.064	77.69
243.298	74.69
243.531	56.69
243.765	64.69
243.998	75.69
244.232	78.69
244.465	74.69
244.699	70.69
244.932	79.69
245.166	73.69
245.399	84.69
245.633	68.69
245.866	77.69
246.099	54.69
246.333	74.69
246.566	76.69
246.8	72.69
247.033	81.69
247.266	67.69
247.5	76.69
247.733	78.69
247.966	67.69
248.2	61.69
248.433	64.69
248.666	63.69
248.899	73.69
249.133	67.69
249.366	72.69
249.599	77.69
249.832	76.69
250.066	66.69
250.299	74.69
250.532	69.69
250.765	85.69
250.998	71.69
251.231	56.69
251.465	81.69
251.698	77.69
251.931	76.69
252.164	52.69
252.397	63.69
252.63	70.69
252.863	66.69
253.096	69.69
253.329	62.69
253.562	60.69
253.795	76.69
254.028	74.69
254.261	65.69
254.494	61.69
254.727	59.69
254.96	80.69
255.193	84.69
255.426	68.69
255.659	68.69
255.892	67.69
256.124	67.69
256.357	71.69
256.59	77.69
256.823	77.69
257.056	68.69
257.289	70.69
257.521	70.69
257.754	70.69
257.987	82.69
258.22	66.69
258.452	65.69
258.685	79.69
258.918	72.69
259.151	64.69
259.383	83.69
259.616	72.69
259.849	74.69
260.081	87.69
260.314	75.69
260.547	72.69
260.779	79.69
261.012	75.69
261.244	86.69
261.477	74.69
261.71	66.69
261.942	79.69
262.175	90.69
262.407	69.69
262.64	69.69
262.872	74.69
263.105	66.69
263.337	83.69
263.57	67.69
263.802	84.69
264.035	80.69
264.267	76.69
264.499	69.69
264.732	80.69
264.964	76.69
265.197	69.69
265.429	79.69
265.661	77.69
265.894	85.69
266.126	85.69
266.358	78.69
266.591	84.69
266.823	79.69
267.055	78.69
267.287	74.69
267.52	73.69
267.752	86.69
267.984	70.69
268.216	61.69
268.448	65.69
268.681	82.69
268.913	74.69
269.145	68.69
269.377	71.69
269.609	89.69
269.841	81.69
270.073	66.69
270.306	81.69
270.538	73.69
270.77	81.69
271.002	85.69
271.234	83.69
271.466	84.69
271.698	66.69
271.93	80.69
272.162	64.69
272.394	75.69
272.626	70.69
272.858	85.69
273.09	62.69
273.322	88.69
273.553	76.69
273.785	82.69
274.017	75.69
274.249	74.69
274.481	83.69
274.713	73.69
274.945	68.69
275.176	62.69
275.408	89.69
275.64	88.69
275.872	79.69
276.104	77.69
276.335	78.69
276.567	66.69
276.799	79.69
277.031	75.69
277.262	65.69
277.494	76.69
277.726	69.69
277.957	84.69
278.189	84.69
278.421	73.69
278.652	70.69
278.884	71.69
279.115	66.69
279.347	81.69
279.579	81.69
279.81	77.69
280.042	72.69
280.273	75.69
280.505	63.69
280.736	69.69
280.968	70.69
281.199	70.69
281.431	71.69
281.662	66.69
281.894	80.69
282.125	76.69
282.356	72.69
282.588	68.69
282.819	72.69
283.051	70.69
283.282	71.69
283.513	84.69
283.745	66.69
283.976	78.69
284.207	75.69
284.439	76.69
284.67	77.69
284.901	76.69
285.132	81.69
285.364	83.69
285.595	66.69
285.826	91.69
286.057	93.69
286.288	70.69
286.52	76.69
286.751	84.69
286.982	68.69
287.213	81.69
287.444	73.69
287.675	81.69
287.906	79.69
288.138	66.69
288.369	73.69
288.6	83.69
288.831	82.69
289.062	89.69
289.293	66.69
289.524	76.69
289.755	73.69
289.986	83.69
290.217	75.69
290.448	74.69
290.679	76.69
290.91	75.69
291.141	82.69
291.371	75.69
291.602	67.69
291.833	68.69
292.064	79.69
292.295	81.69
292.526	85.69
292.757	89.69
292.987	73.69
293.218	73.69
293.449	94.69
293.68	98.69
293.91	69.69
294.141	82.69
294.372	75.69
294.603	68.69
294.833	76.69
295.064	72.69
295.295	69.69
295.525	61.69
295.756	83.69
295.987	83.69
296.217	72.69
296.448	74.69
296.679	76.69
296.909	79.69
297.14	70.69
297.37	72.69
297.601	83.69
297.831	88.69
298.062	69.69
298.292	79.69
298.523	78.69
298.753	76.69
298.984	72.69
299.214	82.69
299.445	60.69
299.675	76.69
299.905	85.69
300.136	88.69
300.366	74.69
300.597	75.69
300.827	84.69
301.057	97.69
301.288	90.69
301.518	77.69
301.748	65.69
301.979	100.69
302.209	72.69
302.439	66.69
302.669	92.69
302.9	80.69
303.13	78.69
303.36	89.69
303.59	66.69
303.82	70.69
304.051	70.69
304.281	86.69
304.511	82.69
304.741	71.69
304.971	79.69
305.201	86.69
305.431	64.69
305.661	68.69
305.891	58.69
306.121	76.69
306.352	82.69
306.582	74.69
306.812	74.69
307.042	81.69
307.272	73.69
307.502	88.69
307.731	62.69
307.961	56.69
308.191	85.69
308.421	77.69
308.651	73.69
308.881	76.69
309.111	75.69
309.341	79.69
309.571	73.69
309.8	81.69
310.03	83.69
310.26	81.69
310.49	82.69
310.72	71.69
310.949	78.69
311.179	83.69
311.409	78.69
311.639	70.69
311.868	84.69
312.098	73.69
312.328	68.69
312.557	83.69
312.787	71.69
313.017	82.69
313.246	68.69
313.476	82.69
313.706	77.69
313.935	81.69
314.165	72.69
314.394	95.69
314.624	76.69
314.853	81.69
315.083	64.69
315.312	91.69
315.542	63.69
315.771	69.69
316.001	80.69
316.23	84.69
316.46	75.69
316.689	74.69
316.919	78.69
317.148	76.69
317.377	82.69
317.607	77.69
317.836	80.69
318.065	71.69
318.295	66.69
318.524	75.69
318.753	82.69
318.983	75.69
319.212	80.69
319.441	81.69
319.67	78.69
319.9	78.69
320.129	70.69
320.358	75.69
320.587	68.69
320.816	98.69
321.046	78.69
321.275	73.69
321.504	72.69
321.733	66.69
321.962	69.69
322.191	80.69
322.42	73.69
322.649	80.69
322.878	68.69
323.108	70.69
323.337	83.69
323.566	73.69
323.795	62.69
324.024	76.69
324.253	81.69
324.482	90.69
324.71	55.69
324.939	79.69
325.168	78.69
325.397	82.69
325.626	74.69
325.855	80.69
326.084	65.69
326.313	86.69
326.542	83.69
326.77	70.69
326.999	80.69
327.228	73.69
327.457	100.69
327.686	68.69
327.914	76.69
328.143	74.69
328.372	65.69
328.6	69.69
328.829	60.69
329.058	76.69
329.287	76.69
329.515	81.69
329.744	72.69
329.972	70.69
330.201	78.69
330.43	86.69
330.658	70.69
330.887	81.69
331.115	70.69
331.344	69.69
331.572	79.69
331.801	70.69
332.03	89.69
332.258	87.69
332.486	70.69
332.715	83.69
332.943	60.69
333.172	74.69
333.4	88.69
333.629	79.69
333.857	78.69
334.085	85.69
334.314	87.69
334.542	74.69
334.771	76.69
334.999	67.69
335.227	86.69
335.455	51.69
335.684	70.69
335.912	76.69
336.14	90.69
336.369	90.69
336.597	83.69
336.825	80.69
337.053	88.69
337.281	71.69
337.51	68.69
337.738	79.69
337.966	70.69
338.194	85.69
338.422	75.69
338.65	71.69
338.878	84.69
339.106	84.69
339.334	87.69
339.562	79.69
339.79	71.69
340.018	85.69
340.246	78.69
340.474	73.69
340.702	75.69
340.93	74.69
341.158	85.69
341.386	72.69
341.614	77.69
341.842	74.69
342.07	78.69
342.298	86.69
342.526	74.69
342.754	52.69
342.981	77.69
343.209	80.69
343.437	81.69
343.665	81.69
343.893	86.69
344.12	73.69
344.348	78.69
344.576	81.69
344.804	76.69
345.031	75.69
345.259	91.69
345.487	84.69
345.714	80.69
345.942	82.69
346.17	77.69
346.397	86.69
346.625	94.69
346.853	84.69
347.08	75.69
347.308	80.69
347.535	78.69
347.763	74.69
347.99	74.69
348.218	76.69
348.445	84.69
348.673	71.69
348.9	70.69
349.128	64.69
349.355	73.69
349.583	58.69
349.81	75.69
350.037	73.69
350.265	83.69
350.492	54.69
350.72	70.69
350.947	84.69
351.174	75.69
351.402	73.69
351.629	83.69
351.856	75.69
352.083	84.69
352.311	78.69
352.538	66.69
352.765	81.69
352.992	72.69
353.22	81.69
353.447	74.69
353.674	62.69
353.901	74.69
354.128	84.69
354.355	81.69
354.583	65.69
354.81	68.69
355.037	73.69
355.264	68.69
355.491	69.69
355.718	72.69
355.945	78.69
356.172	83.69
356.399	76.69
356.626	79.69
356.853	68.69
357.08	78.69
357.307	71.69
357.534	69.69
357.761	79.69
357.988	88.69
358.215	67.69
358.441	73.69
358.668	60.69
358.895	64.69
359.122	76.69
359.349	82.69
359.576	76.69
359.802	67.69
360.029	61.69
360.256	83.69
360.483	76.69
360.709	79.69
360.936	72.69
361.163	76.69
361.39	86.69
361.616	59.69
361.843	60.69
362.07	70.69
362.296	73.69
362.523	77.69
362.749	67.69
362.976	71.69
363.203	83.69
363.429	75.69
363.656	77.69
363.882	89.69
364.109	82.69
364.335	80.69
364.562	69.69
364.788	66.69
365.015	67.69
365.241	79.69
365.468	90.69
365.694	76.69
365.92	76.69
366.147	75.69
366.373	84.69
366.599	74.69
366.826	70.69
367.052	76.69
367.278	79.69
367.505	84.69
367.731	71.69
367.957	68.69
368.184	83.69
368.41	70.69
368.636	68.69
368.862	76.69
369.089	85.69
369.315	70.69
369.541	70.69
369.767	82.69
369.993	68.69
370.219	68.69
370.445	79.69
370.672	73.69
370.898	56.69
371.124	68.69
371.35	74.69
371.576	76.69
371.802	79.69
372.028	79.69
372.254	82.69
372.48	81.69
372.706	84.69
372.932	81.69
373.158	78.69
373.384	62.69
373.61	71.69
373.835	80.69
374.061	90.69
374.287	76.69
374.513	69.69
374.739	75.69
374.965	85.69
375.191	70.69
375.416	72.69
375.642	81.69
375.868	80.69
376.094	86.69
376.319	80.69
376.545	95.69
376.771	79.69
376.997	72.69
377.222	67.69
377.448	71.69
377.674	82.69
377.899	69.69
378.125	86.69
378.35	70.69
378.576	76.69
378.802	91.69
379.027	71.69
379.253	62.69
379.478	80.69
379.704	82.69
379.929	85.69
380.155	66.69
380.38	80.69
380.606	82.69
380.831	82.69
381.057	82.69
381.282	79.69
381.507	71.69
381.733	71.69
381.958	68.69
382.184	75.69
382.409	67.69
382.634	64.69
382.86	81.69
383.085	84.69
383.31	80.69
383.535	73.69
383.761	74.69
383.986	65.69
384.211	72.69
384.436	82.69
384.662	72.69
384.887	86.69
385.112	70.69
385.337	80.69
385.562	81.69
385.787	73.69
386.013	62.69
386.238	61.69
386.463	74.69
386.688	82.69
386.913	67.69
387.138	70.69
387.363	91.69
387.588	87.69
387.813	76.69
388.038	70.69
388.263	77.69
388.488	80.69
388.713	66.69
388.938	60.69
389.163	71.69
389.387	74.69
389.612	68.69
389.837	83.69
390.062	64.69
390.287	70.69
390.512	76.69
390.736	75.69
390.961	79.69
391.186	73.69
391.411	82.69
391.636	88.69
391.86	83.69
392.085	69.69
392.31	72.69
392.534	78.69
392.759	74.69
392.984	82.69
393.208	71.69
393.433	82.69
393.658	85.69
393.882	79.69
394.107	78.69
394.331	80.69
394.556	82.69
394.78	76.69
395.005	79.69
395.229	58.69
395.454	82.69
395.678	94.69
395.903	78.69
396.127	79.69
396.352	78.69
396.576	74.69
396.801	86.69
397.025	80.69
397.249	75.69
397.474	84.69
397.698	68.69
397.922	71.69
398.147	83.69
398.371	74.69
398.595	86.69
398.82	75.69
399.044	76.69
399.268	75.69
399.492	60.69
399.717	75.69
399.941	62.69
400.165	78.69
400.389	76.69
400.613	81.69
400.837	57.69
401.062	67.69
401.286	74.69
401.51	89.69
401.734	74.69
401.958	78.69
402.182	63.69
402.406	84.69
402.63	77.69
402.854	82.69
403.078	68.69
403.302	71.69
403.526	70.69
403.75	78.69
403.974	70.69
404.198	95.69
404.422	69.69
404.645	75.69
404.869	68.69
405.093	69.69
405.317	66.69
405.541	84.69
405.765	77.69
405.988	81.69
406.212	79.69
406.436	84.69
406.66	90.69
406.883	70.69
407.107	68.69
407.331	65.69
407.555	79.69
407.778	66.69
408.002	72.69
408.226	66.69
408.449	88.69
408.673	75.69
408.896	73.69
409.12	75.69
409.344	74.69
409.567	61.69
409.791	76.69
410.014	90.69
410.238	85.69
410.461	72.69
410.685	65.69
410.908	66.69
411.132	77.69
411.355	60.69
411.578	68.69
411.802	79.69
412.025	78.69
412.249	86.69
412.472	73.69
412.695	66.69
412.919	77.69
413.142	59.69
413.365	72.69
413.589	69.69
413.812	62.69
414.035	60.69
414.258	66.69
414.482	78.69
414.705	79.69
414.928	79.69
415.151	58.69
415.374	67.69
415.597	72.69
415.821	55.69
416.044	76.69
416.267	72.69
416.49	92.69
416.713	70.69
416.936	80.69
417.159	69.69
417.382	77.69
417.605	70.69
417.828	71.69
418.051	83.69
418.274	64.69
418.497	82.69
418.72	82.69
418.943	84.69
419.166	74.69
419.389	78.69
419.611	85.69
419.834	71.69
420.057	83.69
420.28	72.69
420.503	69.69
420.726	74.69
420.948	80.69
421.171	74.69
421.394	65.69
421.617	71.69
421.839	88.69
422.062	80.69
422.285	82.69
422.507	73.69
422.73	76.69
422.953	80.69
423.175	88.69
423.398	74.69
423.621	73.69
423.843	79.69
424.066	83.69
424.288	65.69
424.511	67.69
424.733	75.69
424.956	68.69
425.178	69.69
425.401	84.69
425.623	70.69
425.846	84.69
426.068	89.69
426.291	70.69
426.513	78.69
426.735	80.69
426.958	70.69
427.18	63.69
427.402	90.69
427.625	72.69
427.847	78.69
428.069	82.69
428.292	75.69
428.514	61.69
428.736	77.69
428.958	74.69
429.181	80.69
429.403	69.69
429.625	76.69
429.847	90.69
430.069	80.69
430.292	84.69
430.514	71.69
430.736	70.69
430.958	80.69
431.18	81.69
431.402	70.69
431.624	76.69
431.846	73.69
432.068	82.69
432.29	80.69
432.512	80.69
432.734	64.69
432.956	84.69
433.178	81.69
433.4	83.69
433.622	87.69
433.844	78.69
434.066	70.69
434.287	83.69
434.509	60.69
434.731	80.69
434.953	66.69
435.175	69.69
435.397	72.69
435.618	92.69
435.84	66.69
436.062	75.69
436.284	71.69
436.505	83.69
436.727	72.69
436.949	78.69
437.17	76.69
437.392	75.69
437.614	62.69
437.835	91.69
438.057	79.69
438.278	80.69
438.5	80.69
438.721	76.69
438.943	70.69
439.165	81.69
439.386	77.69
439.608	79.69
439.829	74.69
440.05	81.69
440.272	78.69
440.493	63.69
440.715	73.69
440.936	59.69
441.158	88.69
441.379	86.69
441.6	80.69
441.822	83.69
442.043	83.69
442.264	79.69
442.486	80.69
442.707	77.69
442.928	71.69
443.149	81.69
443.371	71.69
443.592	96.69
443.813	84.69
444.034	71.69
444.255	94.69
444.476	68.69
444.698	66.69
444.919	76.69
445.14	152.69
445.361	112.69
445.582	90.69
445.803	68.69
446.024	76.69
446.245	72.69
446.466	74.69
446.687	83.69
446.908	81.69
447.129	72.69
447.35	68.69
447.571	86.69
447.792	76.69
448.013	88.69
448.234	71.69
448.455	82.69
448.675	75.69
448.896	83.69
449.117	72.69
449.338	74.69
449.559	79.69
449.779	84.69
450	65.69
450.221	78.69
450.442	61.69
450.662	75.69
450.883	74.69
451.104	75.69
451.324	81.69
451.545	68.69
451.766	91.69
451.986	76.69
452.207	72.69
452.428	65.69
452.648	82.69
452.869	61.69
453.089	69.69
453.31	83.69
453.53	82.69
453.751	79.69
453.971	69.69
454.192	78.69
454.412	79.69
454.633	94.69
454.853	76.69
455.073	83.69
455.294	72.69
455.514	70.69
455.734	79.69
455.955	67.69
456.175	66.69
456.395	75.69
456.616	70.69
456.836	86.69
457.056	80.69
457.276	76.69
457.497	72.69
457.717	77.69
457.937	72.69
458.157	64.69
458.377	59.69
458.598	76.69
458.818	71.69
459.038	66.69
459.258	85.69
459.478	82.69
459.698	76.69
459.918	76.69
460.138	70.69
460.358	75.69
460.578	68.69
460.798	71.69
461.018	83.69
461.238	77.69
461.458	72.69
461.678	85.69
461.898	72.69
462.118	82.69
462.338	64.69
462.558	72.69
462.777	75.69
462.997	60.69
463.217	75.69
463.437	85.69
463.657	76.69
463.876	86.69
464.096	71.69
464.316	78.69
464.536	78.69
464.755	80.69
464.975	75.69
465.195	64.69
465.414	72.69
465.634	85.69
465.854	72.69
466.073	69.69
466.293	74.69
466.512	73.69
466.732	70.69
466.951	72.69
467.171	87.69
467.391	78.69
467.61	86.69
467.829	75.69
468.049	76.69
468.268	78.69
468.488	84.69
468.707	88.69
468.927	78.69
469.146	66.69
469.365	77.69
469.585	68.69
469.804	66.69
470.023	71.69
470.243	70.69
470.462	78.69
470.681	71.69
470.901	80.69
471.12	84.69
471.339	88.69
471.558	83.69
471.777	79.69
471.997	76.69
472.216	66.69
472.435	73.69
472.654	66.69
472.873	71.69
473.092	83.69
473.311	74.69
473.53	75.69
473.749	69.69
473.968	84.69
474.187	66.69
474.406	81.69
474.625	87.69
474.844	73.69
475.063	81.69
475.282	84.69
475.501	74.69
475.72	65.69
475.939	74.69
476.158	90.69
476.377	82.69
476.596	65.69
476.814	70.69
477.033	86.69
477.252	89.69
477.471	83.69
477.69	75.69
477.908	77.69
478.127	94.69
478.346	82.69
478.564	80.69
478.783	74.69
479.002	76.69
479.22	82.69
479.439	82.69
479.658	75.69
479.876	84.69
480.095	68.69
480.313	78.69
480.532	75.69
480.751	80.69
480.969	67.69
481.188	88.69
481.406	57.69
481.624	70.69
481.843	72.69
482.061	87.69
482.28	85.69
482.498	68.69
482.717	70.69
482.935	60.69
483.153	73.69
483.372	74.69
483.59	76.69
483.808	78.69
484.027	93.69
484.245	88.69
484.463	72.69
484.681	88.69
484.9	79.69
485.118	80.69
485.336	83.69
485.554	67.69
485.772	79.69
485.99	71.69
486.209	71.69
486.427	87.69
486.645	78.69
486.863	83.69
487.081	67.69
487.299	71.69
487.517	66.69
487.735	77.69
487.953	78.69
488.171	82.69
488.389	84.69
488.607	86.69
488.825	81.69
489.043	75.69
489.261	88.69
489.479	74.69
489.696	81.69
489.914	67.69
490.132	82.69
490.35	84.69
490.568	88.69
490.786	79.69
491.003	85.69
491.221	80.69
491.439	64.69
491.657	76.69
491.874	70.69
492.092	85.69
492.31	89.69
492.527	74.69
492.745	73.69
492.963	83.69
493.18	70.69
493.398	74.69
493.615	88.69
493.833	82.69
494.05	81.69
494.268	83.69
494.485	91.69
494.703	79.69
494.92	67.69
495.138	75.69
495.355	70.69
495.573	81.69
495.79	78.69
496.008	84.69
496.225	62.69
496.442	79.69
496.66	75.69
496.877	73.69
497.094	83.69
497.312	79.69
497.529	68.69
497.746	81.69
497.963	85.69
498.181	79.69
498.398	86.69
498.615	79.69
498.832	91.69
499.049	72.69
499.267	82.69
499.484	74.69
499.701	67.69
499.918	72.69
500.135	91.69
500.352	66.69
500.569	69.69
500.786	86.69
501.003	89.69
501.22	83.69
501.437	87.69
501.654	60.69
501.871	88.69
502.088	80.69
502.305	80.69
502.522	94.69
502.739	59.69
502.956	71.69
503.172	64.69
503.389	67.69
503.606	72.69
503.823	87.69
504.04	87.69
504.256	75.69
504.473	66.69
504.69	72.69
504.907	94.69
505.123	74.69
505.34	76.69
505.557	103.69
505.773	86.69
505.99	64.69
506.207	70.69
506.423	81.69
506.64	86.69
506.856	69.69
507.073	80.69
507.289	88.69
507.506	94.69
507.722	70.69
507.939	85.69
508.155	82.69
508.372	81.69
508.588	86.69
508.805	80.69
509.021	79.69
509.238	68.69
509.454	90.69
509.67	81.69
509.887	72.69
510.103	77.69
510.319	65.69
510.536	75.69
510.752	71.69
510.968	65.69
511.184	71.69
511.401	74.69
511.617	82.69
511.833	83.69
512.049	81.69
512.265	84.69
512.481	73.69
512.698	74.69
512.914	89.69
513.13	86.69
513.346	81.69
513.562	80.69
513.778	72.69
513.994	83.69
514.21	86.69
514.426	80.69
514.642	91.69
514.858	76.69
515.074	76.69
515.29	90.69
515.506	82.69
515.721	80.69
515.937	84.69
516.153	76.69
516.369	69.69
516.585	77.69
516.801	75.69
517.016	66.69
517.232	74.69
517.448	82.69
517.664	83.69
517.879	86.69
518.095	64.69
518.311	70.69
518.527	69.69
518.742	83.69
518.958	61.69
519.173	77.69
519.389	92.69
519.605	85.69
519.82	74.69
520.036	76.69
520.251	78.69
