Data from StdD_HRD10591_074.txt Node
Date: Fri May 16 15:31:58 EDT 2025
User: Yrep
Spectrometer: HR+D1059
Trigger mode: 1
Integration Time (sec): 1.000000E-1
Scans to average: 1
Electric dark correction enabled: true
Nonlinearity correction enabled: false
Boxcar width: 0
XAxis mode: Wavelengths
Number of Pixels in Spectrum: 2048
>>>>>Begin Spectral Data<<<<<
223.165	-17.06
223.4	-17.06
223.635	-17.06
223.869	-7.06
224.104	-35.06
224.338	0.94
224.573	-13.06
224.808	-9.06
225.042	-2.06
225.277	-6.06
225.511	-21.06
225.746	0.94
225.98	13.94
226.215	1.94
226.449	22.94
226.683	7.94
226.918	30.94
227.152	30.94
227.387	22.94
227.621	38.94
227.856	43.94
228.09	49.94
228.324	45.94
228.559	58.94
228.793	52.94
229.027	60.94
229.262	69.94
229.496	59.94
229.73	74.94
229.964	74.94
230.199	84.94
230.433	81.94
230.667	69.94
230.901	80.94
231.136	74.94
231.37	89.94
231.604	86.94
231.838	80.94
232.072	78.94
232.306	81.94
232.541	84.94
232.775	81.94
233.009	85.94
233.243	76.94
233.477	88.94
233.711	76.94
233.945	80.94
234.179	83.94
234.413	88.94
234.647	80.94
234.881	86.94
235.115	77.94
235.349	97.94
235.583	81.94
235.817	79.94
236.051	70.94
236.285	86.94
236.519	84.94
236.753	83.94
236.987	94.94
237.221	83.94
237.455	74.94
237.689	78.94
237.922	78.94
238.156	74.94
238.39	71.94
238.624	87.94
238.858	82.94
239.091	66.94
239.325	62.94
239.559	67.94
239.793	64.94
240.027	82.94
240.26	70.94
240.494	81.94
240.728	72.94
240.961	76.94
241.195	84.94
241.429	73.94
241.662	86.94
241.896	78.94
242.13	86.94
242.363	76.94
242.597	76.94
242.83	73.94
243.064	74.94
243.298	74.94
243.531	76.94
243.765	69.94
243.998	84.94
244.232	72.94
244.465	82.94
244.699	86.94
244.932	89.94
245.166	82.94
245.399	72.94
245.633	79.94
245.866	65.94
246.099	77.94
246.333	75.94
246.566	70.94
246.8	78.94
247.033	82.94
247.266	78.94
247.5	86.94
247.733	81.94
247.966	80.94
248.2	66.94
248.433	72.94
248.666	91.94
248.899	61.94
249.133	93.94
249.366	85.94
249.599	81.94
249.832	87.94
250.066	86.94
250.299	75.94
250.532	81.94
250.765	66.94
250.998	74.94
251.231	88.94
251.465	85.94
251.698	70.94
251.931	90.94
252.164	89.94
252.397	70.94
252.63	70.94
252.863	80.94
253.096	97.94
253.329	77.94
253.562	80.94
253.795	83.94
254.028	79.94
254.261	77.94
254.494	80.94
254.727	90.94
254.96	76.94
255.193	75.94
255.426	92.94
255.659	88.94
255.892	91.94
256.124	74.94
256.357	80.94
256.59	85.94
256.823	75.94
257.056	87.94
257.289	84.94
257.521	74.94
257.754	80.94
257.987	90.94
258.22	84.94
258.452	87.94
258.685	85.94
258.918	70.94
259.151	91.94
259.383	95.94
259.616	84.94
259.849	92.94
260.081	94.94
260.314	83.94
260.547	80.94
260.779	86.94
261.012	78.94
261.244	81.94
261.477	75.94
261.71	89.94
261.942	89.94
262.175	77.94
262.407	84.94
262.64	82.94
262.872	82.94
263.105	83.94
263.337	81.94
263.57	88.94
263.802	79.94
264.035	76.94
264.267	81.94
264.499	84.94
264.732	83.94
264.964	91.94
265.197	98.94
265.429	76.94
265.661	92.94
265.894	89.94
266.126	88.94
266.358	82.94
266.591	81.94
266.823	80.94
267.055	85.94
267.287	76.94
267.52	80.94
267.752	89.94
267.984	74.94
268.216	86.94
268.448	101.94
268.681	84.94
268.913	88.94
269.145	85.94
269.377	74.94
269.609	77.94
269.841	96.94
270.073	80.94
270.306	76.94
270.538	77.94
270.77	86.94
271.002	93.94
271.234	71.94
271.466	80.94
271.698	84.94
271.93	92.94
272.162	98.94
272.394	85.94
272.626	80.94
272.858	74.94
273.09	87.94
273.322	90.94
273.553	89.94
273.785	74.94
274.017	90.94
274.249	88.94
274.481	85.94
274.713	82.94
274.945	89.94
275.176	84.94
275.408	82.94
275.64	83.94
275.872	92.94
276.104	83.94
276.335	95.94
276.567	76.94
276.799	80.94
277.031	98.94
277.262	90.94
277.494	83.94
277.726	89.94
277.957	105.94
278.189	83.94
278.421	82.94
278.652	75.94
278.884	77.94
279.115	85.94
279.347	85.94
279.579	94.94
279.81	80.94
280.042	90.94
280.273	72.94
280.505	80.94
280.736	74.94
280.968	87.94
281.199	88.94
281.431	81.94
281.662	75.94
281.894	94.94
282.125	84.94
282.356	91.94
282.588	77.94
282.819	90.94
283.051	86.94
283.282	81.94
283.513	90.94
283.745	78.94
283.976	92.94
284.207	97.94
284.439	83.94
284.67	99.94
284.901	85.94
285.132	83.94
285.364	102.94
285.595	90.94
285.826	85.94
286.057	83.94
286.288	93.94
286.52	92.94
286.751	81.94
286.982	78.94
287.213	90.94
287.444	74.94
287.675	78.94
287.906	88.94
288.138	77.94
288.369	107.94
288.6	93.94
288.831	90.94
289.062	90.94
289.293	90.94
289.524	105.94
289.755	90.94
289.986	81.94
290.217	93.94
290.448	77.94
290.679	89.94
290.91	96.94
291.141	88.94
291.371	69.94
291.602	86.94
291.833	82.94
292.064	91.94
292.295	88.94
292.526	92.94
292.757	107.94
292.987	85.94
293.218	79.94
293.449	83.94
293.68	82.94
293.91	77.94
294.141	70.94
294.372	100.94
294.603	95.94
294.833	89.94
295.064	91.94
295.295	76.94
295.525	84.94
295.756	91.94
295.987	81.94
296.217	85.94
296.448	88.94
296.679	89.94
296.909	79.94
297.14	88.94
297.37	84.94
297.601	87.94
297.831	70.94
298.062	92.94
298.292	93.94
298.523	88.94
298.753	90.94
298.984	80.94
299.214	65.94
299.445	79.94
299.675	76.94
299.905	96.94
300.136	82.94
300.366	86.94
300.597	81.94
300.827	90.94
301.057	73.94
301.288	71.94
301.518	88.94
301.748	75.94
301.979	91.94
302.209	80.94
302.439	92.94
302.669	82.94
302.9	83.94
303.13	91.94
303.36	84.94
303.59	84.94
303.82	73.94
304.051	80.94
304.281	92.94
304.511	89.94
304.741	102.94
304.971	106.94
305.201	90.94
305.431	86.94
305.661	91.94
305.891	80.94
306.121	95.94
306.352	92.94
306.582	98.94
306.812	95.94
307.042	83.94
307.272	101.94
307.502	93.94
307.731	101.94
307.961	78.94
308.191	89.94
308.421	85.94
308.651	86.94
308.881	94.94
309.111	90.94
309.341	77.94
309.571	89.94
309.8	91.94
310.03	80.94
310.26	92.94
310.49	79.94
310.72	100.94
310.949	92.94
311.179	88.94
311.409	106.94
311.639	88.94
311.868	85.94
312.098	90.94
312.328	75.94
312.557	68.94
312.787	95.94
313.017	92.94
313.246	94.94
313.476	87.94
313.706	85.94
313.935	83.94
314.165	88.94
314.394	89.94
314.624	97.94
314.853	99.94
315.083	86.94
315.312	83.94
315.542	91.94
315.771	99.94
316.001	97.94
316.23	86.94
316.46	85.94
316.689	73.94
316.919	88.94
317.148	94.94
317.377	84.94
317.607	87.94
317.836	88.94
318.065	90.94
318.295	89.94
318.524	89.94
318.753	90.94
318.983	82.94
319.212	78.94
319.441	89.94
319.67	79.94
319.9	84.94
320.129	76.94
320.358	76.94
320.587	84.94
320.816	83.94
321.046	94.94
321.275	90.94
321.504	94.94
321.733	99.94
321.962	93.94
322.191	102.94
322.42	81.94
322.649	71.94
322.878	69.94
323.108	87.94
323.337	69.94
323.566	85.94
323.795	94.94
324.024	76.94
324.253	90.94
324.482	81.94
324.71	100.94
324.939	81.94
325.168	96.94
325.397	92.94
325.626	92.94
325.855	89.94
326.084	74.94
326.313	89.94
326.542	77.94
326.77	82.94
326.999	98.94
327.228	95.94
327.457	84.94
327.686	88.94
327.914	97.94
328.143	86.94
328.372	93.94
328.6	91.94
328.829	77.94
329.058	92.94
329.287	90.94
329.515	82.94
329.744	96.94
329.972	80.94
330.201	91.94
330.43	93.94
330.658	72.94
330.887	89.94
331.115	85.94
331.344	91.94
331.572	112.94
331.801	86.94
332.03	74.94
332.258	81.94
332.486	90.94
332.715	89.94
332.943	91.94
333.172	73.94
333.4	88.94
333.629	95.94
333.857	90.94
334.085	80.94
334.314	91.94
334.542	80.94
334.771	85.94
334.999	80.94
335.227	85.94
335.455	75.94
335.684	102.94
335.912	81.94
336.14	90.94
336.369	83.94
336.597	84.94
336.825	96.94
337.053	87.94
337.281	82.94
337.51	85.94
337.738	94.94
337.966	78.94
338.194	98.94
338.422	88.94
338.65	77.94
338.878	83.94
339.106	94.94
339.334	86.94
339.562	85.94
339.79	81.94
340.018	84.94
340.246	89.94
340.474	93.94
340.702	84.94
340.93	94.94
341.158	90.94
341.386	82.94
341.614	82.94
341.842	65.94
342.07	85.94
342.298	85.94
342.526	85.94
342.754	91.94
342.981	80.94
343.209	78.94
343.437	91.94
343.665	76.94
343.893	81.94
344.12	87.94
344.348	71.94
344.576	77.94
344.804	85.94
345.031	89.94
345.259	83.94
345.487	85.94
345.714	88.94
345.942	93.94
346.17	85.94
346.397	89.94
346.625	56.94
346.853	70.94
347.08	92.94
347.308	90.94
347.535	76.94
347.763	82.94
347.99	84.94
348.218	95.94
348.445	75.94
348.673	90.94
348.9	87.94
349.128	87.94
349.355	84.94
349.583	78.94
349.81	99.94
350.037	88.94
350.265	75.94
350.492	74.94
350.72	65.94
350.947	81.94
351.174	92.94
351.402	85.94
351.629	85.94
351.856	97.94
352.083	79.94
352.311	74.94
352.538	87.94
352.765	98.94
352.992	95.94
353.22	84.94
353.447	79.94
353.674	94.94
353.901	89.94
354.128	93.94
354.355	85.94
354.583	89.94
354.81	70.94
355.037	86.94
355.264	83.94
355.491	97.94
355.718	81.94
355.945	80.94
356.172	89.94
356.399	86.94
356.626	77.94
356.853	83.94
357.08	90.94
357.307	92.94
357.534	82.94
357.761	99.94
357.988	85.94
358.215	76.94
358.441	94.94
358.668	80.94
358.895	85.94
359.122	73.94
359.349	84.94
359.576	99.94
359.802	82.94
360.029	96.94
360.256	78.94
360.483	87.94
360.709	95.94
360.936	77.94
361.163	80.94
361.39	83.94
361.616	94.94
361.843	84.94
362.07	78.94
362.296	89.94
362.523	89.94
362.749	80.94
362.976	75.94
363.203	93.94
363.429	95.94
363.656	100.94
363.882	98.94
364.109	113.94
364.335	88.94
364.562	82.94
364.788	84.94
365.015	87.94
365.241	81.94
365.468	92.94
365.694	88.94
365.92	82.94
366.147	98.94
366.373	78.94
366.599	86.94
366.826	82.94
367.052	87.94
367.278	93.94
367.505	81.94
367.731	86.94
367.957	85.94
368.184	91.94
368.41	85.94
368.636	75.94
368.862	93.94
369.089	74.94
369.315	73.94
369.541	83.94
369.767	90.94
369.993	71.94
370.219	92.94
370.445	90.94
370.672	89.94
370.898	92.94
371.124	81.94
371.35	80.94
371.576	86.94
371.802	86.94
372.028	77.94
372.254	92.94
372.48	88.94
372.706	92.94
372.932	82.94
373.158	97.94
373.384	69.94
373.61	91.94
373.835	81.94
374.061	90.94
374.287	86.94
374.513	90.94
374.739	93.94
374.965	92.94
375.191	89.94
375.416	76.94
375.642	89.94
375.868	82.94
376.094	92.94
376.319	104.94
376.545	93.94
376.771	81.94
376.997	84.94
377.222	86.94
377.448	87.94
377.674	80.94
377.899	75.94
378.125	78.94
378.35	100.94
378.576	84.94
378.802	81.94
379.027	80.94
379.253	82.94
379.478	96.94
379.704	97.94
379.929	93.94
380.155	85.94
380.38	83.94
380.606	79.94
380.831	94.94
381.057	91.94
381.282	78.94
381.507	80.94
381.733	92.94
381.958	90.94
382.184	65.94
382.409	80.94
382.634	95.94
382.86	88.94
383.085	78.94
383.31	96.94
383.535	84.94
383.761	89.94
383.986	80.94
384.211	96.94
384.436	82.94
384.662	90.94
384.887	73.94
385.112	81.94
385.337	85.94
385.562	86.94
385.787	85.94
386.013	88.94
386.238	88.94
386.463	68.94
386.688	78.94
386.913	80.94
387.138	86.94
387.363	77.94
387.588	102.94
387.813	96.94
388.038	90.94
388.263	75.94
388.488	79.94
388.713	84.94
388.938	68.94
389.163	77.94
389.387	69.94
389.612	80.94
389.837	84.94
390.062	78.94
390.287	82.94
390.512	85.94
390.736	92.94
390.961	86.94
391.186	82.94
391.411	66.94
391.636	77.94
391.86	79.94
392.085	76.94
392.31	62.94
392.534	94.94
392.759	78.94
392.984	77.94
393.208	84.94
393.433	78.94
393.658	79.94
393.882	95.94
394.107	85.94
394.331	79.94
394.556	88.94
394.78	81.94
395.005	81.94
395.229	85.94
395.454	86.94
395.678	71.94
395.903	91.94
396.127	88.94
396.352	96.94
396.576	86.94
396.801	69.94
397.025	85.94
397.249	85.94
397.474	82.94
397.698	81.94
397.922	88.94
398.147	90.94
398.371	76.94
398.595	86.94
398.82	85.94
399.044	76.94
399.268	74.94
399.492	91.94
399.717	90.94
399.941	88.94
400.165	89.94
400.389	82.94
400.613	75.94
400.837	82.94
401.062	97.94
401.286	80.94
401.51	93.94
401.734	86.94
401.958	77.94
402.182	86.94
402.406	90.94
402.63	88.94
402.854	77.94
403.078	73.94
403.302	83.94
403.526	90.94
403.75	84.94
403.974	82.94
404.198	76.94
404.422	86.94
404.645	97.94
404.869	78.94
405.093	90.94
405.317	69.94
405.541	86.94
405.765	93.94
405.988	85.94
406.212	90.94
406.436	86.94
406.66	75.94
406.883	93.94
407.107	80.94
407.331	88.94
407.555	82.94
407.778	81.94
408.002	79.94
408.226	84.94
408.449	83.94
408.673	79.94
408.896	74.94
409.12	76.94
409.344	87.94
409.567	96.94
409.791	96.94
410.014	86.94
410.238	96.94
410.461	78.94
410.685	80.94
410.908	89.94
411.132	85.94
411.355	81.94
411.578	61.94
411.802	74.94
412.025	73.94
412.249	93.94
412.472	78.94
412.695	68.94
412.919	91.94
413.142	66.94
413.365	68.94
413.589	89.94
413.812	84.94
414.035	70.94
414.258	96.94
414.482	94.94
414.705	81.94
414.928	87.94
415.151	72.94
415.374	95.94
415.597	74.94
415.821	76.94
416.044	86.94
416.267	81.94
416.49	91.94
416.713	82.94
416.936	78.94
417.159	85.94
417.382	92.94
417.605	74.94
417.828	89.94
418.051	81.94
418.274	94.94
418.497	75.94
418.72	73.94
418.943	77.94
419.166	79.94
419.389	78.94
419.611	83.94
419.834	100.94
420.057	95.94
420.28	85.94
420.503	96.94
420.726	94.94
420.948	77.94
421.171	81.94
421.394	66.94
421.617	80.94
421.839	83.94
422.062	82.94
422.285	91.94
422.507	90.94
422.73	78.94
422.953	96.94
423.175	78.94
423.398	88.94
423.621	78.94
423.843	83.94
424.066	84.94
424.288	93.94
424.511	85.94
424.733	65.94
424.956	68.94
425.178	83.94
425.401	90.94
425.623	90.94
425.846	81.94
426.068	83.94
426.291	77.94
426.513	85.94
426.735	89.94
426.958	86.94
427.18	90.94
427.402	81.94
427.625	88.94
427.847	83.94
428.069	80.94
428.292	87.94
428.514	71.94
428.736	76.94
428.958	89.94
429.181	91.94
429.403	70.94
429.625	99.94
429.847	79.94
430.069	89.94
430.292	93.94
430.514	73.94
430.736	82.94
430.958	82.94
431.18	89.94
431.402	80.94
431.624	92.94
431.846	77.94
432.068	84.94
432.29	78.94
432.512	83.94
432.734	80.94
432.956	95.94
433.178	81.94
433.4	91.94
433.622	89.94
433.844	88.94
434.066	81.94
434.287	89.94
434.509	76.94
434.731	54.94
434.953	89.94
435.175	75.94
435.397	85.94
435.618	86.94
435.84	88.94
436.062	88.94
436.284	77.94
436.505	84.94
436.727	78.94
436.949	68.94
437.17	86.94
437.392	97.94
437.614	76.94
437.835	93.94
438.057	88.94
438.278	86.94
438.5	76.94
438.721	83.94
438.943	87.94
439.165	74.94
439.386	79.94
439.608	96.94
439.829	93.94
440.05	70.94
440.272	91.94
440.493	85.94
440.715	92.94
440.936	91.94
441.158	85.94
441.379	73.94
441.6	79.94
441.822	88.94
442.043	87.94
442.264	80.94
442.486	83.94
442.707	79.94
442.928	78.94
443.149	68.94
443.371	86.94
443.592	85.94
443.813	82.94
444.034	79.94
444.255	76.94
444.476	84.94
444.698	71.94
444.919	85.94
445.14	172.94
445.361	120.94
445.582	81.94
445.803	94.94
446.024	90.94
446.245	92.94
446.466	83.94
446.687	91.94
446.908	90.94
447.129	72.94
447.35	69.94
447.571	72.94
447.792	89.94
448.013	86.94
448.234	74.94
448.455	80.94
448.675	93.94
448.896	82.94
449.117	91.94
449.338	82.94
449.559	78.94
449.779	93.94
450	86.94
450.221	95.94
450.442	83.94
450.662	73.94
450.883	86.94
451.104	85.94
451.324	80.94
451.545	80.94
451.766	108.94
451.986	85.94
452.207	78.94
452.428	88.94
452.648	89.94
452.869	91.94
453.089	68.94
453.31	80.94
453.53	84.94
453.751	79.94
453.971	77.94
454.192	78.94
454.412	65.94
454.633	76.94
454.853	86.94
455.073	76.94
455.294	86.94
455.514	82.94
455.734	78.94
455.955	81.94
456.175	80.94
456.395	90.94
456.616	76.94
456.836	86.94
457.056	85.94
457.276	83.94
457.497	92.94
457.717	69.94
457.937	81.94
458.157	79.94
458.377	96.94
458.598	78.94
458.818	83.94
459.038	93.94
459.258	91.94
459.478	98.94
459.698	89.94
459.918	82.94
460.138	90.94
460.358	80.94
460.578	90.94
460.798	87.94
461.018	71.94
461.238	73.94
461.458	71.94
461.678	73.94
461.898	99.94
462.118	88.94
462.338	88.94
462.558	89.94
462.777	69.94
462.997	98.94
463.217	77.94
463.437	81.94
463.657	85.94
463.876	82.94
464.096	76.94
464.316	90.94
464.536	89.94
464.755	104.94
464.975	90.94
465.195	86.94
465.414	89.94
465.634	74.94
465.854	77.94
466.073	80.94
466.293	92.94
466.512	87.94
466.732	88.94
466.951	84.94
467.171	92.94
467.391	88.94
467.61	89.94
467.829	88.94
468.049	88.94
468.268	78.94
468.488	81.94
468.707	98.94
468.927	84.94
469.146	67.94
469.365	83.94
469.585	82.94
469.804	92.94
470.023	81.94
470.243	92.94
470.462	76.94
470.681	91.94
470.901	95.94
471.12	100.94
471.339	82.94
471.558	84.94
471.777	92.94
471.997	93.94
472.216	81.94
472.435	80.94
472.654	79.94
472.873	84.94
473.092	80.94
473.311	81.94
473.53	90.94
473.749	82.94
473.968	99.94
474.187	88.94
474.406	83.94
474.625	79.94
474.844	93.94
475.063	76.94
475.282	78.94
475.501	94.94
475.72	81.94
475.939	74.94
476.158	83.94
476.377	80.94
476.596	88.94
476.814	94.94
477.033	82.94
477.252	92.94
477.471	79.94
477.69	84.94
477.908	91.94
478.127	99.94
478.346	96.94
478.564	81.94
478.783	72.94
479.002	88.94
479.22	85.94
479.439	77.94
479.658	76.94
479.876	63.94
480.095	82.94
480.313	88.94
480.532	91.94
480.751	75.94
480.969	80.94
481.188	79.94
481.406	98.94
481.624	77.94
481.843	96.94
482.061	82.94
482.28	76.94
482.498	78.94
482.717	82.94
482.935	85.94
483.153	67.94
483.372	94.94
483.59	77.94
483.808	85.94
484.027	81.94
484.245	81.94
484.463	84.94
484.681	83.94
484.9	88.94
485.118	79.94
485.336	82.94
485.554	95.94
485.772	89.94
485.99	89.94
486.209	94.94
486.427	73.94
486.645	84.94
486.863	89.94
487.081	96.94
487.299	87.94
487.517	83.94
487.735	96.94
487.953	75.94
488.171	88.94
488.389	93.94
488.607	78.94
488.825	81.94
489.043	82.94
489.261	77.94
489.479	83.94
489.696	82.94
489.914	86.94
490.132	92.94
490.35	85.94
490.568	80.94
490.786	82.94
491.003	91.94
491.221	75.94
491.439	109.94
491.657	92.94
491.874	99.94
492.092	75.94
492.31	82.94
492.527	101.94
492.745	90.94
492.963	78.94
493.18	93.94
493.398	88.94
493.615	77.94
493.833	81.94
494.05	76.94
494.268	94.94
494.485	98.94
494.703	88.94
494.92	80.94
495.138	87.94
495.355	94.94
495.573	88.94
495.79	94.94
496.008	85.94
496.225	88.94
496.442	78.94
496.66	92.94
496.877	72.94
497.094	77.94
497.312	84.94
497.529	88.94
497.746	72.94
497.963	83.94
498.181	92.94
498.398	81.94
498.615	87.94
498.832	86.94
499.049	69.94
499.267	91.94
499.484	88.94
499.701	91.94
499.918	84.94
500.135	76.94
500.352	82.94
500.569	91.94
500.786	74.94
501.003	85.94
501.22	77.94
501.437	84.94
501.654	85.94
501.871	95.94
502.088	89.94
502.305	88.94
502.522	91.94
502.739	85.94
502.956	78.94
503.172	98.94
503.389	79.94
503.606	87.94
503.823	83.94
504.04	96.94
504.256	93.94
504.473	95.94
504.69	85.94
504.907	88.94
505.123	69.94
505.34	97.94
505.557	88.94
505.773	89.94
505.99	78.94
506.207	93.94
506.423	101.94
506.64	86.94
506.856	97.94
507.073	86.94
507.289	90.94
507.506	85.94
507.722	83.94
507.939	81.94
508.155	91.94
508.372	82.94
508.588	78.94
508.805	85.94
509.021	80.94
509.238	74.94
509.454	78.94
509.67	88.94
509.887	79.94
510.103	83.94
510.319	80.94
510.536	84.94
510.752	78.94
510.968	69.94
511.184	86.94
511.401	90.94
511.617	89.94
511.833	66.94
512.049	84.94
512.265	84.94
512.481	93.94
512.698	75.94
512.914	88.94
513.13	83.94
513.346	96.94
513.562	78.94
513.778	82.94
513.994	89.94
514.21	90.94
514.426	86.94
514.642	56.94
514.858	70.94
515.074	77.94
515.29	82.94
515.506	78.94
515.721	84.94
515.937	80.94
516.153	79.94
516.369	89.94
516.585	74.94
516.801	95.94
517.016	96.94
517.232	97.94
517.448	69.94
517.664	93.94
517.879	79.94
518.095	88.94
518.311	87.94
518.527	95.94
518.742	86.94
518.958	82.94
519.173	104.94
519.389	88.94
519.605	90.94
519.82	85.94
520.036	78.94
