Data from StdD_HRD10591_100.txt Node
Date: Fri May 16 15:32:11 EDT 2025
User: Yrep
Spectrometer: HR+D1059
Trigger mode: 1
Integration Time (sec): 1.000000E-1
Scans to average: 1
Electric dark correction enabled: true
Nonlinearity correction enabled: false
Boxcar width: 0
XAxis mode: Wavelengths
Number of Pixels in Spectrum: 2048
>>>>>Begin Spectral Data<<<<<
223.165	-10.38
223.4	-10.38
223.635	-10.38
223.869	-13.38
224.104	-4.38
224.338	-16.38
224.573	-12.38
224.808	-24.38
225.042	-14.38
225.277	-3.38
225.511	-0.38
225.746	-7.38
225.98	9.62
226.215	13.62
226.449	3.62
226.683	18.62
226.918	19.62
227.152	41.62
227.387	23.62
227.621	43.62
227.856	44.62
228.09	43.62
228.324	47.62
228.559	58.62
228.793	59.62
229.027	63.62
229.262	66.62
229.496	83.62
229.73	69.62
229.964	80.62
230.199	79.62
230.433	85.62
230.667	75.62
230.901	90.62
231.136	54.62
231.37	82.62
231.604	79.62
231.838	75.62
232.072	61.62
232.306	89.62
232.541	79.62
232.775	96.62
233.009	72.62
233.243	92.62
233.477	84.62
233.711	105.62
233.945	89.62
234.179	79.62
234.413	85.62
234.647	81.62
234.881	76.62
235.115	76.62
235.349	66.62
235.583	75.62
235.817	85.62
236.051	86.62
236.285	83.62
236.519	77.62
236.753	87.62
236.987	85.62
237.221	75.62
237.455	89.62
237.689	65.62
237.922	74.62
238.156	87.62
238.39	85.62
238.624	63.62
238.858	76.62
239.091	82.62
239.325	75.62
239.559	65.62
239.793	75.62
240.027	77.62
240.26	77.62
240.494	92.62
240.728	81.62
240.961	84.62
241.195	75.62
241.429	75.62
241.662	63.62
241.896	68.62
242.13	74.62
242.363	87.62
242.597	69.62
242.83	82.62
243.064	79.62
243.298	77.62
243.531	69.62
243.765	76.62
243.998	80.62
244.232	74.62
244.465	63.62
244.699	90.62
244.932	73.62
245.166	83.62
245.399	79.62
245.633	83.62
245.866	70.62
246.099	73.62
246.333	70.62
246.566	73.62
246.8	81.62
247.033	79.62
247.266	69.62
247.5	81.62
247.733	79.62
247.966	77.62
248.2	68.62
248.433	86.62
248.666	62.62
248.899	73.62
249.133	88.62
249.366	77.62
249.599	78.62
249.832	66.62
250.066	77.62
250.299	77.62
250.532	72.62
250.765	76.62
250.998	75.62
251.231	84.62
251.465	83.62
251.698	82.62
251.931	90.62
252.164	81.62
252.397	67.62
252.63	79.62
252.863	69.62
253.096	81.62
253.329	76.62
253.562	78.62
253.795	78.62
254.028	85.62
254.261	74.62
254.494	88.62
254.727	89.62
254.96	67.62
255.193	65.62
255.426	75.62
255.659	67.62
255.892	85.62
256.124	100.62
256.357	83.62
256.59	82.62
256.823	78.62
257.056	87.62
257.289	83.62
257.521	82.62
257.754	70.62
257.987	79.62
258.22	88.62
258.452	73.62
258.685	81.62
258.918	84.62
259.151	67.62
259.383	88.62
259.616	77.62
259.849	68.62
260.081	84.62
260.314	89.62
260.547	69.62
260.779	77.62
261.012	82.62
261.244	77.62
261.477	76.62
261.71	78.62
261.942	84.62
262.175	76.62
262.407	87.62
262.64	81.62
262.872	83.62
263.105	73.62
263.337	74.62
263.57	82.62
263.802	93.62
264.035	94.62
264.267	75.62
264.499	79.62
264.732	80.62
264.964	83.62
265.197	80.62
265.429	92.62
265.661	90.62
265.894	86.62
266.126	89.62
266.358	92.62
266.591	79.62
266.823	77.62
267.055	72.62
267.287	75.62
267.52	77.62
267.752	81.62
267.984	92.62
268.216	83.62
268.448	83.62
268.681	89.62
268.913	76.62
269.145	72.62
269.377	82.62
269.609	93.62
269.841	87.62
270.073	114.62
270.306	79.62
270.538	78.62
270.77	90.62
271.002	87.62
271.234	83.62
271.466	100.62
271.698	83.62
271.93	76.62
272.162	81.62
272.394	97.62
272.626	79.62
272.858	74.62
273.09	79.62
273.322	71.62
273.553	81.62
273.785	90.62
274.017	67.62
274.249	87.62
274.481	85.62
274.713	62.62
274.945	76.62
275.176	75.62
275.408	81.62
275.64	85.62
275.872	67.62
276.104	80.62
276.335	76.62
276.567	83.62
276.799	85.62
277.031	76.62
277.262	74.62
277.494	91.62
277.726	88.62
277.957	82.62
278.189	97.62
278.421	70.62
278.652	69.62
278.884	67.62
279.115	81.62
279.347	79.62
279.579	85.62
279.81	76.62
280.042	88.62
280.273	90.62
280.505	81.62
280.736	82.62
280.968	85.62
281.199	86.62
281.431	88.62
281.662	75.62
281.894	84.62
282.125	87.62
282.356	96.62
282.588	84.62
282.819	79.62
283.051	69.62
283.282	80.62
283.513	75.62
283.745	82.62
283.976	80.62
284.207	71.62
284.439	90.62
284.67	87.62
284.901	86.62
285.132	73.62
285.364	80.62
285.595	85.62
285.826	83.62
286.057	81.62
286.288	90.62
286.52	82.62
286.751	85.62
286.982	70.62
287.213	79.62
287.444	81.62
287.675	93.62
287.906	99.62
288.138	85.62
288.369	83.62
288.6	89.62
288.831	85.62
289.062	81.62
289.293	88.62
289.524	81.62
289.755	86.62
289.986	85.62
290.217	89.62
290.448	83.62
290.679	80.62
290.91	81.62
291.141	94.62
291.371	99.62
291.602	77.62
291.833	90.62
292.064	98.62
292.295	80.62
292.526	91.62
292.757	84.62
292.987	82.62
293.218	79.62
293.449	82.62
293.68	88.62
293.91	94.62
294.141	84.62
294.372	83.62
294.603	82.62
294.833	82.62
295.064	78.62
295.295	87.62
295.525	84.62
295.756	74.62
295.987	94.62
296.217	76.62
296.448	84.62
296.679	85.62
296.909	97.62
297.14	95.62
297.37	78.62
297.601	85.62
297.831	70.62
298.062	80.62
298.292	81.62
298.523	77.62
298.753	91.62
298.984	89.62
299.214	81.62
299.445	80.62
299.675	89.62
299.905	91.62
300.136	70.62
300.366	92.62
300.597	92.62
300.827	83.62
301.057	88.62
301.288	67.62
301.518	87.62
301.748	88.62
301.979	99.62
302.209	79.62
302.439	83.62
302.669	84.62
302.9	77.62
303.13	93.62
303.36	89.62
303.59	95.62
303.82	99.62
304.051	95.62
304.281	67.62
304.511	105.62
304.741	92.62
304.971	79.62
305.201	93.62
305.431	95.62
305.661	87.62
305.891	93.62
306.121	87.62
306.352	88.62
306.582	94.62
306.812	87.62
307.042	91.62
307.272	91.62
307.502	90.62
307.731	104.62
307.961	79.62
308.191	95.62
308.421	107.62
308.651	85.62
308.881	84.62
309.111	88.62
309.341	97.62
309.571	93.62
309.8	77.62
310.03	78.62
310.26	84.62
310.49	79.62
310.72	69.62
310.949	81.62
311.179	84.62
311.409	66.62
311.639	79.62
311.868	90.62
312.098	80.62
312.328	80.62
312.557	88.62
312.787	82.62
313.017	82.62
313.246	97.62
313.476	94.62
313.706	89.62
313.935	85.62
314.165	75.62
314.394	88.62
314.624	89.62
314.853	90.62
315.083	83.62
315.312	89.62
315.542	88.62
315.771	75.62
316.001	78.62
316.23	85.62
316.46	91.62
316.689	77.62
316.919	89.62
317.148	91.62
317.377	87.62
317.607	77.62
317.836	90.62
318.065	93.62
318.295	80.62
318.524	81.62
318.753	85.62
318.983	82.62
319.212	74.62
319.441	87.62
319.67	87.62
319.9	79.62
320.129	85.62
320.358	83.62
320.587	99.62
320.816	90.62
321.046	88.62
321.275	93.62
321.504	92.62
321.733	72.62
321.962	95.62
322.191	76.62
322.42	78.62
322.649	81.62
322.878	91.62
323.108	90.62
323.337	85.62
323.566	85.62
323.795	90.62
324.024	78.62
324.253	88.62
324.482	83.62
324.71	87.62
324.939	103.62
325.168	105.62
325.397	88.62
325.626	92.62
325.855	88.62
326.084	85.62
326.313	79.62
326.542	93.62
326.77	87.62
326.999	76.62
327.228	69.62
327.457	75.62
327.686	83.62
327.914	85.62
328.143	88.62
328.372	83.62
328.6	79.62
328.829	85.62
329.058	84.62
329.287	97.62
329.515	85.62
329.744	76.62
329.972	90.62
330.201	82.62
330.43	87.62
330.658	77.62
330.887	87.62
331.115	88.62
331.344	83.62
331.572	99.62
331.801	85.62
332.03	100.62
332.258	72.62
332.486	92.62
332.715	95.62
332.943	74.62
333.172	92.62
333.4	99.62
333.629	84.62
333.857	90.62
334.085	90.62
334.314	87.62
334.542	86.62
334.771	89.62
334.999	86.62
335.227	79.62
335.455	94.62
335.684	84.62
335.912	75.62
336.14	92.62
336.369	87.62
336.597	77.62
336.825	84.62
337.053	86.62
337.281	68.62
337.51	88.62
337.738	72.62
337.966	81.62
338.194	78.62
338.422	75.62
338.65	93.62
338.878	83.62
339.106	87.62
339.334	85.62
339.562	93.62
339.79	79.62
340.018	83.62
340.246	91.62
340.474	88.62
340.702	74.62
340.93	92.62
341.158	91.62
341.386	87.62
341.614	92.62
341.842	83.62
342.07	94.62
342.298	77.62
342.526	79.62
342.754	73.62
342.981	80.62
343.209	83.62
343.437	83.62
343.665	86.62
343.893	84.62
344.12	88.62
344.348	87.62
344.576	91.62
344.804	89.62
345.031	83.62
345.259	77.62
345.487	78.62
345.714	86.62
345.942	88.62
346.17	75.62
346.397	79.62
346.625	89.62
346.853	83.62
347.08	87.62
347.308	93.62
347.535	78.62
347.763	83.62
347.99	80.62
348.218	87.62
348.445	80.62
348.673	87.62
348.9	93.62
349.128	74.62
349.355	89.62
349.583	90.62
349.81	95.62
350.037	79.62
350.265	83.62
350.492	97.62
350.72	78.62
350.947	86.62
351.174	99.62
351.402	73.62
351.629	77.62
351.856	97.62
352.083	80.62
352.311	81.62
352.538	76.62
352.765	83.62
352.992	80.62
353.22	87.62
353.447	77.62
353.674	93.62
353.901	91.62
354.128	74.62
354.355	87.62
354.583	98.62
354.81	84.62
355.037	67.62
355.264	78.62
355.491	85.62
355.718	83.62
355.945	86.62
356.172	75.62
356.399	64.62
356.626	81.62
356.853	84.62
357.08	95.62
357.307	84.62
357.534	85.62
357.761	77.62
357.988	91.62
358.215	84.62
358.441	73.62
358.668	88.62
358.895	89.62
359.122	83.62
359.349	91.62
359.576	91.62
359.802	79.62
360.029	93.62
360.256	77.62
360.483	85.62
360.709	76.62
360.936	81.62
361.163	85.62
361.39	69.62
361.616	78.62
361.843	80.62
362.07	93.62
362.296	84.62
362.523	81.62
362.749	83.62
362.976	81.62
363.203	84.62
363.429	79.62
363.656	79.62
363.882	90.62
364.109	81.62
364.335	89.62
364.562	70.62
364.788	75.62
365.015	75.62
365.241	89.62
365.468	94.62
365.694	92.62
365.92	83.62
366.147	79.62
366.373	82.62
366.599	77.62
366.826	97.62
367.052	83.62
367.278	78.62
367.505	90.62
367.731	91.62
367.957	85.62
368.184	96.62
368.41	94.62
368.636	84.62
368.862	90.62
369.089	69.62
369.315	85.62
369.541	97.62
369.767	93.62
369.993	84.62
370.219	71.62
370.445	81.62
370.672	89.62
370.898	66.62
371.124	71.62
371.35	78.62
371.576	86.62
371.802	81.62
372.028	84.62
372.254	85.62
372.48	83.62
372.706	84.62
372.932	88.62
373.158	70.62
373.384	89.62
373.61	84.62
373.835	81.62
374.061	91.62
374.287	82.62
374.513	86.62
374.739	81.62
374.965	85.62
375.191	77.62
375.416	72.62
375.642	91.62
375.868	83.62
376.094	74.62
376.319	85.62
376.545	76.62
376.771	76.62
376.997	93.62
377.222	84.62
377.448	86.62
377.674	83.62
377.899	74.62
378.125	81.62
378.35	87.62
378.576	89.62
378.802	77.62
379.027	102.62
379.253	80.62
379.478	92.62
379.704	80.62
379.929	87.62
380.155	83.62
380.38	80.62
380.606	97.62
380.831	80.62
381.057	81.62
381.282	86.62
381.507	88.62
381.733	89.62
381.958	89.62
382.184	78.62
382.409	74.62
382.634	72.62
382.86	83.62
383.085	81.62
383.31	92.62
383.535	87.62
383.761	81.62
383.986	83.62
384.211	84.62
384.436	75.62
384.662	87.62
384.887	76.62
385.112	88.62
385.337	96.62
385.562	92.62
385.787	96.62
386.013	80.62
386.238	86.62
386.463	81.62
386.688	92.62
386.913	89.62
387.138	83.62
387.363	92.62
387.588	74.62
387.813	83.62
388.038	76.62
388.263	92.62
388.488	83.62
388.713	72.62
388.938	73.62
389.163	88.62
389.387	78.62
389.612	77.62
389.837	72.62
390.062	95.62
390.287	81.62
390.512	74.62
390.736	93.62
390.961	80.62
391.186	82.62
391.411	84.62
391.636	73.62
391.86	89.62
392.085	98.62
392.31	84.62
392.534	79.62
392.759	81.62
392.984	75.62
393.208	67.62
393.433	88.62
393.658	83.62
393.882	77.62
394.107	67.62
394.331	70.62
394.556	82.62
394.78	79.62
395.005	83.62
395.229	97.62
395.454	82.62
395.678	69.62
395.903	82.62
396.127	73.62
396.352	78.62
396.576	67.62
396.801	84.62
397.025	76.62
397.249	77.62
397.474	77.62
397.698	76.62
397.922	79.62
398.147	84.62
398.371	71.62
398.595	93.62
398.82	74.62
399.044	72.62
399.268	87.62
399.492	80.62
399.717	91.62
399.941	76.62
400.165	87.62
400.389	82.62
400.613	78.62
400.837	83.62
401.062	95.62
401.286	96.62
401.51	83.62
401.734	85.62
401.958	83.62
402.182	91.62
402.406	75.62
402.63	83.62
402.854	83.62
403.078	83.62
403.302	76.62
403.526	92.62
403.75	84.62
403.974	90.62
404.198	83.62
404.422	78.62
404.645	98.62
404.869	85.62
405.093	81.62
405.317	83.62
405.541	79.62
405.765	73.62
405.988	88.62
406.212	88.62
406.436	79.62
406.66	87.62
406.883	85.62
407.107	74.62
407.331	87.62
407.555	65.62
407.778	88.62
408.002	69.62
408.226	82.62
408.449	75.62
408.673	74.62
408.896	79.62
409.12	85.62
409.344	84.62
409.567	87.62
409.791	88.62
410.014	96.62
410.238	78.62
410.461	82.62
410.685	82.62
410.908	78.62
411.132	88.62
411.355	84.62
411.578	95.62
411.802	78.62
412.025	84.62
412.249	75.62
412.472	75.62
412.695	97.62
412.919	89.62
413.142	78.62
413.365	78.62
413.589	84.62
413.812	85.62
414.035	91.62
414.258	88.62
414.482	69.62
414.705	85.62
414.928	97.62
415.151	76.62
415.374	81.62
415.597	90.62
415.821	93.62
416.044	81.62
416.267	78.62
416.49	75.62
416.713	74.62
416.936	90.62
417.159	84.62
417.382	79.62
417.605	83.62
417.828	82.62
418.051	75.62
418.274	87.62
418.497	87.62
418.72	74.62
418.943	85.62
419.166	86.62
419.389	81.62
419.611	75.62
419.834	86.62
420.057	93.62
420.28	69.62
420.503	72.62
420.726	79.62
420.948	92.62
421.171	87.62
421.394	92.62
421.617	93.62
421.839	75.62
422.062	75.62
422.285	68.62
422.507	88.62
422.73	79.62
422.953	73.62
423.175	96.62
423.398	81.62
423.621	89.62
423.843	71.62
424.066	79.62
424.288	89.62
424.511	72.62
424.733	89.62
424.956	93.62
425.178	73.62
425.401	88.62
425.623	82.62
425.846	81.62
426.068	72.62
426.291	64.62
426.513	77.62
426.735	73.62
426.958	89.62
427.18	66.62
427.402	84.62
427.625	86.62
427.847	80.62
428.069	93.62
428.292	83.62
428.514	78.62
428.736	80.62
428.958	88.62
429.181	69.62
429.403	93.62
429.625	80.62
429.847	71.62
430.069	87.62
430.292	76.62
430.514	91.62
430.736	82.62
430.958	84.62
431.18	75.62
431.402	91.62
431.624	87.62
431.846	92.62
432.068	87.62
432.29	77.62
432.512	81.62
432.734	73.62
432.956	76.62
433.178	89.62
433.4	83.62
433.622	79.62
433.844	76.62
434.066	86.62
434.287	69.62
434.509	76.62
434.731	73.62
434.953	87.62
435.175	71.62
435.397	74.62
435.618	77.62
435.84	91.62
436.062	84.62
436.284	90.62
436.505	93.62
436.727	86.62
436.949	96.62
437.17	82.62
437.392	67.62
437.614	88.62
437.835	80.62
438.057	73.62
438.278	83.62
438.5	80.62
438.721	65.62
438.943	77.62
439.165	91.62
439.386	74.62
439.608	72.62
439.829	75.62
440.05	72.62
440.272	96.62
440.493	80.62
440.715	71.62
440.936	76.62
441.158	92.62
441.379	81.62
441.6	87.62
441.822	77.62
442.043	84.62
442.264	70.62
442.486	65.62
442.707	83.62
442.928	84.62
443.149	71.62
443.371	93.62
443.592	76.62
443.813	81.62
444.034	81.62
444.255	83.62
444.476	90.62
444.698	90.62
444.919	85.62
445.14	157.62
445.361	101.62
445.582	74.62
445.803	79.62
446.024	90.62
446.245	96.62
446.466	90.62
446.687	75.62
446.908	84.62
447.129	89.62
447.35	86.62
447.571	82.62
447.792	91.62
448.013	87.62
448.234	67.62
448.455	91.62
448.675	92.62
448.896	87.62
449.117	81.62
449.338	69.62
449.559	90.62
449.779	81.62
450	95.62
450.221	82.62
450.442	90.62
450.662	75.62
450.883	86.62
451.104	91.62
451.324	87.62
451.545	97.62
451.766	73.62
451.986	86.62
452.207	90.62
452.428	84.62
452.648	83.62
452.869	87.62
453.089	67.62
453.31	74.62
453.53	87.62
453.751	67.62
453.971	88.62
454.192	84.62
454.412	66.62
454.633	58.62
454.853	90.62
455.073	80.62
455.294	76.62
455.514	87.62
455.734	71.62
455.955	81.62
456.175	91.62
456.395	80.62
456.616	81.62
456.836	75.62
457.056	67.62
457.276	69.62
457.497	77.62
457.717	82.62
457.937	83.62
458.157	76.62
458.377	88.62
458.598	71.62
458.818	81.62
459.038	75.62
459.258	87.62
459.478	90.62
459.698	73.62
459.918	77.62
460.138	73.62
460.358	90.62
460.578	91.62
460.798	72.62
461.018	75.62
461.238	85.62
461.458	91.62
461.678	79.62
461.898	88.62
462.118	78.62
462.338	69.62
462.558	87.62
462.777	79.62
462.997	82.62
463.217	69.62
463.437	81.62
463.657	87.62
463.876	76.62
464.096	81.62
464.316	79.62
464.536	87.62
464.755	90.62
464.975	81.62
465.195	82.62
465.414	72.62
465.634	86.62
465.854	81.62
466.073	84.62
466.293	85.62
466.512	70.62
466.732	81.62
466.951	73.62
467.171	89.62
467.391	85.62
467.61	87.62
467.829	74.62
468.049	98.62
468.268	92.62
468.488	85.62
468.707	77.62
468.927	66.62
469.146	81.62
469.365	83.62
469.585	84.62
469.804	79.62
470.023	77.62
470.243	80.62
470.462	86.62
470.681	83.62
470.901	73.62
471.12	93.62
471.339	95.62
471.558	77.62
471.777	86.62
471.997	87.62
472.216	83.62
472.435	75.62
472.654	75.62
472.873	88.62
473.092	76.62
473.311	79.62
473.53	89.62
473.749	92.62
473.968	77.62
474.187	85.62
474.406	74.62
474.625	77.62
474.844	89.62
475.063	79.62
475.282	81.62
475.501	89.62
475.72	74.62
475.939	90.62
476.158	80.62
476.377	72.62
476.596	99.62
476.814	92.62
477.033	75.62
477.252	93.62
477.471	80.62
477.69	86.62
477.908	102.62
478.127	89.62
478.346	81.62
478.564	96.62
478.783	89.62
479.002	73.62
479.22	93.62
479.439	77.62
479.658	73.62
479.876	87.62
480.095	68.62
480.313	96.62
480.532	89.62
480.751	74.62
480.969	70.62
481.188	91.62
481.406	79.62
481.624	81.62
481.843	79.62
482.061	88.62
482.28	80.62
482.498	87.62
482.717	83.62
482.935	70.62
483.153	93.62
483.372	87.62
483.59	81.62
483.808	76.62
484.027	80.62
484.245	83.62
484.463	85.62
484.681	82.62
484.9	83.62
485.118	95.62
485.336	83.62
485.554	91.62
485.772	93.62
485.99	89.62
486.209	77.62
486.427	82.62
486.645	87.62
486.863	95.62
487.081	82.62
487.299	85.62
487.517	101.62
487.735	77.62
487.953	85.62
488.171	95.62
488.389	92.62
488.607	97.62
488.825	95.62
489.043	77.62
489.261	95.62
489.479	77.62
489.696	87.62
489.914	88.62
490.132	93.62
490.35	88.62
490.568	97.62
490.786	75.62
491.003	92.62
491.221	74.62
491.439	86.62
491.657	91.62
491.874	91.62
492.092	83.62
492.31	96.62
492.527	87.62
492.745	79.62
492.963	77.62
493.18	76.62
493.398	86.62
493.615	80.62
493.833	85.62
494.05	69.62
494.268	76.62
494.485	99.62
494.703	77.62
494.92	93.62
495.138	96.62
495.355	95.62
495.573	75.62
495.79	103.62
496.008	85.62
496.225	82.62
496.442	75.62
496.66	101.62
496.877	84.62
497.094	80.62
497.312	96.62
497.529	89.62
497.746	87.62
497.963	73.62
498.181	81.62
498.398	61.62
498.615	73.62
498.832	69.62
499.049	85.62
499.267	69.62
499.484	70.62
499.701	81.62
499.918	99.62
500.135	87.62
500.352	89.62
500.569	88.62
500.786	104.62
501.003	88.62
501.22	81.62
501.437	83.62
501.654	69.62
501.871	84.62
502.088	94.62
502.305	79.62
502.522	83.62
502.739	82.62
502.956	73.62
503.172	75.62
503.389	75.62
503.606	80.62
503.823	78.62
504.04	67.62
504.256	86.62
504.473	73.62
504.69	87.62
504.907	91.62
505.123	79.62
505.34	76.62
505.557	80.62
505.773	69.62
505.99	94.62
506.207	79.62
506.423	79.62
506.64	86.62
506.856	96.62
507.073	80.62
507.289	95.62
507.506	92.62
507.722	83.62
507.939	79.62
508.155	89.62
508.372	80.62
508.588	91.62
508.805	79.62
509.021	83.62
509.238	80.62
509.454	77.62
509.67	87.62
509.887	78.62
510.103	84.62
510.319	93.62
510.536	79.62
510.752	79.62
510.968	80.62
511.184	73.62
511.401	80.62
511.617	85.62
511.833	75.62
512.049	70.62
512.265	71.62
512.481	85.62
512.698	81.62
512.914	92.62
513.13	66.62
513.346	82.62
513.562	78.62
513.778	85.62
513.994	78.62
514.21	75.62
514.426	84.62
514.642	80.62
514.858	75.62
515.074	84.62
515.29	85.62
515.506	76.62
515.721	85.62
515.937	81.62
516.153	83.62
516.369	62.62
516.585	83.62
516.801	91.62
517.016	80.62
517.232	91.62
517.448	85.62
517.664	77.62
517.879	78.62
518.095	92.62
518.311	78.62
518.527	81.62
518.742	90.62
518.958	80.62
519.173	90.62
519.389	83.62
519.605	89.62
519.82	85.62
520.036	84.62
