Data from StdD_HRD10591_067.txt Node
Date: Fri May 16 15:31:54 EDT 2025
User: Yrep
Spectrometer: HR+D1059
Trigger mode: 1
Integration Time (sec): 1.000000E-1
Scans to average: 1
Electric dark correction enabled: true
Nonlinearity correction enabled: false
Boxcar width: 0
XAxis mode: Wavelengths
Number of Pixels in Spectrum: 2048
>>>>>Begin Spectral Data<<<<<
223.165	-15
223.4	-15
223.635	-15
223.869	-31
224.104	-9
224.338	-2
224.573	-16
224.808	-1
225.042	-14
225.277	-4
225.511	-3
225.746	-7
225.98	8
226.215	17
226.449	2
226.683	13
226.918	18
227.152	44
227.387	48
227.621	44
227.856	38
228.09	47
228.324	49
228.559	67
228.793	64
229.027	64
229.262	58
229.496	57
229.73	66
229.964	70
230.199	76
230.433	69
230.667	74
230.901	89
231.136	74
231.37	70
231.604	75
231.838	79
232.072	76
232.306	80
232.541	78
232.775	69
233.009	88
233.243	79
233.477	81
233.711	81
233.945	76
234.179	72
234.413	54
234.647	76
234.881	81
235.115	68
235.349	76
235.583	71
235.817	75
236.051	87
236.285	65
236.519	82
236.753	88
236.987	82
237.221	78
237.455	67
237.689	81
237.922	72
238.156	71
238.39	65
238.624	59
238.858	68
239.091	77
239.325	85
239.559	78
239.793	62
240.027	60
240.26	75
240.494	77
240.728	83
240.961	69
241.195	74
241.429	84
241.662	84
241.896	68
242.13	76
242.363	82
242.597	67
242.83	79
243.064	81
243.298	76
243.531	80
243.765	85
243.998	70
244.232	86
244.465	88
244.699	78
244.932	63
245.166	80
245.399	75
245.633	73
245.866	72
246.099	70
246.333	76
246.566	85
246.8	80
247.033	71
247.266	69
247.5	72
247.733	82
247.966	76
248.2	78
248.433	73
248.666	74
248.899	78
249.133	79
249.366	82
249.599	89
249.832	82
250.066	73
250.299	70
250.532	71
250.765	59
250.998	73
251.231	66
251.465	85
251.698	67
251.931	74
252.164	78
252.397	80
252.63	82
252.863	84
253.096	77
253.329	72
253.562	72
253.795	62
254.028	76
254.261	71
254.494	82
254.727	81
254.96	84
255.193	75
255.426	71
255.659	73
255.892	74
256.124	87
256.357	87
256.59	83
256.823	68
257.056	66
257.289	79
257.521	88
257.754	72
257.987	93
258.22	88
258.452	69
258.685	66
258.918	61
259.151	66
259.383	74
259.616	80
259.849	76
260.081	69
260.314	79
260.547	81
260.779	75
261.012	86
261.244	82
261.477	84
261.71	75
261.942	74
262.175	92
262.407	83
262.64	88
262.872	84
263.105	91
263.337	86
263.57	89
263.802	86
264.035	76
264.267	76
264.499	81
264.732	78
264.964	93
265.197	77
265.429	74
265.661	76
265.894	77
266.126	77
266.358	70
266.591	76
266.823	75
267.055	90
267.287	80
267.52	80
267.752	83
267.984	83
268.216	87
268.448	80
268.681	90
268.913	79
269.145	78
269.377	71
269.609	76
269.841	79
270.073	86
270.306	82
270.538	80
270.77	80
271.002	91
271.234	72
271.466	75
271.698	72
271.93	85
272.162	83
272.394	79
272.626	80
272.858	76
273.09	87
273.322	80
273.553	83
273.785	86
274.017	90
274.249	82
274.481	86
274.713	74
274.945	82
275.176	90
275.408	84
275.64	62
275.872	76
276.104	78
276.335	85
276.567	82
276.799	96
277.031	87
277.262	76
277.494	88
277.726	79
277.957	88
278.189	72
278.421	81
278.652	82
278.884	84
279.115	87
279.347	61
279.579	76
279.81	66
280.042	70
280.273	74
280.505	74
280.736	80
280.968	80
281.199	89
281.431	88
281.662	87
281.894	80
282.125	89
282.356	87
282.588	85
282.819	87
283.051	93
283.282	69
283.513	75
283.745	85
283.976	78
284.207	84
284.439	87
284.67	91
284.901	78
285.132	76
285.364	88
285.595	78
285.826	78
286.057	79
286.288	66
286.52	91
286.751	80
286.982	78
287.213	87
287.444	83
287.675	83
287.906	87
288.138	87
288.369	90
288.6	92
288.831	75
289.062	72
289.293	98
289.524	88
289.755	86
289.986	91
290.217	78
290.448	86
290.679	90
290.91	91
291.141	74
291.371	65
291.602	84
291.833	95
292.064	86
292.295	72
292.526	88
292.757	79
292.987	90
293.218	98
293.449	73
293.68	88
293.91	86
294.141	77
294.372	86
294.603	54
294.833	71
295.064	76
295.295	91
295.525	98
295.756	99
295.987	84
296.217	74
296.448	78
296.679	83
296.909	66
297.14	98
297.37	79
297.601	84
297.831	79
298.062	92
298.292	74
298.523	89
298.753	75
298.984	74
299.214	84
299.445	80
299.675	76
299.905	90
300.136	71
300.366	86
300.597	90
300.827	89
301.057	85
301.288	78
301.518	86
301.748	87
301.979	97
302.209	84
302.439	82
302.669	85
302.9	74
303.13	76
303.36	82
303.59	84
303.82	91
304.051	90
304.281	95
304.511	81
304.741	87
304.971	75
305.201	72
305.431	67
305.661	102
305.891	76
306.121	93
306.352	83
306.582	93
306.812	86
307.042	70
307.272	72
307.502	82
307.731	86
307.961	84
308.191	86
308.421	90
308.651	76
308.881	83
309.111	79
309.341	86
309.571	97
309.8	90
310.03	70
310.26	79
310.49	83
310.72	80
310.949	98
311.179	84
311.409	78
311.639	104
311.868	81
312.098	87
312.328	86
312.557	76
312.787	85
313.017	81
313.246	79
313.476	80
313.706	77
313.935	87
314.165	84
314.394	89
314.624	88
314.853	88
315.083	77
315.312	78
315.542	87
315.771	72
316.001	78
316.23	91
316.46	78
316.689	84
316.919	86
317.148	92
317.377	85
317.607	86
317.836	77
318.065	85
318.295	79
318.524	82
318.753	67
318.983	94
319.212	88
319.441	86
319.67	87
319.9	87
320.129	88
320.358	91
320.587	72
320.816	94
321.046	81
321.275	80
321.504	76
321.733	87
321.962	97
322.191	89
322.42	90
322.649	99
322.878	86
323.108	84
323.337	101
323.566	86
323.795	81
324.024	88
324.253	80
324.482	88
324.71	81
324.939	83
325.168	87
325.397	81
325.626	74
325.855	80
326.084	85
326.313	94
326.542	89
326.77	74
326.999	83
327.228	86
327.457	90
327.686	90
327.914	89
328.143	80
328.372	92
328.6	99
328.829	93
329.058	81
329.287	76
329.515	95
329.744	83
329.972	82
330.201	81
330.43	82
330.658	68
330.887	76
331.115	84
331.344	89
331.572	83
331.801	88
332.03	92
332.258	89
332.486	83
332.715	74
332.943	85
333.172	80
333.4	81
333.629	80
333.857	86
334.085	72
334.314	99
334.542	83
334.771	93
334.999	90
335.227	86
335.455	82
335.684	101
335.912	90
336.14	78
336.369	97
336.597	85
336.825	79
337.053	82
337.281	79
337.51	76
337.738	87
337.966	88
338.194	94
338.422	79
338.65	85
338.878	97
339.106	76
339.334	82
339.562	98
339.79	73
340.018	94
340.246	84
340.474	86
340.702	87
340.93	83
341.158	98
341.386	70
341.614	85
341.842	83
342.07	81
342.298	83
342.526	82
342.754	78
342.981	84
343.209	73
343.437	87
343.665	88
343.893	82
344.12	87
344.348	79
344.576	84
344.804	90
345.031	93
345.259	82
345.487	87
345.714	76
345.942	92
346.17	75
346.397	87
346.625	82
346.853	78
347.08	88
347.308	103
347.535	90
347.763	86
347.99	87
348.218	71
348.445	85
348.673	93
348.9	93
349.128	82
349.355	85
349.583	84
349.81	82
350.037	97
350.265	86
350.492	76
350.72	70
350.947	91
351.174	95
351.402	79
351.629	88
351.856	86
352.083	105
352.311	102
352.538	90
352.765	81
352.992	86
353.22	81
353.447	84
353.674	97
353.901	95
354.128	78
354.355	88
354.583	88
354.81	88
355.037	103
355.264	82
355.491	71
355.718	83
355.945	88
356.172	76
356.399	81
356.626	70
356.853	72
357.08	84
357.307	83
357.534	82
357.761	87
357.988	82
358.215	86
358.441	98
358.668	95
358.895	93
359.122	96
359.349	91
359.576	93
359.802	95
360.029	77
360.256	80
360.483	84
360.709	92
360.936	84
361.163	78
361.39	76
361.616	87
361.843	83
362.07	73
362.296	81
362.523	85
362.749	90
362.976	85
363.203	83
363.429	74
363.656	86
363.882	87
364.109	76
364.335	70
364.562	94
364.788	89
365.015	94
365.241	98
365.468	75
365.694	96
365.92	81
366.147	82
366.373	83
366.599	81
366.826	91
367.052	78
367.278	83
367.505	87
367.731	90
367.957	84
368.184	87
368.41	92
368.636	80
368.862	87
369.089	79
369.315	88
369.541	88
369.767	68
369.993	69
370.219	86
370.445	86
370.672	95
370.898	80
371.124	98
371.35	98
371.576	82
371.802	89
372.028	88
372.254	79
372.48	87
372.706	96
372.932	102
373.158	87
373.384	80
373.61	77
373.835	63
374.061	73
374.287	89
374.513	82
374.739	85
374.965	76
375.191	80
375.416	81
375.642	76
375.868	70
376.094	68
376.319	87
376.545	98
376.771	90
376.997	83
377.222	90
377.448	94
377.674	88
377.899	84
378.125	82
378.35	73
378.576	63
378.802	95
379.027	85
379.253	85
379.478	92
379.704	87
379.929	83
380.155	77
380.38	80
380.606	89
380.831	92
381.057	92
381.282	97
381.507	86
381.733	98
381.958	84
382.184	98
382.409	76
382.634	67
382.86	76
383.085	87
383.31	93
383.535	90
383.761	80
383.986	96
384.211	95
384.436	84
384.662	80
384.887	90
385.112	92
385.337	87
385.562	91
385.787	91
386.013	95
386.238	81
386.463	89
386.688	100
386.913	83
387.138	76
387.363	95
387.588	90
387.813	87
388.038	72
388.263	86
388.488	88
388.713	89
388.938	81
389.163	84
389.387	88
389.612	72
389.837	80
390.062	76
390.287	87
390.512	90
390.736	87
390.961	103
391.186	74
391.411	82
391.636	93
391.86	80
392.085	71
392.31	89
392.534	83
392.759	79
392.984	83
393.208	82
393.433	87
393.658	82
393.882	69
394.107	88
394.331	82
394.556	81
394.78	78
395.005	79
395.229	88
395.454	90
395.678	87
395.903	90
396.127	83
396.352	74
396.576	75
396.801	82
397.025	66
397.249	81
397.474	84
397.698	83
397.922	81
398.147	84
398.371	91
398.595	91
398.82	103
399.044	94
399.268	84
399.492	98
399.717	89
399.941	74
400.165	68
400.389	86
400.613	95
400.837	82
401.062	99
401.286	91
401.51	79
401.734	80
401.958	98
402.182	81
402.406	83
402.63	71
402.854	78
403.078	79
403.302	84
403.526	82
403.75	89
403.974	81
404.198	96
404.422	92
404.645	91
404.869	71
405.093	86
405.317	73
405.541	90
405.765	85
405.988	80
406.212	72
406.436	84
406.66	81
406.883	88
407.107	86
407.331	83
407.555	94
407.778	87
408.002	86
408.226	78
408.449	72
408.673	82
408.896	76
409.12	105
409.344	86
409.567	97
409.791	88
410.014	100
410.238	64
410.461	80
410.685	88
410.908	83
411.132	91
411.355	87
411.578	80
411.802	82
412.025	83
412.249	78
412.472	79
412.695	82
412.919	75
413.142	94
413.365	91
413.589	73
413.812	90
414.035	78
414.258	74
414.482	81
414.705	92
414.928	89
415.151	68
415.374	76
415.597	81
415.821	78
416.044	69
416.267	74
416.49	99
416.713	77
416.936	86
417.159	91
417.382	86
417.605	84
417.828	92
418.051	77
418.274	84
418.497	89
418.72	93
418.943	79
419.166	94
419.389	95
419.611	91
419.834	89
420.057	94
420.28	71
420.503	83
420.726	65
420.948	78
421.171	82
421.394	84
421.617	70
421.839	98
422.062	70
422.285	88
422.507	84
422.73	80
422.953	81
423.175	82
423.398	86
423.621	91
423.843	84
424.066	89
424.288	82
424.511	79
424.733	91
424.956	79
425.178	91
425.401	79
425.623	84
425.846	87
426.068	72
426.291	73
426.513	79
426.735	93
426.958	79
427.18	92
427.402	97
427.625	89
427.847	87
428.069	85
428.292	86
428.514	82
428.736	75
428.958	83
429.181	84
429.403	103
429.625	96
429.847	83
430.069	84
430.292	81
430.514	88
430.736	88
430.958	87
431.18	96
431.402	79
431.624	92
431.846	76
432.068	82
432.29	69
432.512	89
432.734	68
432.956	93
433.178	73
433.4	81
433.622	97
433.844	83
434.066	74
434.287	86
434.509	82
434.731	99
434.953	79
435.175	90
435.397	100
435.618	80
435.84	76
436.062	74
436.284	80
436.505	83
436.727	73
436.949	83
437.17	86
437.392	79
437.614	80
437.835	61
438.057	90
438.278	65
438.5	82
438.721	87
438.943	76
439.165	82
439.386	87
439.608	90
439.829	87
440.05	78
440.272	75
440.493	91
440.715	73
440.936	90
441.158	103
441.379	74
441.6	72
441.822	71
442.043	92
442.264	83
442.486	85
442.707	92
442.928	78
443.149	66
443.371	87
443.592	87
443.813	94
444.034	81
444.255	79
444.476	107
444.698	81
444.919	82
445.14	178
445.361	124
445.582	85
445.803	80
446.024	82
446.245	80
446.466	72
446.687	92
446.908	83
447.129	79
447.35	82
447.571	84
447.792	78
448.013	80
448.234	79
448.455	80
448.675	75
448.896	80
449.117	70
449.338	75
449.559	75
449.779	68
450	70
450.221	72
450.442	86
450.662	82
450.883	97
451.104	80
451.324	95
451.545	85
451.766	89
451.986	72
452.207	86
452.428	72
452.648	79
452.869	84
453.089	88
453.31	89
453.53	83
453.751	91
453.971	75
454.192	84
454.412	91
454.633	85
454.853	88
455.073	71
455.294	91
455.514	88
455.734	88
455.955	84
456.175	77
456.395	72
456.616	81
456.836	86
457.056	90
457.276	88
457.497	94
457.717	82
457.937	79
458.157	73
458.377	76
458.598	73
458.818	84
459.038	65
459.258	79
459.478	77
459.698	71
459.918	74
460.138	69
460.358	84
460.578	70
460.798	80
461.018	84
461.238	80
461.458	91
461.678	90
461.898	77
462.118	88
462.338	84
462.558	81
462.777	75
462.997	88
463.217	87
463.437	81
463.657	82
463.876	86
464.096	75
464.316	89
464.536	72
464.755	84
464.975	84
465.195	73
465.414	76
465.634	73
465.854	90
466.073	83
466.293	83
466.512	96
466.732	91
466.951	89
467.171	78
467.391	93
467.61	67
467.829	69
468.049	89
468.268	83
468.488	70
468.707	87
468.927	75
469.146	82
469.365	90
469.585	88
469.804	93
470.023	72
470.243	90
470.462	82
470.681	81
470.901	72
471.12	84
471.339	87
471.558	78
471.777	78
471.997	87
472.216	87
472.435	78
472.654	84
472.873	83
473.092	86
473.311	91
473.53	84
473.749	94
473.968	89
474.187	86
474.406	75
474.625	78
474.844	66
475.063	93
475.282	78
475.501	65
475.72	95
475.939	89
476.158	86
476.377	81
476.596	82
476.814	91
477.033	80
477.252	83
477.471	84
477.69	79
477.908	91
478.127	82
478.346	74
478.564	85
478.783	74
479.002	75
479.22	71
479.439	82
479.658	89
479.876	94
480.095	81
480.313	89
480.532	87
480.751	94
480.969	89
481.188	98
481.406	83
481.624	80
481.843	92
482.061	76
482.28	89
482.498	74
482.717	84
482.935	69
483.153	67
483.372	94
483.59	89
483.808	83
484.027	76
484.245	77
484.463	94
484.681	92
484.9	78
485.118	89
485.336	79
485.554	89
485.772	76
485.99	85
486.209	82
486.427	86
486.645	79
486.863	82
487.081	89
487.299	84
487.517	73
487.735	88
487.953	89
488.171	82
488.389	83
488.607	88
488.825	88
489.043	81
489.261	90
489.479	78
489.696	102
489.914	95
490.132	78
490.35	97
490.568	87
490.786	73
491.003	80
491.221	78
491.439	86
491.657	80
491.874	93
492.092	77
492.31	83
492.527	94
492.745	76
492.963	68
493.18	82
493.398	89
493.615	85
493.833	75
494.05	90
494.268	67
494.485	78
494.703	58
494.92	86
495.138	83
495.355	92
495.573	80
495.79	84
496.008	83
496.225	93
496.442	78
496.66	93
496.877	86
497.094	91
497.312	78
497.529	88
497.746	98
497.963	87
498.181	87
498.398	86
498.615	74
498.832	80
499.049	72
499.267	82
499.484	72
499.701	76
499.918	88
500.135	86
500.352	97
500.569	78
500.786	89
501.003	97
501.22	86
501.437	72
501.654	77
501.871	90
502.088	83
502.305	65
502.522	69
502.739	74
502.956	83
503.172	92
503.389	76
503.606	71
503.823	66
504.04	64
504.256	83
504.473	87
504.69	88
504.907	87
505.123	78
505.34	80
505.557	92
505.773	99
505.99	74
506.207	79
506.423	81
506.64	92
506.856	77
507.073	74
507.289	97
507.506	95
507.722	66
507.939	73
508.155	93
508.372	88
508.588	94
508.805	79
509.021	77
509.238	72
509.454	78
509.67	90
509.887	82
510.103	91
510.319	64
510.536	83
510.752	60
510.968	88
511.184	95
511.401	84
511.617	87
511.833	83
512.049	95
512.265	84
512.481	89
512.698	90
512.914	83
513.13	84
513.346	75
513.562	78
513.778	85
513.994	87
514.21	76
514.426	81
514.642	79
514.858	81
515.074	82
515.29	81
515.506	82
515.721	90
515.937	73
516.153	76
516.369	86
516.585	85
516.801	73
517.016	86
517.232	90
517.448	72
517.664	84
517.879	87
518.095	77
518.311	82
518.527	76
518.742	84
518.958	88
519.173	94
519.389	87
519.605	83
519.82	81
520.036	90
520.251	77
520.467	88
520.682	87
520.898	75
521.113	94
521.329	81
521.544	84
521.76	94
521.975	81
522.19	74
522.406	89
522.621	86
522.836	87
523.052	79
523.267	84
523.482	80
523.698	81
523.913	87
524.128	80
524.343	87
524.559	78
524.774	82
524.989	93
525.204	74
525.419	80
525.634	83
525.849	75
526.064	84
526.28	83
526.495	95
526.71	78
526.925	88
527.14	99
527.355	96
527.57	71
527.785	72
527.999	81
528.214	86
528.429	66
528.644	80
528.859	72
529.074	71
529.289	90
529.503	86
529.718	81
529.933	76
530.148	76
530.363	83
530.577	92
530.792	82
531.007	67
531.221	96
531.436	97
531.651	95
531.865	80
532.08	83
532.295	90
532.509	79
532.724	80
532.938	77
533.153	83
533.367	78
533.582	86
533.796	86
534.011	92
534.225	83
534.44	91
534.654	107
534.868	75
535.083	75
535.297	74
535.511	91
535.726	80
535.94	75
536.154	78
536.369	69
536.583	80
536.797	93
537.011	79
537.225	77
537.44	98
537.654	88
537.868	85
538.082	75
538.296	83
538.51	74
538.724	80
538.938	86
539.153	82
539.367	86
539.581	89
539.795	64
540.009	92
540.222	87
540.436	92
540.65	64
540.864	87
541.078	67
541.292	78
541.506	81
541.72	89
541.934	91
542.147	74
542.361	89
542.575	91
542.789	70
543.002	79
543.216	68
543.43	85
543.644	87
543.857	87
544.071	81
544.285	90
544.498	86
544.712	88
544.925	70
545.139	83
545.352	83
545.566	97
545.779	96
545.993	86
546.206	85
546.42	91
546.633	78
546.847	98
547.06	91
547.274	86
547.487	91
547.7	80
547.914	91
548.127	87
548.34	83
548.554	74
548.767	76
548.98	73
549.193	96
549.407	80
549.62	76
549.833	86
550.046	82
550.259	92
550.473	84
550.686	85
550.899	86
551.112	94
551.325	89
551.538	90
551.751	85
551.964	104
552.177	102
552.39	84
552.603	80
552.816	85
553.029	90
553.242	89
553.455	84
553.667	106
553.88	90
554.093	90
554.306	94
554.519	88
554.732	96
554.944	90
555.157	85
555.37	94
555.583	95
555.795	90
556.008	87
556.221	85
556.433	93
556.646	90
556.859	89
557.071	75
557.284	94
557.496	88
557.709	82
557.921	97
558.134	80
558.346	88
558.559	95
558.771	96
558.984	91
559.196	92
559.409	82
559.621	88
559.833	88
560.046	79
560.258	84
560.47	89
560.683	86
560.895	87
561.107	91
561.32	90
561.532	64
561.744	88
561.956	95
562.168	86
562.381	78
562.593	100
562.805	77
563.017	89
563.229	86
563.441	95
563.653	78
563.865	84
564.077	96
564.289	81
564.501	80
564.713	90
564.925	88
565.137	82
565.349	74
565.561	78
565.773	78
565.985	73
566.197	79
566.408	94
566.62	91
566.832	75
567.044	86
567.255	85
567.467	83
567.679	98
567.891	82
568.102	81
568.314	80
568.526	80
568.737	86
568.949	82
569.161	78
569.372	75
569.584	72
569.795	73
570.007	85
570.218	85
570.43	80
570.641	89
570.853	70
571.064	90
571.276	93
571.487	78
571.698	90
571.91	97
572.121	90
572.333	79
572.544	71
572.755	86
572.966	81
573.178	82
573.389	82
573.6	88
573.811	94
574.023	83
574.234	87
574.445	82
574.656	88
574.867	72
575.078	95
575.289	72
575.501	81
575.712	92
575.923	88
576.134	83
576.345	91
576.556	89
576.767	76
576.978	94
577.188	79
577.399	90
577.61	88
577.821	88
578.032	89
578.243	97
578.454	91
578.665	81
578.875	82
579.086	91
579.297	82
579.508	96
579.718	88
579.929	80
580.14	84
580.35	96
580.561	98
580.772	89
580.982	91
581.193	87
581.403	75
581.614	94
581.825	78
582.035	86
582.246	109
582.456	80
582.667	66
582.877	97
583.087	85
583.298	79
583.508	90
583.719	75
583.929	83
584.139	77
584.35	83
584.56	83
584.77	88
584.981	83
585.191	81
585.401	87
585.611	86
585.821	87
586.032	74
586.242	94
586.452	84
586.662	86
586.872	79
587.082	82
587.292	78
587.502	102
587.713	91
587.923	83
588.133	87
588.343	90
588.553	75
588.762	86
588.972	93
589.182	96
589.392	83
589.602	84
589.812	83
590.022	87
590.232	78
590.441	80
590.651	75
