Data from StdD_HRD10591_016.txt Node
Date: Fri May 16 15:31:29 EDT 2025
User: Yrep
Spectrometer: HR+D1059
Trigger mode: 1
Integration Time (sec): 1.000000E-1
Scans to average: 1
Electric dark correction enabled: true
Nonlinearity correction enabled: false
Boxcar width: 0
XAxis mode: Wavelengths
Number of Pixels in Spectrum: 2048
>>>>>Begin Spectral Data<<<<<
223.165	-11.62
223.4	-11.62
223.635	-11.62
223.869	-11.62
224.104	-25.62
224.338	-5.62
224.573	-17.62
224.808	-23.62
225.042	-8.62
225.277	-1.62
225.511	-11.62
225.746	11.38
225.98	11.38
226.215	6.38
226.449	6.38
226.683	23.38
226.918	22.38
227.152	36.38
227.387	24.38
227.621	42.38
227.856	38.38
228.09	45.38
228.324	52.38
228.559	54.38
228.793	65.38
229.027	56.38
229.262	72.38
229.496	77.38
229.73	76.38
229.964	83.38
230.199	84.38
230.433	89.38
230.667	68.38
230.901	86.38
231.136	81.38
231.37	82.38
231.604	85.38
231.838	66.38
232.072	85.38
232.306	70.38
232.541	73.38
232.775	76.38
233.009	83.38
233.243	88.38
233.477	89.38
233.711	93.38
233.945	75.38
234.179	71.38
234.413	76.38
234.647	84.38
234.881	88.38
235.115	78.38
235.349	80.38
235.583	96.38
235.817	96.38
236.051	73.38
236.285	76.38
236.519	74.38
236.753	79.38
236.987	90.38
237.221	73.38
237.455	78.38
237.689	88.38
237.922	76.38
238.156	70.38
238.39	84.38
238.624	85.38
238.858	82.38
239.091	74.38
239.325	79.38
239.559	68.38
239.793	72.38
240.027	71.38
240.26	79.38
240.494	73.38
240.728	85.38
240.961	82.38
241.195	84.38
241.429	87.38
241.662	78.38
241.896	73.38
242.13	78.38
242.363	75.38
242.597	78.38
242.83	69.38
243.064	74.38
243.298	80.38
243.531	78.38
243.765	84.38
243.998	77.38
244.232	76.38
244.465	79.38
244.699	76.38
244.932	79.38
245.166	79.38
245.399	73.38
245.633	76.38
245.866	73.38
246.099	66.38
246.333	79.38
246.566	76.38
246.8	69.38
247.033	88.38
247.266	90.38
247.5	79.38
247.733	70.38
247.966	68.38
248.2	91.38
248.433	85.38
248.666	58.38
248.899	86.38
249.133	84.38
249.366	82.38
249.599	82.38
249.832	79.38
250.066	84.38
250.299	59.38
250.532	77.38
250.765	63.38
250.998	77.38
251.231	88.38
251.465	72.38
251.698	74.38
251.931	85.38
252.164	84.38
252.397	67.38
252.63	79.38
252.863	72.38
253.096	73.38
253.329	89.38
253.562	79.38
253.795	76.38
254.028	74.38
254.261	77.38
254.494	73.38
254.727	68.38
254.96	90.38
255.193	92.38
255.426	88.38
255.659	70.38
255.892	82.38
256.124	78.38
256.357	75.38
256.59	80.38
256.823	77.38
257.056	87.38
257.289	83.38
257.521	83.38
257.754	81.38
257.987	76.38
258.22	91.38
258.452	71.38
258.685	74.38
258.918	95.38
259.151	82.38
259.383	84.38
259.616	91.38
259.849	66.38
260.081	98.38
260.314	82.38
260.547	71.38
260.779	86.38
261.012	80.38
261.244	76.38
261.477	76.38
261.71	83.38
261.942	89.38
262.175	100.38
262.407	70.38
262.64	93.38
262.872	70.38
263.105	89.38
263.337	90.38
263.57	92.38
263.802	81.38
264.035	73.38
264.267	78.38
264.499	73.38
264.732	82.38
264.964	70.38
265.197	58.38
265.429	76.38
265.661	76.38
265.894	85.38
266.126	100.38
266.358	89.38
266.591	72.38
266.823	84.38
267.055	84.38
267.287	83.38
267.52	81.38
267.752	81.38
267.984	92.38
268.216	80.38
268.448	88.38
268.681	73.38
268.913	79.38
269.145	78.38
269.377	74.38
269.609	81.38
269.841	77.38
270.073	69.38
270.306	77.38
270.538	85.38
270.77	78.38
271.002	86.38
271.234	73.38
271.466	86.38
271.698	76.38
271.93	77.38
272.162	87.38
272.394	86.38
272.626	77.38
272.858	68.38
273.09	88.38
273.322	82.38
273.553	79.38
273.785	87.38
274.017	73.38
274.249	74.38
274.481	90.38
274.713	73.38
274.945	86.38
275.176	78.38
275.408	84.38
275.64	92.38
275.872	69.38
276.104	82.38
276.335	86.38
276.567	94.38
276.799	70.38
277.031	76.38
277.262	86.38
277.494	77.38
277.726	92.38
277.957	73.38
278.189	76.38
278.421	81.38
278.652	82.38
278.884	90.38
279.115	87.38
279.347	82.38
279.579	76.38
279.81	90.38
280.042	86.38
280.273	79.38
280.505	88.38
280.736	80.38
280.968	82.38
281.199	77.38
281.431	82.38
281.662	84.38
281.894	89.38
282.125	79.38
282.356	65.38
282.588	85.38
282.819	93.38
283.051	83.38
283.282	73.38
283.513	92.38
283.745	84.38
283.976	94.38
284.207	88.38
284.439	93.38
284.67	84.38
284.901	79.38
285.132	78.38
285.364	88.38
285.595	102.38
285.826	81.38
286.057	79.38
286.288	89.38
286.52	69.38
286.751	67.38
286.982	70.38
287.213	86.38
287.444	83.38
287.675	92.38
287.906	88.38
288.138	88.38
288.369	87.38
288.6	79.38
288.831	86.38
289.062	90.38
289.293	79.38
289.524	79.38
289.755	89.38
289.986	82.38
290.217	94.38
290.448	95.38
290.679	88.38
290.91	83.38
291.141	80.38
291.371	82.38
291.602	79.38
291.833	94.38
292.064	88.38
292.295	84.38
292.526	94.38
292.757	87.38
292.987	97.38
293.218	85.38
293.449	86.38
293.68	96.38
293.91	80.38
294.141	88.38
294.372	80.38
294.603	90.38
294.833	81.38
295.064	78.38
295.295	92.38
295.525	81.38
295.756	89.38
295.987	84.38
296.217	93.38
296.448	83.38
296.679	86.38
296.909	78.38
297.14	88.38
297.37	96.38
297.601	90.38
297.831	94.38
298.062	86.38
298.292	79.38
298.523	81.38
298.753	98.38
298.984	93.38
299.214	78.38
299.445	92.38
299.675	85.38
299.905	94.38
300.136	92.38
300.366	85.38
300.597	84.38
300.827	84.38
301.057	85.38
301.288	89.38
301.518	72.38
301.748	72.38
301.979	86.38
302.209	82.38
302.439	82.38
302.669	77.38
302.9	74.38
303.13	81.38
303.36	88.38
303.59	97.38
303.82	92.38
304.051	87.38
304.281	90.38
304.511	100.38
304.741	73.38
304.971	94.38
305.201	95.38
305.431	91.38
305.661	81.38
305.891	93.38
306.121	77.38
306.352	94.38
306.582	91.38
306.812	84.38
307.042	83.38
307.272	87.38
307.502	78.38
307.731	90.38
307.961	84.38
308.191	87.38
308.421	81.38
308.651	85.38
308.881	74.38
309.111	82.38
309.341	78.38
309.571	88.38
309.8	84.38
310.03	90.38
310.26	76.38
310.49	79.38
310.72	75.38
310.949	79.38
311.179	80.38
311.409	97.38
311.639	87.38
311.868	98.38
312.098	93.38
312.328	72.38
312.557	85.38
312.787	77.38
313.017	87.38
313.246	73.38
313.476	80.38
313.706	89.38
313.935	85.38
314.165	84.38
314.394	73.38
314.624	96.38
314.853	83.38
315.083	83.38
315.312	90.38
315.542	75.38
315.771	80.38
316.001	77.38
316.23	88.38
316.46	77.38
316.689	88.38
316.919	85.38
317.148	79.38
317.377	92.38
317.607	86.38
317.836	82.38
318.065	88.38
318.295	93.38
318.524	81.38
318.753	104.38
318.983	84.38
319.212	79.38
319.441	93.38
319.67	104.38
319.9	94.38
320.129	89.38
320.358	89.38
320.587	68.38
320.816	78.38
321.046	83.38
321.275	84.38
321.504	90.38
321.733	91.38
321.962	83.38
322.191	77.38
322.42	81.38
322.649	72.38
322.878	74.38
323.108	82.38
323.337	88.38
323.566	84.38
323.795	93.38
324.024	77.38
324.253	78.38
324.482	89.38
324.71	90.38
324.939	89.38
325.168	94.38
325.397	86.38
325.626	70.38
325.855	94.38
326.084	93.38
326.313	81.38
326.542	84.38
326.77	78.38
326.999	76.38
327.228	74.38
327.457	86.38
327.686	85.38
327.914	93.38
328.143	100.38
328.372	84.38
328.6	87.38
328.829	75.38
329.058	80.38
329.287	76.38
329.515	84.38
329.744	79.38
329.972	73.38
330.201	58.38
330.43	78.38
330.658	86.38
330.887	81.38
331.115	61.38
331.344	84.38
331.572	90.38
331.801	85.38
332.03	88.38
332.258	78.38
332.486	71.38
332.715	83.38
332.943	92.38
333.172	97.38
333.4	88.38
333.629	79.38
333.857	94.38
334.085	81.38
334.314	88.38
334.542	96.38
334.771	75.38
334.999	100.38
335.227	86.38
335.455	88.38
335.684	80.38
335.912	82.38
336.14	74.38
336.369	80.38
336.597	84.38
336.825	82.38
337.053	82.38
337.281	81.38
337.51	94.38
337.738	84.38
337.966	81.38
338.194	93.38
338.422	74.38
338.65	86.38
338.878	86.38
339.106	69.38
339.334	84.38
339.562	76.38
339.79	90.38
340.018	86.38
340.246	80.38
340.474	82.38
340.702	78.38
340.93	72.38
341.158	79.38
341.386	81.38
341.614	81.38
341.842	76.38
342.07	75.38
342.298	92.38
342.526	76.38
342.754	90.38
342.981	89.38
343.209	81.38
343.437	86.38
343.665	87.38
343.893	93.38
344.12	76.38
344.348	83.38
344.576	60.38
344.804	73.38
345.031	77.38
345.259	89.38
345.487	79.38
345.714	79.38
345.942	75.38
346.17	72.38
346.397	92.38
346.625	92.38
346.853	89.38
347.08	83.38
347.308	68.38
347.535	84.38
347.763	85.38
347.99	94.38
348.218	83.38
348.445	76.38
348.673	80.38
348.9	79.38
349.128	85.38
349.355	84.38
349.583	77.38
349.81	76.38
350.037	80.38
350.265	89.38
350.492	71.38
350.72	87.38
350.947	79.38
351.174	86.38
351.402	86.38
351.629	84.38
351.856	87.38
352.083	80.38
352.311	91.38
352.538	94.38
352.765	91.38
352.992	102.38
353.22	89.38
353.447	92.38
353.674	78.38
353.901	84.38
354.128	89.38
354.355	96.38
354.583	82.38
354.81	78.38
355.037	86.38
355.264	82.38
355.491	92.38
355.718	84.38
355.945	88.38
356.172	82.38
356.399	73.38
356.626	81.38
356.853	88.38
357.08	87.38
357.307	93.38
357.534	86.38
357.761	89.38
357.988	78.38
358.215	92.38
358.441	74.38
358.668	77.38
358.895	79.38
359.122	76.38
359.349	77.38
359.576	87.38
359.802	72.38
360.029	85.38
360.256	89.38
360.483	90.38
360.709	83.38
360.936	76.38
361.163	64.38
361.39	85.38
361.616	76.38
361.843	84.38
362.07	94.38
362.296	76.38
362.523	79.38
362.749	73.38
362.976	93.38
363.203	85.38
363.429	79.38
363.656	86.38
363.882	74.38
364.109	76.38
364.335	81.38
364.562	84.38
364.788	70.38
365.015	86.38
365.241	79.38
365.468	96.38
365.694	84.38
365.92	80.38
366.147	86.38
366.373	81.38
366.599	84.38
366.826	91.38
367.052	84.38
367.278	89.38
367.505	95.38
367.731	84.38
367.957	88.38
368.184	83.38
368.41	86.38
368.636	76.38
368.862	74.38
369.089	66.38
369.315	71.38
369.541	81.38
369.767	84.38
369.993	80.38
370.219	74.38
370.445	92.38
370.672	81.38
370.898	81.38
371.124	77.38
371.35	72.38
371.576	76.38
371.802	88.38
372.028	88.38
372.254	79.38
372.48	77.38
372.706	85.38
372.932	74.38
373.158	73.38
373.384	80.38
373.61	87.38
373.835	85.38
374.061	81.38
374.287	90.38
374.513	88.38
374.739	84.38
374.965	82.38
375.191	78.38
375.416	71.38
375.642	78.38
375.868	98.38
376.094	84.38
376.319	72.38
376.545	78.38
376.771	66.38
376.997	76.38
377.222	83.38
377.448	82.38
377.674	92.38
377.899	92.38
378.125	85.38
378.35	91.38
378.576	91.38
378.802	82.38
379.027	97.38
379.253	68.38
379.478	74.38
379.704	87.38
379.929	87.38
380.155	88.38
380.38	90.38
380.606	79.38
380.831	75.38
381.057	83.38
381.282	81.38
381.507	97.38
381.733	95.38
381.958	80.38
382.184	73.38
382.409	71.38
382.634	78.38
382.86	93.38
383.085	80.38
383.31	100.38
383.535	89.38
383.761	81.38
383.986	86.38
384.211	78.38
384.436	70.38
384.662	91.38
384.887	70.38
385.112	92.38
385.337	88.38
385.562	78.38
385.787	80.38
386.013	73.38
386.238	82.38
386.463	80.38
386.688	101.38
386.913	94.38
387.138	88.38
387.363	76.38
387.588	74.38
387.813	82.38
388.038	87.38
388.263	84.38
388.488	82.38
388.713	104.38
388.938	80.38
389.163	80.38
389.387	87.38
389.612	78.38
389.837	64.38
390.062	81.38
390.287	91.38
390.512	77.38
390.736	101.38
390.961	79.38
391.186	75.38
391.411	78.38
391.636	70.38
391.86	82.38
392.085	73.38
392.31	85.38
392.534	91.38
392.759	81.38
392.984	97.38
393.208	81.38
393.433	101.38
393.658	79.38
393.882	82.38
394.107	86.38
394.331	82.38
394.556	86.38
394.78	73.38
395.005	77.38
395.229	87.38
395.454	74.38
395.678	72.38
395.903	79.38
396.127	77.38
396.352	85.38
396.576	90.38
396.801	85.38
397.025	81.38
397.249	85.38
397.474	78.38
397.698	78.38
397.922	84.38
398.147	85.38
398.371	72.38
398.595	72.38
398.82	68.38
399.044	71.38
399.268	80.38
399.492	77.38
399.717	68.38
399.941	76.38
400.165	85.38
400.389	73.38
400.613	70.38
400.837	86.38
401.062	77.38
401.286	86.38
401.51	88.38
401.734	84.38
401.958	85.38
402.182	81.38
402.406	76.38
402.63	87.38
402.854	89.38
403.078	78.38
403.302	73.38
403.526	72.38
403.75	77.38
403.974	74.38
404.198	88.38
404.422	88.38
404.645	88.38
404.869	88.38
405.093	77.38
405.317	75.38
405.541	87.38
405.765	100.38
405.988	84.38
406.212	89.38
406.436	88.38
406.66	88.38
406.883	75.38
407.107	74.38
407.331	76.38
407.555	92.38
407.778	80.38
408.002	76.38
408.226	84.38
408.449	81.38
408.673	82.38
408.896	72.38
409.12	72.38
409.344	91.38
409.567	85.38
409.791	82.38
410.014	84.38
410.238	90.38
410.461	80.38
410.685	80.38
410.908	80.38
411.132	93.38
411.355	88.38
411.578	76.38
411.802	72.38
412.025	91.38
412.249	89.38
412.472	85.38
412.695	80.38
412.919	93.38
413.142	89.38
413.365	76.38
413.589	87.38
413.812	79.38
414.035	79.38
414.258	82.38
414.482	85.38
414.705	66.38
414.928	76.38
415.151	68.38
415.374	75.38
415.597	73.38
415.821	83.38
416.044	82.38
416.267	97.38
416.49	91.38
416.713	86.38
416.936	86.38
417.159	81.38
417.382	80.38
417.605	103.38
417.828	81.38
418.051	70.38
418.274	80.38
418.497	71.38
418.72	80.38
418.943	92.38
419.166	85.38
419.389	85.38
419.611	80.38
419.834	83.38
420.057	95.38
420.28	76.38
420.503	88.38
420.726	81.38
420.948	76.38
421.171	85.38
421.394	80.38
421.617	66.38
421.839	82.38
422.062	81.38
422.285	72.38
422.507	86.38
422.73	90.38
422.953	90.38
423.175	93.38
423.398	61.38
423.621	89.38
423.843	77.38
424.066	88.38
424.288	76.38
424.511	87.38
424.733	79.38
424.956	74.38
425.178	79.38
425.401	71.38
425.623	87.38
425.846	89.38
426.068	77.38
426.291	88.38
426.513	89.38
426.735	79.38
426.958	79.38
427.18	79.38
427.402	81.38
427.625	81.38
427.847	73.38
428.069	70.38
428.292	95.38
428.514	74.38
428.736	87.38
428.958	74.38
429.181	80.38
429.403	80.38
429.625	75.38
429.847	87.38
430.069	88.38
430.292	78.38
430.514	93.38
430.736	76.38
430.958	72.38
431.18	83.38
431.402	90.38
431.624	87.38
431.846	82.38
432.068	70.38
432.29	80.38
432.512	87.38
432.734	96.38
432.956	92.38
433.178	78.38
433.4	79.38
433.622	88.38
433.844	77.38
434.066	78.38
434.287	80.38
434.509	72.38
434.731	87.38
434.953	88.38
435.175	93.38
435.397	82.38
435.618	86.38
435.84	79.38
436.062	83.38
436.284	92.38
436.505	87.38
436.727	79.38
436.949	104.38
437.17	89.38
437.392	80.38
437.614	89.38
437.835	79.38
438.057	72.38
438.278	72.38
438.5	87.38
438.721	86.38
438.943	81.38
439.165	84.38
439.386	88.38
439.608	81.38
439.829	86.38
440.05	96.38
440.272	91.38
440.493	89.38
440.715	82.38
440.936	76.38
441.158	94.38
441.379	88.38
441.6	79.38
441.822	79.38
442.043	83.38
442.264	69.38
442.486	90.38
442.707	85.38
442.928	82.38
443.149	87.38
443.371	90.38
443.592	82.38
443.813	74.38
444.034	74.38
444.255	86.38
444.476	94.38
444.698	81.38
444.919	74.38
445.14	168.38
445.361	121.38
445.582	86.38
445.803	82.38
446.024	80.38
446.245	80.38
446.466	89.38
446.687	83.38
446.908	73.38
447.129	98.38
447.35	68.38
447.571	79.38
447.792	94.38
448.013	75.38
448.234	87.38
448.455	90.38
448.675	93.38
448.896	87.38
449.117	81.38
449.338	76.38
449.559	82.38
449.779	85.38
450	75.38
450.221	73.38
450.442	90.38
450.662	79.38
450.883	73.38
451.104	81.38
451.324	90.38
451.545	94.38
451.766	96.38
451.986	85.38
452.207	89.38
452.428	81.38
452.648	85.38
452.869	89.38
453.089	70.38
453.31	93.38
453.53	79.38
453.751	77.38
453.971	84.38
454.192	78.38
454.412	80.38
454.633	87.38
454.853	88.38
455.073	86.38
455.294	75.38
455.514	79.38
455.734	95.38
455.955	96.38
456.175	92.38
456.395	78.38
456.616	93.38
456.836	77.38
457.056	71.38
457.276	82.38
457.497	85.38
457.717	81.38
457.937	86.38
458.157	88.38
458.377	90.38
458.598	73.38
458.818	94.38
459.038	73.38
459.258	92.38
459.478	73.38
459.698	72.38
459.918	88.38
460.138	78.38
460.358	85.38
460.578	81.38
460.798	84.38
461.018	89.38
461.238	76.38
461.458	76.38
461.678	83.38
461.898	76.38
462.118	78.38
462.338	90.38
462.558	90.38
462.777	78.38
462.997	76.38
463.217	71.38
463.437	74.38
463.657	100.38
463.876	73.38
464.096	74.38
464.316	88.38
464.536	86.38
464.755	80.38
464.975	84.38
465.195	81.38
465.414	95.38
465.634	92.38
465.854	88.38
466.073	80.38
466.293	77.38
466.512	89.38
466.732	77.38
466.951	82.38
467.171	83.38
467.391	90.38
467.61	85.38
467.829	96.38
468.049	95.38
468.268	80.38
468.488	80.38
468.707	62.38
468.927	80.38
469.146	82.38
469.365	87.38
469.585	97.38
469.804	89.38
470.023	94.38
470.243	82.38
470.462	77.38
470.681	88.38
470.901	90.38
471.12	84.38
471.339	80.38
471.558	93.38
471.777	88.38
471.997	80.38
472.216	82.38
472.435	77.38
472.654	76.38
472.873	84.38
473.092	80.38
473.311	87.38
473.53	92.38
473.749	90.38
473.968	97.38
474.187	62.38
474.406	86.38
474.625	78.38
474.844	77.38
475.063	90.38
475.282	72.38
475.501	74.38
475.72	85.38
475.939	83.38
476.158	60.38
476.377	70.38
476.596	86.38
476.814	82.38
477.033	95.38
477.252	83.38
477.471	82.38
477.69	76.38
477.908	80.38
478.127	73.38
478.346	70.38
478.564	88.38
478.783	81.38
479.002	84.38
479.22	75.38
479.439	87.38
479.658	93.38
479.876	70.38
480.095	80.38
480.313	79.38
480.532	87.38
480.751	84.38
480.969	82.38
481.188	78.38
481.406	88.38
481.624	74.38
481.843	62.38
482.061	93.38
482.28	83.38
482.498	88.38
482.717	75.38
482.935	88.38
483.153	83.38
483.372	95.38
483.59	96.38
483.808	86.38
484.027	84.38
484.245	92.38
484.463	86.38
484.681	89.38
484.9	88.38
485.118	67.38
485.336	80.38
485.554	89.38
485.772	82.38
485.99	76.38
486.209	90.38
486.427	91.38
486.645	81.38
486.863	87.38
487.081	86.38
487.299	84.38
487.517	76.38
487.735	94.38
487.953	104.38
488.171	87.38
488.389	88.38
488.607	76.38
488.825	80.38
489.043	85.38
489.261	93.38
489.479	96.38
489.696	89.38
489.914	74.38
490.132	79.38
490.35	80.38
490.568	73.38
490.786	72.38
491.003	89.38
491.221	84.38
491.439	94.38
491.657	94.38
491.874	87.38
492.092	81.38
492.31	102.38
492.527	104.38
492.745	92.38
492.963	93.38
493.18	92.38
493.398	97.38
493.615	97.38
493.833	82.38
494.05	87.38
494.268	80.38
494.485	82.38
494.703	77.38
494.92	89.38
495.138	95.38
495.355	83.38
495.573	87.38
495.79	82.38
496.008	83.38
496.225	92.38
496.442	86.38
496.66	91.38
496.877	85.38
497.094	97.38
497.312	93.38
497.529	91.38
497.746	78.38
497.963	77.38
498.181	94.38
498.398	82.38
498.615	79.38
498.832	82.38
499.049	89.38
499.267	94.38
499.484	81.38
499.701	76.38
499.918	86.38
500.135	81.38
500.352	100.38
500.569	98.38
500.786	89.38
501.003	61.38
501.22	74.38
501.437	78.38
501.654	71.38
501.871	90.38
502.088	72.38
502.305	85.38
502.522	89.38
502.739	85.38
502.956	84.38
503.172	84.38
503.389	70.38
503.606	98.38
503.823	91.38
504.04	79.38
504.256	81.38
504.473	92.38
504.69	90.38
504.907	93.38
505.123	90.38
505.34	80.38
505.557	78.38
505.773	84.38
505.99	90.38
506.207	95.38
506.423	102.38
506.64	90.38
506.856	87.38
507.073	88.38
507.289	82.38
507.506	89.38
507.722	87.38
507.939	84.38
508.155	71.38
508.372	87.38
508.588	88.38
508.805	64.38
509.021	85.38
509.238	100.38
509.454	64.38
509.67	76.38
509.887	93.38
510.103	68.38
510.319	84.38
510.536	72.38
510.752	87.38
510.968	105.38
511.184	74.38
511.401	89.38
511.617	73.38
511.833	72.38
512.049	73.38
512.265	86.38
512.481	91.38
512.698	83.38
512.914	90.38
513.13	81.38
513.346	80.38
513.562	72.38
513.778	87.38
513.994	87.38
514.21	101.38
514.426	89.38
514.642	76.38
514.858	64.38
515.074	82.38
515.29	94.38
515.506	88.38
515.721	77.38
515.937	78.38
516.153	74.38
516.369	82.38
516.585	74.38
516.801	74.38
517.016	88.38
517.232	74.38
517.448	81.38
517.664	80.38
517.879	90.38
518.095	80.38
518.311	86.38
518.527	82.38
518.742	74.38
518.958	86.38
519.173	83.38
519.389	84.38
519.605	80.38
519.82	71.38
520.036	74.38
