Data from StdD_HRD10591_050.txt Node
Date: Fri May 16 15:31:46 EDT 2025
User: Yrep
Spectrometer: HR+D1059
Trigger mode: 1
Integration Time (sec): 1.000000E-1
Scans to average: 1
Electric dark correction enabled: true
Nonlinearity correction enabled: false
Boxcar width: 0
XAxis mode: Wavelengths
Number of Pixels in Spectrum: 2048
>>>>>Begin Spectral Data<<<<<
223.165	-21.38
223.4	-21.38
223.635	-21.38
223.869	-12.38
224.104	-16.38
224.338	-25.38
224.573	-18.38
224.808	-17.38
225.042	8.62
225.277	-0.38
225.511	8.62
225.746	-3.38
225.98	4.62
226.215	20.62
226.449	15.62
226.683	7.62
226.918	24.62
227.152	24.62
227.387	44.62
227.621	33.62
227.856	38.62
228.09	58.62
228.324	50.62
228.559	53.62
228.793	64.62
229.027	69.62
229.262	56.62
229.496	78.62
229.73	68.62
229.964	75.62
230.199	57.62
230.433	84.62
230.667	93.62
230.901	79.62
231.136	69.62
231.37	90.62
231.604	67.62
231.838	84.62
232.072	91.62
232.306	79.62
232.541	82.62
232.775	95.62
233.009	73.62
233.243	76.62
233.477	81.62
233.711	83.62
233.945	81.62
234.179	81.62
234.413	98.62
234.647	94.62
234.881	92.62
235.115	84.62
235.349	78.62
235.583	82.62
235.817	71.62
236.051	74.62
236.285	91.62
236.519	78.62
236.753	77.62
236.987	90.62
237.221	86.62
237.455	66.62
237.689	91.62
237.922	82.62
238.156	72.62
238.39	90.62
238.624	81.62
238.858	68.62
239.091	86.62
239.325	83.62
239.559	67.62
239.793	75.62
240.027	78.62
240.26	78.62
240.494	79.62
240.728	70.62
240.961	84.62
241.195	63.62
241.429	73.62
241.662	71.62
241.896	77.62
242.13	77.62
242.363	81.62
242.597	55.62
242.83	79.62
243.064	68.62
243.298	64.62
243.531	70.62
243.765	62.62
243.998	74.62
244.232	74.62
244.465	86.62
244.699	77.62
244.932	70.62
245.166	64.62
245.399	78.62
245.633	74.62
245.866	70.62
246.099	64.62
246.333	72.62
246.566	61.62
246.8	66.62
247.033	80.62
247.266	80.62
247.5	82.62
247.733	50.62
247.966	75.62
248.2	75.62
248.433	69.62
248.666	76.62
248.899	82.62
249.133	84.62
249.366	66.62
249.599	74.62
249.832	80.62
250.066	91.62
250.299	86.62
250.532	88.62
250.765	91.62
250.998	76.62
251.231	67.62
251.465	90.62
251.698	77.62
251.931	80.62
252.164	74.62
252.397	76.62
252.63	82.62
252.863	85.62
253.096	77.62
253.329	75.62
253.562	70.62
253.795	86.62
254.028	74.62
254.261	80.62
254.494	80.62
254.727	79.62
254.96	85.62
255.193	74.62
255.426	76.62
255.659	80.62
255.892	97.62
256.124	84.62
256.357	72.62
256.59	81.62
256.823	93.62
257.056	93.62
257.289	89.62
257.521	69.62
257.754	71.62
257.987	76.62
258.22	76.62
258.452	75.62
258.685	75.62
258.918	69.62
259.151	72.62
259.383	88.62
259.616	84.62
259.849	85.62
260.081	77.62
260.314	88.62
260.547	72.62
260.779	78.62
261.012	96.62
261.244	72.62
261.477	72.62
261.71	73.62
261.942	82.62
262.175	84.62
262.407	74.62
262.64	77.62
262.872	78.62
263.105	72.62
263.337	84.62
263.57	84.62
263.802	81.62
264.035	94.62
264.267	87.62
264.499	81.62
264.732	71.62
264.964	85.62
265.197	55.62
265.429	87.62
265.661	86.62
265.894	87.62
266.126	101.62
266.358	91.62
266.591	86.62
266.823	86.62
267.055	94.62
267.287	87.62
267.52	86.62
267.752	95.62
267.984	89.62
268.216	76.62
268.448	89.62
268.681	81.62
268.913	88.62
269.145	60.62
269.377	67.62
269.609	72.62
269.841	70.62
270.073	82.62
270.306	100.62
270.538	68.62
270.77	82.62
271.002	76.62
271.234	81.62
271.466	89.62
271.698	94.62
271.93	87.62
272.162	79.62
272.394	70.62
272.626	88.62
272.858	81.62
273.09	62.62
273.322	73.62
273.553	83.62
273.785	91.62
274.017	80.62
274.249	97.62
274.481	63.62
274.713	87.62
274.945	92.62
275.176	70.62
275.408	84.62
275.64	75.62
275.872	78.62
276.104	80.62
276.335	84.62
276.567	86.62
276.799	64.62
277.031	89.62
277.262	88.62
277.494	76.62
277.726	65.62
277.957	81.62
278.189	73.62
278.421	74.62
278.652	75.62
278.884	89.62
279.115	96.62
279.347	87.62
279.579	92.62
279.81	82.62
280.042	86.62
280.273	81.62
280.505	76.62
280.736	84.62
280.968	84.62
281.199	74.62
281.431	76.62
281.662	75.62
281.894	76.62
282.125	92.62
282.356	89.62
282.588	95.62
282.819	88.62
283.051	86.62
283.282	85.62
283.513	84.62
283.745	79.62
283.976	89.62
284.207	67.62
284.439	81.62
284.67	95.62
284.901	88.62
285.132	86.62
285.364	81.62
285.595	90.62
285.826	83.62
286.057	88.62
286.288	95.62
286.52	89.62
286.751	76.62
286.982	74.62
287.213	81.62
287.444	80.62
287.675	74.62
287.906	90.62
288.138	69.62
288.369	82.62
288.6	75.62
288.831	86.62
289.062	84.62
289.293	80.62
289.524	58.62
289.755	76.62
289.986	93.62
290.217	87.62
290.448	81.62
290.679	72.62
290.91	85.62
291.141	80.62
291.371	80.62
291.602	82.62
291.833	84.62
292.064	84.62
292.295	82.62
292.526	75.62
292.757	83.62
292.987	78.62
293.218	85.62
293.449	96.62
293.68	78.62
293.91	87.62
294.141	91.62
294.372	73.62
294.603	82.62
294.833	82.62
295.064	93.62
295.295	83.62
295.525	94.62
295.756	109.62
295.987	93.62
296.217	90.62
296.448	77.62
296.679	86.62
296.909	72.62
297.14	86.62
297.37	87.62
297.601	74.62
297.831	82.62
298.062	87.62
298.292	86.62
298.523	91.62
298.753	68.62
298.984	82.62
299.214	86.62
299.445	81.62
299.675	86.62
299.905	76.62
300.136	84.62
300.366	85.62
300.597	91.62
300.827	93.62
301.057	77.62
301.288	83.62
301.518	81.62
301.748	69.62
301.979	91.62
302.209	89.62
302.439	86.62
302.669	86.62
302.9	87.62
303.13	94.62
303.36	79.62
303.59	83.62
303.82	74.62
304.051	80.62
304.281	81.62
304.511	95.62
304.741	69.62
304.971	84.62
305.201	83.62
305.431	72.62
305.661	74.62
305.891	69.62
306.121	71.62
306.352	72.62
306.582	93.62
306.812	80.62
307.042	89.62
307.272	86.62
307.502	95.62
307.731	86.62
307.961	72.62
308.191	84.62
308.421	84.62
308.651	77.62
308.881	87.62
309.111	90.62
309.341	73.62
309.571	77.62
309.8	85.62
310.03	86.62
310.26	79.62
310.49	90.62
310.72	94.62
310.949	91.62
311.179	97.62
311.409	87.62
311.639	85.62
311.868	94.62
312.098	71.62
312.328	92.62
312.557	82.62
312.787	75.62
313.017	79.62
313.246	88.62
313.476	91.62
313.706	90.62
313.935	91.62
314.165	88.62
314.394	93.62
314.624	90.62
314.853	87.62
315.083	79.62
315.312	88.62
315.542	76.62
315.771	98.62
316.001	77.62
316.23	91.62
316.46	86.62
316.689	76.62
316.919	80.62
317.148	79.62
317.377	78.62
317.607	95.62
317.836	76.62
318.065	90.62
318.295	82.62
318.524	81.62
318.753	66.62
318.983	85.62
319.212	82.62
319.441	87.62
319.67	97.62
319.9	74.62
320.129	81.62
320.358	74.62
320.587	89.62
320.816	83.62
321.046	90.62
321.275	90.62
321.504	74.62
321.733	66.62
321.962	88.62
322.191	78.62
322.42	72.62
322.649	94.62
322.878	88.62
323.108	77.62
323.337	74.62
323.566	72.62
323.795	72.62
324.024	81.62
324.253	84.62
324.482	81.62
324.71	73.62
324.939	89.62
325.168	77.62
325.397	85.62
325.626	93.62
325.855	85.62
326.084	85.62
326.313	84.62
326.542	73.62
326.77	92.62
326.999	80.62
327.228	87.62
327.457	87.62
327.686	84.62
327.914	80.62
328.143	86.62
328.372	86.62
328.6	75.62
328.829	93.62
329.058	80.62
329.287	73.62
329.515	102.62
329.744	81.62
329.972	85.62
330.201	80.62
330.43	77.62
330.658	84.62
330.887	71.62
331.115	71.62
331.344	77.62
331.572	82.62
331.801	84.62
332.03	92.62
332.258	85.62
332.486	91.62
332.715	84.62
332.943	77.62
333.172	86.62
333.4	79.62
333.629	100.62
333.857	92.62
334.085	68.62
334.314	89.62
334.542	76.62
334.771	81.62
334.999	71.62
335.227	86.62
335.455	81.62
335.684	69.62
335.912	88.62
336.14	72.62
336.369	86.62
336.597	78.62
336.825	68.62
337.053	68.62
337.281	85.62
337.51	76.62
337.738	80.62
337.966	105.62
338.194	81.62
338.422	96.62
338.65	91.62
338.878	84.62
339.106	87.62
339.334	76.62
339.562	73.62
339.79	81.62
340.018	86.62
340.246	79.62
340.474	81.62
340.702	87.62
340.93	90.62
341.158	81.62
341.386	88.62
341.614	82.62
341.842	80.62
342.07	92.62
342.298	88.62
342.526	79.62
342.754	84.62
342.981	91.62
343.209	80.62
343.437	93.62
343.665	93.62
343.893	75.62
344.12	88.62
344.348	100.62
344.576	81.62
344.804	80.62
345.031	73.62
345.259	88.62
345.487	86.62
345.714	80.62
345.942	88.62
346.17	83.62
346.397	93.62
346.625	83.62
346.853	85.62
347.08	72.62
347.308	81.62
347.535	80.62
347.763	72.62
347.99	80.62
348.218	83.62
348.445	82.62
348.673	77.62
348.9	69.62
349.128	90.62
349.355	74.62
349.583	75.62
349.81	72.62
350.037	93.62
350.265	81.62
350.492	77.62
350.72	80.62
350.947	72.62
351.174	67.62
351.402	92.62
351.629	86.62
351.856	69.62
352.083	81.62
352.311	98.62
352.538	64.62
352.765	77.62
352.992	88.62
353.22	84.62
353.447	66.62
353.674	97.62
353.901	76.62
354.128	82.62
354.355	84.62
354.583	75.62
354.81	65.62
355.037	75.62
355.264	83.62
355.491	84.62
355.718	82.62
355.945	88.62
356.172	77.62
356.399	87.62
356.626	76.62
356.853	74.62
357.08	85.62
357.307	75.62
357.534	91.62
357.761	80.62
357.988	94.62
358.215	92.62
358.441	84.62
358.668	71.62
358.895	83.62
359.122	81.62
359.349	86.62
359.576	88.62
359.802	77.62
360.029	72.62
360.256	82.62
360.483	87.62
360.709	92.62
360.936	98.62
361.163	96.62
361.39	77.62
361.616	86.62
361.843	75.62
362.07	92.62
362.296	76.62
362.523	82.62
362.749	77.62
362.976	75.62
363.203	77.62
363.429	76.62
363.656	68.62
363.882	77.62
364.109	85.62
364.335	90.62
364.562	75.62
364.788	74.62
365.015	85.62
365.241	78.62
365.468	100.62
365.694	73.62
365.92	84.62
366.147	77.62
366.373	76.62
366.599	79.62
366.826	101.62
367.052	76.62
367.278	77.62
367.505	76.62
367.731	79.62
367.957	91.62
368.184	75.62
368.41	80.62
368.636	83.62
368.862	70.62
369.089	67.62
369.315	77.62
369.541	91.62
369.767	76.62
369.993	88.62
370.219	72.62
370.445	88.62
370.672	81.62
370.898	72.62
371.124	86.62
371.35	84.62
371.576	76.62
371.802	80.62
372.028	86.62
372.254	73.62
372.48	80.62
372.706	82.62
372.932	70.62
373.158	63.62
373.384	71.62
373.61	78.62
373.835	86.62
374.061	82.62
374.287	58.62
374.513	82.62
374.739	87.62
374.965	96.62
375.191	85.62
375.416	91.62
375.642	77.62
375.868	71.62
376.094	72.62
376.319	85.62
376.545	90.62
376.771	80.62
376.997	78.62
377.222	64.62
377.448	73.62
377.674	88.62
377.899	80.62
378.125	78.62
378.35	77.62
378.576	77.62
378.802	73.62
379.027	86.62
379.253	72.62
379.478	65.62
379.704	76.62
379.929	72.62
380.155	92.62
380.38	86.62
380.606	72.62
380.831	79.62
381.057	90.62
381.282	74.62
381.507	74.62
381.733	67.62
381.958	81.62
382.184	95.62
382.409	93.62
382.634	75.62
382.86	64.62
383.085	83.62
383.31	62.62
383.535	89.62
383.761	78.62
383.986	80.62
384.211	73.62
384.436	88.62
384.662	82.62
384.887	73.62
385.112	83.62
385.337	66.62
385.562	84.62
385.787	83.62
386.013	82.62
386.238	76.62
386.463	87.62
386.688	89.62
386.913	88.62
387.138	86.62
387.363	85.62
387.588	85.62
387.813	90.62
388.038	91.62
388.263	66.62
388.488	92.62
388.713	77.62
388.938	78.62
389.163	75.62
389.387	74.62
389.612	81.62
389.837	70.62
390.062	77.62
390.287	84.62
390.512	74.62
390.736	63.62
390.961	80.62
391.186	84.62
391.411	79.62
391.636	82.62
391.86	77.62
392.085	95.62
392.31	99.62
392.534	79.62
392.759	80.62
392.984	80.62
393.208	88.62
393.433	80.62
393.658	64.62
393.882	72.62
394.107	75.62
394.331	81.62
394.556	67.62
394.78	76.62
395.005	84.62
395.229	74.62
395.454	88.62
395.678	70.62
395.903	80.62
396.127	78.62
396.352	67.62
396.576	79.62
396.801	93.62
397.025	93.62
397.249	72.62
397.474	68.62
397.698	71.62
397.922	80.62
398.147	77.62
398.371	66.62
398.595	80.62
398.82	78.62
399.044	79.62
399.268	78.62
399.492	80.62
399.717	73.62
399.941	84.62
400.165	92.62
400.389	62.62
400.613	79.62
400.837	84.62
401.062	77.62
401.286	92.62
401.51	78.62
401.734	88.62
401.958	90.62
402.182	79.62
402.406	76.62
402.63	87.62
402.854	80.62
403.078	87.62
403.302	78.62
403.526	76.62
403.75	76.62
403.974	81.62
404.198	73.62
404.422	81.62
404.645	78.62
404.869	79.62
405.093	75.62
405.317	85.62
405.541	80.62
405.765	67.62
405.988	67.62
406.212	81.62
406.436	68.62
406.66	83.62
406.883	68.62
407.107	74.62
407.331	87.62
407.555	73.62
407.778	78.62
408.002	88.62
408.226	78.62
408.449	75.62
408.673	75.62
408.896	59.62
409.12	81.62
409.344	95.62
409.567	76.62
409.791	81.62
410.014	86.62
410.238	89.62
410.461	87.62
410.685	73.62
410.908	70.62
411.132	74.62
411.355	67.62
411.578	85.62
411.802	76.62
412.025	85.62
412.249	82.62
412.472	88.62
412.695	91.62
412.919	77.62
413.142	80.62
413.365	80.62
413.589	78.62
413.812	73.62
414.035	82.62
414.258	92.62
414.482	83.62
414.705	68.62
414.928	76.62
415.151	76.62
415.374	80.62
415.597	89.62
415.821	81.62
416.044	81.62
416.267	72.62
416.49	80.62
416.713	92.62
416.936	76.62
417.159	80.62
417.382	64.62
417.605	73.62
417.828	74.62
418.051	76.62
418.274	86.62
418.497	72.62
418.72	80.62
418.943	87.62
419.166	62.62
419.389	77.62
419.611	79.62
419.834	79.62
420.057	78.62
420.28	86.62
420.503	69.62
420.726	89.62
420.948	72.62
421.171	73.62
421.394	79.62
421.617	67.62
421.839	75.62
422.062	82.62
422.285	82.62
422.507	95.62
422.73	73.62
422.953	73.62
423.175	74.62
423.398	72.62
423.621	73.62
423.843	72.62
424.066	80.62
424.288	84.62
424.511	87.62
424.733	68.62
424.956	72.62
425.178	78.62
425.401	75.62
425.623	69.62
425.846	98.62
426.068	81.62
426.291	66.62
426.513	77.62
426.735	82.62
426.958	86.62
427.18	79.62
427.402	86.62
427.625	85.62
427.847	87.62
428.069	78.62
428.292	95.62
428.514	65.62
428.736	70.62
428.958	73.62
429.181	73.62
429.403	78.62
429.625	92.62
429.847	82.62
430.069	82.62
430.292	85.62
430.514	79.62
430.736	77.62
430.958	76.62
431.18	68.62
431.402	75.62
431.624	80.62
431.846	81.62
432.068	87.62
432.29	76.62
432.512	77.62
432.734	88.62
432.956	92.62
433.178	74.62
433.4	78.62
433.622	85.62
433.844	62.62
434.066	85.62
434.287	86.62
434.509	73.62
434.731	91.62
434.953	74.62
435.175	84.62
435.397	85.62
435.618	76.62
435.84	78.62
436.062	76.62
436.284	70.62
436.505	91.62
436.727	100.62
436.949	93.62
437.17	84.62
437.392	67.62
437.614	70.62
437.835	81.62
438.057	72.62
438.278	85.62
438.5	84.62
438.721	74.62
438.943	95.62
439.165	76.62
439.386	78.62
439.608	74.62
439.829	88.62
440.05	92.62
440.272	83.62
440.493	88.62
440.715	85.62
440.936	76.62
441.158	80.62
441.379	82.62
441.6	73.62
441.822	73.62
442.043	65.62
442.264	87.62
442.486	78.62
442.707	68.62
442.928	84.62
443.149	92.62
443.371	84.62
443.592	81.62
443.813	83.62
444.034	96.62
444.255	99.62
444.476	96.62
444.698	101.62
444.919	80.62
445.14	148.62
445.361	117.62
445.582	87.62
445.803	84.62
446.024	81.62
446.245	79.62
446.466	79.62
446.687	69.62
446.908	79.62
447.129	75.62
447.35	79.62
447.571	84.62
447.792	76.62
448.013	81.62
448.234	80.62
448.455	84.62
448.675	76.62
448.896	66.62
449.117	95.62
449.338	88.62
449.559	93.62
449.779	84.62
450	85.62
450.221	71.62
450.442	90.62
450.662	83.62
450.883	76.62
451.104	80.62
451.324	78.62
451.545	79.62
451.766	80.62
451.986	80.62
452.207	92.62
452.428	87.62
452.648	83.62
452.869	79.62
453.089	88.62
453.31	68.62
453.53	73.62
453.751	77.62
453.971	81.62
454.192	86.62
454.412	70.62
454.633	95.62
454.853	86.62
455.073	78.62
455.294	58.62
455.514	84.62
455.734	86.62
455.955	82.62
456.175	78.62
456.395	85.62
456.616	71.62
456.836	75.62
457.056	82.62
457.276	69.62
457.497	76.62
457.717	75.62
457.937	73.62
458.157	93.62
458.377	93.62
458.598	74.62
458.818	75.62
459.038	80.62
459.258	80.62
459.478	77.62
459.698	74.62
459.918	78.62
460.138	72.62
460.358	70.62
460.578	73.62
460.798	79.62
461.018	82.62
461.238	80.62
461.458	71.62
461.678	85.62
461.898	70.62
462.118	85.62
462.338	72.62
462.558	65.62
462.777	70.62
462.997	84.62
463.217	87.62
463.437	74.62
463.657	75.62
463.876	72.62
464.096	93.62
464.316	85.62
464.536	85.62
464.755	64.62
464.975	82.62
465.195	94.62
465.414	87.62
465.634	84.62
465.854	82.62
466.073	88.62
466.293	81.62
466.512	69.62
466.732	78.62
466.951	89.62
467.171	77.62
467.391	84.62
467.61	93.62
467.829	76.62
468.049	82.62
468.268	82.62
468.488	74.62
468.707	88.62
468.927	85.62
469.146	74.62
469.365	77.62
469.585	95.62
469.804	101.62
470.023	95.62
470.243	83.62
470.462	77.62
470.681	88.62
470.901	77.62
471.12	83.62
471.339	82.62
471.558	66.62
471.777	76.62
471.997	81.62
472.216	86.62
472.435	92.62
472.654	86.62
472.873	96.62
473.092	78.62
473.311	89.62
473.53	76.62
473.749	86.62
473.968	79.62
474.187	78.62
474.406	58.62
474.625	85.62
474.844	85.62
475.063	93.62
475.282	85.62
475.501	85.62
475.72	92.62
475.939	86.62
476.158	68.62
476.377	82.62
476.596	89.62
476.814	85.62
477.033	81.62
477.252	92.62
477.471	79.62
477.69	75.62
477.908	78.62
478.127	93.62
478.346	77.62
478.564	80.62
478.783	80.62
479.002	88.62
479.22	91.62
479.439	92.62
479.658	85.62
479.876	75.62
480.095	80.62
480.313	80.62
480.532	82.62
480.751	83.62
480.969	79.62
481.188	76.62
481.406	90.62
481.624	76.62
481.843	83.62
482.061	76.62
482.28	91.62
482.498	85.62
482.717	57.62
482.935	86.62
483.153	85.62
483.372	90.62
483.59	72.62
483.808	78.62
484.027	75.62
484.245	69.62
484.463	65.62
484.681	94.62
484.9	83.62
485.118	86.62
485.336	92.62
485.554	87.62
485.772	67.62
485.99	82.62
486.209	81.62
486.427	76.62
486.645	79.62
486.863	87.62
487.081	92.62
487.299	88.62
487.517	77.62
487.735	78.62
487.953	88.62
488.171	84.62
488.389	85.62
488.607	74.62
488.825	84.62
489.043	80.62
489.261	81.62
489.479	92.62
489.696	92.62
489.914	81.62
490.132	61.62
490.35	72.62
490.568	85.62
490.786	80.62
491.003	102.62
491.221	85.62
491.439	99.62
491.657	76.62
491.874	73.62
492.092	82.62
492.31	85.62
492.527	93.62
492.745	87.62
492.963	76.62
493.18	103.62
493.398	91.62
493.615	91.62
493.833	85.62
494.05	77.62
494.268	76.62
494.485	93.62
494.703	82.62
494.92	87.62
495.138	84.62
495.355	95.62
495.573	88.62
495.79	78.62
496.008	81.62
496.225	75.62
496.442	90.62
496.66	77.62
496.877	87.62
497.094	88.62
497.312	85.62
497.529	86.62
497.746	86.62
497.963	77.62
498.181	81.62
498.398	86.62
498.615	86.62
498.832	90.62
499.049	97.62
499.267	90.62
499.484	71.62
499.701	91.62
499.918	74.62
500.135	84.62
500.352	82.62
500.569	93.62
500.786	78.62
501.003	90.62
501.22	74.62
501.437	85.62
501.654	80.62
501.871	84.62
502.088	89.62
502.305	106.62
502.522	75.62
502.739	91.62
502.956	90.62
503.172	79.62
503.389	82.62
503.606	97.62
503.823	90.62
504.04	94.62
504.256	80.62
504.473	90.62
504.69	72.62
504.907	86.62
505.123	80.62
505.34	74.62
505.557	87.62
505.773	75.62
505.99	86.62
506.207	83.62
506.423	80.62
506.64	73.62
506.856	72.62
507.073	77.62
507.289	86.62
507.506	79.62
507.722	83.62
507.939	81.62
508.155	95.62
508.372	66.62
508.588	82.62
508.805	84.62
509.021	87.62
509.238	98.62
509.454	80.62
509.67	83.62
509.887	73.62
510.103	92.62
510.319	87.62
510.536	93.62
510.752	95.62
510.968	80.62
511.184	79.62
511.401	77.62
511.617	76.62
511.833	75.62
512.049	94.62
512.265	79.62
512.481	100.62
512.698	89.62
512.914	80.62
513.13	87.62
513.346	94.62
513.562	82.62
513.778	79.62
513.994	75.62
514.21	81.62
514.426	76.62
514.642	94.62
514.858	89.62
515.074	79.62
515.29	90.62
515.506	79.62
515.721	76.62
515.937	80.62
516.153	81.62
516.369	74.62
516.585	86.62
516.801	77.62
517.016	87.62
517.232	85.62
517.448	90.62
517.664	80.62
517.879	94.62
518.095	100.62
518.311	84.62
518.527	93.62
518.742	96.62
518.958	67.62
519.173	85.62
519.389	80.62
519.605	84.62
519.82	79.62
520.036	70.62
