Data from StdD_HRD10591_053.txt Node
Date: Fri May 16 15:31:47 EDT 2025
User: Yrep
Spectrometer: HR+D1059
Trigger mode: 1
Integration Time (sec): 1.000000E-1
Scans to average: 1
Electric dark correction enabled: true
Nonlinearity correction enabled: false
Boxcar width: 0
XAxis mode: Wavelengths
Number of Pixels in Spectrum: 2048
>>>>>Begin Spectral Data<<<<<
223.165	-18.88
223.4	-18.88
223.635	-18.88
223.869	-13.88
224.104	-28.88
224.338	-3.88
224.573	-16.88
224.808	-11.88
225.042	-6.88
225.277	-1.88
225.511	-8.88
225.746	-2.88
225.98	11.12
226.215	24.12
226.449	15.12
226.683	10.12
226.918	16.12
227.152	38.12
227.387	38.12
227.621	49.12
227.856	39.12
228.09	45.12
228.324	49.12
228.559	52.12
228.793	45.12
229.027	73.12
229.262	84.12
229.496	69.12
229.73	77.12
229.964	76.12
230.199	62.12
230.433	61.12
230.667	88.12
230.901	86.12
231.136	80.12
231.37	99.12
231.604	87.12
231.838	81.12
232.072	88.12
232.306	85.12
232.541	82.12
232.775	71.12
233.009	85.12
233.243	91.12
233.477	91.12
233.711	77.12
233.945	74.12
234.179	95.12
234.413	77.12
234.647	84.12
234.881	81.12
235.115	85.12
235.349	69.12
235.583	68.12
235.817	65.12
236.051	72.12
236.285	73.12
236.519	59.12
236.753	80.12
236.987	75.12
237.221	81.12
237.455	83.12
237.689	67.12
237.922	67.12
238.156	66.12
238.39	74.12
238.624	67.12
238.858	78.12
239.091	75.12
239.325	68.12
239.559	69.12
239.793	73.12
240.027	76.12
240.26	69.12
240.494	67.12
240.728	69.12
240.961	85.12
241.195	91.12
241.429	74.12
241.662	54.12
241.896	81.12
242.13	85.12
242.363	69.12
242.597	83.12
242.83	94.12
243.064	80.12
243.298	84.12
243.531	80.12
243.765	79.12
243.998	88.12
244.232	85.12
244.465	76.12
244.699	73.12
244.932	69.12
245.166	74.12
245.399	82.12
245.633	85.12
245.866	74.12
246.099	74.12
246.333	84.12
246.566	64.12
246.8	73.12
247.033	86.12
247.266	73.12
247.5	75.12
247.733	89.12
247.966	73.12
248.2	74.12
248.433	77.12
248.666	86.12
248.899	79.12
249.133	83.12
249.366	66.12
249.599	68.12
249.832	89.12
250.066	86.12
250.299	84.12
250.532	86.12
250.765	88.12
250.998	70.12
251.231	75.12
251.465	90.12
251.698	80.12
251.931	88.12
252.164	79.12
252.397	85.12
252.63	85.12
252.863	76.12
253.096	81.12
253.329	76.12
253.562	66.12
253.795	74.12
254.028	72.12
254.261	90.12
254.494	74.12
254.727	82.12
254.96	76.12
255.193	78.12
255.426	67.12
255.659	85.12
255.892	73.12
256.124	83.12
256.357	89.12
256.59	78.12
256.823	79.12
257.056	65.12
257.289	68.12
257.521	75.12
257.754	75.12
257.987	78.12
258.22	90.12
258.452	73.12
258.685	75.12
258.918	88.12
259.151	91.12
259.383	79.12
259.616	76.12
259.849	80.12
260.081	87.12
260.314	74.12
260.547	76.12
260.779	73.12
261.012	86.12
261.244	70.12
261.477	88.12
261.71	80.12
261.942	87.12
262.175	82.12
262.407	89.12
262.64	92.12
262.872	77.12
263.105	79.12
263.337	92.12
263.57	87.12
263.802	78.12
264.035	87.12
264.267	79.12
264.499	85.12
264.732	90.12
264.964	84.12
265.197	86.12
265.429	82.12
265.661	85.12
265.894	87.12
266.126	88.12
266.358	89.12
266.591	92.12
266.823	81.12
267.055	83.12
267.287	81.12
267.52	70.12
267.752	80.12
267.984	73.12
268.216	71.12
268.448	81.12
268.681	79.12
268.913	74.12
269.145	78.12
269.377	90.12
269.609	75.12
269.841	85.12
270.073	79.12
270.306	81.12
270.538	74.12
270.77	76.12
271.002	80.12
271.234	91.12
271.466	82.12
271.698	69.12
271.93	65.12
272.162	87.12
272.394	85.12
272.626	81.12
272.858	81.12
273.09	70.12
273.322	96.12
273.553	75.12
273.785	89.12
274.017	82.12
274.249	79.12
274.481	76.12
274.713	80.12
274.945	67.12
275.176	96.12
275.408	85.12
275.64	80.12
275.872	83.12
276.104	82.12
276.335	88.12
276.567	85.12
276.799	79.12
277.031	87.12
277.262	94.12
277.494	75.12
277.726	61.12
277.957	71.12
278.189	89.12
278.421	89.12
278.652	89.12
278.884	83.12
279.115	83.12
279.347	74.12
279.579	74.12
279.81	61.12
280.042	80.12
280.273	94.12
280.505	92.12
280.736	82.12
280.968	71.12
281.199	82.12
281.431	82.12
281.662	65.12
281.894	101.12
282.125	90.12
282.356	90.12
282.588	81.12
282.819	82.12
283.051	73.12
283.282	88.12
283.513	87.12
283.745	89.12
283.976	90.12
284.207	95.12
284.439	77.12
284.67	101.12
284.901	92.12
285.132	93.12
285.364	78.12
285.595	80.12
285.826	66.12
286.057	92.12
286.288	89.12
286.52	87.12
286.751	87.12
286.982	90.12
287.213	101.12
287.444	75.12
287.675	82.12
287.906	105.12
288.138	79.12
288.369	77.12
288.6	85.12
288.831	89.12
289.062	88.12
289.293	87.12
289.524	73.12
289.755	85.12
289.986	82.12
290.217	91.12
290.448	92.12
290.679	77.12
290.91	93.12
291.141	90.12
291.371	81.12
291.602	91.12
291.833	87.12
292.064	90.12
292.295	91.12
292.526	99.12
292.757	85.12
292.987	82.12
293.218	75.12
293.449	90.12
293.68	83.12
293.91	84.12
294.141	75.12
294.372	84.12
294.603	78.12
294.833	81.12
295.064	90.12
295.295	77.12
295.525	82.12
295.756	92.12
295.987	73.12
296.217	84.12
296.448	85.12
296.679	96.12
296.909	90.12
297.14	74.12
297.37	86.12
297.601	89.12
297.831	78.12
298.062	76.12
298.292	82.12
298.523	95.12
298.753	82.12
298.984	83.12
299.214	83.12
299.445	84.12
299.675	88.12
299.905	81.12
300.136	80.12
300.366	74.12
300.597	94.12
300.827	91.12
301.057	84.12
301.288	90.12
301.518	96.12
301.748	75.12
301.979	102.12
302.209	87.12
302.439	80.12
302.669	75.12
302.9	80.12
303.13	90.12
303.36	87.12
303.59	82.12
303.82	88.12
304.051	80.12
304.281	79.12
304.511	92.12
304.741	71.12
304.971	74.12
305.201	82.12
305.431	89.12
305.661	85.12
305.891	90.12
306.121	77.12
306.352	85.12
306.582	74.12
306.812	69.12
307.042	94.12
307.272	78.12
307.502	80.12
307.731	92.12
307.961	103.12
308.191	73.12
308.421	85.12
308.651	81.12
308.881	85.12
309.111	89.12
309.341	83.12
309.571	88.12
309.8	75.12
310.03	89.12
310.26	86.12
310.49	85.12
310.72	89.12
310.949	95.12
311.179	95.12
311.409	85.12
311.639	81.12
311.868	89.12
312.098	77.12
312.328	82.12
312.557	81.12
312.787	68.12
313.017	86.12
313.246	86.12
313.476	94.12
313.706	86.12
313.935	68.12
314.165	83.12
314.394	79.12
314.624	88.12
314.853	83.12
315.083	88.12
315.312	81.12
315.542	70.12
315.771	94.12
316.001	82.12
316.23	75.12
316.46	90.12
316.689	95.12
316.919	73.12
317.148	93.12
317.377	89.12
317.607	76.12
317.836	97.12
318.065	68.12
318.295	82.12
318.524	75.12
318.753	88.12
318.983	88.12
319.212	87.12
319.441	91.12
319.67	98.12
319.9	89.12
320.129	78.12
320.358	93.12
320.587	92.12
320.816	86.12
321.046	87.12
321.275	82.12
321.504	76.12
321.733	92.12
321.962	77.12
322.191	85.12
322.42	90.12
322.649	78.12
322.878	86.12
323.108	76.12
323.337	75.12
323.566	89.12
323.795	95.12
324.024	86.12
324.253	80.12
324.482	82.12
324.71	80.12
324.939	76.12
325.168	92.12
325.397	79.12
325.626	79.12
325.855	87.12
326.084	94.12
326.313	77.12
326.542	67.12
326.77	89.12
326.999	90.12
327.228	89.12
327.457	86.12
327.686	90.12
327.914	77.12
328.143	70.12
328.372	77.12
328.6	85.12
328.829	77.12
329.058	84.12
329.287	87.12
329.515	102.12
329.744	77.12
329.972	101.12
330.201	90.12
330.43	91.12
330.658	89.12
330.887	95.12
331.115	73.12
331.344	104.12
331.572	103.12
331.801	98.12
332.03	94.12
332.258	74.12
332.486	81.12
332.715	90.12
332.943	91.12
333.172	83.12
333.4	82.12
333.629	96.12
333.857	63.12
334.085	86.12
334.314	83.12
334.542	85.12
334.771	83.12
334.999	94.12
335.227	80.12
335.455	85.12
335.684	89.12
335.912	94.12
336.14	96.12
336.369	91.12
336.597	90.12
336.825	91.12
337.053	79.12
337.281	75.12
337.51	89.12
337.738	93.12
337.966	85.12
338.194	97.12
338.422	93.12
338.65	85.12
338.878	103.12
339.106	94.12
339.334	80.12
339.562	81.12
339.79	90.12
340.018	82.12
340.246	88.12
340.474	83.12
340.702	71.12
340.93	106.12
341.158	79.12
341.386	75.12
341.614	68.12
341.842	94.12
342.07	91.12
342.298	87.12
342.526	79.12
342.754	78.12
342.981	83.12
343.209	95.12
343.437	96.12
343.665	90.12
343.893	80.12
344.12	88.12
344.348	90.12
344.576	99.12
344.804	81.12
345.031	86.12
345.259	80.12
345.487	77.12
345.714	88.12
345.942	77.12
346.17	88.12
346.397	87.12
346.625	86.12
346.853	66.12
347.08	79.12
347.308	90.12
347.535	103.12
347.763	88.12
347.99	80.12
348.218	82.12
348.445	95.12
348.673	85.12
348.9	85.12
349.128	88.12
349.355	80.12
349.583	88.12
349.81	76.12
350.037	82.12
350.265	86.12
350.492	76.12
350.72	78.12
350.947	90.12
351.174	81.12
351.402	73.12
351.629	89.12
351.856	83.12
352.083	63.12
352.311	79.12
352.538	87.12
352.765	89.12
352.992	97.12
353.22	85.12
353.447	93.12
353.674	90.12
353.901	93.12
354.128	78.12
354.355	83.12
354.583	83.12
354.81	68.12
355.037	79.12
355.264	85.12
355.491	93.12
355.718	80.12
355.945	96.12
356.172	81.12
356.399	83.12
356.626	69.12
356.853	96.12
357.08	81.12
357.307	86.12
357.534	90.12
357.761	77.12
357.988	87.12
358.215	90.12
358.441	78.12
358.668	87.12
358.895	86.12
359.122	91.12
359.349	90.12
359.576	73.12
359.802	88.12
360.029	72.12
360.256	92.12
360.483	93.12
360.709	90.12
360.936	96.12
361.163	101.12
361.39	93.12
361.616	88.12
361.843	76.12
362.07	82.12
362.296	98.12
362.523	80.12
362.749	77.12
362.976	82.12
363.203	91.12
363.429	82.12
363.656	90.12
363.882	77.12
364.109	81.12
364.335	80.12
364.562	81.12
364.788	85.12
365.015	77.12
365.241	89.12
365.468	81.12
365.694	85.12
365.92	73.12
366.147	84.12
366.373	81.12
366.599	97.12
366.826	81.12
367.052	74.12
367.278	83.12
367.505	85.12
367.731	83.12
367.957	76.12
368.184	76.12
368.41	74.12
368.636	90.12
368.862	86.12
369.089	74.12
369.315	89.12
369.541	92.12
369.767	81.12
369.993	73.12
370.219	79.12
370.445	76.12
370.672	83.12
370.898	78.12
371.124	89.12
371.35	82.12
371.576	105.12
371.802	85.12
372.028	102.12
372.254	79.12
372.48	98.12
372.706	82.12
372.932	86.12
373.158	67.12
373.384	91.12
373.61	80.12
373.835	78.12
374.061	82.12
374.287	98.12
374.513	94.12
374.739	96.12
374.965	79.12
375.191	100.12
375.416	75.12
375.642	85.12
375.868	90.12
376.094	77.12
376.319	82.12
376.545	82.12
376.771	80.12
376.997	73.12
377.222	82.12
377.448	87.12
377.674	85.12
377.899	94.12
378.125	74.12
378.35	71.12
378.576	85.12
378.802	93.12
379.027	92.12
379.253	81.12
379.478	80.12
379.704	89.12
379.929	84.12
380.155	83.12
380.38	79.12
380.606	82.12
380.831	85.12
381.057	83.12
381.282	76.12
381.507	86.12
381.733	89.12
381.958	81.12
382.184	88.12
382.409	92.12
382.634	81.12
382.86	74.12
383.085	84.12
383.31	78.12
383.535	90.12
383.761	75.12
383.986	78.12
384.211	74.12
384.436	79.12
384.662	69.12
384.887	85.12
385.112	89.12
385.337	77.12
385.562	90.12
385.787	73.12
386.013	69.12
386.238	74.12
386.463	80.12
386.688	104.12
386.913	82.12
387.138	83.12
387.363	89.12
387.588	83.12
387.813	88.12
388.038	69.12
388.263	86.12
388.488	82.12
388.713	86.12
388.938	98.12
389.163	89.12
389.387	97.12
389.612	87.12
389.837	79.12
390.062	74.12
390.287	81.12
390.512	80.12
390.736	76.12
390.961	75.12
391.186	88.12
391.411	88.12
391.636	76.12
391.86	73.12
392.085	83.12
392.31	89.12
392.534	86.12
392.759	82.12
392.984	90.12
393.208	87.12
393.433	89.12
393.658	89.12
393.882	90.12
394.107	83.12
394.331	83.12
394.556	87.12
394.78	94.12
395.005	83.12
395.229	90.12
395.454	78.12
395.678	77.12
395.903	76.12
396.127	89.12
396.352	81.12
396.576	75.12
396.801	81.12
397.025	66.12
397.249	81.12
397.474	93.12
397.698	69.12
397.922	83.12
398.147	84.12
398.371	69.12
398.595	83.12
398.82	80.12
399.044	78.12
399.268	87.12
399.492	76.12
399.717	73.12
399.941	76.12
400.165	77.12
400.389	73.12
400.613	80.12
400.837	82.12
401.062	92.12
401.286	85.12
401.51	77.12
401.734	76.12
401.958	90.12
402.182	81.12
402.406	82.12
402.63	79.12
402.854	89.12
403.078	93.12
403.302	88.12
403.526	96.12
403.75	83.12
403.974	88.12
404.198	85.12
404.422	88.12
404.645	82.12
404.869	88.12
405.093	98.12
405.317	74.12
405.541	88.12
405.765	91.12
405.988	79.12
406.212	83.12
406.436	70.12
406.66	85.12
406.883	79.12
407.107	88.12
407.331	88.12
407.555	82.12
407.778	72.12
408.002	85.12
408.226	88.12
408.449	89.12
408.673	73.12
408.896	94.12
409.12	88.12
409.344	67.12
409.567	89.12
409.791	76.12
410.014	85.12
410.238	78.12
410.461	94.12
410.685	90.12
410.908	89.12
411.132	74.12
411.355	87.12
411.578	88.12
411.802	81.12
412.025	68.12
412.249	82.12
412.472	76.12
412.695	87.12
412.919	86.12
413.142	82.12
413.365	91.12
413.589	73.12
413.812	101.12
414.035	82.12
414.258	93.12
414.482	81.12
414.705	85.12
414.928	92.12
415.151	86.12
415.374	87.12
415.597	83.12
415.821	84.12
416.044	73.12
416.267	85.12
416.49	82.12
416.713	82.12
416.936	91.12
417.159	79.12
417.382	91.12
417.605	91.12
417.828	78.12
418.051	88.12
418.274	82.12
418.497	88.12
418.72	90.12
418.943	80.12
419.166	103.12
419.389	93.12
419.611	78.12
419.834	77.12
420.057	71.12
420.28	80.12
420.503	82.12
420.726	71.12
420.948	73.12
421.171	83.12
421.394	79.12
421.617	87.12
421.839	82.12
422.062	73.12
422.285	69.12
422.507	74.12
422.73	76.12
422.953	80.12
423.175	75.12
423.398	85.12
423.621	71.12
423.843	77.12
424.066	57.12
424.288	76.12
424.511	85.12
424.733	85.12
424.956	76.12
425.178	96.12
425.401	91.12
425.623	89.12
425.846	80.12
426.068	79.12
426.291	77.12
426.513	85.12
426.735	95.12
426.958	88.12
427.18	79.12
427.402	85.12
427.625	71.12
427.847	80.12
428.069	78.12
428.292	81.12
428.514	83.12
428.736	95.12
428.958	90.12
429.181	72.12
429.403	80.12
429.625	79.12
429.847	77.12
430.069	84.12
430.292	69.12
430.514	76.12
430.736	78.12
430.958	87.12
431.18	94.12
431.402	97.12
431.624	82.12
431.846	65.12
432.068	80.12
432.29	68.12
432.512	87.12
432.734	85.12
432.956	73.12
433.178	90.12
433.4	77.12
433.622	88.12
433.844	84.12
434.066	78.12
434.287	69.12
434.509	86.12
434.731	86.12
434.953	85.12
435.175	85.12
435.397	89.12
435.618	78.12
435.84	65.12
436.062	78.12
436.284	85.12
436.505	83.12
436.727	84.12
436.949	94.12
437.17	69.12
437.392	85.12
437.614	81.12
437.835	85.12
438.057	81.12
438.278	86.12
438.5	87.12
438.721	79.12
438.943	84.12
439.165	102.12
439.386	86.12
439.608	88.12
439.829	89.12
440.05	79.12
440.272	103.12
440.493	71.12
440.715	83.12
440.936	77.12
441.158	81.12
441.379	89.12
441.6	87.12
441.822	86.12
442.043	79.12
442.264	72.12
442.486	82.12
442.707	81.12
442.928	81.12
443.149	85.12
443.371	81.12
443.592	77.12
443.813	79.12
444.034	68.12
444.255	77.12
444.476	84.12
444.698	88.12
444.919	81.12
445.14	185.12
445.361	127.12
445.582	92.12
445.803	91.12
446.024	86.12
446.245	84.12
446.466	89.12
446.687	77.12
446.908	73.12
447.129	94.12
447.35	95.12
447.571	80.12
447.792	77.12
448.013	80.12
448.234	90.12
448.455	77.12
448.675	71.12
448.896	77.12
449.117	90.12
449.338	83.12
449.559	89.12
449.779	72.12
450	86.12
450.221	84.12
450.442	92.12
450.662	90.12
450.883	69.12
451.104	85.12
451.324	78.12
451.545	88.12
451.766	73.12
451.986	88.12
452.207	88.12
452.428	86.12
452.648	86.12
452.869	78.12
453.089	77.12
453.31	71.12
453.53	81.12
453.751	92.12
453.971	71.12
454.192	86.12
454.412	82.12
454.633	92.12
454.853	83.12
455.073	86.12
455.294	75.12
455.514	82.12
455.734	75.12
455.955	76.12
456.175	87.12
456.395	81.12
456.616	87.12
456.836	69.12
457.056	77.12
457.276	78.12
457.497	74.12
457.717	89.12
457.937	81.12
458.157	75.12
458.377	68.12
458.598	85.12
458.818	87.12
459.038	74.12
459.258	73.12
459.478	83.12
459.698	89.12
459.918	73.12
460.138	72.12
460.358	63.12
460.578	85.12
460.798	92.12
461.018	90.12
461.238	87.12
461.458	74.12
461.678	71.12
461.898	98.12
462.118	87.12
462.338	86.12
462.558	84.12
462.777	88.12
462.997	83.12
463.217	89.12
463.437	80.12
463.657	72.12
463.876	83.12
464.096	77.12
464.316	78.12
464.536	94.12
464.755	82.12
464.975	91.12
465.195	86.12
465.414	75.12
465.634	80.12
465.854	90.12
466.073	68.12
466.293	83.12
466.512	79.12
466.732	88.12
466.951	79.12
467.171	76.12
467.391	81.12
467.61	77.12
467.829	90.12
468.049	90.12
468.268	88.12
468.488	80.12
468.707	89.12
468.927	80.12
469.146	71.12
469.365	73.12
469.585	78.12
469.804	83.12
470.023	68.12
470.243	85.12
470.462	88.12
470.681	84.12
470.901	95.12
471.12	93.12
471.339	75.12
471.558	83.12
471.777	84.12
471.997	73.12
472.216	81.12
472.435	88.12
472.654	78.12
472.873	91.12
473.092	87.12
473.311	75.12
473.53	91.12
473.749	86.12
473.968	97.12
474.187	90.12
474.406	85.12
474.625	88.12
474.844	85.12
475.063	88.12
475.282	80.12
475.501	73.12
475.72	92.12
475.939	83.12
476.158	83.12
476.377	73.12
476.596	92.12
476.814	70.12
477.033	71.12
477.252	65.12
477.471	74.12
477.69	73.12
477.908	88.12
478.127	82.12
478.346	81.12
478.564	87.12
478.783	94.12
479.002	85.12
479.22	78.12
479.439	85.12
479.658	91.12
479.876	80.12
480.095	86.12
480.313	82.12
480.532	78.12
480.751	82.12
480.969	88.12
481.188	75.12
481.406	73.12
481.624	79.12
481.843	89.12
482.061	73.12
482.28	73.12
482.498	80.12
482.717	73.12
482.935	79.12
483.153	82.12
483.372	94.12
483.59	86.12
483.808	87.12
484.027	79.12
484.245	89.12
484.463	95.12
484.681	77.12
484.9	75.12
485.118	81.12
485.336	87.12
485.554	87.12
485.772	81.12
485.99	81.12
486.209	71.12
486.427	79.12
486.645	81.12
486.863	75.12
487.081	92.12
487.299	87.12
487.517	93.12
487.735	85.12
487.953	78.12
488.171	87.12
488.389	94.12
488.607	78.12
488.825	86.12
489.043	81.12
489.261	81.12
489.479	73.12
489.696	84.12
489.914	81.12
490.132	101.12
490.35	81.12
490.568	79.12
490.786	84.12
491.003	87.12
491.221	91.12
491.439	89.12
491.657	80.12
491.874	95.12
492.092	101.12
492.31	92.12
492.527	81.12
492.745	90.12
492.963	73.12
493.18	72.12
493.398	82.12
493.615	85.12
493.833	93.12
494.05	88.12
494.268	93.12
494.485	76.12
494.703	87.12
494.92	89.12
495.138	82.12
495.355	96.12
495.573	74.12
495.79	69.12
496.008	80.12
496.225	78.12
496.442	88.12
496.66	89.12
496.877	98.12
497.094	87.12
497.312	84.12
497.529	84.12
497.746	81.12
497.963	80.12
498.181	75.12
498.398	79.12
498.615	64.12
498.832	97.12
499.049	98.12
499.267	93.12
499.484	83.12
499.701	78.12
499.918	85.12
500.135	85.12
500.352	91.12
500.569	89.12
500.786	75.12
501.003	89.12
501.22	81.12
501.437	78.12
501.654	68.12
501.871	86.12
502.088	91.12
502.305	73.12
502.522	89.12
502.739	78.12
502.956	86.12
503.172	91.12
503.389	82.12
503.606	83.12
503.823	103.12
504.04	73.12
504.256	66.12
504.473	83.12
504.69	92.12
504.907	89.12
505.123	92.12
505.34	88.12
505.557	94.12
505.773	83.12
505.99	85.12
506.207	80.12
506.423	79.12
506.64	77.12
506.856	87.12
507.073	78.12
507.289	79.12
507.506	87.12
507.722	91.12
507.939	96.12
508.155	80.12
508.372	77.12
508.588	75.12
508.805	78.12
509.021	79.12
509.238	70.12
509.454	80.12
509.67	90.12
509.887	74.12
510.103	76.12
510.319	89.12
510.536	71.12
510.752	74.12
510.968	89.12
511.184	73.12
511.401	83.12
511.617	71.12
511.833	82.12
512.049	75.12
512.265	84.12
512.481	71.12
512.698	84.12
512.914	82.12
513.13	77.12
513.346	87.12
513.562	90.12
513.778	86.12
513.994	69.12
514.21	90.12
514.426	74.12
514.642	86.12
514.858	99.12
515.074	90.12
515.29	69.12
515.506	96.12
515.721	78.12
515.937	74.12
516.153	76.12
516.369	71.12
516.585	80.12
516.801	84.12
517.016	86.12
517.232	82.12
517.448	79.12
517.664	80.12
517.879	71.12
518.095	92.12
518.311	91.12
518.527	99.12
518.742	84.12
518.958	97.12
519.173	86.12
519.389	89.12
519.605	68.12
519.82	77.12
520.036	69.12
