Data from StdD_HRD10591_002.txt Node
Date: Fri May 16 15:31:22 EDT 2025
User: Yrep
Spectrometer: HR+D1059
Trigger mode: 1
Integration Time (sec): 1.000000E-1
Scans to average: 1
Electric dark correction enabled: true
Nonlinearity correction enabled: false
Boxcar width: 0
XAxis mode: Wavelengths
Number of Pixels in Spectrum: 2048
>>>>>Begin Spectral Data<<<<<
223.165	-19.06
223.4	-19.06
223.635	-19.06
223.869	-27.06
224.104	-24.06
224.338	-11.06
224.573	-16.06
224.808	-4.06
225.042	-5.06
225.277	-15.06
225.511	-12.06
225.746	5.94
225.98	20.94
226.215	16.94
226.449	8.94
226.683	20.94
226.918	26.94
227.152	32.94
227.387	26.94
227.621	36.94
227.856	42.94
228.09	46.94
228.324	47.94
228.559	57.94
228.793	56.94
229.027	65.94
229.262	56.94
229.496	54.94
229.73	62.94
229.964	73.94
230.199	72.94
230.433	64.94
230.667	68.94
230.901	69.94
231.136	73.94
231.37	74.94
231.604	65.94
231.838	68.94
232.072	66.94
232.306	85.94
232.541	81.94
232.775	65.94
233.009	77.94
233.243	63.94
233.477	73.94
233.711	83.94
233.945	72.94
234.179	78.94
234.413	84.94
234.647	74.94
234.881	64.94
235.115	78.94
235.349	78.94
235.583	75.94
235.817	70.94
236.051	67.94
236.285	80.94
236.519	69.94
236.753	63.94
236.987	87.94
237.221	71.94
237.455	71.94
237.689	58.94
237.922	80.94
238.156	78.94
238.39	68.94
238.624	79.94
238.858	59.94
239.091	62.94
239.325	70.94
239.559	86.94
239.793	71.94
240.027	67.94
240.26	75.94
240.494	69.94
240.728	74.94
240.961	82.94
241.195	77.94
241.429	77.94
241.662	77.94
241.896	62.94
242.13	74.94
242.363	75.94
242.597	62.94
242.83	78.94
243.064	66.94
243.298	81.94
243.531	82.94
243.765	77.94
243.998	74.94
244.232	79.94
244.465	72.94
244.699	78.94
244.932	78.94
245.166	73.94
245.399	67.94
245.633	70.94
245.866	75.94
246.099	82.94
246.333	85.94
246.566	74.94
246.8	78.94
247.033	63.94
247.266	74.94
247.5	62.94
247.733	76.94
247.966	68.94
248.2	65.94
248.433	72.94
248.666	72.94
248.899	75.94
249.133	81.94
249.366	62.94
249.599	79.94
249.832	83.94
250.066	76.94
250.299	77.94
250.532	66.94
250.765	75.94
250.998	68.94
251.231	71.94
251.465	76.94
251.698	65.94
251.931	69.94
252.164	79.94
252.397	81.94
252.63	78.94
252.863	78.94
253.096	73.94
253.329	81.94
253.562	93.94
253.795	60.94
254.028	77.94
254.261	71.94
254.494	80.94
254.727	75.94
254.96	68.94
255.193	63.94
255.426	80.94
255.659	72.94
255.892	68.94
256.124	71.94
256.357	74.94
256.59	73.94
256.823	80.94
257.056	79.94
257.289	77.94
257.521	82.94
257.754	72.94
257.987	79.94
258.22	90.94
258.452	66.94
258.685	54.94
258.918	76.94
259.151	73.94
259.383	86.94
259.616	71.94
259.849	84.94
260.081	78.94
260.314	84.94
260.547	76.94
260.779	73.94
261.012	87.94
261.244	68.94
261.477	76.94
261.71	74.94
261.942	76.94
262.175	81.94
262.407	83.94
262.64	71.94
262.872	56.94
263.105	77.94
263.337	74.94
263.57	84.94
263.802	88.94
264.035	84.94
264.267	84.94
264.499	75.94
264.732	61.94
264.964	70.94
265.197	86.94
265.429	65.94
265.661	84.94
265.894	91.94
266.126	90.94
266.358	74.94
266.591	70.94
266.823	76.94
267.055	79.94
267.287	81.94
267.52	88.94
267.752	75.94
267.984	81.94
268.216	76.94
268.448	72.94
268.681	71.94
268.913	74.94
269.145	76.94
269.377	81.94
269.609	85.94
269.841	84.94
270.073	70.94
270.306	73.94
270.538	77.94
270.77	70.94
271.002	79.94
271.234	70.94
271.466	63.94
271.698	82.94
271.93	78.94
272.162	87.94
272.394	92.94
272.626	71.94
272.858	71.94
273.09	63.94
273.322	83.94
273.553	71.94
273.785	64.94
274.017	83.94
274.249	75.94
274.481	83.94
274.713	84.94
274.945	78.94
275.176	63.94
275.408	82.94
275.64	79.94
275.872	75.94
276.104	69.94
276.335	76.94
276.567	78.94
276.799	84.94
277.031	74.94
277.262	85.94
277.494	86.94
277.726	75.94
277.957	86.94
278.189	76.94
278.421	64.94
278.652	70.94
278.884	73.94
279.115	78.94
279.347	65.94
279.579	75.94
279.81	69.94
280.042	74.94
280.273	74.94
280.505	72.94
280.736	88.94
280.968	88.94
281.199	64.94
281.431	76.94
281.662	75.94
281.894	65.94
282.125	77.94
282.356	72.94
282.588	90.94
282.819	79.94
283.051	73.94
283.282	71.94
283.513	84.94
283.745	72.94
283.976	83.94
284.207	73.94
284.439	76.94
284.67	81.94
284.901	81.94
285.132	70.94
285.364	72.94
285.595	65.94
285.826	79.94
286.057	90.94
286.288	81.94
286.52	82.94
286.751	64.94
286.982	92.94
287.213	81.94
287.444	78.94
287.675	76.94
287.906	74.94
288.138	79.94
288.369	76.94
288.6	70.94
288.831	84.94
289.062	93.94
289.293	87.94
289.524	77.94
289.755	93.94
289.986	71.94
290.217	82.94
290.448	72.94
290.679	75.94
290.91	84.94
291.141	71.94
291.371	74.94
291.602	74.94
291.833	85.94
292.064	79.94
292.295	89.94
292.526	62.94
292.757	87.94
292.987	87.94
293.218	77.94
293.449	83.94
293.68	88.94
293.91	66.94
294.141	86.94
294.372	87.94
294.603	83.94
294.833	93.94
295.064	80.94
295.295	81.94
295.525	78.94
295.756	63.94
295.987	90.94
296.217	88.94
296.448	88.94
296.679	75.94
296.909	90.94
297.14	85.94
297.37	76.94
297.601	81.94
297.831	88.94
298.062	92.94
298.292	85.94
298.523	85.94
298.753	87.94
298.984	74.94
299.214	77.94
299.445	86.94
299.675	76.94
299.905	71.94
300.136	70.94
300.366	61.94
300.597	80.94
300.827	75.94
301.057	93.94
301.288	77.94
301.518	90.94
301.748	83.94
301.979	87.94
302.209	86.94
302.439	71.94
302.669	75.94
302.9	86.94
303.13	69.94
303.36	78.94
303.59	84.94
303.82	79.94
304.051	86.94
304.281	82.94
304.511	86.94
304.741	80.94
304.971	80.94
305.201	89.94
305.431	78.94
305.661	78.94
305.891	87.94
306.121	78.94
306.352	90.94
306.582	80.94
306.812	86.94
307.042	73.94
307.272	88.94
307.502	84.94
307.731	78.94
307.961	85.94
308.191	75.94
308.421	83.94
308.651	77.94
308.881	84.94
309.111	78.94
309.341	77.94
309.571	88.94
309.8	76.94
310.03	94.94
310.26	88.94
310.49	84.94
310.72	87.94
310.949	82.94
311.179	82.94
311.409	64.94
311.639	80.94
311.868	78.94
312.098	90.94
312.328	78.94
312.557	81.94
312.787	80.94
313.017	82.94
313.246	71.94
313.476	72.94
313.706	86.94
313.935	78.94
314.165	75.94
314.394	91.94
314.624	68.94
314.853	80.94
315.083	86.94
315.312	81.94
315.542	76.94
315.771	66.94
316.001	76.94
316.23	83.94
316.46	77.94
316.689	68.94
316.919	89.94
317.148	71.94
317.377	82.94
317.607	83.94
317.836	73.94
318.065	87.94
318.295	82.94
318.524	86.94
318.753	72.94
318.983	76.94
319.212	73.94
319.441	80.94
319.67	74.94
319.9	82.94
320.129	86.94
320.358	78.94
320.587	90.94
320.816	85.94
321.046	73.94
321.275	81.94
321.504	86.94
321.733	89.94
321.962	70.94
322.191	79.94
322.42	98.94
322.649	87.94
322.878	78.94
323.108	68.94
323.337	87.94
323.566	75.94
323.795	76.94
324.024	81.94
324.253	66.94
324.482	82.94
324.71	63.94
324.939	77.94
325.168	72.94
325.397	85.94
325.626	88.94
325.855	78.94
326.084	83.94
326.313	88.94
326.542	81.94
326.77	82.94
326.999	67.94
327.228	87.94
327.457	80.94
327.686	99.94
327.914	71.94
328.143	89.94
328.372	78.94
328.6	84.94
328.829	83.94
329.058	78.94
329.287	83.94
329.515	72.94
329.744	91.94
329.972	64.94
330.201	80.94
330.43	87.94
330.658	95.94
330.887	80.94
331.115	72.94
331.344	80.94
331.572	71.94
331.801	68.94
332.03	80.94
332.258	87.94
332.486	70.94
332.715	76.94
332.943	88.94
333.172	77.94
333.4	87.94
333.629	83.94
333.857	82.94
334.085	78.94
334.314	61.94
334.542	88.94
334.771	79.94
334.999	85.94
335.227	77.94
335.455	74.94
335.684	74.94
335.912	82.94
336.14	79.94
336.369	89.94
336.597	80.94
336.825	73.94
337.053	80.94
337.281	71.94
337.51	79.94
337.738	82.94
337.966	72.94
338.194	81.94
338.422	78.94
338.65	88.94
338.878	76.94
339.106	87.94
339.334	76.94
339.562	78.94
339.79	86.94
340.018	81.94
340.246	73.94
340.474	67.94
340.702	70.94
340.93	67.94
341.158	83.94
341.386	74.94
341.614	72.94
341.842	77.94
342.07	80.94
342.298	71.94
342.526	83.94
342.754	78.94
342.981	72.94
343.209	81.94
343.437	75.94
343.665	59.94
343.893	83.94
344.12	101.94
344.348	80.94
344.576	75.94
344.804	74.94
345.031	65.94
345.259	71.94
345.487	84.94
345.714	85.94
345.942	98.94
346.17	77.94
346.397	83.94
346.625	67.94
346.853	72.94
347.08	82.94
347.308	84.94
347.535	95.94
347.763	77.94
347.99	86.94
348.218	68.94
348.445	89.94
348.673	90.94
348.9	77.94
349.128	87.94
349.355	82.94
349.583	64.94
349.81	76.94
350.037	88.94
350.265	68.94
350.492	81.94
350.72	75.94
350.947	79.94
351.174	82.94
351.402	68.94
351.629	83.94
351.856	74.94
352.083	85.94
352.311	78.94
352.538	89.94
352.765	83.94
352.992	87.94
353.22	78.94
353.447	79.94
353.674	76.94
353.901	88.94
354.128	77.94
354.355	82.94
354.583	78.94
354.81	82.94
355.037	84.94
355.264	88.94
355.491	64.94
355.718	65.94
355.945	84.94
356.172	83.94
356.399	72.94
356.626	73.94
356.853	85.94
357.08	83.94
357.307	75.94
357.534	92.94
357.761	90.94
357.988	68.94
358.215	91.94
358.441	86.94
358.668	68.94
358.895	74.94
359.122	80.94
359.349	88.94
359.576	66.94
359.802	89.94
360.029	72.94
360.256	85.94
360.483	86.94
360.709	70.94
360.936	81.94
361.163	84.94
361.39	80.94
361.616	92.94
361.843	95.94
362.07	92.94
362.296	77.94
362.523	70.94
362.749	73.94
362.976	78.94
363.203	71.94
363.429	85.94
363.656	73.94
363.882	77.94
364.109	60.94
364.335	70.94
364.562	75.94
364.788	82.94
365.015	71.94
365.241	83.94
365.468	77.94
365.694	69.94
365.92	93.94
366.147	84.94
366.373	84.94
366.599	63.94
366.826	70.94
367.052	64.94
367.278	74.94
367.505	81.94
367.731	96.94
367.957	83.94
368.184	74.94
368.41	100.94
368.636	72.94
368.862	84.94
369.089	92.94
369.315	88.94
369.541	79.94
369.767	77.94
369.993	67.94
370.219	73.94
370.445	83.94
370.672	67.94
370.898	56.94
371.124	79.94
371.35	87.94
371.576	88.94
371.802	70.94
372.028	83.94
372.254	67.94
372.48	87.94
372.706	80.94
372.932	86.94
373.158	79.94
373.384	78.94
373.61	66.94
373.835	75.94
374.061	87.94
374.287	70.94
374.513	76.94
374.739	82.94
374.965	70.94
375.191	83.94
375.416	82.94
375.642	91.94
375.868	79.94
376.094	86.94
376.319	71.94
376.545	71.94
376.771	83.94
376.997	86.94
377.222	76.94
377.448	68.94
377.674	74.94
377.899	77.94
378.125	78.94
378.35	84.94
378.576	81.94
378.802	73.94
379.027	76.94
379.253	73.94
379.478	81.94
379.704	58.94
379.929	73.94
380.155	74.94
380.38	90.94
380.606	78.94
380.831	75.94
381.057	84.94
381.282	73.94
381.507	87.94
381.733	78.94
381.958	77.94
382.184	84.94
382.409	61.94
382.634	80.94
382.86	93.94
383.085	95.94
383.31	82.94
383.535	80.94
383.761	84.94
383.986	78.94
384.211	68.94
384.436	72.94
384.662	84.94
384.887	72.94
385.112	82.94
385.337	75.94
385.562	77.94
385.787	81.94
386.013	64.94
386.238	83.94
386.463	77.94
386.688	86.94
386.913	78.94
387.138	75.94
387.363	83.94
387.588	80.94
387.813	82.94
388.038	78.94
388.263	89.94
388.488	83.94
388.713	73.94
388.938	74.94
389.163	91.94
389.387	83.94
389.612	70.94
389.837	90.94
390.062	64.94
390.287	88.94
390.512	70.94
390.736	69.94
390.961	77.94
391.186	64.94
391.411	77.94
391.636	77.94
391.86	71.94
392.085	71.94
392.31	72.94
392.534	87.94
392.759	86.94
392.984	88.94
393.208	63.94
393.433	77.94
393.658	85.94
393.882	70.94
394.107	86.94
394.331	79.94
394.556	82.94
394.78	82.94
395.005	83.94
395.229	72.94
395.454	82.94
395.678	74.94
395.903	81.94
396.127	87.94
396.352	79.94
396.576	80.94
396.801	92.94
397.025	79.94
397.249	82.94
397.474	86.94
397.698	75.94
397.922	94.94
398.147	70.94
398.371	78.94
398.595	75.94
398.82	78.94
399.044	77.94
399.268	72.94
399.492	77.94
399.717	74.94
399.941	81.94
400.165	82.94
400.389	68.94
400.613	93.94
400.837	69.94
401.062	90.94
401.286	69.94
401.51	72.94
401.734	65.94
401.958	91.94
402.182	64.94
402.406	86.94
402.63	84.94
402.854	91.94
403.078	90.94
403.302	75.94
403.526	80.94
403.75	80.94
403.974	75.94
404.198	85.94
404.422	70.94
404.645	70.94
404.869	86.94
405.093	71.94
405.317	83.94
405.541	82.94
405.765	89.94
405.988	77.94
406.212	80.94
406.436	82.94
406.66	94.94
406.883	85.94
407.107	70.94
407.331	82.94
407.555	73.94
407.778	84.94
408.002	82.94
408.226	73.94
408.449	80.94
408.673	87.94
408.896	67.94
409.12	66.94
409.344	74.94
409.567	88.94
409.791	93.94
410.014	87.94
410.238	79.94
410.461	91.94
410.685	73.94
410.908	83.94
411.132	85.94
411.355	78.94
411.578	87.94
411.802	87.94
412.025	85.94
412.249	65.94
412.472	81.94
412.695	87.94
412.919	79.94
413.142	83.94
413.365	79.94
413.589	71.94
413.812	74.94
414.035	84.94
414.258	87.94
414.482	95.94
414.705	87.94
414.928	69.94
415.151	68.94
415.374	78.94
415.597	83.94
415.821	87.94
416.044	73.94
416.267	86.94
416.49	78.94
416.713	75.94
416.936	76.94
417.159	82.94
417.382	77.94
417.605	72.94
417.828	72.94
418.051	71.94
418.274	82.94
418.497	82.94
418.72	69.94
418.943	88.94
419.166	84.94
419.389	95.94
419.611	93.94
419.834	87.94
420.057	82.94
420.28	82.94
420.503	79.94
420.726	85.94
420.948	88.94
421.171	77.94
421.394	58.94
421.617	71.94
421.839	70.94
422.062	77.94
422.285	73.94
422.507	74.94
422.73	72.94
422.953	70.94
423.175	76.94
423.398	87.94
423.621	58.94
423.843	80.94
424.066	70.94
424.288	79.94
424.511	77.94
424.733	77.94
424.956	73.94
425.178	83.94
425.401	77.94
425.623	84.94
425.846	85.94
426.068	77.94
426.291	85.94
426.513	87.94
426.735	75.94
426.958	66.94
427.18	76.94
427.402	75.94
427.625	77.94
427.847	88.94
428.069	78.94
428.292	82.94
428.514	78.94
428.736	84.94
428.958	73.94
429.181	65.94
429.403	84.94
429.625	75.94
429.847	79.94
430.069	77.94
430.292	83.94
430.514	65.94
430.736	84.94
430.958	79.94
431.18	84.94
431.402	66.94
431.624	75.94
431.846	61.94
432.068	85.94
432.29	86.94
432.512	84.94
432.734	91.94
432.956	76.94
433.178	86.94
433.4	68.94
433.622	82.94
433.844	77.94
434.066	85.94
434.287	78.94
434.509	69.94
434.731	85.94
434.953	72.94
435.175	80.94
435.397	78.94
435.618	71.94
435.84	78.94
436.062	82.94
436.284	82.94
436.505	82.94
436.727	78.94
436.949	73.94
437.17	61.94
437.392	79.94
437.614	83.94
437.835	77.94
438.057	79.94
438.278	75.94
438.5	87.94
438.721	82.94
438.943	85.94
439.165	66.94
439.386	82.94
439.608	101.94
439.829	78.94
440.05	84.94
440.272	82.94
440.493	73.94
440.715	74.94
440.936	76.94
441.158	85.94
441.379	82.94
441.6	64.94
441.822	82.94
442.043	68.94
442.264	78.94
442.486	76.94
442.707	71.94
442.928	69.94
443.149	76.94
443.371	82.94
443.592	74.94
443.813	76.94
444.034	79.94
444.255	85.94
444.476	85.94
444.698	73.94
444.919	66.94
445.14	149.94
445.361	110.94
445.582	76.94
445.803	99.94
446.024	83.94
446.245	90.94
446.466	67.94
446.687	82.94
446.908	63.94
447.129	68.94
447.35	76.94
447.571	82.94
447.792	72.94
448.013	75.94
448.234	85.94
448.455	82.94
448.675	88.94
448.896	82.94
449.117	76.94
449.338	82.94
449.559	75.94
449.779	81.94
450	74.94
450.221	82.94
450.442	85.94
450.662	71.94
450.883	78.94
451.104	78.94
451.324	83.94
451.545	73.94
451.766	70.94
451.986	88.94
452.207	83.94
452.428	80.94
452.648	79.94
452.869	84.94
453.089	80.94
453.31	83.94
453.53	76.94
453.751	74.94
453.971	88.94
454.192	76.94
454.412	63.94
454.633	75.94
454.853	92.94
455.073	71.94
455.294	66.94
455.514	96.94
455.734	71.94
455.955	78.94
456.175	78.94
456.395	88.94
456.616	72.94
456.836	71.94
457.056	72.94
457.276	82.94
457.497	76.94
457.717	73.94
457.937	85.94
458.157	87.94
458.377	85.94
458.598	69.94
458.818	75.94
459.038	78.94
459.258	90.94
459.478	88.94
459.698	80.94
459.918	85.94
460.138	78.94
460.358	72.94
460.578	79.94
460.798	74.94
461.018	79.94
461.238	99.94
461.458	86.94
461.678	88.94
461.898	85.94
462.118	75.94
462.338	71.94
462.558	61.94
462.777	62.94
462.997	82.94
463.217	67.94
463.437	74.94
463.657	65.94
463.876	75.94
464.096	85.94
464.316	87.94
464.536	82.94
464.755	81.94
464.975	83.94
465.195	77.94
465.414	76.94
465.634	68.94
465.854	84.94
466.073	84.94
466.293	71.94
466.512	90.94
466.732	72.94
466.951	84.94
467.171	69.94
467.391	82.94
467.61	90.94
467.829	88.94
468.049	76.94
468.268	85.94
468.488	80.94
468.707	79.94
468.927	82.94
469.146	78.94
469.365	84.94
469.585	80.94
469.804	98.94
470.023	82.94
470.243	75.94
470.462	67.94
470.681	75.94
470.901	82.94
471.12	90.94
471.339	84.94
471.558	77.94
471.777	80.94
471.997	82.94
472.216	55.94
472.435	77.94
472.654	70.94
472.873	80.94
473.092	91.94
473.311	77.94
473.53	74.94
473.749	82.94
473.968	71.94
474.187	77.94
474.406	88.94
474.625	89.94
474.844	77.94
475.063	67.94
475.282	80.94
475.501	80.94
475.72	81.94
475.939	82.94
476.158	68.94
476.377	80.94
476.596	73.94
476.814	90.94
477.033	77.94
477.252	87.94
477.471	76.94
477.69	71.94
477.908	63.94
478.127	77.94
478.346	84.94
478.564	79.94
478.783	74.94
479.002	77.94
479.22	86.94
479.439	65.94
479.658	74.94
479.876	75.94
480.095	75.94
480.313	91.94
480.532	79.94
480.751	71.94
480.969	77.94
481.188	77.94
481.406	78.94
481.624	83.94
481.843	75.94
482.061	69.94
482.28	88.94
482.498	87.94
482.717	93.94
482.935	94.94
483.153	75.94
483.372	82.94
483.59	88.94
483.808	65.94
484.027	72.94
484.245	83.94
484.463	83.94
484.681	79.94
484.9	84.94
485.118	77.94
485.336	79.94
485.554	76.94
485.772	84.94
485.99	63.94
486.209	78.94
486.427	83.94
486.645	78.94
486.863	79.94
487.081	82.94
487.299	82.94
487.517	90.94
487.735	89.94
487.953	71.94
488.171	68.94
488.389	83.94
488.607	69.94
488.825	85.94
489.043	81.94
489.261	76.94
489.479	65.94
489.696	78.94
489.914	67.94
490.132	79.94
490.35	74.94
490.568	75.94
490.786	87.94
491.003	92.94
491.221	85.94
491.439	79.94
491.657	69.94
491.874	83.94
492.092	93.94
492.31	88.94
492.527	60.94
492.745	72.94
492.963	86.94
493.18	77.94
493.398	83.94
493.615	80.94
493.833	75.94
494.05	67.94
494.268	79.94
494.485	91.94
494.703	90.94
494.92	82.94
495.138	83.94
495.355	87.94
495.573	78.94
495.79	81.94
496.008	87.94
496.225	69.94
496.442	79.94
496.66	86.94
496.877	84.94
497.094	80.94
497.312	54.94
497.529	79.94
497.746	62.94
497.963	70.94
498.181	71.94
498.398	83.94
498.615	75.94
498.832	75.94
499.049	70.94
499.267	71.94
499.484	83.94
499.701	78.94
499.918	76.94
500.135	85.94
500.352	74.94
500.569	89.94
500.786	81.94
501.003	82.94
501.22	87.94
501.437	81.94
501.654	73.94
501.871	74.94
502.088	69.94
502.305	83.94
502.522	84.94
502.739	78.94
502.956	65.94
503.172	74.94
503.389	71.94
503.606	74.94
503.823	95.94
504.04	74.94
504.256	80.94
504.473	88.94
504.69	84.94
504.907	79.94
505.123	69.94
505.34	89.94
505.557	72.94
505.773	73.94
505.99	77.94
506.207	83.94
506.423	82.94
506.64	88.94
506.856	88.94
507.073	85.94
507.289	77.94
507.506	78.94
507.722	84.94
507.939	79.94
508.155	77.94
508.372	82.94
508.588	85.94
508.805	86.94
509.021	84.94
509.238	81.94
509.454	65.94
509.67	80.94
509.887	76.94
510.103	92.94
510.319	78.94
510.536	86.94
510.752	70.94
510.968	85.94
511.184	85.94
511.401	87.94
511.617	82.94
511.833	64.94
512.049	77.94
512.265	89.94
512.481	94.94
512.698	80.94
512.914	77.94
513.13	78.94
513.346	69.94
513.562	80.94
513.778	72.94
513.994	76.94
514.21	83.94
514.426	87.94
514.642	74.94
514.858	70.94
515.074	76.94
515.29	80.94
515.506	55.94
515.721	82.94
515.937	79.94
516.153	79.94
516.369	78.94
516.585	84.94
516.801	73.94
517.016	74.94
517.232	79.94
517.448	74.94
517.664	85.94
517.879	76.94
518.095	77.94
518.311	73.94
518.527	76.94
518.742	64.94
518.958	72.94
519.173	76.94
519.389	83.94
519.605	83.94
519.82	76.94
520.036	75.94
520.251	88.94
