Data from StdD_HRD10591_072.txt Node
Date: Fri May 16 15:31:57 EDT 2025
User: Yrep
Spectrometer: HR+D1059
Trigger mode: 1
Integration Time (sec): 1.000000E-1
Scans to average: 1
Electric dark correction enabled: true
Nonlinearity correction enabled: false
Boxcar width: 0
XAxis mode: Wavelengths
Number of Pixels in Spectrum: 2048
>>>>>Begin Spectral Data<<<<<
223.165	-14.81
223.4	-14.81
223.635	-14.81
223.869	-14.81
224.104	-9.81
224.338	-22.81
224.573	-20.81
224.808	-3.81
225.042	-8.81
225.277	-12.81
225.511	3.19
225.746	5.19
225.98	8.19
226.215	26.19
226.449	-1.81
226.683	15.19
226.918	19.19
227.152	33.19
227.387	44.19
227.621	38.19
227.856	41.19
228.09	41.19
228.324	50.19
228.559	69.19
228.793	77.19
229.027	76.19
229.262	77.19
229.496	77.19
229.73	71.19
229.964	80.19
230.199	83.19
230.433	73.19
230.667	96.19
230.901	77.19
231.136	81.19
231.37	85.19
231.604	99.19
231.838	85.19
232.072	79.19
232.306	86.19
232.541	76.19
232.775	97.19
233.009	85.19
233.243	84.19
233.477	79.19
233.711	72.19
233.945	86.19
234.179	89.19
234.413	83.19
234.647	81.19
234.881	92.19
235.115	81.19
235.349	84.19
235.583	83.19
235.817	80.19
236.051	72.19
236.285	78.19
236.519	66.19
236.753	70.19
236.987	89.19
237.221	80.19
237.455	87.19
237.689	81.19
237.922	80.19
238.156	79.19
238.39	61.19
238.624	91.19
238.858	90.19
239.091	70.19
239.325	76.19
239.559	77.19
239.793	66.19
240.027	81.19
240.26	83.19
240.494	84.19
240.728	87.19
240.961	76.19
241.195	90.19
241.429	88.19
241.662	89.19
241.896	80.19
242.13	85.19
242.363	88.19
242.597	83.19
242.83	83.19
243.064	86.19
243.298	90.19
243.531	75.19
243.765	66.19
243.998	73.19
244.232	101.19
244.465	87.19
244.699	95.19
244.932	70.19
245.166	68.19
245.399	71.19
245.633	74.19
245.866	86.19
246.099	77.19
246.333	75.19
246.566	67.19
246.8	77.19
247.033	91.19
247.266	84.19
247.5	70.19
247.733	87.19
247.966	76.19
248.2	87.19
248.433	82.19
248.666	81.19
248.899	83.19
249.133	78.19
249.366	80.19
249.599	82.19
249.832	60.19
250.066	90.19
250.299	89.19
250.532	67.19
250.765	71.19
250.998	75.19
251.231	82.19
251.465	98.19
251.698	83.19
251.931	84.19
252.164	90.19
252.397	88.19
252.63	89.19
252.863	100.19
253.096	79.19
253.329	71.19
253.562	79.19
253.795	78.19
254.028	89.19
254.261	94.19
254.494	83.19
254.727	80.19
254.96	84.19
255.193	70.19
255.426	81.19
255.659	72.19
255.892	94.19
256.124	65.19
256.357	91.19
256.59	77.19
256.823	85.19
257.056	74.19
257.289	90.19
257.521	78.19
257.754	82.19
257.987	76.19
258.22	83.19
258.452	93.19
258.685	95.19
258.918	70.19
259.151	90.19
259.383	72.19
259.616	75.19
259.849	86.19
260.081	105.19
260.314	94.19
260.547	69.19
260.779	96.19
261.012	91.19
261.244	79.19
261.477	91.19
261.71	76.19
261.942	89.19
262.175	72.19
262.407	87.19
262.64	89.19
262.872	93.19
263.105	91.19
263.337	94.19
263.57	92.19
263.802	86.19
264.035	77.19
264.267	82.19
264.499	94.19
264.732	102.19
264.964	82.19
265.197	77.19
265.429	79.19
265.661	96.19
265.894	71.19
266.126	91.19
266.358	95.19
266.591	84.19
266.823	98.19
267.055	81.19
267.287	82.19
267.52	83.19
267.752	84.19
267.984	87.19
268.216	75.19
268.448	94.19
268.681	87.19
268.913	89.19
269.145	85.19
269.377	91.19
269.609	73.19
269.841	65.19
270.073	71.19
270.306	74.19
270.538	95.19
270.77	82.19
271.002	100.19
271.234	78.19
271.466	88.19
271.698	89.19
271.93	98.19
272.162	83.19
272.394	87.19
272.626	71.19
272.858	78.19
273.09	85.19
273.322	94.19
273.553	97.19
273.785	85.19
274.017	74.19
274.249	93.19
274.481	95.19
274.713	85.19
274.945	80.19
275.176	79.19
275.408	79.19
275.64	87.19
275.872	90.19
276.104	83.19
276.335	93.19
276.567	95.19
276.799	92.19
277.031	107.19
277.262	78.19
277.494	89.19
277.726	77.19
277.957	81.19
278.189	87.19
278.421	85.19
278.652	92.19
278.884	71.19
279.115	86.19
279.347	94.19
279.579	79.19
279.81	83.19
280.042	92.19
280.273	98.19
280.505	75.19
280.736	92.19
280.968	96.19
281.199	82.19
281.431	78.19
281.662	87.19
281.894	81.19
282.125	92.19
282.356	82.19
282.588	83.19
282.819	82.19
283.051	87.19
283.282	85.19
283.513	87.19
283.745	94.19
283.976	90.19
284.207	80.19
284.439	83.19
284.67	68.19
284.901	81.19
285.132	94.19
285.364	87.19
285.595	75.19
285.826	94.19
286.057	90.19
286.288	82.19
286.52	93.19
286.751	81.19
286.982	77.19
287.213	92.19
287.444	82.19
287.675	93.19
287.906	91.19
288.138	77.19
288.369	93.19
288.6	102.19
288.831	87.19
289.062	85.19
289.293	90.19
289.524	88.19
289.755	81.19
289.986	85.19
290.217	78.19
290.448	68.19
290.679	84.19
290.91	93.19
291.141	92.19
291.371	76.19
291.602	98.19
291.833	99.19
292.064	86.19
292.295	90.19
292.526	84.19
292.757	82.19
292.987	89.19
293.218	91.19
293.449	75.19
293.68	80.19
293.91	94.19
294.141	97.19
294.372	103.19
294.603	93.19
294.833	98.19
295.064	80.19
295.295	86.19
295.525	81.19
295.756	87.19
295.987	77.19
296.217	81.19
296.448	85.19
296.679	83.19
296.909	101.19
297.14	93.19
297.37	95.19
297.601	86.19
297.831	99.19
298.062	91.19
298.292	98.19
298.523	99.19
298.753	85.19
298.984	80.19
299.214	68.19
299.445	78.19
299.675	90.19
299.905	99.19
300.136	96.19
300.366	90.19
300.597	83.19
300.827	81.19
301.057	78.19
301.288	91.19
301.518	84.19
301.748	85.19
301.979	96.19
302.209	92.19
302.439	91.19
302.669	86.19
302.9	83.19
303.13	89.19
303.36	97.19
303.59	96.19
303.82	91.19
304.051	82.19
304.281	91.19
304.511	100.19
304.741	86.19
304.971	101.19
305.201	88.19
305.431	91.19
305.661	84.19
305.891	97.19
306.121	83.19
306.352	73.19
306.582	83.19
306.812	89.19
307.042	79.19
307.272	94.19
307.502	90.19
307.731	86.19
307.961	79.19
308.191	82.19
308.421	82.19
308.651	87.19
308.881	107.19
309.111	87.19
309.341	75.19
309.571	90.19
309.8	86.19
310.03	90.19
310.26	97.19
310.49	84.19
310.72	87.19
310.949	91.19
311.179	87.19
311.409	91.19
311.639	95.19
311.868	94.19
312.098	87.19
312.328	100.19
312.557	84.19
312.787	81.19
313.017	101.19
313.246	77.19
313.476	98.19
313.706	79.19
313.935	80.19
314.165	87.19
314.394	87.19
314.624	94.19
314.853	100.19
315.083	92.19
315.312	61.19
315.542	79.19
315.771	97.19
316.001	77.19
316.23	79.19
316.46	85.19
316.689	92.19
316.919	85.19
317.148	77.19
317.377	78.19
317.607	83.19
317.836	78.19
318.065	87.19
318.295	95.19
318.524	86.19
318.753	97.19
318.983	91.19
319.212	111.19
319.441	88.19
319.67	77.19
319.9	83.19
320.129	102.19
320.358	85.19
320.587	89.19
320.816	86.19
321.046	86.19
321.275	86.19
321.504	94.19
321.733	97.19
321.962	95.19
322.191	94.19
322.42	102.19
322.649	78.19
322.878	89.19
323.108	85.19
323.337	99.19
323.566	82.19
323.795	96.19
324.024	85.19
324.253	84.19
324.482	86.19
324.71	96.19
324.939	95.19
325.168	84.19
325.397	89.19
325.626	88.19
325.855	83.19
326.084	89.19
326.313	93.19
326.542	98.19
326.77	101.19
326.999	99.19
327.228	65.19
327.457	91.19
327.686	81.19
327.914	84.19
328.143	90.19
328.372	90.19
328.6	87.19
328.829	96.19
329.058	83.19
329.287	88.19
329.515	86.19
329.744	86.19
329.972	95.19
330.201	96.19
330.43	81.19
330.658	84.19
330.887	86.19
331.115	89.19
331.344	93.19
331.572	78.19
331.801	84.19
332.03	96.19
332.258	85.19
332.486	87.19
332.715	93.19
332.943	89.19
333.172	80.19
333.4	79.19
333.629	84.19
333.857	93.19
334.085	93.19
334.314	94.19
334.542	90.19
334.771	83.19
334.999	96.19
335.227	89.19
335.455	101.19
335.684	73.19
335.912	95.19
336.14	99.19
336.369	98.19
336.597	82.19
336.825	81.19
337.053	91.19
337.281	92.19
337.51	78.19
337.738	95.19
337.966	94.19
338.194	89.19
338.422	83.19
338.65	90.19
338.878	82.19
339.106	86.19
339.334	77.19
339.562	78.19
339.79	87.19
340.018	78.19
340.246	73.19
340.474	91.19
340.702	99.19
340.93	87.19
341.158	95.19
341.386	98.19
341.614	92.19
341.842	87.19
342.07	90.19
342.298	80.19
342.526	91.19
342.754	95.19
342.981	86.19
343.209	83.19
343.437	92.19
343.665	87.19
343.893	94.19
344.12	89.19
344.348	82.19
344.576	90.19
344.804	90.19
345.031	85.19
345.259	91.19
345.487	111.19
345.714	86.19
345.942	83.19
346.17	90.19
346.397	82.19
346.625	90.19
346.853	92.19
347.08	89.19
347.308	79.19
347.535	90.19
347.763	75.19
347.99	86.19
348.218	85.19
348.445	82.19
348.673	83.19
348.9	84.19
349.128	82.19
349.355	78.19
349.583	107.19
349.81	83.19
350.037	85.19
350.265	85.19
350.492	96.19
350.72	93.19
350.947	86.19
351.174	98.19
351.402	81.19
351.629	100.19
351.856	82.19
352.083	101.19
352.311	81.19
352.538	89.19
352.765	100.19
352.992	93.19
353.22	73.19
353.447	90.19
353.674	90.19
353.901	101.19
354.128	81.19
354.355	92.19
354.583	92.19
354.81	88.19
355.037	98.19
355.264	96.19
355.491	86.19
355.718	95.19
355.945	80.19
356.172	99.19
356.399	77.19
356.626	83.19
356.853	84.19
357.08	87.19
357.307	87.19
357.534	71.19
357.761	81.19
357.988	93.19
358.215	86.19
358.441	78.19
358.668	101.19
358.895	98.19
359.122	87.19
359.349	94.19
359.576	90.19
359.802	87.19
360.029	75.19
360.256	89.19
360.483	82.19
360.709	88.19
360.936	80.19
361.163	93.19
361.39	93.19
361.616	89.19
361.843	83.19
362.07	90.19
362.296	91.19
362.523	85.19
362.749	73.19
362.976	98.19
363.203	91.19
363.429	85.19
363.656	89.19
363.882	96.19
364.109	91.19
364.335	79.19
364.562	83.19
364.788	90.19
365.015	89.19
365.241	80.19
365.468	85.19
365.694	94.19
365.92	82.19
366.147	84.19
366.373	85.19
366.599	96.19
366.826	97.19
367.052	86.19
367.278	86.19
367.505	88.19
367.731	91.19
367.957	85.19
368.184	88.19
368.41	87.19
368.636	85.19
368.862	79.19
369.089	81.19
369.315	82.19
369.541	107.19
369.767	93.19
369.993	86.19
370.219	86.19
370.445	98.19
370.672	87.19
370.898	78.19
371.124	84.19
371.35	96.19
371.576	94.19
371.802	80.19
372.028	85.19
372.254	82.19
372.48	96.19
372.706	94.19
372.932	94.19
373.158	88.19
373.384	96.19
373.61	92.19
373.835	73.19
374.061	88.19
374.287	80.19
374.513	81.19
374.739	82.19
374.965	86.19
375.191	81.19
375.416	84.19
375.642	84.19
375.868	89.19
376.094	91.19
376.319	89.19
376.545	84.19
376.771	80.19
376.997	93.19
377.222	91.19
377.448	78.19
377.674	85.19
377.899	76.19
378.125	78.19
378.35	91.19
378.576	79.19
378.802	78.19
379.027	89.19
379.253	90.19
379.478	79.19
379.704	89.19
379.929	94.19
380.155	68.19
380.38	83.19
380.606	87.19
380.831	86.19
381.057	78.19
381.282	77.19
381.507	90.19
381.733	86.19
381.958	79.19
382.184	82.19
382.409	80.19
382.634	86.19
382.86	76.19
383.085	92.19
383.31	84.19
383.535	90.19
383.761	81.19
383.986	100.19
384.211	84.19
384.436	77.19
384.662	73.19
384.887	81.19
385.112	86.19
385.337	85.19
385.562	87.19
385.787	84.19
386.013	75.19
386.238	89.19
386.463	90.19
386.688	95.19
386.913	89.19
387.138	94.19
387.363	95.19
387.588	90.19
387.813	85.19
388.038	97.19
388.263	81.19
388.488	78.19
388.713	73.19
388.938	86.19
389.163	81.19
389.387	77.19
389.612	89.19
389.837	79.19
390.062	89.19
390.287	85.19
390.512	74.19
390.736	76.19
390.961	92.19
391.186	91.19
391.411	86.19
391.636	75.19
391.86	82.19
392.085	85.19
392.31	81.19
392.534	85.19
392.759	79.19
392.984	100.19
393.208	90.19
393.433	88.19
393.658	107.19
393.882	79.19
394.107	87.19
394.331	78.19
394.556	96.19
394.78	79.19
395.005	87.19
395.229	98.19
395.454	91.19
395.678	94.19
395.903	99.19
396.127	85.19
396.352	87.19
396.576	73.19
396.801	87.19
397.025	81.19
397.249	83.19
397.474	100.19
397.698	81.19
397.922	99.19
398.147	87.19
398.371	94.19
398.595	83.19
398.82	87.19
399.044	74.19
399.268	87.19
399.492	82.19
399.717	93.19
399.941	93.19
400.165	94.19
400.389	84.19
400.613	101.19
400.837	92.19
401.062	80.19
401.286	84.19
401.51	81.19
401.734	83.19
401.958	85.19
402.182	65.19
402.406	71.19
402.63	73.19
402.854	87.19
403.078	69.19
403.302	83.19
403.526	78.19
403.75	85.19
403.974	87.19
404.198	71.19
404.422	75.19
404.645	77.19
404.869	96.19
405.093	85.19
405.317	89.19
405.541	79.19
405.765	80.19
405.988	90.19
406.212	69.19
406.436	91.19
406.66	92.19
406.883	82.19
407.107	69.19
407.331	89.19
407.555	81.19
407.778	96.19
408.002	99.19
408.226	84.19
408.449	72.19
408.673	79.19
408.896	81.19
409.12	82.19
409.344	91.19
409.567	89.19
409.791	82.19
410.014	101.19
410.238	75.19
410.461	93.19
410.685	87.19
410.908	86.19
411.132	81.19
411.355	82.19
411.578	85.19
411.802	76.19
412.025	93.19
412.249	89.19
412.472	72.19
412.695	94.19
412.919	84.19
413.142	95.19
413.365	91.19
413.589	81.19
413.812	71.19
414.035	73.19
414.258	75.19
414.482	80.19
414.705	86.19
414.928	96.19
415.151	92.19
415.374	89.19
415.597	86.19
415.821	83.19
416.044	81.19
416.267	79.19
416.49	88.19
416.713	90.19
416.936	93.19
417.159	80.19
417.382	94.19
417.605	93.19
417.828	93.19
418.051	97.19
418.274	97.19
418.497	87.19
418.72	80.19
418.943	76.19
419.166	83.19
419.389	91.19
419.611	85.19
419.834	85.19
420.057	101.19
420.28	89.19
420.503	61.19
420.726	69.19
420.948	84.19
421.171	73.19
421.394	71.19
421.617	97.19
421.839	79.19
422.062	77.19
422.285	95.19
422.507	99.19
422.73	81.19
422.953	83.19
423.175	83.19
423.398	93.19
423.621	79.19
423.843	89.19
424.066	94.19
424.288	81.19
424.511	91.19
424.733	98.19
424.956	78.19
425.178	88.19
425.401	76.19
425.623	88.19
425.846	82.19
426.068	69.19
426.291	93.19
426.513	83.19
426.735	79.19
426.958	77.19
427.18	85.19
427.402	88.19
427.625	88.19
427.847	86.19
428.069	77.19
428.292	97.19
428.514	86.19
428.736	93.19
428.958	75.19
429.181	86.19
429.403	84.19
429.625	87.19
429.847	78.19
430.069	81.19
430.292	84.19
430.514	83.19
430.736	90.19
430.958	77.19
431.18	78.19
431.402	83.19
431.624	89.19
431.846	93.19
432.068	80.19
432.29	75.19
432.512	93.19
432.734	83.19
432.956	83.19
433.178	71.19
433.4	95.19
433.622	84.19
433.844	78.19
434.066	89.19
434.287	81.19
434.509	77.19
434.731	99.19
434.953	86.19
435.175	83.19
435.397	84.19
435.618	92.19
435.84	69.19
436.062	95.19
436.284	67.19
436.505	83.19
436.727	98.19
436.949	86.19
437.17	81.19
437.392	85.19
437.614	101.19
437.835	87.19
438.057	82.19
438.278	86.19
438.5	84.19
438.721	99.19
438.943	89.19
439.165	77.19
439.386	94.19
439.608	84.19
439.829	61.19
440.05	86.19
440.272	82.19
440.493	81.19
440.715	79.19
440.936	90.19
441.158	78.19
441.379	92.19
441.6	89.19
441.822	77.19
442.043	81.19
442.264	85.19
442.486	85.19
442.707	80.19
442.928	84.19
443.149	92.19
443.371	98.19
443.592	82.19
443.813	80.19
444.034	96.19
444.255	81.19
444.476	75.19
444.698	88.19
444.919	84.19
445.14	174.19
445.361	122.19
445.582	86.19
445.803	98.19
446.024	93.19
446.245	82.19
446.466	86.19
446.687	81.19
446.908	96.19
447.129	79.19
447.35	88.19
447.571	89.19
447.792	94.19
448.013	82.19
448.234	81.19
448.455	90.19
448.675	84.19
448.896	79.19
449.117	79.19
449.338	75.19
449.559	78.19
449.779	86.19
450	85.19
450.221	97.19
450.442	81.19
450.662	75.19
450.883	84.19
451.104	93.19
451.324	75.19
451.545	83.19
451.766	93.19
451.986	86.19
452.207	72.19
452.428	95.19
452.648	92.19
452.869	82.19
453.089	69.19
453.31	87.19
453.53	71.19
453.751	93.19
453.971	90.19
454.192	92.19
454.412	82.19
454.633	90.19
454.853	84.19
455.073	95.19
455.294	81.19
455.514	75.19
455.734	79.19
455.955	98.19
456.175	89.19
456.395	71.19
456.616	93.19
456.836	82.19
457.056	70.19
457.276	94.19
457.497	94.19
457.717	86.19
457.937	79.19
458.157	89.19
458.377	81.19
458.598	77.19
458.818	94.19
459.038	83.19
459.258	81.19
459.478	87.19
459.698	79.19
459.918	88.19
460.138	69.19
460.358	86.19
460.578	89.19
460.798	83.19
461.018	96.19
461.238	84.19
461.458	90.19
461.678	95.19
461.898	98.19
462.118	89.19
462.338	76.19
462.558	76.19
462.777	85.19
462.997	90.19
463.217	65.19
463.437	78.19
463.657	91.19
463.876	82.19
464.096	82.19
464.316	86.19
464.536	81.19
464.755	83.19
464.975	76.19
465.195	84.19
465.414	101.19
465.634	93.19
465.854	91.19
466.073	93.19
466.293	78.19
466.512	74.19
466.732	94.19
466.951	94.19
467.171	90.19
467.391	77.19
467.61	95.19
467.829	98.19
468.049	97.19
468.268	83.19
468.488	98.19
468.707	64.19
468.927	92.19
469.146	94.19
469.365	105.19
469.585	81.19
469.804	81.19
470.023	93.19
470.243	71.19
470.462	91.19
470.681	92.19
470.901	83.19
471.12	86.19
471.339	96.19
471.558	77.19
471.777	82.19
471.997	91.19
472.216	84.19
472.435	78.19
472.654	96.19
472.873	83.19
473.092	108.19
473.311	89.19
473.53	93.19
473.749	82.19
473.968	71.19
474.187	79.19
474.406	91.19
474.625	100.19
474.844	100.19
475.063	84.19
475.282	84.19
475.501	97.19
475.72	91.19
475.939	91.19
476.158	79.19
476.377	87.19
476.596	91.19
476.814	86.19
477.033	80.19
477.252	79.19
477.471	83.19
477.69	84.19
477.908	86.19
478.127	89.19
478.346	75.19
478.564	81.19
478.783	70.19
479.002	77.19
479.22	92.19
479.439	99.19
479.658	82.19
479.876	85.19
480.095	78.19
480.313	100.19
480.532	84.19
480.751	109.19
480.969	94.19
481.188	85.19
481.406	91.19
481.624	96.19
481.843	84.19
482.061	86.19
482.28	76.19
482.498	79.19
482.717	75.19
482.935	84.19
483.153	82.19
483.372	89.19
483.59	95.19
483.808	87.19
484.027	89.19
484.245	105.19
484.463	105.19
484.681	95.19
484.9	87.19
485.118	88.19
485.336	85.19
485.554	78.19
485.772	87.19
485.99	79.19
486.209	73.19
486.427	86.19
486.645	90.19
486.863	86.19
487.081	86.19
487.299	100.19
487.517	91.19
487.735	83.19
487.953	85.19
488.171	89.19
488.389	85.19
488.607	83.19
488.825	77.19
489.043	91.19
489.261	82.19
489.479	77.19
489.696	97.19
489.914	84.19
490.132	99.19
490.35	87.19
490.568	89.19
490.786	83.19
491.003	91.19
491.221	98.19
491.439	98.19
491.657	106.19
491.874	106.19
492.092	98.19
492.31	100.19
492.527	98.19
492.745	92.19
492.963	93.19
493.18	89.19
493.398	91.19
493.615	86.19
493.833	80.19
494.05	93.19
494.268	78.19
494.485	89.19
494.703	93.19
494.92	81.19
495.138	103.19
495.355	95.19
495.573	89.19
495.79	85.19
496.008	81.19
496.225	77.19
496.442	99.19
496.66	94.19
496.877	93.19
497.094	93.19
497.312	98.19
497.529	95.19
497.746	107.19
497.963	86.19
498.181	84.19
498.398	86.19
498.615	69.19
498.832	88.19
499.049	88.19
499.267	78.19
499.484	75.19
499.701	95.19
499.918	96.19
500.135	84.19
500.352	85.19
500.569	82.19
500.786	100.19
501.003	106.19
501.22	91.19
501.437	83.19
501.654	92.19
501.871	79.19
502.088	77.19
502.305	79.19
502.522	92.19
502.739	96.19
502.956	90.19
503.172	92.19
503.389	80.19
503.606	84.19
503.823	79.19
504.04	86.19
504.256	83.19
504.473	78.19
504.69	88.19
504.907	98.19
505.123	87.19
505.34	82.19
505.557	90.19
505.773	93.19
505.99	86.19
506.207	89.19
506.423	78.19
506.64	93.19
506.856	98.19
507.073	88.19
507.289	84.19
507.506	88.19
507.722	83.19
507.939	72.19
508.155	90.19
508.372	98.19
508.588	92.19
508.805	78.19
509.021	84.19
509.238	80.19
509.454	95.19
509.67	85.19
509.887	72.19
510.103	81.19
510.319	81.19
510.536	85.19
510.752	91.19
510.968	79.19
511.184	76.19
511.401	80.19
511.617	91.19
511.833	83.19
512.049	93.19
512.265	80.19
512.481	89.19
512.698	81.19
512.914	82.19
513.13	83.19
513.346	84.19
513.562	83.19
513.778	89.19
513.994	85.19
514.21	82.19
514.426	79.19
514.642	92.19
514.858	83.19
515.074	73.19
515.29	81.19
515.506	91.19
515.721	78.19
515.937	90.19
516.153	80.19
516.369	77.19
516.585	76.19
516.801	81.19
517.016	81.19
517.232	92.19
517.448	90.19
517.664	78.19
517.879	92.19
518.095	96.19
518.311	100.19
518.527	91.19
518.742	86.19
518.958	77.19
519.173	97.19
519.389	87.19
519.605	81.19
