Data from StdD_HRD10591_077.txt Node
Date: Fri May 16 15:31:59 EDT 2025
User: Yrep
Spectrometer: HR+D1059
Trigger mode: 1
Integration Time (sec): 1.000000E-1
Scans to average: 1
Electric dark correction enabled: true
Nonlinearity correction enabled: false
Boxcar width: 0
XAxis mode: Wavelengths
Number of Pixels in Spectrum: 2048
>>>>>Begin Spectral Data<<<<<
223.165	-7.44
223.4	-7.44
223.635	-7.44
223.869	-11.44
224.104	-23.44
224.338	-16.44
224.573	-12.44
224.808	-5.44
225.042	-5.44
225.277	-8.44
225.511	-2.44
225.746	0.56
225.98	5.56
226.215	13.56
226.449	20.56
226.683	11.56
226.918	19.56
227.152	21.56
227.387	41.56
227.621	27.56
227.856	40.56
228.09	55.56
228.324	47.56
228.559	60.56
228.793	52.56
229.027	59.56
229.262	75.56
229.496	65.56
229.73	67.56
229.964	74.56
230.199	75.56
230.433	80.56
230.667	92.56
230.901	67.56
231.136	63.56
231.37	76.56
231.604	80.56
231.838	79.56
232.072	74.56
232.306	83.56
232.541	80.56
232.775	92.56
233.009	75.56
233.243	91.56
233.477	86.56
233.711	76.56
233.945	72.56
234.179	84.56
234.413	68.56
234.647	70.56
234.881	85.56
235.115	81.56
235.349	80.56
235.583	90.56
235.817	80.56
236.051	81.56
236.285	78.56
236.519	73.56
236.753	84.56
236.987	76.56
237.221	75.56
237.455	71.56
237.689	76.56
237.922	81.56
238.156	77.56
238.39	66.56
238.624	91.56
238.858	84.56
239.091	83.56
239.325	92.56
239.559	78.56
239.793	90.56
240.027	75.56
240.26	76.56
240.494	96.56
240.728	76.56
240.961	62.56
241.195	77.56
241.429	71.56
241.662	70.56
241.896	66.56
242.13	69.56
242.363	67.56
242.597	82.56
242.83	70.56
243.064	69.56
243.298	81.56
243.531	79.56
243.765	84.56
243.998	93.56
244.232	82.56
244.465	65.56
244.699	80.56
244.932	80.56
245.166	77.56
245.399	74.56
245.633	79.56
245.866	74.56
246.099	71.56
246.333	75.56
246.566	77.56
246.8	68.56
247.033	75.56
247.266	91.56
247.5	80.56
247.733	80.56
247.966	81.56
248.2	77.56
248.433	68.56
248.666	74.56
248.899	77.56
249.133	90.56
249.366	78.56
249.599	86.56
249.832	75.56
250.066	80.56
250.299	89.56
250.532	72.56
250.765	89.56
250.998	64.56
251.231	87.56
251.465	75.56
251.698	80.56
251.931	75.56
252.164	73.56
252.397	85.56
252.63	77.56
252.863	73.56
253.096	79.56
253.329	65.56
253.562	73.56
253.795	79.56
254.028	79.56
254.261	80.56
254.494	86.56
254.727	78.56
254.96	89.56
255.193	83.56
255.426	80.56
255.659	67.56
255.892	87.56
256.124	89.56
256.357	81.56
256.59	74.56
256.823	85.56
257.056	79.56
257.289	93.56
257.521	89.56
257.754	89.56
257.987	80.56
258.22	82.56
258.452	75.56
258.685	84.56
258.918	87.56
259.151	75.56
259.383	65.56
259.616	75.56
259.849	83.56
260.081	97.56
260.314	62.56
260.547	76.56
260.779	88.56
261.012	94.56
261.244	71.56
261.477	85.56
261.71	64.56
261.942	76.56
262.175	86.56
262.407	85.56
262.64	77.56
262.872	84.56
263.105	68.56
263.337	94.56
263.57	97.56
263.802	76.56
264.035	71.56
264.267	90.56
264.499	73.56
264.732	87.56
264.964	94.56
265.197	85.56
265.429	83.56
265.661	91.56
265.894	87.56
266.126	80.56
266.358	71.56
266.591	92.56
266.823	74.56
267.055	81.56
267.287	75.56
267.52	81.56
267.752	75.56
267.984	66.56
268.216	77.56
268.448	91.56
268.681	87.56
268.913	76.56
269.145	77.56
269.377	80.56
269.609	70.56
269.841	95.56
270.073	82.56
270.306	84.56
270.538	84.56
270.77	72.56
271.002	75.56
271.234	87.56
271.466	80.56
271.698	67.56
271.93	88.56
272.162	85.56
272.394	76.56
272.626	87.56
272.858	102.56
273.09	83.56
273.322	83.56
273.553	68.56
273.785	75.56
274.017	72.56
274.249	75.56
274.481	87.56
274.713	77.56
274.945	83.56
275.176	87.56
275.408	85.56
275.64	95.56
275.872	88.56
276.104	88.56
276.335	86.56
276.567	89.56
276.799	76.56
277.031	93.56
277.262	76.56
277.494	83.56
277.726	90.56
277.957	69.56
278.189	85.56
278.421	89.56
278.652	91.56
278.884	84.56
279.115	77.56
279.347	78.56
279.579	81.56
279.81	95.56
280.042	85.56
280.273	82.56
280.505	92.56
280.736	92.56
280.968	79.56
281.199	83.56
281.431	87.56
281.662	83.56
281.894	77.56
282.125	78.56
282.356	74.56
282.588	89.56
282.819	82.56
283.051	75.56
283.282	77.56
283.513	80.56
283.745	79.56
283.976	79.56
284.207	85.56
284.439	98.56
284.67	82.56
284.901	76.56
285.132	84.56
285.364	91.56
285.595	99.56
285.826	92.56
286.057	87.56
286.288	75.56
286.52	85.56
286.751	77.56
286.982	96.56
287.213	84.56
287.444	83.56
287.675	87.56
287.906	93.56
288.138	80.56
288.369	77.56
288.6	92.56
288.831	87.56
289.062	96.56
289.293	95.56
289.524	86.56
289.755	91.56
289.986	80.56
290.217	73.56
290.448	84.56
290.679	90.56
290.91	93.56
291.141	97.56
291.371	91.56
291.602	81.56
291.833	92.56
292.064	71.56
292.295	90.56
292.526	93.56
292.757	86.56
292.987	76.56
293.218	85.56
293.449	80.56
293.68	81.56
293.91	82.56
294.141	81.56
294.372	86.56
294.603	99.56
294.833	89.56
295.064	82.56
295.295	75.56
295.525	74.56
295.756	82.56
295.987	92.56
296.217	96.56
296.448	85.56
296.679	84.56
296.909	81.56
297.14	93.56
297.37	91.56
297.601	84.56
297.831	89.56
298.062	98.56
298.292	67.56
298.523	84.56
298.753	69.56
298.984	79.56
299.214	89.56
299.445	93.56
299.675	69.56
299.905	82.56
300.136	91.56
300.366	83.56
300.597	87.56
300.827	64.56
301.057	85.56
301.288	89.56
301.518	89.56
301.748	78.56
301.979	104.56
302.209	85.56
302.439	79.56
302.669	96.56
302.9	96.56
303.13	92.56
303.36	93.56
303.59	89.56
303.82	72.56
304.051	91.56
304.281	90.56
304.511	79.56
304.741	88.56
304.971	87.56
305.201	92.56
305.431	93.56
305.661	90.56
305.891	68.56
306.121	98.56
306.352	88.56
306.582	82.56
306.812	79.56
307.042	83.56
307.272	94.56
307.502	81.56
307.731	91.56
307.961	88.56
308.191	75.56
308.421	90.56
308.651	92.56
308.881	90.56
309.111	81.56
309.341	103.56
309.571	100.56
309.8	83.56
310.03	80.56
310.26	91.56
310.49	95.56
310.72	89.56
310.949	84.56
311.179	89.56
311.409	83.56
311.639	83.56
311.868	90.56
312.098	97.56
312.328	92.56
312.557	83.56
312.787	76.56
313.017	93.56
313.246	90.56
313.476	85.56
313.706	78.56
313.935	78.56
314.165	76.56
314.394	89.56
314.624	95.56
314.853	85.56
315.083	91.56
315.312	83.56
315.542	74.56
315.771	80.56
316.001	89.56
316.23	82.56
316.46	82.56
316.689	91.56
316.919	79.56
317.148	87.56
317.377	85.56
317.607	81.56
317.836	89.56
318.065	87.56
318.295	80.56
318.524	78.56
318.753	77.56
318.983	78.56
319.212	88.56
319.441	81.56
319.67	93.56
319.9	90.56
320.129	83.56
320.358	78.56
320.587	93.56
320.816	85.56
321.046	81.56
321.275	99.56
321.504	80.56
321.733	88.56
321.962	77.56
322.191	74.56
322.42	58.56
322.649	69.56
322.878	86.56
323.108	82.56
323.337	92.56
323.566	92.56
323.795	71.56
324.024	83.56
324.253	91.56
324.482	83.56
324.71	88.56
324.939	90.56
325.168	92.56
325.397	90.56
325.626	76.56
325.855	81.56
326.084	84.56
326.313	71.56
326.542	69.56
326.77	79.56
326.999	84.56
327.228	79.56
327.457	84.56
327.686	80.56
327.914	98.56
328.143	97.56
328.372	106.56
328.6	93.56
328.829	91.56
329.058	99.56
329.287	85.56
329.515	92.56
329.744	78.56
329.972	101.56
330.201	72.56
330.43	83.56
330.658	73.56
330.887	87.56
331.115	88.56
331.344	84.56
331.572	72.56
331.801	87.56
332.03	80.56
332.258	80.56
332.486	81.56
332.715	85.56
332.943	75.56
333.172	83.56
333.4	73.56
333.629	74.56
333.857	80.56
334.085	87.56
334.314	83.56
334.542	93.56
334.771	77.56
334.999	84.56
335.227	85.56
335.455	93.56
335.684	91.56
335.912	75.56
336.14	70.56
336.369	82.56
336.597	94.56
336.825	88.56
337.053	97.56
337.281	90.56
337.51	79.56
337.738	82.56
337.966	89.56
338.194	96.56
338.422	83.56
338.65	87.56
338.878	73.56
339.106	72.56
339.334	87.56
339.562	88.56
339.79	80.56
340.018	83.56
340.246	87.56
340.474	83.56
340.702	86.56
340.93	84.56
341.158	84.56
341.386	82.56
341.614	80.56
341.842	88.56
342.07	84.56
342.298	88.56
342.526	73.56
342.754	90.56
342.981	83.56
343.209	106.56
343.437	107.56
343.665	74.56
343.893	83.56
344.12	104.56
344.348	80.56
344.576	82.56
344.804	75.56
345.031	67.56
345.259	84.56
345.487	91.56
345.714	75.56
345.942	81.56
346.17	76.56
346.397	77.56
346.625	80.56
346.853	87.56
347.08	81.56
347.308	85.56
347.535	88.56
347.763	82.56
347.99	79.56
348.218	83.56
348.445	93.56
348.673	91.56
348.9	93.56
349.128	81.56
349.355	95.56
349.583	101.56
349.81	82.56
350.037	90.56
350.265	67.56
350.492	72.56
350.72	93.56
350.947	92.56
351.174	88.56
351.402	80.56
351.629	90.56
351.856	92.56
352.083	90.56
352.311	92.56
352.538	77.56
352.765	78.56
352.992	105.56
353.22	100.56
353.447	73.56
353.674	77.56
353.901	83.56
354.128	89.56
354.355	84.56
354.583	72.56
354.81	86.56
355.037	75.56
355.264	86.56
355.491	83.56
355.718	94.56
355.945	92.56
356.172	82.56
356.399	107.56
356.626	80.56
356.853	75.56
357.08	87.56
357.307	69.56
357.534	75.56
357.761	75.56
357.988	88.56
358.215	75.56
358.441	71.56
358.668	83.56
358.895	85.56
359.122	92.56
359.349	89.56
359.576	85.56
359.802	83.56
360.029	84.56
360.256	75.56
360.483	104.56
360.709	89.56
360.936	77.56
361.163	83.56
361.39	87.56
361.616	92.56
361.843	91.56
362.07	83.56
362.296	84.56
362.523	86.56
362.749	78.56
362.976	79.56
363.203	89.56
363.429	100.56
363.656	74.56
363.882	108.56
364.109	109.56
364.335	87.56
364.562	77.56
364.788	77.56
365.015	90.56
365.241	92.56
365.468	79.56
365.694	94.56
365.92	67.56
366.147	80.56
366.373	75.56
366.599	83.56
366.826	85.56
367.052	74.56
367.278	75.56
367.505	85.56
367.731	91.56
367.957	68.56
368.184	77.56
368.41	88.56
368.636	81.56
368.862	80.56
369.089	84.56
369.315	87.56
369.541	74.56
369.767	70.56
369.993	86.56
370.219	88.56
370.445	87.56
370.672	81.56
370.898	84.56
371.124	91.56
371.35	92.56
371.576	94.56
371.802	75.56
372.028	90.56
372.254	103.56
372.48	95.56
372.706	72.56
372.932	75.56
373.158	78.56
373.384	91.56
373.61	68.56
373.835	77.56
374.061	78.56
374.287	76.56
374.513	78.56
374.739	81.56
374.965	75.56
375.191	60.56
375.416	93.56
375.642	79.56
375.868	77.56
376.094	71.56
376.319	92.56
376.545	79.56
376.771	80.56
376.997	90.56
377.222	76.56
377.448	79.56
377.674	79.56
377.899	89.56
378.125	68.56
378.35	81.56
378.576	94.56
378.802	85.56
379.027	66.56
379.253	80.56
379.478	77.56
379.704	88.56
379.929	77.56
380.155	83.56
380.38	73.56
380.606	77.56
380.831	87.56
381.057	89.56
381.282	79.56
381.507	78.56
381.733	83.56
381.958	81.56
382.184	85.56
382.409	95.56
382.634	78.56
382.86	71.56
383.085	83.56
383.31	90.56
383.535	79.56
383.761	79.56
383.986	88.56
384.211	91.56
384.436	92.56
384.662	71.56
384.887	76.56
385.112	93.56
385.337	75.56
385.562	74.56
385.787	79.56
386.013	86.56
386.238	91.56
386.463	96.56
386.688	84.56
386.913	96.56
387.138	92.56
387.363	81.56
387.588	72.56
387.813	94.56
388.038	80.56
388.263	84.56
388.488	83.56
388.713	70.56
388.938	83.56
389.163	88.56
389.387	78.56
389.612	81.56
389.837	73.56
390.062	87.56
390.287	87.56
390.512	93.56
390.736	89.56
390.961	82.56
391.186	87.56
391.411	81.56
391.636	79.56
391.86	96.56
392.085	86.56
392.31	101.56
392.534	87.56
392.759	85.56
392.984	77.56
393.208	92.56
393.433	70.56
393.658	78.56
393.882	79.56
394.107	75.56
394.331	91.56
394.556	84.56
394.78	88.56
395.005	88.56
395.229	83.56
395.454	70.56
395.678	82.56
395.903	89.56
396.127	98.56
396.352	97.56
396.576	66.56
396.801	80.56
397.025	70.56
397.249	76.56
397.474	87.56
397.698	87.56
397.922	92.56
398.147	76.56
398.371	85.56
398.595	70.56
398.82	79.56
399.044	66.56
399.268	80.56
399.492	103.56
399.717	92.56
399.941	96.56
400.165	81.56
400.389	79.56
400.613	90.56
400.837	96.56
401.062	85.56
401.286	89.56
401.51	84.56
401.734	87.56
401.958	101.56
402.182	88.56
402.406	83.56
402.63	78.56
402.854	73.56
403.078	71.56
403.302	76.56
403.526	72.56
403.75	77.56
403.974	79.56
404.198	80.56
404.422	87.56
404.645	86.56
404.869	84.56
405.093	77.56
405.317	86.56
405.541	75.56
405.765	76.56
405.988	90.56
406.212	75.56
406.436	101.56
406.66	84.56
406.883	86.56
407.107	73.56
407.331	79.56
407.555	95.56
407.778	90.56
408.002	81.56
408.226	85.56
408.449	76.56
408.673	81.56
408.896	90.56
409.12	79.56
409.344	97.56
409.567	84.56
409.791	82.56
410.014	92.56
410.238	81.56
410.461	77.56
410.685	90.56
410.908	75.56
411.132	86.56
411.355	96.56
411.578	87.56
411.802	93.56
412.025	85.56
412.249	77.56
412.472	91.56
412.695	89.56
412.919	91.56
413.142	80.56
413.365	98.56
413.589	91.56
413.812	104.56
414.035	97.56
414.258	79.56
414.482	87.56
414.705	80.56
414.928	82.56
415.151	78.56
415.374	78.56
415.597	92.56
415.821	86.56
416.044	89.56
416.267	83.56
416.49	76.56
416.713	79.56
416.936	79.56
417.159	94.56
417.382	89.56
417.605	82.56
417.828	81.56
418.051	106.56
418.274	80.56
418.497	88.56
418.72	83.56
418.943	92.56
419.166	77.56
419.389	97.56
419.611	83.56
419.834	77.56
420.057	93.56
420.28	85.56
420.503	92.56
420.726	89.56
420.948	72.56
421.171	82.56
421.394	79.56
421.617	92.56
421.839	95.56
422.062	77.56
422.285	80.56
422.507	87.56
422.73	79.56
422.953	69.56
423.175	82.56
423.398	77.56
423.621	87.56
423.843	79.56
424.066	59.56
424.288	79.56
424.511	74.56
424.733	87.56
424.956	86.56
425.178	74.56
425.401	69.56
425.623	85.56
425.846	84.56
426.068	88.56
426.291	89.56
426.513	79.56
426.735	67.56
426.958	92.56
427.18	67.56
427.402	85.56
427.625	77.56
427.847	77.56
428.069	84.56
428.292	87.56
428.514	94.56
428.736	77.56
428.958	90.56
429.181	82.56
429.403	86.56
429.625	92.56
429.847	87.56
430.069	76.56
430.292	86.56
430.514	83.56
430.736	83.56
430.958	83.56
431.18	74.56
431.402	88.56
431.624	100.56
431.846	75.56
432.068	99.56
432.29	93.56
432.512	82.56
432.734	80.56
432.956	89.56
433.178	89.56
433.4	80.56
433.622	82.56
433.844	94.56
434.066	82.56
434.287	78.56
434.509	92.56
434.731	80.56
434.953	80.56
435.175	74.56
435.397	100.56
435.618	80.56
435.84	88.56
436.062	85.56
436.284	95.56
436.505	91.56
436.727	76.56
436.949	77.56
437.17	74.56
437.392	92.56
437.614	76.56
437.835	68.56
438.057	76.56
438.278	88.56
438.5	86.56
438.721	97.56
438.943	88.56
439.165	89.56
439.386	78.56
439.608	87.56
439.829	95.56
440.05	80.56
440.272	85.56
440.493	83.56
440.715	79.56
440.936	81.56
441.158	87.56
441.379	67.56
441.6	92.56
441.822	97.56
442.043	67.56
442.264	88.56
442.486	83.56
442.707	78.56
442.928	83.56
443.149	96.56
443.371	105.56
443.592	89.56
443.813	99.56
444.034	86.56
444.255	72.56
444.476	89.56
444.698	93.56
444.919	77.56
445.14	170.56
445.361	119.56
445.582	92.56
445.803	89.56
446.024	83.56
446.245	85.56
446.466	89.56
446.687	89.56
446.908	92.56
447.129	87.56
447.35	88.56
447.571	90.56
447.792	80.56
448.013	86.56
448.234	76.56
448.455	85.56
448.675	77.56
448.896	93.56
449.117	83.56
449.338	93.56
449.559	96.56
449.779	72.56
450	84.56
450.221	87.56
450.442	86.56
450.662	93.56
450.883	83.56
451.104	94.56
451.324	105.56
451.545	93.56
451.766	73.56
451.986	85.56
452.207	95.56
452.428	84.56
452.648	89.56
452.869	88.56
453.089	96.56
453.31	77.56
453.53	91.56
453.751	83.56
453.971	88.56
454.192	91.56
454.412	80.56
454.633	85.56
454.853	79.56
455.073	72.56
455.294	81.56
455.514	89.56
455.734	91.56
455.955	90.56
456.175	84.56
456.395	76.56
456.616	75.56
456.836	85.56
457.056	92.56
457.276	79.56
457.497	83.56
457.717	82.56
457.937	73.56
458.157	93.56
458.377	84.56
458.598	69.56
458.818	75.56
459.038	79.56
459.258	69.56
459.478	93.56
459.698	90.56
459.918	89.56
460.138	90.56
460.358	67.56
460.578	57.56
460.798	82.56
461.018	92.56
461.238	87.56
461.458	88.56
461.678	85.56
461.898	72.56
462.118	77.56
462.338	80.56
462.558	79.56
462.777	84.56
462.997	92.56
463.217	82.56
463.437	90.56
463.657	85.56
463.876	91.56
464.096	88.56
464.316	87.56
464.536	77.56
464.755	89.56
464.975	80.56
465.195	98.56
465.414	86.56
465.634	72.56
465.854	87.56
466.073	76.56
466.293	93.56
466.512	91.56
466.732	82.56
466.951	92.56
467.171	96.56
467.391	88.56
467.61	85.56
467.829	75.56
468.049	77.56
468.268	97.56
468.488	77.56
468.707	85.56
468.927	80.56
469.146	83.56
469.365	89.56
469.585	89.56
469.804	80.56
470.023	79.56
470.243	87.56
470.462	76.56
470.681	82.56
470.901	89.56
471.12	77.56
471.339	86.56
471.558	80.56
471.777	73.56
471.997	95.56
472.216	88.56
472.435	68.56
472.654	84.56
472.873	86.56
473.092	83.56
473.311	73.56
473.53	90.56
473.749	86.56
473.968	84.56
474.187	94.56
474.406	77.56
474.625	86.56
474.844	70.56
475.063	87.56
475.282	85.56
475.501	83.56
475.72	82.56
475.939	75.56
476.158	70.56
476.377	63.56
476.596	80.56
476.814	96.56
477.033	84.56
477.252	83.56
477.471	83.56
477.69	88.56
477.908	91.56
478.127	96.56
478.346	94.56
478.564	103.56
478.783	90.56
479.002	95.56
479.22	97.56
479.439	95.56
479.658	82.56
479.876	85.56
480.095	76.56
480.313	95.56
480.532	104.56
480.751	96.56
480.969	73.56
481.188	82.56
481.406	95.56
481.624	75.56
481.843	90.56
482.061	66.56
482.28	73.56
482.498	79.56
482.717	97.56
482.935	96.56
483.153	84.56
483.372	92.56
483.59	88.56
483.808	76.56
484.027	90.56
484.245	82.56
484.463	89.56
484.681	77.56
484.9	90.56
485.118	88.56
485.336	79.56
485.554	75.56
485.772	81.56
485.99	88.56
486.209	89.56
486.427	81.56
486.645	83.56
486.863	85.56
487.081	80.56
487.299	77.56
487.517	80.56
487.735	89.56
487.953	93.56
488.171	85.56
488.389	78.56
488.607	97.56
488.825	80.56
489.043	89.56
489.261	99.56
489.479	85.56
489.696	77.56
489.914	71.56
490.132	77.56
490.35	87.56
490.568	80.56
490.786	89.56
491.003	92.56
491.221	74.56
491.439	86.56
491.657	76.56
491.874	90.56
492.092	78.56
492.31	85.56
492.527	83.56
492.745	82.56
492.963	66.56
493.18	88.56
493.398	98.56
493.615	93.56
493.833	88.56
494.05	95.56
494.268	81.56
494.485	99.56
494.703	86.56
494.92	83.56
495.138	88.56
495.355	77.56
495.573	90.56
495.79	82.56
496.008	98.56
496.225	95.56
496.442	94.56
496.66	92.56
496.877	85.56
497.094	83.56
497.312	82.56
497.529	78.56
497.746	80.56
497.963	78.56
498.181	94.56
498.398	91.56
498.615	79.56
498.832	77.56
499.049	81.56
499.267	85.56
499.484	80.56
499.701	84.56
499.918	74.56
500.135	86.56
500.352	82.56
500.569	85.56
500.786	84.56
501.003	85.56
501.22	95.56
501.437	97.56
501.654	93.56
501.871	93.56
502.088	85.56
502.305	99.56
502.522	90.56
502.739	91.56
502.956	78.56
503.172	75.56
503.389	81.56
503.606	70.56
503.823	100.56
504.04	92.56
504.256	112.56
504.473	76.56
504.69	74.56
504.907	90.56
505.123	82.56
505.34	92.56
505.557	93.56
505.773	90.56
505.99	80.56
506.207	88.56
506.423	80.56
506.64	85.56
506.856	88.56
507.073	91.56
507.289	96.56
507.506	75.56
507.722	80.56
507.939	79.56
508.155	79.56
508.372	75.56
508.588	82.56
508.805	85.56
509.021	83.56
509.238	76.56
509.454	78.56
509.67	90.56
509.887	88.56
510.103	81.56
510.319	76.56
510.536	80.56
510.752	82.56
510.968	95.56
511.184	85.56
511.401	86.56
511.617	79.56
511.833	91.56
512.049	71.56
512.265	81.56
512.481	89.56
512.698	98.56
512.914	92.56
513.13	88.56
513.346	87.56
513.562	81.56
513.778	88.56
513.994	84.56
514.21	67.56
514.426	83.56
514.642	79.56
514.858	90.56
515.074	70.56
515.29	77.56
515.506	71.56
515.721	69.56
515.937	89.56
516.153	77.56
516.369	78.56
516.585	79.56
516.801	96.56
517.016	87.56
517.232	83.56
517.448	95.56
517.664	85.56
517.879	79.56
518.095	84.56
518.311	81.56
518.527	81.56
518.742	78.56
518.958	89.56
519.173	91.56
519.389	90.56
519.605	86.56
519.82	89.56
520.036	81.56
