Data from StdD_HRD10591_051.txt Node
Date: Fri May 16 15:31:46 EDT 2025
User: Yrep
Spectrometer: HR+D1059
Trigger mode: 1
Integration Time (sec): 1.000000E-1
Scans to average: 1
Electric dark correction enabled: true
Nonlinearity correction enabled: false
Boxcar width: 0
XAxis mode: Wavelengths
Number of Pixels in Spectrum: 2048
>>>>>Begin Spectral Data<<<<<
223.165	-14.75
223.4	-14.75
223.635	-14.75
223.869	-17.75
224.104	-36.75
224.338	1.25
224.573	-17.75
224.808	-20.75
225.042	-3.75
225.277	12.25
225.511	-3.75
225.746	-16.75
225.98	0.25
226.215	16.25
226.449	15.25
226.683	24.25
226.918	21.25
227.152	41.25
227.387	35.25
227.621	31.25
227.856	55.25
228.09	40.25
228.324	42.25
228.559	73.25
228.793	31.25
229.027	56.25
229.262	66.25
229.496	81.25
229.73	64.25
229.964	61.25
230.199	67.25
230.433	67.25
230.667	80.25
230.901	77.25
231.136	75.25
231.37	69.25
231.604	90.25
231.838	90.25
232.072	81.25
232.306	83.25
232.541	80.25
232.775	86.25
233.009	85.25
233.243	85.25
233.477	83.25
233.711	82.25
233.945	85.25
234.179	86.25
234.413	89.25
234.647	89.25
234.881	112.25
235.115	78.25
235.349	78.25
235.583	82.25
235.817	77.25
236.051	69.25
236.285	68.25
236.519	76.25
236.753	84.25
236.987	82.25
237.221	72.25
237.455	99.25
237.689	83.25
237.922	64.25
238.156	74.25
238.39	67.25
238.624	73.25
238.858	69.25
239.091	79.25
239.325	75.25
239.559	77.25
239.793	61.25
240.027	93.25
240.26	83.25
240.494	85.25
240.728	70.25
240.961	86.25
241.195	81.25
241.429	79.25
241.662	83.25
241.896	84.25
242.13	90.25
242.363	69.25
242.597	79.25
242.83	75.25
243.064	80.25
243.298	70.25
243.531	75.25
243.765	80.25
243.998	95.25
244.232	73.25
244.465	75.25
244.699	69.25
244.932	65.25
245.166	78.25
245.399	77.25
245.633	75.25
245.866	86.25
246.099	81.25
246.333	80.25
246.566	79.25
246.8	85.25
247.033	74.25
247.266	87.25
247.5	76.25
247.733	79.25
247.966	63.25
248.2	85.25
248.433	73.25
248.666	72.25
248.899	61.25
249.133	80.25
249.366	69.25
249.599	81.25
249.832	90.25
250.066	83.25
250.299	80.25
250.532	82.25
250.765	71.25
250.998	71.25
251.231	75.25
251.465	67.25
251.698	86.25
251.931	75.25
252.164	81.25
252.397	80.25
252.63	83.25
252.863	80.25
253.096	76.25
253.329	89.25
253.562	63.25
253.795	84.25
254.028	108.25
254.261	96.25
254.494	65.25
254.727	89.25
254.96	77.25
255.193	80.25
255.426	88.25
255.659	83.25
255.892	75.25
256.124	67.25
256.357	73.25
256.59	87.25
256.823	83.25
257.056	75.25
257.289	100.25
257.521	87.25
257.754	59.25
257.987	78.25
258.22	70.25
258.452	80.25
258.685	80.25
258.918	96.25
259.151	68.25
259.383	79.25
259.616	81.25
259.849	88.25
260.081	88.25
260.314	80.25
260.547	81.25
260.779	79.25
261.012	83.25
261.244	76.25
261.477	86.25
261.71	91.25
261.942	75.25
262.175	74.25
262.407	82.25
262.64	84.25
262.872	81.25
263.105	75.25
263.337	82.25
263.57	84.25
263.802	82.25
264.035	88.25
264.267	93.25
264.499	79.25
264.732	79.25
264.964	69.25
265.197	70.25
265.429	73.25
265.661	87.25
265.894	85.25
266.126	77.25
266.358	66.25
266.591	73.25
266.823	80.25
267.055	79.25
267.287	92.25
267.52	79.25
267.752	96.25
267.984	72.25
268.216	69.25
268.448	94.25
268.681	83.25
268.913	95.25
269.145	81.25
269.377	72.25
269.609	80.25
269.841	85.25
270.073	76.25
270.306	83.25
270.538	79.25
270.77	92.25
271.002	85.25
271.234	83.25
271.466	90.25
271.698	77.25
271.93	86.25
272.162	99.25
272.394	89.25
272.626	97.25
272.858	81.25
273.09	77.25
273.322	90.25
273.553	70.25
273.785	90.25
274.017	80.25
274.249	83.25
274.481	90.25
274.713	78.25
274.945	90.25
275.176	80.25
275.408	67.25
275.64	71.25
275.872	92.25
276.104	79.25
276.335	71.25
276.567	104.25
276.799	80.25
277.031	77.25
277.262	76.25
277.494	85.25
277.726	87.25
277.957	87.25
278.189	78.25
278.421	81.25
278.652	83.25
278.884	93.25
279.115	80.25
279.347	80.25
279.579	88.25
279.81	76.25
280.042	72.25
280.273	73.25
280.505	88.25
280.736	106.25
280.968	78.25
281.199	80.25
281.431	80.25
281.662	85.25
281.894	77.25
282.125	84.25
282.356	82.25
282.588	88.25
282.819	91.25
283.051	76.25
283.282	75.25
283.513	82.25
283.745	91.25
283.976	81.25
284.207	84.25
284.439	79.25
284.67	94.25
284.901	95.25
285.132	86.25
285.364	75.25
285.595	106.25
285.826	88.25
286.057	89.25
286.288	89.25
286.52	82.25
286.751	70.25
286.982	91.25
287.213	87.25
287.444	81.25
287.675	66.25
287.906	77.25
288.138	93.25
288.369	79.25
288.6	77.25
288.831	76.25
289.062	94.25
289.293	77.25
289.524	72.25
289.755	79.25
289.986	71.25
290.217	74.25
290.448	81.25
290.679	75.25
290.91	88.25
291.141	82.25
291.371	94.25
291.602	85.25
291.833	77.25
292.064	94.25
292.295	83.25
292.526	75.25
292.757	96.25
292.987	93.25
293.218	87.25
293.449	79.25
293.68	100.25
293.91	90.25
294.141	76.25
294.372	88.25
294.603	99.25
294.833	75.25
295.064	78.25
295.295	89.25
295.525	79.25
295.756	84.25
295.987	84.25
296.217	88.25
296.448	90.25
296.679	95.25
296.909	96.25
297.14	80.25
297.37	90.25
297.601	90.25
297.831	87.25
298.062	82.25
298.292	80.25
298.523	90.25
298.753	91.25
298.984	85.25
299.214	74.25
299.445	83.25
299.675	69.25
299.905	85.25
300.136	78.25
300.366	73.25
300.597	80.25
300.827	84.25
301.057	76.25
301.288	80.25
301.518	83.25
301.748	84.25
301.979	100.25
302.209	94.25
302.439	78.25
302.669	70.25
302.9	85.25
303.13	82.25
303.36	95.25
303.59	85.25
303.82	87.25
304.051	74.25
304.281	97.25
304.511	87.25
304.741	94.25
304.971	75.25
305.201	77.25
305.431	88.25
305.661	83.25
305.891	75.25
306.121	91.25
306.352	85.25
306.582	81.25
306.812	92.25
307.042	89.25
307.272	73.25
307.502	97.25
307.731	76.25
307.961	84.25
308.191	86.25
308.421	79.25
308.651	89.25
308.881	93.25
309.111	93.25
309.341	62.25
309.571	101.25
309.8	98.25
310.03	95.25
310.26	88.25
310.49	87.25
310.72	76.25
310.949	92.25
311.179	88.25
311.409	87.25
311.639	82.25
311.868	80.25
312.098	86.25
312.328	89.25
312.557	90.25
312.787	89.25
313.017	83.25
313.246	82.25
313.476	78.25
313.706	108.25
313.935	86.25
314.165	85.25
314.394	75.25
314.624	89.25
314.853	83.25
315.083	84.25
315.312	97.25
315.542	76.25
315.771	86.25
316.001	79.25
316.23	90.25
316.46	95.25
316.689	82.25
316.919	99.25
317.148	81.25
317.377	78.25
317.607	88.25
317.836	83.25
318.065	81.25
318.295	87.25
318.524	72.25
318.753	77.25
318.983	92.25
319.212	82.25
319.441	78.25
319.67	92.25
319.9	85.25
320.129	93.25
320.358	81.25
320.587	87.25
320.816	82.25
321.046	84.25
321.275	84.25
321.504	92.25
321.733	80.25
321.962	82.25
322.191	88.25
322.42	87.25
322.649	86.25
322.878	99.25
323.108	72.25
323.337	88.25
323.566	89.25
323.795	89.25
324.024	96.25
324.253	97.25
324.482	85.25
324.71	87.25
324.939	87.25
325.168	83.25
325.397	92.25
325.626	98.25
325.855	90.25
326.084	81.25
326.313	81.25
326.542	77.25
326.77	81.25
326.999	87.25
327.228	88.25
327.457	81.25
327.686	86.25
327.914	87.25
328.143	91.25
328.372	87.25
328.6	78.25
328.829	95.25
329.058	71.25
329.287	92.25
329.515	90.25
329.744	76.25
329.972	79.25
330.201	75.25
330.43	98.25
330.658	93.25
330.887	77.25
331.115	96.25
331.344	76.25
331.572	89.25
331.801	90.25
332.03	85.25
332.258	87.25
332.486	84.25
332.715	83.25
332.943	77.25
333.172	74.25
333.4	89.25
333.629	88.25
333.857	82.25
334.085	79.25
334.314	72.25
334.542	90.25
334.771	87.25
334.999	85.25
335.227	93.25
335.455	91.25
335.684	81.25
335.912	84.25
336.14	84.25
336.369	92.25
336.597	89.25
336.825	84.25
337.053	77.25
337.281	81.25
337.51	81.25
337.738	73.25
337.966	83.25
338.194	67.25
338.422	78.25
338.65	97.25
338.878	82.25
339.106	97.25
339.334	82.25
339.562	88.25
339.79	79.25
340.018	90.25
340.246	85.25
340.474	69.25
340.702	77.25
340.93	80.25
341.158	69.25
341.386	78.25
341.614	82.25
341.842	92.25
342.07	88.25
342.298	81.25
342.526	79.25
342.754	76.25
342.981	102.25
343.209	84.25
343.437	95.25
343.665	88.25
343.893	78.25
344.12	97.25
344.348	91.25
344.576	89.25
344.804	93.25
345.031	82.25
345.259	81.25
345.487	79.25
345.714	85.25
345.942	78.25
346.17	87.25
346.397	84.25
346.625	84.25
346.853	88.25
347.08	84.25
347.308	81.25
347.535	77.25
347.763	92.25
347.99	87.25
348.218	84.25
348.445	91.25
348.673	83.25
348.9	81.25
349.128	83.25
349.355	76.25
349.583	80.25
349.81	81.25
350.037	76.25
350.265	76.25
350.492	80.25
350.72	75.25
350.947	106.25
351.174	91.25
351.402	77.25
351.629	75.25
351.856	91.25
352.083	93.25
352.311	88.25
352.538	75.25
352.765	77.25
352.992	91.25
353.22	86.25
353.447	100.25
353.674	89.25
353.901	83.25
354.128	73.25
354.355	75.25
354.583	94.25
354.81	89.25
355.037	97.25
355.264	88.25
355.491	86.25
355.718	81.25
355.945	81.25
356.172	88.25
356.399	73.25
356.626	83.25
356.853	77.25
357.08	80.25
357.307	83.25
357.534	76.25
357.761	79.25
357.988	82.25
358.215	90.25
358.441	93.25
358.668	91.25
358.895	79.25
359.122	84.25
359.349	92.25
359.576	80.25
359.802	77.25
360.029	91.25
360.256	72.25
360.483	75.25
360.709	73.25
360.936	80.25
361.163	67.25
361.39	79.25
361.616	80.25
361.843	71.25
362.07	88.25
362.296	88.25
362.523	103.25
362.749	87.25
362.976	80.25
363.203	80.25
363.429	80.25
363.656	91.25
363.882	78.25
364.109	95.25
364.335	90.25
364.562	86.25
364.788	69.25
365.015	87.25
365.241	80.25
365.468	82.25
365.694	63.25
365.92	78.25
366.147	92.25
366.373	82.25
366.599	87.25
366.826	82.25
367.052	82.25
367.278	78.25
367.505	80.25
367.731	87.25
367.957	89.25
368.184	89.25
368.41	77.25
368.636	86.25
368.862	83.25
369.089	81.25
369.315	77.25
369.541	74.25
369.767	82.25
369.993	81.25
370.219	87.25
370.445	85.25
370.672	87.25
370.898	96.25
371.124	82.25
371.35	86.25
371.576	75.25
371.802	83.25
372.028	81.25
372.254	82.25
372.48	92.25
372.706	88.25
372.932	76.25
373.158	84.25
373.384	85.25
373.61	89.25
373.835	83.25
374.061	70.25
374.287	95.25
374.513	91.25
374.739	71.25
374.965	92.25
375.191	87.25
375.416	71.25
375.642	80.25
375.868	82.25
376.094	92.25
376.319	81.25
376.545	87.25
376.771	84.25
376.997	81.25
377.222	89.25
377.448	76.25
377.674	86.25
377.899	67.25
378.125	85.25
378.35	89.25
378.576	89.25
378.802	85.25
379.027	88.25
379.253	91.25
379.478	71.25
379.704	87.25
379.929	83.25
380.155	88.25
380.38	87.25
380.606	91.25
380.831	62.25
381.057	76.25
381.282	82.25
381.507	85.25
381.733	79.25
381.958	78.25
382.184	72.25
382.409	98.25
382.634	91.25
382.86	85.25
383.085	85.25
383.31	74.25
383.535	83.25
383.761	80.25
383.986	87.25
384.211	80.25
384.436	84.25
384.662	81.25
384.887	85.25
385.112	90.25
385.337	80.25
385.562	78.25
385.787	80.25
386.013	93.25
386.238	88.25
386.463	94.25
386.688	108.25
386.913	86.25
387.138	66.25
387.363	89.25
387.588	102.25
387.813	67.25
388.038	85.25
388.263	91.25
388.488	97.25
388.713	94.25
388.938	72.25
389.163	89.25
389.387	75.25
389.612	90.25
389.837	80.25
390.062	82.25
390.287	91.25
390.512	96.25
390.736	76.25
390.961	85.25
391.186	83.25
391.411	94.25
391.636	68.25
391.86	80.25
392.085	68.25
392.31	102.25
392.534	86.25
392.759	82.25
392.984	78.25
393.208	88.25
393.433	81.25
393.658	82.25
393.882	84.25
394.107	86.25
394.331	82.25
394.556	85.25
394.78	80.25
395.005	90.25
395.229	85.25
395.454	87.25
395.678	73.25
395.903	85.25
396.127	85.25
396.352	82.25
396.576	78.25
396.801	85.25
397.025	77.25
397.249	82.25
397.474	89.25
397.698	88.25
397.922	89.25
398.147	99.25
398.371	77.25
398.595	84.25
398.82	84.25
399.044	82.25
399.268	75.25
399.492	96.25
399.717	81.25
399.941	83.25
400.165	90.25
400.389	90.25
400.613	80.25
400.837	79.25
401.062	89.25
401.286	83.25
401.51	83.25
401.734	85.25
401.958	79.25
402.182	73.25
402.406	78.25
402.63	88.25
402.854	83.25
403.078	79.25
403.302	84.25
403.526	84.25
403.75	81.25
403.974	77.25
404.198	68.25
404.422	83.25
404.645	85.25
404.869	69.25
405.093	92.25
405.317	88.25
405.541	90.25
405.765	77.25
405.988	79.25
406.212	83.25
406.436	87.25
406.66	73.25
406.883	84.25
407.107	75.25
407.331	84.25
407.555	98.25
407.778	81.25
408.002	86.25
408.226	81.25
408.449	76.25
408.673	84.25
408.896	84.25
409.12	77.25
409.344	79.25
409.567	71.25
409.791	68.25
410.014	79.25
410.238	96.25
410.461	77.25
410.685	77.25
410.908	73.25
411.132	87.25
411.355	72.25
411.578	87.25
411.802	67.25
412.025	75.25
412.249	78.25
412.472	81.25
412.695	87.25
412.919	94.25
413.142	89.25
413.365	84.25
413.589	68.25
413.812	67.25
414.035	81.25
414.258	82.25
414.482	78.25
414.705	87.25
414.928	81.25
415.151	83.25
415.374	109.25
415.597	86.25
415.821	82.25
416.044	75.25
416.267	83.25
416.49	67.25
416.713	71.25
416.936	77.25
417.159	87.25
417.382	82.25
417.605	83.25
417.828	82.25
418.051	77.25
418.274	79.25
418.497	79.25
418.72	63.25
418.943	84.25
419.166	89.25
419.389	81.25
419.611	94.25
419.834	75.25
420.057	79.25
420.28	82.25
420.503	86.25
420.726	85.25
420.948	91.25
421.171	75.25
421.394	88.25
421.617	91.25
421.839	76.25
422.062	75.25
422.285	89.25
422.507	89.25
422.73	75.25
422.953	99.25
423.175	85.25
423.398	81.25
423.621	61.25
423.843	70.25
424.066	82.25
424.288	95.25
424.511	79.25
424.733	88.25
424.956	93.25
425.178	88.25
425.401	76.25
425.623	80.25
425.846	88.25
426.068	83.25
426.291	63.25
426.513	95.25
426.735	92.25
426.958	95.25
427.18	85.25
427.402	85.25
427.625	76.25
427.847	87.25
428.069	88.25
428.292	84.25
428.514	88.25
428.736	95.25
428.958	96.25
429.181	77.25
429.403	99.25
429.625	76.25
429.847	80.25
430.069	77.25
430.292	80.25
430.514	83.25
430.736	69.25
430.958	76.25
431.18	92.25
431.402	81.25
431.624	75.25
431.846	77.25
432.068	86.25
432.29	89.25
432.512	85.25
432.734	82.25
432.956	79.25
433.178	78.25
433.4	88.25
433.622	92.25
433.844	86.25
434.066	79.25
434.287	95.25
434.509	70.25
434.731	72.25
434.953	88.25
435.175	85.25
435.397	81.25
435.618	92.25
435.84	83.25
436.062	84.25
436.284	91.25
436.505	69.25
436.727	84.25
436.949	84.25
437.17	86.25
437.392	84.25
437.614	70.25
437.835	82.25
438.057	83.25
438.278	75.25
438.5	68.25
438.721	97.25
438.943	82.25
439.165	65.25
439.386	89.25
439.608	98.25
439.829	75.25
440.05	80.25
440.272	79.25
440.493	84.25
440.715	87.25
440.936	85.25
441.158	79.25
441.379	80.25
441.6	75.25
441.822	87.25
442.043	76.25
442.264	81.25
442.486	93.25
442.707	95.25
442.928	90.25
443.149	72.25
443.371	70.25
443.592	82.25
443.813	77.25
444.034	89.25
444.255	83.25
444.476	76.25
444.698	76.25
444.919	82.25
445.14	185.25
445.361	112.25
445.582	83.25
445.803	79.25
446.024	80.25
446.245	90.25
446.466	87.25
446.687	82.25
446.908	98.25
447.129	93.25
447.35	77.25
447.571	73.25
447.792	79.25
448.013	75.25
448.234	88.25
448.455	83.25
448.675	82.25
448.896	96.25
449.117	89.25
449.338	84.25
449.559	95.25
449.779	87.25
450	73.25
450.221	76.25
450.442	81.25
450.662	70.25
450.883	83.25
451.104	75.25
451.324	83.25
451.545	96.25
451.766	91.25
451.986	83.25
452.207	87.25
452.428	84.25
452.648	79.25
452.869	87.25
453.089	77.25
453.31	82.25
453.53	87.25
453.751	92.25
453.971	84.25
454.192	92.25
454.412	92.25
454.633	89.25
454.853	94.25
455.073	95.25
455.294	89.25
455.514	97.25
455.734	81.25
455.955	82.25
456.175	86.25
456.395	83.25
456.616	68.25
456.836	85.25
457.056	90.25
457.276	91.25
457.497	81.25
457.717	98.25
457.937	80.25
458.157	83.25
458.377	83.25
458.598	61.25
458.818	75.25
459.038	74.25
459.258	83.25
459.478	78.25
459.698	77.25
459.918	71.25
460.138	78.25
460.358	79.25
460.578	91.25
460.798	82.25
461.018	78.25
461.238	73.25
461.458	82.25
461.678	89.25
461.898	78.25
462.118	80.25
462.338	89.25
462.558	76.25
462.777	64.25
462.997	87.25
463.217	88.25
463.437	73.25
463.657	92.25
463.876	93.25
464.096	77.25
464.316	75.25
464.536	85.25
464.755	76.25
464.975	70.25
465.195	72.25
465.414	90.25
465.634	80.25
465.854	65.25
466.073	73.25
466.293	80.25
466.512	70.25
466.732	74.25
466.951	75.25
467.171	82.25
467.391	80.25
467.61	87.25
467.829	79.25
468.049	79.25
468.268	80.25
468.488	99.25
468.707	84.25
468.927	82.25
469.146	80.25
469.365	75.25
469.585	75.25
469.804	82.25
470.023	81.25
470.243	80.25
470.462	70.25
470.681	89.25
470.901	95.25
471.12	88.25
471.339	87.25
471.558	83.25
471.777	75.25
471.997	84.25
472.216	92.25
472.435	80.25
472.654	84.25
472.873	90.25
473.092	83.25
473.311	84.25
473.53	79.25
473.749	85.25
473.968	87.25
474.187	80.25
474.406	69.25
474.625	81.25
474.844	86.25
475.063	78.25
475.282	81.25
475.501	69.25
475.72	102.25
475.939	89.25
476.158	69.25
476.377	84.25
476.596	94.25
476.814	95.25
477.033	87.25
477.252	83.25
477.471	100.25
477.69	92.25
477.908	99.25
478.127	85.25
478.346	85.25
478.564	75.25
478.783	89.25
479.002	81.25
479.22	83.25
479.439	88.25
479.658	86.25
479.876	80.25
480.095	85.25
480.313	76.25
480.532	88.25
480.751	87.25
480.969	91.25
481.188	85.25
481.406	77.25
481.624	77.25
481.843	88.25
482.061	71.25
482.28	81.25
482.498	92.25
482.717	76.25
482.935	69.25
483.153	90.25
483.372	84.25
483.59	96.25
483.808	81.25
484.027	95.25
484.245	95.25
484.463	87.25
484.681	87.25
484.9	87.25
485.118	85.25
485.336	92.25
485.554	79.25
485.772	87.25
485.99	77.25
486.209	94.25
486.427	76.25
486.645	93.25
486.863	82.25
487.081	78.25
487.299	83.25
487.517	73.25
487.735	81.25
487.953	95.25
488.171	69.25
488.389	81.25
488.607	94.25
488.825	80.25
489.043	79.25
489.261	95.25
489.479	81.25
489.696	84.25
489.914	75.25
490.132	70.25
490.35	85.25
490.568	77.25
490.786	77.25
491.003	81.25
491.221	86.25
491.439	91.25
491.657	78.25
491.874	100.25
492.092	92.25
492.31	89.25
492.527	91.25
492.745	88.25
492.963	85.25
493.18	111.25
493.398	94.25
493.615	94.25
493.833	80.25
494.05	85.25
494.268	93.25
494.485	79.25
494.703	84.25
494.92	95.25
495.138	87.25
495.355	83.25
495.573	83.25
495.79	93.25
496.008	87.25
496.225	79.25
496.442	72.25
496.66	76.25
496.877	83.25
497.094	82.25
497.312	92.25
497.529	74.25
497.746	99.25
497.963	90.25
498.181	78.25
498.398	76.25
498.615	96.25
498.832	69.25
499.049	82.25
499.267	89.25
499.484	80.25
499.701	81.25
499.918	84.25
500.135	80.25
500.352	89.25
500.569	88.25
500.786	80.25
501.003	84.25
501.22	97.25
501.437	77.25
501.654	85.25
501.871	74.25
502.088	71.25
502.305	80.25
502.522	85.25
502.739	91.25
502.956	82.25
503.172	86.25
503.389	74.25
503.606	84.25
503.823	77.25
504.04	79.25
504.256	89.25
504.473	94.25
504.69	80.25
504.907	90.25
505.123	95.25
505.34	75.25
505.557	88.25
505.773	83.25
505.99	78.25
506.207	73.25
506.423	82.25
506.64	89.25
506.856	95.25
507.073	92.25
507.289	91.25
507.506	91.25
507.722	77.25
507.939	89.25
508.155	81.25
508.372	89.25
508.588	77.25
508.805	82.25
509.021	76.25
509.238	88.25
509.454	79.25
509.67	96.25
509.887	75.25
510.103	86.25
510.319	72.25
510.536	84.25
510.752	80.25
510.968	88.25
511.184	75.25
511.401	79.25
511.617	79.25
511.833	82.25
512.049	77.25
512.265	91.25
512.481	90.25
512.698	86.25
512.914	79.25
513.13	90.25
513.346	74.25
513.562	71.25
513.778	89.25
513.994	80.25
514.21	92.25
514.426	76.25
514.642	81.25
514.858	76.25
515.074	68.25
515.29	93.25
515.506	100.25
515.721	83.25
515.937	94.25
516.153	84.25
516.369	82.25
516.585	78.25
516.801	97.25
517.016	76.25
517.232	89.25
517.448	87.25
517.664	73.25
517.879	81.25
518.095	65.25
518.311	79.25
518.527	76.25
518.742	92.25
518.958	88.25
519.173	72.25
519.389	85.25
519.605	70.25
519.82	76.25
520.036	80.25
