Data from StdD_HRD10591_068.txt Node
Date: Fri May 16 15:31:55 EDT 2025
User: Yrep
Spectrometer: HR+D1059
Trigger mode: 1
Integration Time (sec): 1.000000E-1
Scans to average: 1
Electric dark correction enabled: true
Nonlinearity correction enabled: false
Boxcar width: 0
XAxis mode: Wavelengths
Number of Pixels in Spectrum: 2048
>>>>>Begin Spectral Data<<<<<
223.165	-12.44
223.4	-12.44
223.635	-12.44
223.869	-7.44
224.104	-23.44
224.338	-12.44
224.573	-14.44
224.808	-17.44
225.042	-9.44
225.277	-11.44
225.511	6.56
225.746	2.56
225.98	11.56
226.215	12.56
226.449	17.56
226.683	12.56
226.918	12.56
227.152	32.56
227.387	34.56
227.621	33.56
227.856	40.56
228.09	54.56
228.324	41.56
228.559	61.56
228.793	67.56
229.027	52.56
229.262	76.56
229.496	68.56
229.73	62.56
229.964	71.56
230.199	70.56
230.433	57.56
230.667	86.56
230.901	72.56
231.136	81.56
231.37	96.56
231.604	69.56
231.838	86.56
232.072	81.56
232.306	76.56
232.541	75.56
232.775	76.56
233.009	89.56
233.243	70.56
233.477	61.56
233.711	95.56
233.945	70.56
234.179	80.56
234.413	77.56
234.647	88.56
234.881	74.56
235.115	72.56
235.349	82.56
235.583	88.56
235.817	76.56
236.051	76.56
236.285	74.56
236.519	78.56
236.753	86.56
236.987	80.56
237.221	68.56
237.455	80.56
237.689	80.56
237.922	66.56
238.156	70.56
238.39	68.56
238.624	70.56
238.858	67.56
239.091	73.56
239.325	81.56
239.559	76.56
239.793	68.56
240.027	81.56
240.26	72.56
240.494	74.56
240.728	81.56
240.961	73.56
241.195	70.56
241.429	74.56
241.662	73.56
241.896	73.56
242.13	73.56
242.363	77.56
242.597	76.56
242.83	69.56
243.064	85.56
243.298	92.56
243.531	85.56
243.765	87.56
243.998	79.56
244.232	83.56
244.465	85.56
244.699	80.56
244.932	88.56
245.166	85.56
245.399	93.56
245.633	90.56
245.866	78.56
246.099	72.56
246.333	73.56
246.566	92.56
246.8	72.56
247.033	88.56
247.266	78.56
247.5	71.56
247.733	73.56
247.966	69.56
248.2	70.56
248.433	89.56
248.666	70.56
248.899	73.56
249.133	87.56
249.366	76.56
249.599	77.56
249.832	86.56
250.066	76.56
250.299	63.56
250.532	76.56
250.765	58.56
250.998	76.56
251.231	85.56
251.465	86.56
251.698	73.56
251.931	90.56
252.164	72.56
252.397	68.56
252.63	68.56
252.863	96.56
253.096	85.56
253.329	84.56
253.562	90.56
253.795	71.56
254.028	66.56
254.261	88.56
254.494	74.56
254.727	93.56
254.96	61.56
255.193	97.56
255.426	98.56
255.659	77.56
255.892	84.56
256.124	89.56
256.357	70.56
256.59	91.56
256.823	68.56
257.056	70.56
257.289	106.56
257.521	72.56
257.754	68.56
257.987	73.56
258.22	102.56
258.452	77.56
258.685	71.56
258.918	74.56
259.151	80.56
259.383	82.56
259.616	90.56
259.849	89.56
260.081	80.56
260.314	91.56
260.547	88.56
260.779	74.56
261.012	80.56
261.244	80.56
261.477	92.56
261.71	85.56
261.942	70.56
262.175	80.56
262.407	70.56
262.64	81.56
262.872	86.56
263.105	85.56
263.337	92.56
263.57	77.56
263.802	87.56
264.035	80.56
264.267	86.56
264.499	88.56
264.732	84.56
264.964	85.56
265.197	74.56
265.429	74.56
265.661	78.56
265.894	72.56
266.126	92.56
266.358	85.56
266.591	82.56
266.823	77.56
267.055	76.56
267.287	66.56
267.52	84.56
267.752	81.56
267.984	76.56
268.216	88.56
268.448	72.56
268.681	78.56
268.913	88.56
269.145	86.56
269.377	77.56
269.609	78.56
269.841	94.56
270.073	87.56
270.306	73.56
270.538	68.56
270.77	93.56
271.002	75.56
271.234	76.56
271.466	88.56
271.698	88.56
271.93	75.56
272.162	76.56
272.394	89.56
272.626	75.56
272.858	88.56
273.09	74.56
273.322	86.56
273.553	67.56
273.785	83.56
274.017	73.56
274.249	87.56
274.481	87.56
274.713	72.56
274.945	90.56
275.176	82.56
275.408	86.56
275.64	70.56
275.872	85.56
276.104	86.56
276.335	89.56
276.567	77.56
276.799	73.56
277.031	75.56
277.262	81.56
277.494	79.56
277.726	79.56
277.957	81.56
278.189	92.56
278.421	80.56
278.652	83.56
278.884	81.56
279.115	90.56
279.347	86.56
279.579	75.56
279.81	72.56
280.042	76.56
280.273	82.56
280.505	99.56
280.736	80.56
280.968	76.56
281.199	85.56
281.431	88.56
281.662	70.56
281.894	88.56
282.125	76.56
282.356	90.56
282.588	74.56
282.819	102.56
283.051	78.56
283.282	90.56
283.513	91.56
283.745	92.56
283.976	83.56
284.207	93.56
284.439	84.56
284.67	82.56
284.901	82.56
285.132	87.56
285.364	75.56
285.595	81.56
285.826	91.56
286.057	103.56
286.288	75.56
286.52	79.56
286.751	78.56
286.982	85.56
287.213	78.56
287.444	96.56
287.675	95.56
287.906	77.56
288.138	83.56
288.369	86.56
288.6	80.56
288.831	80.56
289.062	82.56
289.293	75.56
289.524	82.56
289.755	92.56
289.986	89.56
290.217	78.56
290.448	98.56
290.679	95.56
290.91	78.56
291.141	72.56
291.371	86.56
291.602	86.56
291.833	87.56
292.064	73.56
292.295	74.56
292.526	78.56
292.757	87.56
292.987	93.56
293.218	77.56
293.449	92.56
293.68	81.56
293.91	82.56
294.141	104.56
294.372	72.56
294.603	89.56
294.833	81.56
295.064	94.56
295.295	85.56
295.525	82.56
295.756	88.56
295.987	81.56
296.217	76.56
296.448	80.56
296.679	85.56
296.909	85.56
297.14	92.56
297.37	86.56
297.601	83.56
297.831	81.56
298.062	95.56
298.292	79.56
298.523	79.56
298.753	81.56
298.984	80.56
299.214	92.56
299.445	79.56
299.675	81.56
299.905	85.56
300.136	90.56
300.366	76.56
300.597	104.56
300.827	92.56
301.057	70.56
301.288	72.56
301.518	85.56
301.748	79.56
301.979	86.56
302.209	79.56
302.439	94.56
302.669	74.56
302.9	92.56
303.13	92.56
303.36	85.56
303.59	85.56
303.82	77.56
304.051	90.56
304.281	88.56
304.511	94.56
304.741	72.56
304.971	81.56
305.201	78.56
305.431	75.56
305.661	73.56
305.891	79.56
306.121	70.56
306.352	89.56
306.582	87.56
306.812	98.56
307.042	86.56
307.272	89.56
307.502	79.56
307.731	90.56
307.961	72.56
308.191	84.56
308.421	82.56
308.651	79.56
308.881	89.56
309.111	88.56
309.341	82.56
309.571	84.56
309.8	81.56
310.03	75.56
310.26	92.56
310.49	76.56
310.72	80.56
310.949	82.56
311.179	93.56
311.409	90.56
311.639	79.56
311.868	88.56
312.098	88.56
312.328	87.56
312.557	92.56
312.787	87.56
313.017	87.56
313.246	83.56
313.476	78.56
313.706	82.56
313.935	60.56
314.165	89.56
314.394	77.56
314.624	80.56
314.853	101.56
315.083	84.56
315.312	80.56
315.542	83.56
315.771	79.56
316.001	81.56
316.23	85.56
316.46	95.56
316.689	92.56
316.919	74.56
317.148	90.56
317.377	98.56
317.607	104.56
317.836	70.56
318.065	84.56
318.295	87.56
318.524	73.56
318.753	87.56
318.983	96.56
319.212	85.56
319.441	101.56
319.67	88.56
319.9	77.56
320.129	78.56
320.358	89.56
320.587	77.56
320.816	98.56
321.046	90.56
321.275	79.56
321.504	81.56
321.733	90.56
321.962	72.56
322.191	73.56
322.42	87.56
322.649	91.56
322.878	71.56
323.108	86.56
323.337	81.56
323.566	86.56
323.795	91.56
324.024	102.56
324.253	87.56
324.482	77.56
324.71	78.56
324.939	96.56
325.168	85.56
325.397	78.56
325.626	76.56
325.855	84.56
326.084	82.56
326.313	80.56
326.542	67.56
326.77	80.56
326.999	90.56
327.228	90.56
327.457	80.56
327.686	85.56
327.914	69.56
328.143	77.56
328.372	86.56
328.6	93.56
328.829	88.56
329.058	74.56
329.287	76.56
329.515	82.56
329.744	84.56
329.972	80.56
330.201	88.56
330.43	89.56
330.658	76.56
330.887	89.56
331.115	98.56
331.344	80.56
331.572	89.56
331.801	86.56
332.03	88.56
332.258	77.56
332.486	92.56
332.715	93.56
332.943	82.56
333.172	84.56
333.4	90.56
333.629	87.56
333.857	62.56
334.085	82.56
334.314	82.56
334.542	83.56
334.771	86.56
334.999	85.56
335.227	86.56
335.455	73.56
335.684	81.56
335.912	91.56
336.14	71.56
336.369	84.56
336.597	72.56
336.825	86.56
337.053	89.56
337.281	79.56
337.51	94.56
337.738	88.56
337.966	84.56
338.194	84.56
338.422	88.56
338.65	88.56
338.878	79.56
339.106	96.56
339.334	87.56
339.562	92.56
339.79	86.56
340.018	81.56
340.246	82.56
340.474	96.56
340.702	78.56
340.93	92.56
341.158	82.56
341.386	71.56
341.614	81.56
341.842	79.56
342.07	73.56
342.298	71.56
342.526	85.56
342.754	77.56
342.981	80.56
343.209	72.56
343.437	80.56
343.665	97.56
343.893	89.56
344.12	77.56
344.348	84.56
344.576	92.56
344.804	72.56
345.031	83.56
345.259	86.56
345.487	85.56
345.714	80.56
345.942	58.56
346.17	69.56
346.397	91.56
346.625	82.56
346.853	79.56
347.08	87.56
347.308	97.56
347.535	82.56
347.763	71.56
347.99	93.56
348.218	82.56
348.445	80.56
348.673	81.56
348.9	83.56
349.128	80.56
349.355	89.56
349.583	88.56
349.81	88.56
350.037	87.56
350.265	79.56
350.492	74.56
350.72	76.56
350.947	75.56
351.174	92.56
351.402	92.56
351.629	80.56
351.856	87.56
352.083	90.56
352.311	90.56
352.538	80.56
352.765	95.56
352.992	89.56
353.22	93.56
353.447	80.56
353.674	71.56
353.901	83.56
354.128	76.56
354.355	63.56
354.583	90.56
354.81	94.56
355.037	75.56
355.264	85.56
355.491	85.56
355.718	72.56
355.945	85.56
356.172	83.56
356.399	101.56
356.626	87.56
356.853	74.56
357.08	76.56
357.307	83.56
357.534	91.56
357.761	74.56
357.988	74.56
358.215	89.56
358.441	87.56
358.668	75.56
358.895	92.56
359.122	71.56
359.349	78.56
359.576	79.56
359.802	59.56
360.029	89.56
360.256	96.56
360.483	67.56
360.709	78.56
360.936	78.56
361.163	81.56
361.39	85.56
361.616	76.56
361.843	74.56
362.07	72.56
362.296	94.56
362.523	78.56
362.749	85.56
362.976	84.56
363.203	86.56
363.429	73.56
363.656	85.56
363.882	73.56
364.109	76.56
364.335	93.56
364.562	83.56
364.788	92.56
365.015	90.56
365.241	85.56
365.468	91.56
365.694	80.56
365.92	85.56
366.147	88.56
366.373	79.56
366.599	82.56
366.826	83.56
367.052	88.56
367.278	82.56
367.505	89.56
367.731	103.56
367.957	72.56
368.184	67.56
368.41	75.56
368.636	66.56
368.862	74.56
369.089	81.56
369.315	76.56
369.541	95.56
369.767	77.56
369.993	84.56
370.219	78.56
370.445	64.56
370.672	81.56
370.898	84.56
371.124	81.56
371.35	82.56
371.576	94.56
371.802	72.56
372.028	80.56
372.254	77.56
372.48	84.56
372.706	73.56
372.932	76.56
373.158	79.56
373.384	80.56
373.61	68.56
373.835	101.56
374.061	86.56
374.287	80.56
374.513	76.56
374.739	89.56
374.965	88.56
375.191	85.56
375.416	76.56
375.642	74.56
375.868	99.56
376.094	82.56
376.319	81.56
376.545	81.56
376.771	89.56
376.997	91.56
377.222	90.56
377.448	71.56
377.674	76.56
377.899	70.56
378.125	76.56
378.35	75.56
378.576	64.56
378.802	78.56
379.027	92.56
379.253	83.56
379.478	82.56
379.704	76.56
379.929	74.56
380.155	74.56
380.38	81.56
380.606	82.56
380.831	74.56
381.057	93.56
381.282	76.56
381.507	77.56
381.733	77.56
381.958	80.56
382.184	82.56
382.409	85.56
382.634	88.56
382.86	87.56
383.085	77.56
383.31	76.56
383.535	93.56
383.761	91.56
383.986	76.56
384.211	93.56
384.436	81.56
384.662	77.56
384.887	78.56
385.112	78.56
385.337	76.56
385.562	84.56
385.787	93.56
386.013	75.56
386.238	79.56
386.463	83.56
386.688	92.56
386.913	78.56
387.138	89.56
387.363	89.56
387.588	82.56
387.813	72.56
388.038	78.56
388.263	87.56
388.488	92.56
388.713	85.56
388.938	75.56
389.163	72.56
389.387	74.56
389.612	75.56
389.837	82.56
390.062	74.56
390.287	84.56
390.512	76.56
390.736	80.56
390.961	74.56
391.186	70.56
391.411	78.56
391.636	87.56
391.86	81.56
392.085	85.56
392.31	77.56
392.534	74.56
392.759	76.56
392.984	73.56
393.208	77.56
393.433	88.56
393.658	84.56
393.882	82.56
394.107	75.56
394.331	75.56
394.556	83.56
394.78	79.56
395.005	86.56
395.229	90.56
395.454	87.56
395.678	76.56
395.903	88.56
396.127	86.56
396.352	93.56
396.576	89.56
396.801	75.56
397.025	75.56
397.249	76.56
397.474	80.56
397.698	81.56
397.922	79.56
398.147	76.56
398.371	91.56
398.595	80.56
398.82	75.56
399.044	89.56
399.268	78.56
399.492	79.56
399.717	73.56
399.941	65.56
400.165	86.56
400.389	79.56
400.613	92.56
400.837	63.56
401.062	84.56
401.286	95.56
401.51	80.56
401.734	77.56
401.958	80.56
402.182	81.56
402.406	76.56
402.63	90.56
402.854	75.56
403.078	84.56
403.302	77.56
403.526	78.56
403.75	89.56
403.974	80.56
404.198	100.56
404.422	89.56
404.645	74.56
404.869	73.56
405.093	89.56
405.317	78.56
405.541	86.56
405.765	80.56
405.988	86.56
406.212	84.56
406.436	79.56
406.66	76.56
406.883	95.56
407.107	79.56
407.331	77.56
407.555	89.56
407.778	84.56
408.002	74.56
408.226	66.56
408.449	92.56
408.673	82.56
408.896	89.56
409.12	78.56
409.344	81.56
409.567	86.56
409.791	72.56
410.014	81.56
410.238	80.56
410.461	89.56
410.685	60.56
410.908	89.56
411.132	78.56
411.355	78.56
411.578	87.56
411.802	101.56
412.025	100.56
412.249	84.56
412.472	77.56
412.695	80.56
412.919	85.56
413.142	73.56
413.365	82.56
413.589	82.56
413.812	81.56
414.035	78.56
414.258	90.56
414.482	88.56
414.705	78.56
414.928	77.56
415.151	85.56
415.374	96.56
415.597	64.56
415.821	77.56
416.044	74.56
416.267	77.56
416.49	86.56
416.713	76.56
416.936	80.56
417.159	100.56
417.382	95.56
417.605	77.56
417.828	83.56
418.051	91.56
418.274	85.56
418.497	85.56
418.72	65.56
418.943	82.56
419.166	76.56
419.389	67.56
419.611	81.56
419.834	94.56
420.057	70.56
420.28	75.56
420.503	75.56
420.726	73.56
420.948	75.56
421.171	91.56
421.394	78.56
421.617	90.56
421.839	85.56
422.062	81.56
422.285	87.56
422.507	78.56
422.73	67.56
422.953	84.56
423.175	73.56
423.398	85.56
423.621	82.56
423.843	89.56
424.066	80.56
424.288	87.56
424.511	88.56
424.733	77.56
424.956	67.56
425.178	82.56
425.401	81.56
425.623	66.56
425.846	72.56
426.068	96.56
426.291	87.56
426.513	75.56
426.735	87.56
426.958	76.56
427.18	78.56
427.402	89.56
427.625	75.56
427.847	85.56
428.069	69.56
428.292	70.56
428.514	85.56
428.736	77.56
428.958	82.56
429.181	95.56
429.403	90.56
429.625	77.56
429.847	78.56
430.069	91.56
430.292	80.56
430.514	70.56
430.736	72.56
430.958	85.56
431.18	78.56
431.402	74.56
431.624	100.56
431.846	88.56
432.068	89.56
432.29	89.56
432.512	94.56
432.734	89.56
432.956	79.56
433.178	89.56
433.4	66.56
433.622	76.56
433.844	79.56
434.066	89.56
434.287	98.56
434.509	86.56
434.731	96.56
434.953	88.56
435.175	78.56
435.397	84.56
435.618	83.56
435.84	87.56
436.062	85.56
436.284	58.56
436.505	85.56
436.727	73.56
436.949	74.56
437.17	77.56
437.392	72.56
437.614	85.56
437.835	102.56
438.057	84.56
438.278	86.56
438.5	92.56
438.721	81.56
438.943	83.56
439.165	92.56
439.386	80.56
439.608	77.56
439.829	78.56
440.05	85.56
440.272	78.56
440.493	84.56
440.715	81.56
440.936	84.56
441.158	84.56
441.379	98.56
441.6	82.56
441.822	84.56
442.043	90.56
442.264	74.56
442.486	82.56
442.707	80.56
442.928	87.56
443.149	79.56
443.371	78.56
443.592	77.56
443.813	86.56
444.034	81.56
444.255	94.56
444.476	63.56
444.698	88.56
444.919	78.56
445.14	171.56
445.361	100.56
445.582	72.56
445.803	80.56
446.024	85.56
446.245	76.56
446.466	79.56
446.687	75.56
446.908	78.56
447.129	69.56
447.35	92.56
447.571	78.56
447.792	87.56
448.013	74.56
448.234	74.56
448.455	85.56
448.675	76.56
448.896	93.56
449.117	78.56
449.338	75.56
449.559	83.56
449.779	77.56
450	64.56
450.221	82.56
450.442	78.56
450.662	78.56
450.883	85.56
451.104	89.56
451.324	70.56
451.545	93.56
451.766	93.56
451.986	82.56
452.207	82.56
452.428	68.56
452.648	85.56
452.869	73.56
453.089	87.56
453.31	87.56
453.53	72.56
453.751	82.56
453.971	92.56
454.192	74.56
454.412	82.56
454.633	72.56
454.853	85.56
455.073	90.56
455.294	88.56
455.514	87.56
455.734	83.56
455.955	90.56
456.175	90.56
456.395	90.56
456.616	84.56
456.836	86.56
457.056	76.56
457.276	88.56
457.497	77.56
457.717	70.56
457.937	81.56
458.157	75.56
458.377	79.56
458.598	93.56
458.818	81.56
459.038	76.56
459.258	86.56
459.478	79.56
459.698	79.56
459.918	88.56
460.138	80.56
460.358	84.56
460.578	83.56
460.798	91.56
461.018	72.56
461.238	90.56
461.458	86.56
461.678	77.56
461.898	73.56
462.118	74.56
462.338	81.56
462.558	77.56
462.777	73.56
462.997	83.56
463.217	86.56
463.437	86.56
463.657	81.56
463.876	91.56
464.096	77.56
464.316	75.56
464.536	74.56
464.755	82.56
464.975	76.56
465.195	85.56
465.414	68.56
465.634	77.56
465.854	71.56
466.073	84.56
466.293	94.56
466.512	72.56
466.732	81.56
466.951	80.56
467.171	70.56
467.391	87.56
467.61	89.56
467.829	81.56
468.049	65.56
468.268	85.56
468.488	92.56
468.707	102.56
468.927	61.56
469.146	68.56
469.365	69.56
469.585	75.56
469.804	89.56
470.023	73.56
470.243	93.56
470.462	99.56
470.681	89.56
470.901	82.56
471.12	83.56
471.339	93.56
471.558	86.56
471.777	80.56
471.997	81.56
472.216	72.56
472.435	87.56
472.654	83.56
472.873	88.56
473.092	77.56
473.311	70.56
473.53	72.56
473.749	89.56
473.968	97.56
474.187	75.56
474.406	78.56
474.625	88.56
474.844	76.56
475.063	88.56
475.282	82.56
475.501	75.56
475.72	96.56
475.939	89.56
476.158	81.56
476.377	90.56
476.596	80.56
476.814	80.56
477.033	86.56
477.252	77.56
477.471	82.56
477.69	85.56
477.908	102.56
478.127	80.56
478.346	88.56
478.564	75.56
478.783	91.56
479.002	81.56
479.22	94.56
479.439	91.56
479.658	75.56
479.876	88.56
480.095	83.56
480.313	72.56
480.532	79.56
480.751	76.56
480.969	79.56
481.188	61.56
481.406	77.56
481.624	96.56
481.843	94.56
482.061	83.56
482.28	83.56
482.498	93.56
482.717	71.56
482.935	76.56
483.153	79.56
483.372	86.56
483.59	85.56
483.808	74.56
484.027	82.56
484.245	72.56
484.463	80.56
484.681	97.56
484.9	85.56
485.118	89.56
485.336	87.56
485.554	96.56
485.772	83.56
485.99	87.56
486.209	75.56
486.427	87.56
486.645	77.56
486.863	98.56
487.081	76.56
487.299	82.56
487.517	97.56
487.735	78.56
487.953	84.56
488.171	92.56
488.389	85.56
488.607	72.56
488.825	73.56
489.043	85.56
489.261	79.56
489.479	86.56
489.696	83.56
489.914	97.56
490.132	81.56
490.35	75.56
490.568	74.56
490.786	82.56
491.003	94.56
491.221	83.56
491.439	84.56
491.657	76.56
491.874	93.56
492.092	97.56
492.31	88.56
492.527	88.56
492.745	92.56
492.963	94.56
493.18	88.56
493.398	103.56
493.615	96.56
493.833	73.56
494.05	82.56
494.268	86.56
494.485	91.56
494.703	105.56
494.92	96.56
495.138	84.56
495.355	80.56
495.573	79.56
495.79	95.56
496.008	100.56
496.225	96.56
496.442	70.56
496.66	104.56
496.877	87.56
497.094	87.56
497.312	85.56
497.529	92.56
497.746	80.56
497.963	94.56
498.181	90.56
498.398	73.56
498.615	79.56
498.832	81.56
499.049	81.56
499.267	88.56
499.484	84.56
499.701	85.56
499.918	82.56
500.135	98.56
500.352	106.56
500.569	92.56
500.786	92.56
501.003	79.56
501.22	94.56
501.437	92.56
501.654	84.56
501.871	81.56
502.088	82.56
502.305	76.56
502.522	95.56
502.739	79.56
502.956	85.56
503.172	78.56
503.389	88.56
503.606	82.56
503.823	80.56
504.04	79.56
504.256	90.56
504.473	81.56
504.69	79.56
504.907	92.56
505.123	86.56
505.34	83.56
505.557	86.56
505.773	83.56
505.99	89.56
506.207	95.56
506.423	93.56
506.64	80.56
506.856	74.56
507.073	100.56
507.289	85.56
507.506	85.56
507.722	70.56
507.939	92.56
508.155	74.56
508.372	88.56
508.588	95.56
508.805	82.56
509.021	86.56
509.238	76.56
509.454	82.56
509.67	76.56
509.887	90.56
510.103	80.56
510.319	87.56
510.536	88.56
510.752	86.56
510.968	65.56
511.184	87.56
511.401	81.56
511.617	74.56
511.833	87.56
512.049	84.56
512.265	80.56
512.481	78.56
512.698	63.56
512.914	76.56
513.13	93.56
513.346	81.56
513.562	92.56
513.778	74.56
513.994	80.56
514.21	77.56
514.426	74.56
514.642	78.56
514.858	80.56
515.074	82.56
515.29	89.56
515.506	86.56
515.721	91.56
515.937	79.56
516.153	80.56
516.369	101.56
516.585	70.56
516.801	85.56
517.016	85.56
517.232	92.56
517.448	65.56
517.664	92.56
517.879	79.56
518.095	95.56
518.311	88.56
518.527	66.56
518.742	88.56
518.958	98.56
519.173	81.56
519.389	77.56
519.605	91.56
519.82	80.56
520.036	87.56
