Data from StdD_HRD10591_020.txt Node
Date: Fri May 16 15:31:31 EDT 2025
User: Yrep
Spectrometer: HR+D1059
Trigger mode: 1
Integration Time (sec): 1.000000E-1
Scans to average: 1
Electric dark correction enabled: true
Nonlinearity correction enabled: false
Boxcar width: 0
XAxis mode: Wavelengths
Number of Pixels in Spectrum: 2048
>>>>>Begin Spectral Data<<<<<
223.165	-12.25
223.4	-12.25
223.635	-12.25
223.869	-19.25
224.104	-11.25
224.338	-17.25
224.573	-5.25
224.808	-15.25
225.042	-2.25
225.277	-11.25
225.511	6.75
225.746	5.75
225.98	8.75
226.215	11.75
226.449	-1.25
226.683	20.75
226.918	3.75
227.152	37.75
227.387	46.75
227.621	41.75
227.856	63.75
228.09	42.75
228.324	46.75
228.559	58.75
228.793	56.75
229.027	64.75
229.262	78.75
229.496	57.75
229.73	76.75
229.964	74.75
230.199	73.75
230.433	68.75
230.667	67.75
230.901	69.75
231.136	74.75
231.37	68.75
231.604	90.75
231.838	73.75
232.072	81.75
232.306	69.75
232.541	78.75
232.775	79.75
233.009	72.75
233.243	78.75
233.477	86.75
233.711	74.75
233.945	71.75
234.179	74.75
234.413	80.75
234.647	72.75
234.881	64.75
235.115	81.75
235.349	86.75
235.583	93.75
235.817	92.75
236.051	81.75
236.285	86.75
236.519	77.75
236.753	80.75
236.987	86.75
237.221	83.75
237.455	81.75
237.689	70.75
237.922	86.75
238.156	75.75
238.39	69.75
238.624	87.75
238.858	79.75
239.091	90.75
239.325	79.75
239.559	66.75
239.793	90.75
240.027	81.75
240.26	82.75
240.494	64.75
240.728	83.75
240.961	78.75
241.195	86.75
241.429	76.75
241.662	72.75
241.896	85.75
242.13	79.75
242.363	76.75
242.597	65.75
242.83	65.75
243.064	75.75
243.298	72.75
243.531	68.75
243.765	83.75
243.998	81.75
244.232	76.75
244.465	81.75
244.699	81.75
244.932	77.75
245.166	69.75
245.399	76.75
245.633	77.75
245.866	74.75
246.099	71.75
246.333	67.75
246.566	68.75
246.8	80.75
247.033	69.75
247.266	77.75
247.5	74.75
247.733	74.75
247.966	75.75
248.2	90.75
248.433	82.75
248.666	65.75
248.899	70.75
249.133	77.75
249.366	68.75
249.599	68.75
249.832	85.75
250.066	80.75
250.299	78.75
250.532	88.75
250.765	78.75
250.998	90.75
251.231	78.75
251.465	79.75
251.698	88.75
251.931	66.75
252.164	65.75
252.397	78.75
252.63	83.75
252.863	81.75
253.096	86.75
253.329	78.75
253.562	79.75
253.795	87.75
254.028	83.75
254.261	74.75
254.494	84.75
254.727	83.75
254.96	73.75
255.193	85.75
255.426	84.75
255.659	89.75
255.892	94.75
256.124	82.75
256.357	76.75
256.59	94.75
256.823	69.75
257.056	89.75
257.289	75.75
257.521	65.75
257.754	80.75
257.987	71.75
258.22	77.75
258.452	88.75
258.685	87.75
258.918	78.75
259.151	82.75
259.383	80.75
259.616	89.75
259.849	78.75
260.081	74.75
260.314	82.75
260.547	79.75
260.779	75.75
261.012	91.75
261.244	75.75
261.477	73.75
261.71	76.75
261.942	85.75
262.175	72.75
262.407	82.75
262.64	76.75
262.872	89.75
263.105	86.75
263.337	88.75
263.57	78.75
263.802	74.75
264.035	68.75
264.267	65.75
264.499	78.75
264.732	82.75
264.964	78.75
265.197	73.75
265.429	87.75
265.661	90.75
265.894	81.75
266.126	80.75
266.358	76.75
266.591	81.75
266.823	91.75
267.055	82.75
267.287	76.75
267.52	79.75
267.752	79.75
267.984	86.75
268.216	73.75
268.448	80.75
268.681	91.75
268.913	82.75
269.145	88.75
269.377	83.75
269.609	67.75
269.841	67.75
270.073	79.75
270.306	84.75
270.538	81.75
270.77	84.75
271.002	87.75
271.234	78.75
271.466	88.75
271.698	89.75
271.93	80.75
272.162	94.75
272.394	91.75
272.626	86.75
272.858	83.75
273.09	91.75
273.322	82.75
273.553	90.75
273.785	78.75
274.017	76.75
274.249	90.75
274.481	92.75
274.713	73.75
274.945	87.75
275.176	87.75
275.408	63.75
275.64	79.75
275.872	85.75
276.104	90.75
276.335	78.75
276.567	80.75
276.799	72.75
277.031	67.75
277.262	90.75
277.494	99.75
277.726	95.75
277.957	79.75
278.189	82.75
278.421	79.75
278.652	77.75
278.884	72.75
279.115	83.75
279.347	77.75
279.579	84.75
279.81	79.75
280.042	82.75
280.273	75.75
280.505	81.75
280.736	88.75
280.968	91.75
281.199	94.75
281.431	76.75
281.662	99.75
281.894	95.75
282.125	74.75
282.356	82.75
282.588	78.75
282.819	88.75
283.051	68.75
283.282	88.75
283.513	95.75
283.745	95.75
283.976	79.75
284.207	86.75
284.439	81.75
284.67	89.75
284.901	84.75
285.132	81.75
285.364	81.75
285.595	79.75
285.826	68.75
286.057	85.75
286.288	88.75
286.52	87.75
286.751	75.75
286.982	100.75
287.213	78.75
287.444	85.75
287.675	69.75
287.906	69.75
288.138	85.75
288.369	89.75
288.6	96.75
288.831	78.75
289.062	100.75
289.293	80.75
289.524	88.75
289.755	83.75
289.986	81.75
290.217	84.75
290.448	80.75
290.679	72.75
290.91	82.75
291.141	91.75
291.371	78.75
291.602	73.75
291.833	84.75
292.064	82.75
292.295	97.75
292.526	83.75
292.757	92.75
292.987	92.75
293.218	84.75
293.449	84.75
293.68	83.75
293.91	97.75
294.141	80.75
294.372	89.75
294.603	82.75
294.833	76.75
295.064	92.75
295.295	91.75
295.525	88.75
295.756	92.75
295.987	98.75
296.217	88.75
296.448	84.75
296.679	89.75
296.909	95.75
297.14	89.75
297.37	93.75
297.601	89.75
297.831	78.75
298.062	84.75
298.292	74.75
298.523	90.75
298.753	77.75
298.984	77.75
299.214	84.75
299.445	87.75
299.675	86.75
299.905	86.75
300.136	96.75
300.366	96.75
300.597	83.75
300.827	89.75
301.057	84.75
301.288	90.75
301.518	91.75
301.748	90.75
301.979	88.75
302.209	86.75
302.439	70.75
302.669	71.75
302.9	84.75
303.13	75.75
303.36	90.75
303.59	90.75
303.82	81.75
304.051	89.75
304.281	92.75
304.511	96.75
304.741	74.75
304.971	86.75
305.201	94.75
305.431	78.75
305.661	90.75
305.891	88.75
306.121	70.75
306.352	96.75
306.582	63.75
306.812	85.75
307.042	90.75
307.272	91.75
307.502	85.75
307.731	89.75
307.961	85.75
308.191	91.75
308.421	81.75
308.651	83.75
308.881	96.75
309.111	99.75
309.341	84.75
309.571	88.75
309.8	83.75
310.03	84.75
310.26	92.75
310.49	90.75
310.72	83.75
310.949	91.75
311.179	109.75
311.409	75.75
311.639	85.75
311.868	98.75
312.098	86.75
312.328	95.75
312.557	83.75
312.787	91.75
313.017	74.75
313.246	75.75
313.476	103.75
313.706	84.75
313.935	72.75
314.165	86.75
314.394	77.75
314.624	80.75
314.853	81.75
315.083	81.75
315.312	88.75
315.542	99.75
315.771	96.75
316.001	88.75
316.23	84.75
316.46	89.75
316.689	91.75
316.919	76.75
317.148	86.75
317.377	72.75
317.607	89.75
317.836	93.75
318.065	93.75
318.295	92.75
318.524	92.75
318.753	84.75
318.983	86.75
319.212	79.75
319.441	90.75
319.67	79.75
319.9	77.75
320.129	74.75
320.358	90.75
320.587	94.75
320.816	88.75
321.046	88.75
321.275	87.75
321.504	87.75
321.733	92.75
321.962	77.75
322.191	96.75
322.42	77.75
322.649	102.75
322.878	91.75
323.108	84.75
323.337	88.75
323.566	98.75
323.795	90.75
324.024	93.75
324.253	86.75
324.482	84.75
324.71	89.75
324.939	69.75
325.168	92.75
325.397	89.75
325.626	86.75
325.855	88.75
326.084	85.75
326.313	75.75
326.542	95.75
326.77	88.75
326.999	90.75
327.228	93.75
327.457	74.75
327.686	96.75
327.914	86.75
328.143	95.75
328.372	82.75
328.6	82.75
328.829	82.75
329.058	89.75
329.287	74.75
329.515	82.75
329.744	93.75
329.972	83.75
330.201	79.75
330.43	93.75
330.658	80.75
330.887	92.75
331.115	78.75
331.344	83.75
331.572	85.75
331.801	94.75
332.03	97.75
332.258	103.75
332.486	70.75
332.715	95.75
332.943	80.75
333.172	87.75
333.4	96.75
333.629	83.75
333.857	83.75
334.085	80.75
334.314	88.75
334.542	87.75
334.771	96.75
334.999	81.75
335.227	97.75
335.455	104.75
335.684	91.75
335.912	72.75
336.14	75.75
336.369	97.75
336.597	88.75
336.825	86.75
337.053	79.75
337.281	86.75
337.51	86.75
337.738	69.75
337.966	95.75
338.194	80.75
338.422	87.75
338.65	90.75
338.878	80.75
339.106	81.75
339.334	88.75
339.562	85.75
339.79	73.75
340.018	79.75
340.246	75.75
340.474	79.75
340.702	91.75
340.93	79.75
341.158	81.75
341.386	85.75
341.614	83.75
341.842	78.75
342.07	79.75
342.298	83.75
342.526	82.75
342.754	91.75
342.981	80.75
343.209	73.75
343.437	96.75
343.665	80.75
343.893	79.75
344.12	77.75
344.348	84.75
344.576	83.75
344.804	86.75
345.031	89.75
345.259	84.75
345.487	90.75
345.714	65.75
345.942	77.75
346.17	91.75
346.397	80.75
346.625	83.75
346.853	69.75
347.08	89.75
347.308	78.75
347.535	102.75
347.763	90.75
347.99	78.75
348.218	92.75
348.445	86.75
348.673	78.75
348.9	98.75
349.128	90.75
349.355	93.75
349.583	94.75
349.81	77.75
350.037	74.75
350.265	66.75
350.492	82.75
350.72	86.75
350.947	91.75
351.174	86.75
351.402	91.75
351.629	98.75
351.856	86.75
352.083	78.75
352.311	82.75
352.538	84.75
352.765	104.75
352.992	95.75
353.22	86.75
353.447	84.75
353.674	95.75
353.901	81.75
354.128	79.75
354.355	81.75
354.583	75.75
354.81	89.75
355.037	89.75
355.264	73.75
355.491	65.75
355.718	94.75
355.945	80.75
356.172	84.75
356.399	78.75
356.626	87.75
356.853	92.75
357.08	83.75
357.307	78.75
357.534	91.75
357.761	79.75
357.988	98.75
358.215	75.75
358.441	90.75
358.668	93.75
358.895	84.75
359.122	95.75
359.349	85.75
359.576	77.75
359.802	90.75
360.029	81.75
360.256	74.75
360.483	88.75
360.709	79.75
360.936	85.75
361.163	78.75
361.39	83.75
361.616	86.75
361.843	88.75
362.07	102.75
362.296	87.75
362.523	86.75
362.749	95.75
362.976	92.75
363.203	84.75
363.429	83.75
363.656	66.75
363.882	95.75
364.109	98.75
364.335	88.75
364.562	79.75
364.788	71.75
365.015	79.75
365.241	92.75
365.468	84.75
365.694	83.75
365.92	89.75
366.147	82.75
366.373	76.75
366.599	92.75
366.826	85.75
367.052	94.75
367.278	92.75
367.505	86.75
367.731	95.75
367.957	102.75
368.184	82.75
368.41	87.75
368.636	93.75
368.862	79.75
369.089	74.75
369.315	85.75
369.541	85.75
369.767	79.75
369.993	94.75
370.219	77.75
370.445	73.75
370.672	68.75
370.898	78.75
371.124	90.75
371.35	81.75
371.576	75.75
371.802	81.75
372.028	79.75
372.254	74.75
372.48	72.75
372.706	82.75
372.932	94.75
373.158	80.75
373.384	85.75
373.61	95.75
373.835	79.75
374.061	85.75
374.287	88.75
374.513	81.75
374.739	83.75
374.965	80.75
375.191	75.75
375.416	93.75
375.642	93.75
375.868	90.75
376.094	88.75
376.319	80.75
376.545	90.75
376.771	82.75
376.997	76.75
377.222	89.75
377.448	96.75
377.674	106.75
377.899	93.75
378.125	86.75
378.35	97.75
378.576	83.75
378.802	88.75
379.027	85.75
379.253	82.75
379.478	98.75
379.704	97.75
379.929	92.75
380.155	96.75
380.38	75.75
380.606	74.75
380.831	84.75
381.057	91.75
381.282	80.75
381.507	78.75
381.733	90.75
381.958	89.75
382.184	88.75
382.409	76.75
382.634	75.75
382.86	81.75
383.085	84.75
383.31	98.75
383.535	86.75
383.761	81.75
383.986	87.75
384.211	84.75
384.436	72.75
384.662	95.75
384.887	82.75
385.112	95.75
385.337	92.75
385.562	98.75
385.787	84.75
386.013	85.75
386.238	79.75
386.463	88.75
386.688	101.75
386.913	87.75
387.138	94.75
387.363	86.75
387.588	82.75
387.813	80.75
388.038	77.75
388.263	75.75
388.488	84.75
388.713	82.75
388.938	85.75
389.163	81.75
389.387	75.75
389.612	87.75
389.837	82.75
390.062	72.75
390.287	90.75
390.512	84.75
390.736	89.75
390.961	94.75
391.186	79.75
391.411	84.75
391.636	84.75
391.86	66.75
392.085	73.75
392.31	80.75
392.534	75.75
392.759	82.75
392.984	88.75
393.208	81.75
393.433	83.75
393.658	87.75
393.882	78.75
394.107	76.75
394.331	79.75
394.556	88.75
394.78	88.75
395.005	89.75
395.229	86.75
395.454	85.75
395.678	86.75
395.903	104.75
396.127	87.75
396.352	89.75
396.576	80.75
396.801	73.75
397.025	92.75
397.249	95.75
397.474	81.75
397.698	89.75
397.922	77.75
398.147	74.75
398.371	89.75
398.595	83.75
398.82	95.75
399.044	80.75
399.268	84.75
399.492	74.75
399.717	91.75
399.941	82.75
400.165	79.75
400.389	85.75
400.613	89.75
400.837	86.75
401.062	90.75
401.286	79.75
401.51	83.75
401.734	90.75
401.958	86.75
402.182	95.75
402.406	90.75
402.63	80.75
402.854	93.75
403.078	92.75
403.302	89.75
403.526	87.75
403.75	78.75
403.974	81.75
404.198	74.75
404.422	87.75
404.645	76.75
404.869	97.75
405.093	100.75
405.317	91.75
405.541	86.75
405.765	94.75
405.988	75.75
406.212	82.75
406.436	80.75
406.66	90.75
406.883	90.75
407.107	82.75
407.331	80.75
407.555	85.75
407.778	75.75
408.002	84.75
408.226	69.75
408.449	76.75
408.673	83.75
408.896	88.75
409.12	82.75
409.344	95.75
409.567	82.75
409.791	84.75
410.014	104.75
410.238	78.75
410.461	78.75
410.685	81.75
410.908	76.75
411.132	68.75
411.355	83.75
411.578	76.75
411.802	89.75
412.025	83.75
412.249	82.75
412.472	80.75
412.695	84.75
412.919	93.75
413.142	75.75
413.365	76.75
413.589	78.75
413.812	84.75
414.035	81.75
414.258	83.75
414.482	97.75
414.705	95.75
414.928	84.75
415.151	80.75
415.374	90.75
415.597	79.75
415.821	85.75
416.044	78.75
416.267	88.75
416.49	76.75
416.713	94.75
416.936	79.75
417.159	81.75
417.382	78.75
417.605	83.75
417.828	83.75
418.051	90.75
418.274	74.75
418.497	79.75
418.72	80.75
418.943	84.75
419.166	88.75
419.389	88.75
419.611	87.75
419.834	71.75
420.057	80.75
420.28	66.75
420.503	81.75
420.726	76.75
420.948	82.75
421.171	92.75
421.394	81.75
421.617	79.75
421.839	93.75
422.062	81.75
422.285	76.75
422.507	95.75
422.73	82.75
422.953	86.75
423.175	92.75
423.398	85.75
423.621	90.75
423.843	78.75
424.066	87.75
424.288	76.75
424.511	82.75
424.733	91.75
424.956	81.75
425.178	77.75
425.401	90.75
425.623	72.75
425.846	94.75
426.068	86.75
426.291	98.75
426.513	80.75
426.735	91.75
426.958	99.75
427.18	102.75
427.402	100.75
427.625	95.75
427.847	82.75
428.069	88.75
428.292	81.75
428.514	88.75
428.736	86.75
428.958	77.75
429.181	70.75
429.403	89.75
429.625	86.75
429.847	83.75
430.069	85.75
430.292	87.75
430.514	87.75
430.736	96.75
430.958	83.75
431.18	84.75
431.402	71.75
431.624	68.75
431.846	96.75
432.068	79.75
432.29	86.75
432.512	86.75
432.734	73.75
432.956	83.75
433.178	86.75
433.4	66.75
433.622	76.75
433.844	89.75
434.066	77.75
434.287	92.75
434.509	96.75
434.731	84.75
434.953	84.75
435.175	81.75
435.397	75.75
435.618	83.75
435.84	82.75
436.062	71.75
436.284	90.75
436.505	80.75
436.727	73.75
436.949	73.75
437.17	81.75
437.392	83.75
437.614	89.75
437.835	75.75
438.057	81.75
438.278	85.75
438.5	77.75
438.721	78.75
438.943	89.75
439.165	91.75
439.386	98.75
439.608	99.75
439.829	84.75
440.05	81.75
440.272	80.75
440.493	86.75
440.715	80.75
440.936	96.75
441.158	77.75
441.379	90.75
441.6	78.75
441.822	82.75
442.043	81.75
442.264	89.75
442.486	92.75
442.707	84.75
442.928	99.75
443.149	76.75
443.371	90.75
443.592	86.75
443.813	94.75
444.034	88.75
444.255	87.75
444.476	83.75
444.698	73.75
444.919	75.75
445.14	159.75
445.361	119.75
445.582	84.75
445.803	75.75
446.024	83.75
446.245	93.75
446.466	96.75
446.687	90.75
446.908	72.75
447.129	81.75
447.35	97.75
447.571	85.75
447.792	63.75
448.013	83.75
448.234	78.75
448.455	74.75
448.675	69.75
448.896	80.75
449.117	82.75
449.338	68.75
449.559	83.75
449.779	74.75
450	90.75
450.221	80.75
450.442	87.75
450.662	78.75
450.883	84.75
451.104	67.75
451.324	77.75
451.545	96.75
451.766	87.75
451.986	84.75
452.207	78.75
452.428	98.75
452.648	90.75
452.869	94.75
453.089	82.75
453.31	92.75
453.53	76.75
453.751	77.75
453.971	86.75
454.192	86.75
454.412	72.75
454.633	93.75
454.853	85.75
455.073	81.75
455.294	83.75
455.514	81.75
455.734	90.75
455.955	75.75
456.175	77.75
456.395	76.75
456.616	75.75
456.836	87.75
457.056	88.75
457.276	80.75
457.497	68.75
457.717	76.75
457.937	86.75
458.157	89.75
458.377	74.75
458.598	77.75
458.818	80.75
459.038	77.75
459.258	74.75
459.478	79.75
459.698	87.75
459.918	83.75
460.138	79.75
460.358	78.75
460.578	86.75
460.798	85.75
461.018	97.75
461.238	77.75
461.458	87.75
461.678	76.75
461.898	78.75
462.118	76.75
462.338	77.75
462.558	96.75
462.777	89.75
462.997	88.75
463.217	91.75
463.437	81.75
463.657	84.75
463.876	72.75
464.096	72.75
464.316	73.75
464.536	90.75
464.755	90.75
464.975	74.75
465.195	93.75
465.414	83.75
465.634	77.75
465.854	89.75
466.073	78.75
466.293	84.75
466.512	87.75
466.732	104.75
466.951	86.75
467.171	73.75
467.391	82.75
467.61	71.75
467.829	93.75
468.049	83.75
468.268	76.75
468.488	99.75
468.707	82.75
468.927	83.75
469.146	92.75
469.365	89.75
469.585	80.75
469.804	83.75
470.023	88.75
470.243	89.75
470.462	74.75
470.681	81.75
470.901	82.75
471.12	90.75
471.339	74.75
471.558	84.75
471.777	84.75
471.997	79.75
472.216	95.75
472.435	82.75
472.654	89.75
472.873	88.75
473.092	76.75
473.311	80.75
473.53	79.75
473.749	67.75
473.968	97.75
474.187	85.75
474.406	90.75
474.625	84.75
474.844	92.75
475.063	96.75
475.282	81.75
475.501	80.75
475.72	91.75
475.939	93.75
476.158	74.75
476.377	80.75
476.596	81.75
476.814	82.75
477.033	74.75
477.252	83.75
477.471	81.75
477.69	74.75
477.908	92.75
478.127	88.75
478.346	77.75
478.564	81.75
478.783	89.75
479.002	72.75
479.22	81.75
479.439	72.75
479.658	78.75
479.876	77.75
480.095	86.75
480.313	87.75
480.532	83.75
480.751	76.75
480.969	86.75
481.188	87.75
481.406	91.75
481.624	71.75
481.843	78.75
482.061	90.75
482.28	84.75
482.498	89.75
482.717	73.75
482.935	87.75
483.153	93.75
483.372	85.75
483.59	97.75
483.808	86.75
484.027	70.75
484.245	78.75
484.463	80.75
484.681	90.75
484.9	74.75
485.118	90.75
485.336	89.75
485.554	76.75
485.772	82.75
485.99	95.75
486.209	88.75
486.427	91.75
486.645	75.75
486.863	83.75
487.081	87.75
487.299	72.75
487.517	89.75
487.735	83.75
487.953	92.75
488.171	82.75
488.389	82.75
488.607	93.75
488.825	85.75
489.043	86.75
489.261	79.75
489.479	69.75
489.696	80.75
489.914	76.75
490.132	79.75
490.35	80.75
490.568	90.75
490.786	79.75
491.003	83.75
491.221	93.75
491.439	81.75
491.657	96.75
491.874	84.75
492.092	95.75
492.31	86.75
492.527	85.75
492.745	100.75
492.963	92.75
493.18	92.75
493.398	82.75
493.615	88.75
493.833	92.75
494.05	92.75
494.268	86.75
494.485	90.75
494.703	87.75
494.92	79.75
495.138	77.75
495.355	95.75
495.573	92.75
495.79	94.75
496.008	87.75
496.225	89.75
496.442	80.75
496.66	98.75
496.877	70.75
497.094	99.75
497.312	72.75
497.529	79.75
497.746	88.75
497.963	84.75
498.181	82.75
498.398	90.75
498.615	75.75
498.832	74.75
499.049	86.75
499.267	89.75
499.484	81.75
499.701	90.75
499.918	83.75
500.135	86.75
500.352	81.75
500.569	76.75
500.786	88.75
501.003	81.75
501.22	83.75
501.437	66.75
501.654	90.75
501.871	80.75
502.088	84.75
502.305	81.75
502.522	94.75
502.739	88.75
502.956	81.75
503.172	89.75
503.389	83.75
503.606	89.75
503.823	97.75
504.04	89.75
504.256	86.75
504.473	79.75
504.69	85.75
504.907	91.75
505.123	87.75
505.34	84.75
505.557	84.75
505.773	61.75
505.99	78.75
506.207	74.75
506.423	74.75
506.64	86.75
506.856	88.75
507.073	84.75
507.289	80.75
507.506	86.75
507.722	91.75
507.939	77.75
508.155	84.75
508.372	83.75
508.588	81.75
508.805	81.75
509.021	81.75
509.238	90.75
509.454	90.75
509.67	90.75
509.887	85.75
510.103	96.75
510.319	84.75
510.536	83.75
510.752	84.75
510.968	79.75
511.184	77.75
511.401	80.75
511.617	90.75
511.833	78.75
512.049	86.75
512.265	92.75
512.481	89.75
512.698	76.75
512.914	81.75
513.13	86.75
513.346	92.75
513.562	84.75
513.778	84.75
513.994	65.75
514.21	82.75
514.426	86.75
514.642	71.75
514.858	77.75
515.074	94.75
515.29	86.75
515.506	83.75
515.721	85.75
515.937	102.75
516.153	90.75
516.369	84.75
516.585	68.75
516.801	77.75
517.016	86.75
517.232	93.75
517.448	80.75
517.664	86.75
517.879	90.75
518.095	70.75
518.311	96.75
518.527	85.75
518.742	91.75
518.958	81.75
519.173	84.75
519.389	82.75
519.605	84.75
519.82	90.75
520.036	88.75
