Data from StdD_HRD10591_037.txt Node
Date: Fri May 16 15:31:39 EDT 2025
User: Yrep
Spectrometer: HR+D1059
Trigger mode: 1
Integration Time (sec): 1.000000E-1
Scans to average: 1
Electric dark correction enabled: true
Nonlinearity correction enabled: false
Boxcar width: 0
XAxis mode: Wavelengths
Number of Pixels in Spectrum: 2048
>>>>>Begin Spectral Data<<<<<
223.165	-6.56
223.4	-6.56
223.635	-6.56
223.869	-18.56
224.104	-15.56
224.338	-22.56
224.573	-11.56
224.808	-16.56
225.042	2.44
225.277	-20.56
225.511	-15.56
225.746	1.44
225.98	11.44
226.215	4.44
226.449	19.44
226.683	25.44
226.918	23.44
227.152	39.44
227.387	30.44
227.621	37.44
227.856	47.44
228.09	45.44
228.324	48.44
228.559	57.44
228.793	48.44
229.027	40.44
229.262	67.44
229.496	72.44
229.73	73.44
229.964	75.44
230.199	90.44
230.433	84.44
230.667	71.44
230.901	59.44
231.136	72.44
231.37	80.44
231.604	63.44
231.838	69.44
232.072	77.44
232.306	76.44
232.541	83.44
232.775	87.44
233.009	87.44
233.243	76.44
233.477	93.44
233.711	81.44
233.945	71.44
234.179	69.44
234.413	88.44
234.647	86.44
234.881	93.44
235.115	72.44
235.349	89.44
235.583	89.44
235.817	73.44
236.051	80.44
236.285	90.44
236.519	60.44
236.753	72.44
236.987	65.44
237.221	82.44
237.455	77.44
237.689	65.44
237.922	74.44
238.156	75.44
238.39	86.44
238.624	72.44
238.858	81.44
239.091	75.44
239.325	73.44
239.559	73.44
239.793	71.44
240.027	91.44
240.26	67.44
240.494	78.44
240.728	78.44
240.961	62.44
241.195	80.44
241.429	79.44
241.662	78.44
241.896	76.44
242.13	65.44
242.363	84.44
242.597	71.44
242.83	86.44
243.064	72.44
243.298	78.44
243.531	66.44
243.765	75.44
243.998	89.44
244.232	90.44
244.465	74.44
244.699	84.44
244.932	83.44
245.166	80.44
245.399	74.44
245.633	78.44
245.866	85.44
246.099	66.44
246.333	67.44
246.566	83.44
246.8	74.44
247.033	77.44
247.266	83.44
247.5	78.44
247.733	62.44
247.966	82.44
248.2	80.44
248.433	73.44
248.666	72.44
248.899	79.44
249.133	74.44
249.366	79.44
249.599	85.44
249.832	71.44
250.066	73.44
250.299	80.44
250.532	71.44
250.765	81.44
250.998	83.44
251.231	69.44
251.465	74.44
251.698	76.44
251.931	83.44
252.164	63.44
252.397	77.44
252.63	87.44
252.863	65.44
253.096	67.44
253.329	74.44
253.562	90.44
253.795	70.44
254.028	91.44
254.261	85.44
254.494	90.44
254.727	79.44
254.96	68.44
255.193	77.44
255.426	89.44
255.659	66.44
255.892	87.44
256.124	71.44
256.357	77.44
256.59	63.44
256.823	85.44
257.056	71.44
257.289	75.44
257.521	90.44
257.754	82.44
257.987	91.44
258.22	87.44
258.452	75.44
258.685	69.44
258.918	73.44
259.151	71.44
259.383	70.44
259.616	76.44
259.849	81.44
260.081	93.44
260.314	96.44
260.547	101.44
260.779	75.44
261.012	73.44
261.244	76.44
261.477	63.44
261.71	72.44
261.942	82.44
262.175	78.44
262.407	79.44
262.64	92.44
262.872	88.44
263.105	74.44
263.337	87.44
263.57	65.44
263.802	83.44
264.035	60.44
264.267	80.44
264.499	81.44
264.732	77.44
264.964	71.44
265.197	88.44
265.429	87.44
265.661	80.44
265.894	71.44
266.126	86.44
266.358	84.44
266.591	92.44
266.823	79.44
267.055	77.44
267.287	94.44
267.52	80.44
267.752	72.44
267.984	83.44
268.216	85.44
268.448	79.44
268.681	93.44
268.913	84.44
269.145	86.44
269.377	83.44
269.609	83.44
269.841	88.44
270.073	88.44
270.306	94.44
270.538	82.44
270.77	86.44
271.002	72.44
271.234	72.44
271.466	75.44
271.698	69.44
271.93	83.44
272.162	77.44
272.394	93.44
272.626	79.44
272.858	77.44
273.09	75.44
273.322	75.44
273.553	78.44
273.785	69.44
274.017	79.44
274.249	87.44
274.481	88.44
274.713	74.44
274.945	80.44
275.176	77.44
275.408	73.44
275.64	76.44
275.872	74.44
276.104	78.44
276.335	86.44
276.567	64.44
276.799	74.44
277.031	95.44
277.262	75.44
277.494	88.44
277.726	85.44
277.957	87.44
278.189	84.44
278.421	75.44
278.652	78.44
278.884	89.44
279.115	87.44
279.347	80.44
279.579	93.44
279.81	84.44
280.042	78.44
280.273	86.44
280.505	92.44
280.736	91.44
280.968	65.44
281.199	81.44
281.431	92.44
281.662	78.44
281.894	86.44
282.125	74.44
282.356	77.44
282.588	78.44
282.819	86.44
283.051	86.44
283.282	79.44
283.513	89.44
283.745	82.44
283.976	80.44
284.207	73.44
284.439	79.44
284.67	85.44
284.901	81.44
285.132	96.44
285.364	88.44
285.595	76.44
285.826	72.44
286.057	85.44
286.288	81.44
286.52	80.44
286.751	86.44
286.982	81.44
287.213	91.44
287.444	83.44
287.675	75.44
287.906	80.44
288.138	74.44
288.369	100.44
288.6	76.44
288.831	102.44
289.062	102.44
289.293	77.44
289.524	99.44
289.755	102.44
289.986	77.44
290.217	71.44
290.448	94.44
290.679	79.44
290.91	92.44
291.141	75.44
291.371	84.44
291.602	89.44
291.833	87.44
292.064	78.44
292.295	77.44
292.526	83.44
292.757	91.44
292.987	90.44
293.218	84.44
293.449	76.44
293.68	76.44
293.91	78.44
294.141	78.44
294.372	88.44
294.603	84.44
294.833	94.44
295.064	94.44
295.295	87.44
295.525	86.44
295.756	92.44
295.987	87.44
296.217	69.44
296.448	83.44
296.679	76.44
296.909	100.44
297.14	96.44
297.37	81.44
297.601	72.44
297.831	83.44
298.062	78.44
298.292	79.44
298.523	90.44
298.753	82.44
298.984	82.44
299.214	89.44
299.445	72.44
299.675	85.44
299.905	97.44
300.136	83.44
300.366	75.44
300.597	80.44
300.827	79.44
301.057	82.44
301.288	89.44
301.518	83.44
301.748	83.44
301.979	86.44
302.209	83.44
302.439	97.44
302.669	77.44
302.9	75.44
303.13	82.44
303.36	75.44
303.59	77.44
303.82	85.44
304.051	76.44
304.281	83.44
304.511	84.44
304.741	71.44
304.971	83.44
305.201	81.44
305.431	89.44
305.661	81.44
305.891	78.44
306.121	81.44
306.352	81.44
306.582	93.44
306.812	89.44
307.042	88.44
307.272	84.44
307.502	91.44
307.731	91.44
307.961	86.44
308.191	86.44
308.421	87.44
308.651	63.44
308.881	80.44
309.111	89.44
309.341	88.44
309.571	91.44
309.8	69.44
310.03	79.44
310.26	79.44
310.49	80.44
310.72	86.44
310.949	87.44
311.179	89.44
311.409	99.44
311.639	74.44
311.868	80.44
312.098	82.44
312.328	86.44
312.557	69.44
312.787	60.44
313.017	73.44
313.246	86.44
313.476	81.44
313.706	74.44
313.935	89.44
314.165	86.44
314.394	80.44
314.624	83.44
314.853	67.44
315.083	92.44
315.312	92.44
315.542	73.44
315.771	82.44
316.001	83.44
316.23	77.44
316.46	93.44
316.689	81.44
316.919	77.44
317.148	93.44
317.377	99.44
317.607	82.44
317.836	73.44
318.065	80.44
318.295	75.44
318.524	78.44
318.753	79.44
318.983	88.44
319.212	88.44
319.441	80.44
319.67	71.44
319.9	85.44
320.129	93.44
320.358	95.44
320.587	82.44
320.816	76.44
321.046	83.44
321.275	83.44
321.504	77.44
321.733	73.44
321.962	80.44
322.191	96.44
322.42	84.44
322.649	86.44
322.878	84.44
323.108	71.44
323.337	95.44
323.566	77.44
323.795	82.44
324.024	75.44
324.253	94.44
324.482	87.44
324.71	86.44
324.939	79.44
325.168	78.44
325.397	88.44
325.626	89.44
325.855	94.44
326.084	71.44
326.313	100.44
326.542	88.44
326.77	83.44
326.999	79.44
327.228	86.44
327.457	73.44
327.686	93.44
327.914	85.44
328.143	77.44
328.372	92.44
328.6	87.44
328.829	84.44
329.058	79.44
329.287	71.44
329.515	78.44
329.744	76.44
329.972	71.44
330.201	97.44
330.43	78.44
330.658	81.44
330.887	93.44
331.115	78.44
331.344	65.44
331.572	95.44
331.801	91.44
332.03	74.44
332.258	74.44
332.486	63.44
332.715	73.44
332.943	75.44
333.172	85.44
333.4	73.44
333.629	81.44
333.857	93.44
334.085	92.44
334.314	92.44
334.542	80.44
334.771	85.44
334.999	62.44
335.227	82.44
335.455	79.44
335.684	89.44
335.912	79.44
336.14	72.44
336.369	81.44
336.597	77.44
336.825	75.44
337.053	92.44
337.281	91.44
337.51	79.44
337.738	64.44
337.966	90.44
338.194	93.44
338.422	91.44
338.65	88.44
338.878	75.44
339.106	83.44
339.334	82.44
339.562	78.44
339.79	71.44
340.018	82.44
340.246	66.44
340.474	88.44
340.702	86.44
340.93	86.44
341.158	90.44
341.386	88.44
341.614	67.44
341.842	81.44
342.07	81.44
342.298	93.44
342.526	96.44
342.754	94.44
342.981	64.44
343.209	85.44
343.437	93.44
343.665	75.44
343.893	77.44
344.12	85.44
344.348	76.44
344.576	89.44
344.804	88.44
345.031	83.44
345.259	79.44
345.487	71.44
345.714	96.44
345.942	71.44
346.17	90.44
346.397	83.44
346.625	80.44
346.853	86.44
347.08	81.44
347.308	79.44
347.535	87.44
347.763	81.44
347.99	76.44
348.218	95.44
348.445	71.44
348.673	73.44
348.9	77.44
349.128	78.44
349.355	72.44
349.583	88.44
349.81	77.44
350.037	75.44
350.265	93.44
350.492	65.44
350.72	96.44
350.947	86.44
351.174	94.44
351.402	77.44
351.629	83.44
351.856	70.44
352.083	86.44
352.311	96.44
352.538	83.44
352.765	88.44
352.992	83.44
353.22	71.44
353.447	82.44
353.674	80.44
353.901	81.44
354.128	83.44
354.355	82.44
354.583	73.44
354.81	78.44
355.037	75.44
355.264	64.44
355.491	75.44
355.718	81.44
355.945	84.44
356.172	77.44
356.399	87.44
356.626	95.44
356.853	73.44
357.08	87.44
357.307	82.44
357.534	76.44
357.761	74.44
357.988	80.44
358.215	86.44
358.441	63.44
358.668	77.44
358.895	94.44
359.122	73.44
359.349	77.44
359.576	73.44
359.802	75.44
360.029	73.44
360.256	86.44
360.483	82.44
360.709	66.44
360.936	85.44
361.163	79.44
361.39	78.44
361.616	75.44
361.843	71.44
362.07	75.44
362.296	78.44
362.523	75.44
362.749	94.44
362.976	86.44
363.203	84.44
363.429	80.44
363.656	85.44
363.882	78.44
364.109	84.44
364.335	96.44
364.562	84.44
364.788	80.44
365.015	76.44
365.241	77.44
365.468	93.44
365.694	77.44
365.92	77.44
366.147	90.44
366.373	59.44
366.599	73.44
366.826	91.44
367.052	88.44
367.278	77.44
367.505	75.44
367.731	83.44
367.957	78.44
368.184	80.44
368.41	73.44
368.636	84.44
368.862	83.44
369.089	64.44
369.315	75.44
369.541	78.44
369.767	75.44
369.993	81.44
370.219	94.44
370.445	72.44
370.672	68.44
370.898	84.44
371.124	75.44
371.35	80.44
371.576	91.44
371.802	90.44
372.028	77.44
372.254	76.44
372.48	79.44
372.706	89.44
372.932	88.44
373.158	81.44
373.384	74.44
373.61	65.44
373.835	75.44
374.061	89.44
374.287	86.44
374.513	76.44
374.739	83.44
374.965	85.44
375.191	75.44
375.416	86.44
375.642	77.44
375.868	86.44
376.094	76.44
376.319	92.44
376.545	70.44
376.771	87.44
376.997	77.44
377.222	71.44
377.448	78.44
377.674	77.44
377.899	73.44
378.125	66.44
378.35	71.44
378.576	84.44
378.802	72.44
379.027	75.44
379.253	80.44
379.478	73.44
379.704	75.44
379.929	74.44
380.155	81.44
380.38	81.44
380.606	77.44
380.831	77.44
381.057	76.44
381.282	91.44
381.507	71.44
381.733	78.44
381.958	75.44
382.184	84.44
382.409	99.44
382.634	73.44
382.86	69.44
383.085	86.44
383.31	85.44
383.535	76.44
383.761	82.44
383.986	86.44
384.211	73.44
384.436	73.44
384.662	82.44
384.887	74.44
385.112	85.44
385.337	96.44
385.562	89.44
385.787	83.44
386.013	88.44
386.238	80.44
386.463	77.44
386.688	92.44
386.913	82.44
387.138	95.44
387.363	94.44
387.588	71.44
387.813	90.44
388.038	80.44
388.263	75.44
388.488	77.44
388.713	89.44
388.938	97.44
389.163	88.44
389.387	83.44
389.612	86.44
389.837	75.44
390.062	80.44
390.287	91.44
390.512	78.44
390.736	80.44
390.961	92.44
391.186	84.44
391.411	82.44
391.636	76.44
391.86	83.44
392.085	73.44
392.31	58.44
392.534	79.44
392.759	76.44
392.984	75.44
393.208	76.44
393.433	85.44
393.658	75.44
393.882	89.44
394.107	77.44
394.331	84.44
394.556	93.44
394.78	86.44
395.005	71.44
395.229	87.44
395.454	61.44
395.678	75.44
395.903	81.44
396.127	76.44
396.352	81.44
396.576	94.44
396.801	85.44
397.025	78.44
397.249	86.44
397.474	95.44
397.698	75.44
397.922	76.44
398.147	62.44
398.371	95.44
398.595	92.44
398.82	87.44
399.044	84.44
399.268	89.44
399.492	67.44
399.717	77.44
399.941	88.44
400.165	76.44
400.389	74.44
400.613	82.44
400.837	93.44
401.062	80.44
401.286	71.44
401.51	75.44
401.734	72.44
401.958	73.44
402.182	82.44
402.406	92.44
402.63	89.44
402.854	84.44
403.078	88.44
403.302	80.44
403.526	90.44
403.75	73.44
403.974	69.44
404.198	83.44
404.422	77.44
404.645	82.44
404.869	84.44
405.093	82.44
405.317	67.44
405.541	67.44
405.765	74.44
405.988	73.44
406.212	87.44
406.436	64.44
406.66	82.44
406.883	80.44
407.107	71.44
407.331	75.44
407.555	96.44
407.778	83.44
408.002	69.44
408.226	77.44
408.449	82.44
408.673	85.44
408.896	83.44
409.12	83.44
409.344	76.44
409.567	79.44
409.791	86.44
410.014	86.44
410.238	82.44
410.461	66.44
410.685	81.44
410.908	69.44
411.132	61.44
411.355	78.44
411.578	84.44
411.802	69.44
412.025	78.44
412.249	75.44
412.472	88.44
412.695	80.44
412.919	77.44
413.142	86.44
413.365	81.44
413.589	83.44
413.812	65.44
414.035	78.44
414.258	88.44
414.482	78.44
414.705	64.44
414.928	75.44
415.151	83.44
415.374	73.44
415.597	81.44
415.821	73.44
416.044	85.44
416.267	84.44
416.49	76.44
416.713	81.44
416.936	71.44
417.159	88.44
417.382	65.44
417.605	84.44
417.828	66.44
418.051	93.44
418.274	85.44
418.497	104.44
418.72	78.44
418.943	80.44
419.166	80.44
419.389	74.44
419.611	90.44
419.834	77.44
420.057	80.44
420.28	83.44
420.503	79.44
420.726	72.44
420.948	86.44
421.171	80.44
421.394	80.44
421.617	95.44
421.839	85.44
422.062	78.44
422.285	91.44
422.507	82.44
422.73	93.44
422.953	84.44
423.175	75.44
423.398	80.44
423.621	66.44
423.843	74.44
424.066	75.44
424.288	74.44
424.511	66.44
424.733	83.44
424.956	87.44
425.178	70.44
425.401	80.44
425.623	83.44
425.846	75.44
426.068	68.44
426.291	71.44
426.513	85.44
426.735	81.44
426.958	78.44
427.18	84.44
427.402	76.44
427.625	65.44
427.847	82.44
428.069	93.44
428.292	75.44
428.514	75.44
428.736	81.44
428.958	71.44
429.181	87.44
429.403	82.44
429.625	79.44
429.847	80.44
430.069	72.44
430.292	79.44
430.514	80.44
430.736	79.44
430.958	80.44
431.18	78.44
431.402	81.44
431.624	82.44
431.846	71.44
432.068	88.44
432.29	85.44
432.512	97.44
432.734	75.44
432.956	92.44
433.178	91.44
433.4	87.44
433.622	83.44
433.844	86.44
434.066	72.44
434.287	78.44
434.509	56.44
434.731	86.44
434.953	83.44
435.175	87.44
435.397	60.44
435.618	78.44
435.84	84.44
436.062	77.44
436.284	87.44
436.505	73.44
436.727	73.44
436.949	88.44
437.17	89.44
437.392	86.44
437.614	80.44
437.835	88.44
438.057	69.44
438.278	79.44
438.5	88.44
438.721	85.44
438.943	80.44
439.165	82.44
439.386	75.44
439.608	89.44
439.829	80.44
440.05	72.44
440.272	76.44
440.493	70.44
440.715	79.44
440.936	79.44
441.158	81.44
441.379	78.44
441.6	89.44
441.822	81.44
442.043	84.44
442.264	85.44
442.486	93.44
442.707	83.44
442.928	93.44
443.149	78.44
443.371	71.44
443.592	75.44
443.813	89.44
444.034	89.44
444.255	81.44
444.476	82.44
444.698	81.44
444.919	87.44
445.14	156.44
445.361	106.44
445.582	85.44
445.803	69.44
446.024	80.44
446.245	101.44
446.466	103.44
446.687	79.44
446.908	75.44
447.129	83.44
447.35	72.44
447.571	77.44
447.792	75.44
448.013	87.44
448.234	83.44
448.455	95.44
448.675	73.44
448.896	71.44
449.117	94.44
449.338	73.44
449.559	91.44
449.779	83.44
450	73.44
450.221	74.44
450.442	93.44
450.662	87.44
450.883	68.44
451.104	81.44
451.324	69.44
451.545	91.44
451.766	89.44
451.986	77.44
452.207	69.44
452.428	66.44
452.648	69.44
452.869	79.44
453.089	75.44
453.31	76.44
453.53	84.44
453.751	66.44
453.971	74.44
454.192	79.44
454.412	92.44
454.633	77.44
454.853	77.44
455.073	83.44
455.294	84.44
455.514	78.44
455.734	67.44
455.955	74.44
456.175	74.44
456.395	76.44
456.616	63.44
456.836	84.44
457.056	74.44
457.276	84.44
457.497	85.44
457.717	88.44
457.937	82.44
458.157	76.44
458.377	77.44
458.598	72.44
458.818	83.44
459.038	96.44
459.258	64.44
459.478	80.44
459.698	69.44
459.918	77.44
460.138	88.44
460.358	74.44
460.578	86.44
460.798	88.44
461.018	90.44
461.238	85.44
461.458	86.44
461.678	83.44
461.898	84.44
462.118	92.44
462.338	61.44
462.558	77.44
462.777	87.44
462.997	91.44
463.217	87.44
463.437	79.44
463.657	83.44
463.876	99.44
464.096	79.44
464.316	73.44
464.536	88.44
464.755	79.44
464.975	84.44
465.195	69.44
465.414	87.44
465.634	84.44
465.854	80.44
466.073	70.44
466.293	76.44
466.512	89.44
466.732	83.44
466.951	85.44
467.171	87.44
467.391	81.44
467.61	77.44
467.829	80.44
468.049	92.44
468.268	83.44
468.488	80.44
468.707	75.44
468.927	90.44
469.146	74.44
469.365	71.44
469.585	86.44
469.804	83.44
470.023	84.44
470.243	88.44
470.462	75.44
470.681	93.44
470.901	92.44
471.12	76.44
471.339	68.44
471.558	79.44
471.777	86.44
471.997	67.44
472.216	100.44
472.435	87.44
472.654	85.44
472.873	80.44
473.092	69.44
473.311	79.44
473.53	65.44
473.749	79.44
473.968	73.44
474.187	88.44
474.406	77.44
474.625	87.44
474.844	94.44
475.063	89.44
475.282	84.44
475.501	73.44
475.72	80.44
475.939	85.44
476.158	96.44
476.377	82.44
476.596	81.44
476.814	67.44
477.033	71.44
477.252	83.44
477.471	82.44
477.69	81.44
477.908	78.44
478.127	78.44
478.346	77.44
478.564	70.44
478.783	75.44
479.002	91.44
479.22	84.44
479.439	85.44
479.658	91.44
479.876	93.44
480.095	81.44
480.313	80.44
480.532	75.44
480.751	87.44
480.969	77.44
481.188	77.44
481.406	85.44
481.624	74.44
481.843	83.44
482.061	81.44
482.28	65.44
482.498	72.44
482.717	88.44
482.935	79.44
483.153	82.44
483.372	94.44
483.59	86.44
483.808	93.44
484.027	78.44
484.245	89.44
484.463	87.44
484.681	81.44
484.9	80.44
485.118	73.44
485.336	78.44
485.554	86.44
485.772	89.44
485.99	75.44
486.209	93.44
486.427	78.44
486.645	81.44
486.863	69.44
487.081	79.44
487.299	83.44
487.517	92.44
487.735	85.44
487.953	83.44
488.171	82.44
488.389	85.44
488.607	80.44
488.825	71.44
489.043	87.44
489.261	88.44
489.479	90.44
489.696	89.44
489.914	79.44
490.132	91.44
490.35	90.44
490.568	91.44
490.786	78.44
491.003	91.44
491.221	92.44
491.439	90.44
491.657	91.44
491.874	79.44
492.092	102.44
492.31	77.44
492.527	87.44
492.745	83.44
492.963	88.44
493.18	90.44
493.398	73.44
493.615	83.44
493.833	85.44
494.05	81.44
494.268	76.44
494.485	79.44
494.703	71.44
494.92	79.44
495.138	92.44
495.355	89.44
495.573	81.44
495.79	88.44
496.008	80.44
496.225	71.44
496.442	70.44
496.66	91.44
496.877	71.44
497.094	90.44
497.312	80.44
497.529	81.44
497.746	80.44
497.963	82.44
498.181	93.44
498.398	66.44
498.615	86.44
498.832	79.44
499.049	78.44
499.267	94.44
499.484	87.44
499.701	86.44
499.918	86.44
500.135	78.44
500.352	73.44
500.569	80.44
500.786	66.44
501.003	86.44
501.22	94.44
501.437	64.44
501.654	86.44
501.871	82.44
502.088	89.44
502.305	85.44
502.522	68.44
502.739	74.44
502.956	84.44
503.172	79.44
503.389	89.44
503.606	73.44
503.823	77.44
504.04	86.44
504.256	82.44
504.473	77.44
504.69	75.44
504.907	89.44
505.123	95.44
505.34	78.44
505.557	89.44
505.773	97.44
505.99	76.44
506.207	90.44
506.423	83.44
506.64	84.44
506.856	87.44
507.073	88.44
507.289	80.44
507.506	93.44
507.722	81.44
507.939	83.44
508.155	86.44
508.372	75.44
508.588	87.44
508.805	83.44
509.021	93.44
509.238	85.44
509.454	81.44
509.67	85.44
509.887	87.44
510.103	83.44
510.319	87.44
510.536	69.44
510.752	84.44
510.968	77.44
511.184	79.44
511.401	81.44
511.617	72.44
511.833	72.44
512.049	79.44
512.265	81.44
512.481	72.44
512.698	66.44
512.914	83.44
513.13	88.44
513.346	89.44
513.562	85.44
513.778	84.44
513.994	76.44
514.21	79.44
514.426	102.44
514.642	67.44
514.858	88.44
515.074	92.44
515.29	78.44
515.506	84.44
515.721	73.44
515.937	71.44
516.153	83.44
516.369	77.44
516.585	83.44
516.801	75.44
517.016	83.44
517.232	81.44
517.448	78.44
517.664	79.44
517.879	77.44
518.095	90.44
518.311	73.44
518.527	78.44
518.742	95.44
518.958	81.44
519.173	80.44
519.389	74.44
519.605	81.44
519.82	83.44
520.036	87.44
520.251	77.44
