Data from StdD_HRD10591_013.txt Node
Date: Fri May 16 15:31:27 EDT 2025
User: Yrep
Spectrometer: HR+D1059
Trigger mode: 1
Integration Time (sec): 1.000000E-1
Scans to average: 1
Electric dark correction enabled: true
Nonlinearity correction enabled: false
Boxcar width: 0
XAxis mode: Wavelengths
Number of Pixels in Spectrum: 2048
>>>>>Begin Spectral Data<<<<<
223.165	-22.69
223.4	-22.69
223.635	-22.69
223.869	-18.69
224.104	-25.69
224.338	-11.69
224.573	-14.69
224.808	-20.69
225.042	8.31
225.277	-1.69
225.511	-0.69
225.746	3.31
225.98	-3.69
226.215	9.31
226.449	15.31
226.683	23.31
226.918	33.31
227.152	27.31
227.387	29.31
227.621	35.31
227.856	42.31
228.09	47.31
228.324	49.31
228.559	48.31
228.793	57.31
229.027	56.31
229.262	69.31
229.496	76.31
229.73	63.31
229.964	75.31
230.199	74.31
230.433	73.31
230.667	80.31
230.901	66.31
231.136	79.31
231.37	89.31
231.604	84.31
231.838	78.31
232.072	79.31
232.306	79.31
232.541	76.31
232.775	85.31
233.009	63.31
233.243	69.31
233.477	87.31
233.711	88.31
233.945	79.31
234.179	71.31
234.413	86.31
234.647	59.31
234.881	70.31
235.115	78.31
235.349	85.31
235.583	79.31
235.817	81.31
236.051	75.31
236.285	78.31
236.519	79.31
236.753	72.31
236.987	76.31
237.221	73.31
237.455	84.31
237.689	79.31
237.922	72.31
238.156	61.31
238.39	81.31
238.624	68.31
238.858	89.31
239.091	83.31
239.325	77.31
239.559	67.31
239.793	78.31
240.027	76.31
240.26	71.31
240.494	91.31
240.728	76.31
240.961	63.31
241.195	75.31
241.429	83.31
241.662	82.31
241.896	73.31
242.13	83.31
242.363	55.31
242.597	71.31
242.83	80.31
243.064	64.31
243.298	80.31
243.531	71.31
243.765	80.31
243.998	72.31
244.232	84.31
244.465	78.31
244.699	69.31
244.932	73.31
245.166	70.31
245.399	88.31
245.633	73.31
245.866	59.31
246.099	77.31
246.333	64.31
246.566	67.31
246.8	77.31
247.033	80.31
247.266	75.31
247.5	69.31
247.733	80.31
247.966	63.31
248.2	88.31
248.433	77.31
248.666	76.31
248.899	98.31
249.133	81.31
249.366	71.31
249.599	70.31
249.832	78.31
250.066	97.31
250.299	83.31
250.532	83.31
250.765	69.31
250.998	80.31
251.231	91.31
251.465	79.31
251.698	75.31
251.931	83.31
252.164	79.31
252.397	83.31
252.63	80.31
252.863	75.31
253.096	75.31
253.329	88.31
253.562	59.31
253.795	87.31
254.028	88.31
254.261	72.31
254.494	63.31
254.727	91.31
254.96	78.31
255.193	84.31
255.426	71.31
255.659	71.31
255.892	80.31
256.124	80.31
256.357	78.31
256.59	78.31
256.823	80.31
257.056	63.31
257.289	72.31
257.521	78.31
257.754	91.31
257.987	84.31
258.22	88.31
258.452	63.31
258.685	74.31
258.918	80.31
259.151	74.31
259.383	89.31
259.616	63.31
259.849	81.31
260.081	85.31
260.314	80.31
260.547	85.31
260.779	82.31
261.012	80.31
261.244	79.31
261.477	100.31
261.71	79.31
261.942	85.31
262.175	86.31
262.407	77.31
262.64	88.31
262.872	62.31
263.105	75.31
263.337	70.31
263.57	73.31
263.802	92.31
264.035	88.31
264.267	88.31
264.499	81.31
264.732	81.31
264.964	82.31
265.197	85.31
265.429	67.31
265.661	80.31
265.894	85.31
266.126	93.31
266.358	84.31
266.591	85.31
266.823	73.31
267.055	76.31
267.287	82.31
267.52	71.31
267.752	87.31
267.984	84.31
268.216	83.31
268.448	78.31
268.681	68.31
268.913	67.31
269.145	78.31
269.377	83.31
269.609	79.31
269.841	79.31
270.073	78.31
270.306	83.31
270.538	64.31
270.77	82.31
271.002	80.31
271.234	80.31
271.466	81.31
271.698	72.31
271.93	97.31
272.162	78.31
272.394	88.31
272.626	86.31
272.858	75.31
273.09	79.31
273.322	65.31
273.553	85.31
273.785	90.31
274.017	84.31
274.249	88.31
274.481	96.31
274.713	87.31
274.945	71.31
275.176	80.31
275.408	83.31
275.64	87.31
275.872	80.31
276.104	88.31
276.335	91.31
276.567	83.31
276.799	84.31
277.031	84.31
277.262	81.31
277.494	75.31
277.726	94.31
277.957	89.31
278.189	77.31
278.421	72.31
278.652	73.31
278.884	85.31
279.115	99.31
279.347	91.31
279.579	63.31
279.81	83.31
280.042	75.31
280.273	71.31
280.505	77.31
280.736	72.31
280.968	87.31
281.199	85.31
281.431	73.31
281.662	80.31
281.894	73.31
282.125	89.31
282.356	89.31
282.588	92.31
282.819	85.31
283.051	71.31
283.282	76.31
283.513	83.31
283.745	89.31
283.976	85.31
284.207	82.31
284.439	96.31
284.67	73.31
284.901	76.31
285.132	81.31
285.364	73.31
285.595	89.31
285.826	79.31
286.057	83.31
286.288	78.31
286.52	93.31
286.751	76.31
286.982	79.31
287.213	75.31
287.444	79.31
287.675	89.31
287.906	78.31
288.138	85.31
288.369	89.31
288.6	81.31
288.831	78.31
289.062	77.31
289.293	95.31
289.524	83.31
289.755	71.31
289.986	59.31
290.217	80.31
290.448	95.31
290.679	79.31
290.91	76.31
291.141	83.31
291.371	84.31
291.602	84.31
291.833	77.31
292.064	90.31
292.295	79.31
292.526	85.31
292.757	79.31
292.987	76.31
293.218	84.31
293.449	88.31
293.68	84.31
293.91	96.31
294.141	79.31
294.372	82.31
294.603	92.31
294.833	76.31
295.064	84.31
295.295	91.31
295.525	79.31
295.756	73.31
295.987	80.31
296.217	79.31
296.448	91.31
296.679	74.31
296.909	92.31
297.14	96.31
297.37	83.31
297.601	71.31
297.831	84.31
298.062	94.31
298.292	87.31
298.523	75.31
298.753	68.31
298.984	66.31
299.214	79.31
299.445	73.31
299.675	64.31
299.905	85.31
300.136	75.31
300.366	83.31
300.597	77.31
300.827	85.31
301.057	78.31
301.288	72.31
301.518	89.31
301.748	84.31
301.979	90.31
302.209	71.31
302.439	73.31
302.669	67.31
302.9	85.31
303.13	69.31
303.36	83.31
303.59	89.31
303.82	75.31
304.051	79.31
304.281	68.31
304.511	77.31
304.741	73.31
304.971	85.31
305.201	84.31
305.431	92.31
305.661	88.31
305.891	77.31
306.121	85.31
306.352	84.31
306.582	73.31
306.812	83.31
307.042	89.31
307.272	68.31
307.502	91.31
307.731	94.31
307.961	80.31
308.191	80.31
308.421	69.31
308.651	79.31
308.881	78.31
309.111	94.31
309.341	81.31
309.571	81.31
309.8	69.31
310.03	91.31
310.26	88.31
310.49	75.31
310.72	65.31
310.949	81.31
311.179	79.31
311.409	72.31
311.639	80.31
311.868	86.31
312.098	71.31
312.328	79.31
312.557	80.31
312.787	84.31
313.017	75.31
313.246	65.31
313.476	79.31
313.706	89.31
313.935	83.31
314.165	80.31
314.394	79.31
314.624	85.31
314.853	76.31
315.083	80.31
315.312	94.31
315.542	83.31
315.771	78.31
316.001	87.31
316.23	81.31
316.46	71.31
316.689	77.31
316.919	80.31
317.148	76.31
317.377	89.31
317.607	75.31
317.836	81.31
318.065	88.31
318.295	83.31
318.524	83.31
318.753	81.31
318.983	75.31
319.212	94.31
319.441	88.31
319.67	89.31
319.9	88.31
320.129	94.31
320.358	90.31
320.587	73.31
320.816	75.31
321.046	69.31
321.275	84.31
321.504	84.31
321.733	77.31
321.962	74.31
322.191	87.31
322.42	82.31
322.649	79.31
322.878	80.31
323.108	74.31
323.337	81.31
323.566	92.31
323.795	84.31
324.024	85.31
324.253	74.31
324.482	96.31
324.71	85.31
324.939	75.31
325.168	78.31
325.397	83.31
325.626	87.31
325.855	70.31
326.084	64.31
326.313	83.31
326.542	78.31
326.77	76.31
326.999	77.31
327.228	87.31
327.457	71.31
327.686	83.31
327.914	79.31
328.143	78.31
328.372	90.31
328.6	87.31
328.829	87.31
329.058	85.31
329.287	88.31
329.515	75.31
329.744	89.31
329.972	82.31
330.201	76.31
330.43	89.31
330.658	75.31
330.887	82.31
331.115	81.31
331.344	69.31
331.572	71.31
331.801	85.31
332.03	79.31
332.258	95.31
332.486	103.31
332.715	89.31
332.943	89.31
333.172	92.31
333.4	83.31
333.629	77.31
333.857	78.31
334.085	76.31
334.314	82.31
334.542	78.31
334.771	85.31
334.999	63.31
335.227	85.31
335.455	71.31
335.684	84.31
335.912	74.31
336.14	70.31
336.369	90.31
336.597	88.31
336.825	78.31
337.053	74.31
337.281	89.31
337.51	84.31
337.738	73.31
337.966	71.31
338.194	76.31
338.422	91.31
338.65	78.31
338.878	85.31
339.106	96.31
339.334	83.31
339.562	71.31
339.79	85.31
340.018	81.31
340.246	88.31
340.474	75.31
340.702	87.31
340.93	81.31
341.158	72.31
341.386	91.31
341.614	78.31
341.842	88.31
342.07	74.31
342.298	93.31
342.526	83.31
342.754	87.31
342.981	78.31
343.209	76.31
343.437	102.31
343.665	76.31
343.893	83.31
344.12	81.31
344.348	81.31
344.576	89.31
344.804	74.31
345.031	69.31
345.259	71.31
345.487	74.31
345.714	84.31
345.942	84.31
346.17	96.31
346.397	92.31
346.625	61.31
346.853	84.31
347.08	83.31
347.308	79.31
347.535	85.31
347.763	84.31
347.99	92.31
348.218	86.31
348.445	75.31
348.673	99.31
348.9	101.31
349.128	97.31
349.355	81.31
349.583	91.31
349.81	70.31
350.037	80.31
350.265	74.31
350.492	73.31
350.72	65.31
350.947	75.31
351.174	86.31
351.402	71.31
351.629	79.31
351.856	90.31
352.083	86.31
352.311	84.31
352.538	90.31
352.765	71.31
352.992	94.31
353.22	69.31
353.447	83.31
353.674	90.31
353.901	86.31
354.128	76.31
354.355	83.31
354.583	75.31
354.81	80.31
355.037	87.31
355.264	97.31
355.491	86.31
355.718	87.31
355.945	79.31
356.172	73.31
356.399	81.31
356.626	81.31
356.853	87.31
357.08	85.31
357.307	73.31
357.534	73.31
357.761	85.31
357.988	83.31
358.215	84.31
358.441	88.31
358.668	81.31
358.895	84.31
359.122	74.31
359.349	81.31
359.576	69.31
359.802	82.31
360.029	86.31
360.256	73.31
360.483	73.31
360.709	85.31
360.936	82.31
361.163	78.31
361.39	93.31
361.616	59.31
361.843	93.31
362.07	88.31
362.296	81.31
362.523	73.31
362.749	64.31
362.976	75.31
363.203	80.31
363.429	91.31
363.656	73.31
363.882	85.31
364.109	75.31
364.335	96.31
364.562	74.31
364.788	70.31
365.015	85.31
365.241	97.31
365.468	87.31
365.694	74.31
365.92	74.31
366.147	86.31
366.373	79.31
366.599	81.31
366.826	97.31
367.052	83.31
367.278	79.31
367.505	88.31
367.731	75.31
367.957	73.31
368.184	84.31
368.41	71.31
368.636	84.31
368.862	92.31
369.089	81.31
369.315	72.31
369.541	86.31
369.767	76.31
369.993	90.31
370.219	87.31
370.445	79.31
370.672	79.31
370.898	85.31
371.124	82.31
371.35	83.31
371.576	84.31
371.802	69.31
372.028	79.31
372.254	80.31
372.48	88.31
372.706	70.31
372.932	78.31
373.158	68.31
373.384	73.31
373.61	71.31
373.835	80.31
374.061	90.31
374.287	84.31
374.513	83.31
374.739	79.31
374.965	78.31
375.191	78.31
375.416	77.31
375.642	93.31
375.868	86.31
376.094	92.31
376.319	71.31
376.545	85.31
376.771	98.31
376.997	83.31
377.222	92.31
377.448	92.31
377.674	78.31
377.899	79.31
378.125	72.31
378.35	75.31
378.576	66.31
378.802	86.31
379.027	72.31
379.253	99.31
379.478	82.31
379.704	90.31
379.929	87.31
380.155	91.31
380.38	80.31
380.606	78.31
380.831	87.31
381.057	91.31
381.282	91.31
381.507	82.31
381.733	76.31
381.958	69.31
382.184	84.31
382.409	74.31
382.634	84.31
382.86	94.31
383.085	94.31
383.31	93.31
383.535	78.31
383.761	89.31
383.986	84.31
384.211	91.31
384.436	91.31
384.662	88.31
384.887	76.31
385.112	83.31
385.337	80.31
385.562	82.31
385.787	87.31
386.013	87.31
386.238	94.31
386.463	70.31
386.688	95.31
386.913	72.31
387.138	90.31
387.363	82.31
387.588	93.31
387.813	85.31
388.038	91.31
388.263	74.31
388.488	67.31
388.713	93.31
388.938	86.31
389.163	80.31
389.387	82.31
389.612	79.31
389.837	83.31
390.062	77.31
390.287	84.31
390.512	80.31
390.736	64.31
390.961	76.31
391.186	82.31
391.411	86.31
391.636	80.31
391.86	85.31
392.085	75.31
392.31	83.31
392.534	75.31
392.759	95.31
392.984	75.31
393.208	96.31
393.433	81.31
393.658	75.31
393.882	71.31
394.107	76.31
394.331	83.31
394.556	79.31
394.78	79.31
395.005	98.31
395.229	99.31
395.454	88.31
395.678	76.31
395.903	96.31
396.127	78.31
396.352	68.31
396.576	79.31
396.801	77.31
397.025	65.31
397.249	95.31
397.474	88.31
397.698	83.31
397.922	74.31
398.147	79.31
398.371	83.31
398.595	81.31
398.82	90.31
399.044	83.31
399.268	82.31
399.492	93.31
399.717	83.31
399.941	76.31
400.165	81.31
400.389	81.31
400.613	84.31
400.837	91.31
401.062	82.31
401.286	79.31
401.51	80.31
401.734	65.31
401.958	82.31
402.182	106.31
402.406	86.31
402.63	78.31
402.854	64.31
403.078	85.31
403.302	88.31
403.526	78.31
403.75	75.31
403.974	82.31
404.198	88.31
404.422	85.31
404.645	82.31
404.869	75.31
405.093	87.31
405.317	71.31
405.541	80.31
405.765	80.31
405.988	81.31
406.212	93.31
406.436	80.31
406.66	75.31
406.883	89.31
407.107	85.31
407.331	87.31
407.555	76.31
407.778	79.31
408.002	89.31
408.226	79.31
408.449	83.31
408.673	69.31
408.896	81.31
409.12	85.31
409.344	78.31
409.567	93.31
409.791	79.31
410.014	87.31
410.238	92.31
410.461	89.31
410.685	87.31
410.908	87.31
411.132	86.31
411.355	97.31
411.578	97.31
411.802	72.31
412.025	94.31
412.249	95.31
412.472	76.31
412.695	89.31
412.919	79.31
413.142	77.31
413.365	84.31
413.589	73.31
413.812	72.31
414.035	76.31
414.258	81.31
414.482	80.31
414.705	68.31
414.928	80.31
415.151	79.31
415.374	84.31
415.597	80.31
415.821	71.31
416.044	80.31
416.267	94.31
416.49	72.31
416.713	76.31
416.936	79.31
417.159	71.31
417.382	80.31
417.605	75.31
417.828	71.31
418.051	69.31
418.274	80.31
418.497	85.31
418.72	78.31
418.943	89.31
419.166	79.31
419.389	79.31
419.611	88.31
419.834	91.31
420.057	75.31
420.28	80.31
420.503	78.31
420.726	73.31
420.948	87.31
421.171	79.31
421.394	89.31
421.617	84.31
421.839	76.31
422.062	80.31
422.285	76.31
422.507	74.31
422.73	85.31
422.953	94.31
423.175	83.31
423.398	88.31
423.621	84.31
423.843	69.31
424.066	72.31
424.288	93.31
424.511	87.31
424.733	75.31
424.956	69.31
425.178	77.31
425.401	63.31
425.623	101.31
425.846	85.31
426.068	76.31
426.291	77.31
426.513	83.31
426.735	81.31
426.958	91.31
427.18	76.31
427.402	100.31
427.625	80.31
427.847	65.31
428.069	74.31
428.292	89.31
428.514	91.31
428.736	86.31
428.958	93.31
429.181	90.31
429.403	84.31
429.625	88.31
429.847	82.31
430.069	99.31
430.292	88.31
430.514	77.31
430.736	78.31
430.958	81.31
431.18	89.31
431.402	70.31
431.624	69.31
431.846	78.31
432.068	75.31
432.29	72.31
432.512	81.31
432.734	76.31
432.956	87.31
433.178	86.31
433.4	78.31
433.622	80.31
433.844	83.31
434.066	77.31
434.287	82.31
434.509	89.31
434.731	95.31
434.953	75.31
435.175	62.31
435.397	75.31
435.618	78.31
435.84	77.31
436.062	67.31
436.284	58.31
436.505	77.31
436.727	69.31
436.949	100.31
437.17	87.31
437.392	71.31
437.614	91.31
437.835	89.31
438.057	75.31
438.278	84.31
438.5	84.31
438.721	84.31
438.943	88.31
439.165	81.31
439.386	83.31
439.608	77.31
439.829	75.31
440.05	95.31
440.272	87.31
440.493	75.31
440.715	82.31
440.936	89.31
441.158	93.31
441.379	87.31
441.6	77.31
441.822	72.31
442.043	86.31
442.264	78.31
442.486	76.31
442.707	77.31
442.928	85.31
443.149	78.31
443.371	86.31
443.592	93.31
443.813	101.31
444.034	84.31
444.255	95.31
444.476	89.31
444.698	101.31
444.919	85.31
445.14	176.31
445.361	130.31
445.582	73.31
445.803	75.31
446.024	79.31
446.245	94.31
446.466	86.31
446.687	65.31
446.908	78.31
447.129	81.31
447.35	89.31
447.571	79.31
447.792	73.31
448.013	72.31
448.234	76.31
448.455	80.31
448.675	89.31
448.896	81.31
449.117	77.31
449.338	71.31
449.559	87.31
449.779	86.31
450	86.31
450.221	94.31
450.442	62.31
450.662	86.31
450.883	85.31
451.104	92.31
451.324	88.31
451.545	83.31
451.766	91.31
451.986	80.31
452.207	105.31
452.428	93.31
452.648	90.31
452.869	86.31
453.089	81.31
453.31	68.31
453.53	81.31
453.751	80.31
453.971	74.31
454.192	83.31
454.412	101.31
454.633	84.31
454.853	88.31
455.073	78.31
455.294	84.31
455.514	72.31
455.734	75.31
455.955	82.31
456.175	78.31
456.395	80.31
456.616	66.31
456.836	70.31
457.056	87.31
457.276	47.31
457.497	73.31
457.717	80.31
457.937	74.31
458.157	80.31
458.377	71.31
458.598	78.31
458.818	85.31
459.038	85.31
459.258	59.31
459.478	80.31
459.698	75.31
459.918	82.31
460.138	82.31
460.358	88.31
460.578	91.31
460.798	71.31
461.018	84.31
461.238	72.31
461.458	91.31
461.678	71.31
461.898	78.31
462.118	84.31
462.338	76.31
462.558	68.31
462.777	77.31
462.997	81.31
463.217	74.31
463.437	103.31
463.657	81.31
463.876	88.31
464.096	80.31
464.316	84.31
464.536	72.31
464.755	74.31
464.975	69.31
465.195	82.31
465.414	92.31
465.634	77.31
465.854	82.31
466.073	93.31
466.293	74.31
466.512	96.31
466.732	76.31
466.951	73.31
467.171	67.31
467.391	83.31
467.61	73.31
467.829	89.31
468.049	91.31
468.268	91.31
468.488	78.31
468.707	96.31
468.927	81.31
469.146	84.31
469.365	91.31
469.585	85.31
469.804	84.31
470.023	75.31
470.243	94.31
470.462	80.31
470.681	86.31
470.901	81.31
471.12	85.31
471.339	93.31
471.558	85.31
471.777	78.31
471.997	81.31
472.216	89.31
472.435	81.31
472.654	88.31
472.873	82.31
473.092	85.31
473.311	79.31
473.53	81.31
473.749	94.31
473.968	81.31
474.187	87.31
474.406	74.31
474.625	88.31
474.844	75.31
475.063	80.31
475.282	84.31
475.501	83.31
475.72	84.31
475.939	80.31
476.158	87.31
476.377	93.31
476.596	72.31
476.814	85.31
477.033	68.31
477.252	60.31
477.471	80.31
477.69	77.31
477.908	89.31
478.127	74.31
478.346	99.31
478.564	78.31
478.783	95.31
479.002	84.31
479.22	78.31
479.439	91.31
479.658	82.31
479.876	71.31
480.095	83.31
480.313	76.31
480.532	94.31
480.751	87.31
480.969	88.31
481.188	85.31
481.406	96.31
481.624	92.31
481.843	88.31
482.061	86.31
482.28	88.31
482.498	80.31
482.717	81.31
482.935	80.31
483.153	88.31
483.372	80.31
483.59	75.31
483.808	80.31
484.027	72.31
484.245	66.31
484.463	82.31
484.681	89.31
484.9	75.31
485.118	88.31
485.336	85.31
485.554	87.31
485.772	84.31
485.99	99.31
486.209	73.31
486.427	72.31
486.645	70.31
486.863	77.31
487.081	71.31
487.299	78.31
487.517	91.31
487.735	86.31
487.953	87.31
488.171	90.31
488.389	81.31
488.607	100.31
488.825	79.31
489.043	65.31
489.261	80.31
489.479	84.31
489.696	85.31
489.914	89.31
490.132	91.31
490.35	86.31
490.568	85.31
490.786	85.31
491.003	88.31
491.221	81.31
491.439	82.31
491.657	81.31
491.874	92.31
492.092	83.31
492.31	79.31
492.527	88.31
492.745	81.31
492.963	91.31
493.18	88.31
493.398	107.31
493.615	87.31
493.833	87.31
494.05	92.31
494.268	85.31
494.485	91.31
494.703	87.31
494.92	94.31
495.138	86.31
495.355	88.31
495.573	93.31
495.79	90.31
496.008	84.31
496.225	86.31
496.442	96.31
496.66	109.31
496.877	73.31
497.094	85.31
497.312	94.31
497.529	89.31
497.746	84.31
497.963	74.31
498.181	62.31
498.398	111.31
498.615	85.31
498.832	79.31
499.049	81.31
499.267	91.31
499.484	82.31
499.701	80.31
499.918	83.31
500.135	69.31
500.352	103.31
500.569	81.31
500.786	73.31
501.003	75.31
501.22	69.31
501.437	96.31
501.654	85.31
501.871	80.31
502.088	84.31
502.305	76.31
502.522	86.31
502.739	53.31
502.956	91.31
503.172	78.31
503.389	72.31
503.606	85.31
503.823	92.31
504.04	83.31
504.256	96.31
504.473	86.31
504.69	75.31
504.907	89.31
505.123	76.31
505.34	95.31
505.557	81.31
505.773	95.31
505.99	61.31
506.207	84.31
506.423	74.31
506.64	80.31
506.856	75.31
507.073	86.31
507.289	89.31
507.506	87.31
507.722	92.31
507.939	89.31
508.155	74.31
508.372	87.31
508.588	76.31
508.805	80.31
509.021	87.31
509.238	92.31
509.454	80.31
509.67	87.31
509.887	65.31
510.103	75.31
510.319	79.31
510.536	83.31
510.752	85.31
510.968	84.31
511.184	80.31
511.401	79.31
511.617	82.31
511.833	69.31
512.049	73.31
512.265	84.31
512.481	77.31
512.698	81.31
512.914	82.31
513.13	79.31
513.346	89.31
513.562	87.31
513.778	84.31
513.994	83.31
514.21	84.31
514.426	90.31
514.642	87.31
514.858	89.31
515.074	83.31
515.29	84.31
515.506	75.31
515.721	64.31
515.937	66.31
516.153	83.31
516.369	81.31
516.585	73.31
516.801	103.31
517.016	94.31
517.232	83.31
517.448	94.31
517.664	82.31
517.879	80.31
518.095	75.31
518.311	88.31
518.527	77.31
518.742	79.31
518.958	80.31
519.173	93.31
519.389	92.31
519.605	78.31
519.82	76.31
520.036	89.31
