Data from StdD_HRD10591_025.txt Node
Date: Fri May 16 15:31:33 EDT 2025
User: Yrep
Spectrometer: HR+D1059
Trigger mode: 1
Integration Time (sec): 1.000000E-1
Scans to average: 1
Electric dark correction enabled: true
Nonlinearity correction enabled: false
Boxcar width: 0
XAxis mode: Wavelengths
Number of Pixels in Spectrum: 2048
>>>>>Begin Spectral Data<<<<<
223.165	-17.12
223.4	-17.12
223.635	-17.12
223.869	-22.12
224.104	-22.12
224.338	-15.12
224.573	-20.12
224.808	-0.12
225.042	-6.12
225.277	-5.12
225.511	-2.12
225.746	-17.12
225.98	5.88
226.215	-1.12
226.449	26.88
226.683	22.88
226.918	30.88
227.152	41.88
227.387	39.88
227.621	46.88
227.856	51.88
228.09	43.88
228.324	53.88
228.559	59.88
228.793	58.88
229.027	69.88
229.262	63.88
229.496	61.88
229.73	72.88
229.964	52.88
230.199	77.88
230.433	84.88
230.667	79.88
230.901	73.88
231.136	64.88
231.37	85.88
231.604	74.88
231.838	98.88
232.072	87.88
232.306	77.88
232.541	69.88
232.775	74.88
233.009	75.88
233.243	64.88
233.477	73.88
233.711	82.88
233.945	77.88
234.179	82.88
234.413	64.88
234.647	74.88
234.881	63.88
235.115	83.88
235.349	73.88
235.583	81.88
235.817	79.88
236.051	80.88
236.285	87.88
236.519	74.88
236.753	76.88
236.987	69.88
237.221	74.88
237.455	78.88
237.689	75.88
237.922	84.88
238.156	61.88
238.39	62.88
238.624	64.88
238.858	71.88
239.091	80.88
239.325	71.88
239.559	67.88
239.793	75.88
240.027	69.88
240.26	86.88
240.494	77.88
240.728	64.88
240.961	67.88
241.195	83.88
241.429	77.88
241.662	73.88
241.896	85.88
242.13	71.88
242.363	67.88
242.597	78.88
242.83	68.88
243.064	69.88
243.298	65.88
243.531	81.88
243.765	64.88
243.998	62.88
244.232	70.88
244.465	78.88
244.699	75.88
244.932	84.88
245.166	67.88
245.399	73.88
245.633	71.88
245.866	76.88
246.099	87.88
246.333	79.88
246.566	76.88
246.8	55.88
247.033	67.88
247.266	79.88
247.5	69.88
247.733	67.88
247.966	61.88
248.2	64.88
248.433	84.88
248.666	78.88
248.899	76.88
249.133	81.88
249.366	77.88
249.599	70.88
249.832	69.88
250.066	74.88
250.299	74.88
250.532	74.88
250.765	77.88
250.998	81.88
251.231	75.88
251.465	78.88
251.698	74.88
251.931	83.88
252.164	81.88
252.397	78.88
252.63	82.88
252.863	76.88
253.096	89.88
253.329	77.88
253.562	73.88
253.795	76.88
254.028	91.88
254.261	76.88
254.494	71.88
254.727	74.88
254.96	67.88
255.193	89.88
255.426	72.88
255.659	70.88
255.892	73.88
256.124	73.88
256.357	69.88
256.59	89.88
256.823	74.88
257.056	77.88
257.289	72.88
257.521	81.88
257.754	88.88
257.987	76.88
258.22	92.88
258.452	60.88
258.685	64.88
258.918	80.88
259.151	85.88
259.383	84.88
259.616	74.88
259.849	86.88
260.081	90.88
260.314	75.88
260.547	82.88
260.779	97.88
261.012	93.88
261.244	81.88
261.477	81.88
261.71	67.88
261.942	79.88
262.175	84.88
262.407	80.88
262.64	84.88
262.872	83.88
263.105	71.88
263.337	76.88
263.57	73.88
263.802	70.88
264.035	68.88
264.267	79.88
264.499	87.88
264.732	74.88
264.964	76.88
265.197	78.88
265.429	77.88
265.661	82.88
265.894	88.88
266.126	79.88
266.358	85.88
266.591	72.88
266.823	81.88
267.055	74.88
267.287	76.88
267.52	81.88
267.752	73.88
267.984	81.88
268.216	72.88
268.448	79.88
268.681	91.88
268.913	82.88
269.145	79.88
269.377	87.88
269.609	65.88
269.841	90.88
270.073	87.88
270.306	74.88
270.538	73.88
270.77	94.88
271.002	81.88
271.234	73.88
271.466	101.88
271.698	88.88
271.93	81.88
272.162	65.88
272.394	81.88
272.626	81.88
272.858	97.88
273.09	78.88
273.322	75.88
273.553	94.88
273.785	90.88
274.017	69.88
274.249	82.88
274.481	85.88
274.713	78.88
274.945	79.88
275.176	72.88
275.408	84.88
275.64	70.88
275.872	74.88
276.104	68.88
276.335	73.88
276.567	75.88
276.799	88.88
277.031	78.88
277.262	72.88
277.494	89.88
277.726	91.88
277.957	68.88
278.189	73.88
278.421	81.88
278.652	90.88
278.884	78.88
279.115	79.88
279.347	78.88
279.579	74.88
279.81	78.88
280.042	89.88
280.273	67.88
280.505	72.88
280.736	72.88
280.968	79.88
281.199	91.88
281.431	75.88
281.662	89.88
281.894	85.88
282.125	88.88
282.356	81.88
282.588	70.88
282.819	80.88
283.051	69.88
283.282	63.88
283.513	89.88
283.745	80.88
283.976	77.88
284.207	97.88
284.439	70.88
284.67	94.88
284.901	90.88
285.132	88.88
285.364	86.88
285.595	81.88
285.826	93.88
286.057	93.88
286.288	76.88
286.52	81.88
286.751	75.88
286.982	83.88
287.213	82.88
287.444	78.88
287.675	81.88
287.906	74.88
288.138	73.88
288.369	78.88
288.6	71.88
288.831	85.88
289.062	87.88
289.293	86.88
289.524	77.88
289.755	91.88
289.986	75.88
290.217	86.88
290.448	88.88
290.679	73.88
290.91	90.88
291.141	83.88
291.371	81.88
291.602	79.88
291.833	85.88
292.064	92.88
292.295	67.88
292.526	84.88
292.757	86.88
292.987	86.88
293.218	87.88
293.449	70.88
293.68	88.88
293.91	84.88
294.141	71.88
294.372	88.88
294.603	80.88
294.833	75.88
295.064	75.88
295.295	76.88
295.525	77.88
295.756	81.88
295.987	71.88
296.217	86.88
296.448	93.88
296.679	73.88
296.909	90.88
297.14	78.88
297.37	84.88
297.601	92.88
297.831	70.88
298.062	84.88
298.292	74.88
298.523	66.88
298.753	81.88
298.984	74.88
299.214	74.88
299.445	82.88
299.675	85.88
299.905	70.88
300.136	84.88
300.366	85.88
300.597	72.88
300.827	88.88
301.057	84.88
301.288	90.88
301.518	88.88
301.748	85.88
301.979	92.88
302.209	85.88
302.439	83.88
302.669	92.88
302.9	79.88
303.13	69.88
303.36	83.88
303.59	81.88
303.82	78.88
304.051	87.88
304.281	86.88
304.511	77.88
304.741	77.88
304.971	73.88
305.201	81.88
305.431	67.88
305.661	84.88
305.891	73.88
306.121	86.88
306.352	84.88
306.582	64.88
306.812	90.88
307.042	75.88
307.272	80.88
307.502	82.88
307.731	86.88
307.961	78.88
308.191	63.88
308.421	88.88
308.651	76.88
308.881	89.88
309.111	91.88
309.341	82.88
309.571	83.88
309.8	84.88
310.03	87.88
310.26	86.88
310.49	74.88
310.72	83.88
310.949	78.88
311.179	75.88
311.409	83.88
311.639	74.88
311.868	86.88
312.098	68.88
312.328	86.88
312.557	97.88
312.787	77.88
313.017	83.88
313.246	83.88
313.476	77.88
313.706	90.88
313.935	76.88
314.165	84.88
314.394	78.88
314.624	81.88
314.853	88.88
315.083	86.88
315.312	76.88
315.542	74.88
315.771	70.88
316.001	78.88
316.23	80.88
316.46	81.88
316.689	86.88
316.919	87.88
317.148	79.88
317.377	83.88
317.607	77.88
317.836	87.88
318.065	99.88
318.295	87.88
318.524	79.88
318.753	82.88
318.983	84.88
319.212	85.88
319.441	63.88
319.67	75.88
319.9	78.88
320.129	84.88
320.358	78.88
320.587	92.88
320.816	76.88
321.046	82.88
321.275	83.88
321.504	77.88
321.733	75.88
321.962	72.88
322.191	90.88
322.42	81.88
322.649	84.88
322.878	86.88
323.108	78.88
323.337	83.88
323.566	82.88
323.795	92.88
324.024	83.88
324.253	67.88
324.482	90.88
324.71	94.88
324.939	84.88
325.168	85.88
325.397	88.88
325.626	81.88
325.855	79.88
326.084	87.88
326.313	85.88
326.542	90.88
326.77	93.88
326.999	86.88
327.228	77.88
327.457	67.88
327.686	82.88
327.914	83.88
328.143	70.88
328.372	71.88
328.6	84.88
328.829	77.88
329.058	100.88
329.287	83.88
329.515	83.88
329.744	78.88
329.972	88.88
330.201	93.88
330.43	69.88
330.658	82.88
330.887	81.88
331.115	79.88
331.344	66.88
331.572	72.88
331.801	78.88
332.03	90.88
332.258	88.88
332.486	72.88
332.715	68.88
332.943	80.88
333.172	76.88
333.4	69.88
333.629	71.88
333.857	93.88
334.085	79.88
334.314	83.88
334.542	79.88
334.771	91.88
334.999	85.88
335.227	88.88
335.455	67.88
335.684	77.88
335.912	84.88
336.14	75.88
336.369	73.88
336.597	82.88
336.825	84.88
337.053	60.88
337.281	74.88
337.51	88.88
337.738	63.88
337.966	71.88
338.194	84.88
338.422	86.88
338.65	89.88
338.878	77.88
339.106	81.88
339.334	84.88
339.562	66.88
339.79	75.88
340.018	74.88
340.246	69.88
340.474	84.88
340.702	80.88
340.93	83.88
341.158	69.88
341.386	70.88
341.614	89.88
341.842	74.88
342.07	85.88
342.298	77.88
342.526	76.88
342.754	82.88
342.981	85.88
343.209	71.88
343.437	83.88
343.665	91.88
343.893	89.88
344.12	87.88
344.348	88.88
344.576	94.88
344.804	81.88
345.031	85.88
345.259	90.88
345.487	69.88
345.714	75.88
345.942	74.88
346.17	85.88
346.397	83.88
346.625	86.88
346.853	101.88
347.08	71.88
347.308	81.88
347.535	76.88
347.763	83.88
347.99	79.88
348.218	82.88
348.445	83.88
348.673	75.88
348.9	84.88
349.128	83.88
349.355	71.88
349.583	84.88
349.81	81.88
350.037	93.88
350.265	83.88
350.492	93.88
350.72	65.88
350.947	67.88
351.174	83.88
351.402	90.88
351.629	86.88
351.856	91.88
352.083	73.88
352.311	74.88
352.538	81.88
352.765	76.88
352.992	86.88
353.22	77.88
353.447	80.88
353.674	82.88
353.901	81.88
354.128	84.88
354.355	79.88
354.583	89.88
354.81	71.88
355.037	69.88
355.264	76.88
355.491	84.88
355.718	80.88
355.945	76.88
356.172	74.88
356.399	87.88
356.626	83.88
356.853	79.88
357.08	93.88
357.307	90.88
357.534	83.88
357.761	75.88
357.988	94.88
358.215	75.88
358.441	93.88
358.668	83.88
358.895	75.88
359.122	88.88
359.349	80.88
359.576	85.88
359.802	76.88
360.029	76.88
360.256	81.88
360.483	86.88
360.709	81.88
360.936	102.88
361.163	83.88
361.39	76.88
361.616	85.88
361.843	76.88
362.07	85.88
362.296	76.88
362.523	83.88
362.749	69.88
362.976	92.88
363.203	78.88
363.429	98.88
363.656	86.88
363.882	88.88
364.109	92.88
364.335	81.88
364.562	81.88
364.788	80.88
365.015	75.88
365.241	78.88
365.468	81.88
365.694	79.88
365.92	84.88
366.147	83.88
366.373	72.88
366.599	81.88
366.826	88.88
367.052	78.88
367.278	81.88
367.505	98.88
367.731	100.88
367.957	69.88
368.184	73.88
368.41	79.88
368.636	77.88
368.862	83.88
369.089	71.88
369.315	86.88
369.541	83.88
369.767	74.88
369.993	73.88
370.219	76.88
370.445	81.88
370.672	77.88
370.898	71.88
371.124	79.88
371.35	86.88
371.576	75.88
371.802	68.88
372.028	79.88
372.254	84.88
372.48	89.88
372.706	90.88
372.932	87.88
373.158	91.88
373.384	79.88
373.61	81.88
373.835	76.88
374.061	77.88
374.287	91.88
374.513	70.88
374.739	68.88
374.965	84.88
375.191	80.88
375.416	83.88
375.642	80.88
375.868	86.88
376.094	84.88
376.319	83.88
376.545	74.88
376.771	57.88
376.997	70.88
377.222	74.88
377.448	74.88
377.674	79.88
377.899	79.88
378.125	81.88
378.35	81.88
378.576	87.88
378.802	74.88
379.027	75.88
379.253	79.88
379.478	77.88
379.704	82.88
379.929	73.88
380.155	78.88
380.38	86.88
380.606	88.88
380.831	69.88
381.057	83.88
381.282	81.88
381.507	79.88
381.733	93.88
381.958	67.88
382.184	71.88
382.409	94.88
382.634	75.88
382.86	70.88
383.085	75.88
383.31	87.88
383.535	74.88
383.761	74.88
383.986	75.88
384.211	90.88
384.436	90.88
384.662	85.88
384.887	61.88
385.112	75.88
385.337	84.88
385.562	90.88
385.787	91.88
386.013	84.88
386.238	65.88
386.463	73.88
386.688	87.88
386.913	97.88
387.138	77.88
387.363	87.88
387.588	78.88
387.813	80.88
388.038	72.88
388.263	80.88
388.488	63.88
388.713	86.88
388.938	79.88
389.163	74.88
389.387	83.88
389.612	98.88
389.837	70.88
390.062	81.88
390.287	83.88
390.512	68.88
390.736	83.88
390.961	77.88
391.186	81.88
391.411	84.88
391.636	81.88
391.86	89.88
392.085	72.88
392.31	70.88
392.534	77.88
392.759	76.88
392.984	61.88
393.208	68.88
393.433	91.88
393.658	63.88
393.882	85.88
394.107	90.88
394.331	90.88
394.556	80.88
394.78	84.88
395.005	91.88
395.229	67.88
395.454	85.88
395.678	82.88
395.903	90.88
396.127	110.88
396.352	75.88
396.576	77.88
396.801	84.88
397.025	81.88
397.249	76.88
397.474	66.88
397.698	78.88
397.922	81.88
398.147	79.88
398.371	77.88
398.595	75.88
398.82	77.88
399.044	78.88
399.268	85.88
399.492	83.88
399.717	69.88
399.941	82.88
400.165	84.88
400.389	68.88
400.613	82.88
400.837	80.88
401.062	84.88
401.286	79.88
401.51	70.88
401.734	77.88
401.958	74.88
402.182	89.88
402.406	77.88
402.63	77.88
402.854	77.88
403.078	84.88
403.302	75.88
403.526	87.88
403.75	81.88
403.974	69.88
404.198	79.88
404.422	87.88
404.645	71.88
404.869	75.88
405.093	70.88
405.317	97.88
405.541	97.88
405.765	84.88
405.988	79.88
406.212	98.88
406.436	67.88
406.66	69.88
406.883	85.88
407.107	73.88
407.331	85.88
407.555	81.88
407.778	88.88
408.002	91.88
408.226	78.88
408.449	70.88
408.673	79.88
408.896	68.88
409.12	81.88
409.344	81.88
409.567	94.88
409.791	85.88
410.014	91.88
410.238	76.88
410.461	79.88
410.685	104.88
410.908	76.88
411.132	83.88
411.355	73.88
411.578	70.88
411.802	88.88
412.025	86.88
412.249	59.88
412.472	83.88
412.695	72.88
412.919	67.88
413.142	87.88
413.365	82.88
413.589	81.88
413.812	88.88
414.035	83.88
414.258	84.88
414.482	89.88
414.705	77.88
414.928	89.88
415.151	83.88
415.374	76.88
415.597	89.88
415.821	84.88
416.044	83.88
416.267	82.88
416.49	89.88
416.713	81.88
416.936	86.88
417.159	78.88
417.382	79.88
417.605	85.88
417.828	81.88
418.051	84.88
418.274	88.88
418.497	78.88
418.72	79.88
418.943	82.88
419.166	78.88
419.389	79.88
419.611	74.88
419.834	65.88
420.057	90.88
420.28	80.88
420.503	71.88
420.726	82.88
420.948	79.88
421.171	87.88
421.394	77.88
421.617	79.88
421.839	69.88
422.062	66.88
422.285	84.88
422.507	87.88
422.73	88.88
422.953	78.88
423.175	80.88
423.398	84.88
423.621	79.88
423.843	87.88
424.066	83.88
424.288	66.88
424.511	70.88
424.733	78.88
424.956	81.88
425.178	76.88
425.401	84.88
425.623	82.88
425.846	83.88
426.068	70.88
426.291	84.88
426.513	82.88
426.735	91.88
426.958	86.88
427.18	94.88
427.402	76.88
427.625	83.88
427.847	81.88
428.069	90.88
428.292	64.88
428.514	81.88
428.736	70.88
428.958	89.88
429.181	77.88
429.403	73.88
429.625	59.88
429.847	72.88
430.069	75.88
430.292	79.88
430.514	80.88
430.736	77.88
430.958	77.88
431.18	84.88
431.402	80.88
431.624	77.88
431.846	75.88
432.068	87.88
432.29	81.88
432.512	78.88
432.734	74.88
432.956	78.88
433.178	74.88
433.4	76.88
433.622	73.88
433.844	69.88
434.066	86.88
434.287	74.88
434.509	86.88
434.731	71.88
434.953	89.88
435.175	89.88
435.397	81.88
435.618	74.88
435.84	87.88
436.062	61.88
436.284	79.88
436.505	70.88
436.727	71.88
436.949	77.88
437.17	83.88
437.392	81.88
437.614	91.88
437.835	81.88
438.057	81.88
438.278	80.88
438.5	81.88
438.721	81.88
438.943	79.88
439.165	89.88
439.386	85.88
439.608	81.88
439.829	90.88
440.05	92.88
440.272	74.88
440.493	72.88
440.715	85.88
440.936	81.88
441.158	78.88
441.379	84.88
441.6	70.88
441.822	86.88
442.043	87.88
442.264	77.88
442.486	82.88
442.707	81.88
442.928	83.88
443.149	70.88
443.371	87.88
443.592	75.88
443.813	78.88
444.034	73.88
444.255	78.88
444.476	75.88
444.698	76.88
444.919	78.88
445.14	149.88
445.361	113.88
445.582	83.88
445.803	73.88
446.024	74.88
446.245	85.88
446.466	77.88
446.687	82.88
446.908	74.88
447.129	72.88
447.35	91.88
447.571	70.88
447.792	77.88
448.013	74.88
448.234	84.88
448.455	76.88
448.675	72.88
448.896	91.88
449.117	90.88
449.338	79.88
449.559	79.88
449.779	73.88
450	75.88
450.221	92.88
450.442	90.88
450.662	68.88
450.883	77.88
451.104	82.88
451.324	83.88
451.545	86.88
451.766	77.88
451.986	76.88
452.207	77.88
452.428	81.88
452.648	97.88
452.869	77.88
453.089	79.88
453.31	89.88
453.53	82.88
453.751	77.88
453.971	61.88
454.192	86.88
454.412	75.88
454.633	63.88
454.853	63.88
455.073	88.88
455.294	88.88
455.514	90.88
455.734	90.88
455.955	85.88
456.175	71.88
456.395	72.88
456.616	90.88
456.836	73.88
457.056	94.88
457.276	70.88
457.497	70.88
457.717	75.88
457.937	84.88
458.157	73.88
458.377	75.88
458.598	87.88
458.818	87.88
459.038	98.88
459.258	87.88
459.478	65.88
459.698	67.88
459.918	76.88
460.138	90.88
460.358	71.88
460.578	83.88
460.798	77.88
461.018	79.88
461.238	66.88
461.458	76.88
461.678	73.88
461.898	75.88
462.118	91.88
462.338	85.88
462.558	69.88
462.777	81.88
462.997	79.88
463.217	86.88
463.437	71.88
463.657	70.88
463.876	70.88
464.096	79.88
464.316	77.88
464.536	71.88
464.755	81.88
464.975	73.88
465.195	81.88
465.414	76.88
465.634	72.88
465.854	80.88
466.073	77.88
466.293	71.88
466.512	70.88
466.732	86.88
466.951	86.88
467.171	93.88
467.391	71.88
467.61	82.88
467.829	86.88
468.049	81.88
468.268	77.88
468.488	74.88
468.707	78.88
468.927	87.88
469.146	79.88
469.365	85.88
469.585	81.88
469.804	70.88
470.023	75.88
470.243	86.88
470.462	90.88
470.681	76.88
470.901	85.88
471.12	82.88
471.339	66.88
471.558	76.88
471.777	73.88
471.997	64.88
472.216	78.88
472.435	86.88
472.654	92.88
472.873	86.88
473.092	76.88
473.311	84.88
473.53	91.88
473.749	74.88
473.968	97.88
474.187	71.88
474.406	75.88
474.625	71.88
474.844	75.88
475.063	107.88
475.282	78.88
475.501	73.88
475.72	84.88
475.939	83.88
476.158	81.88
476.377	89.88
476.596	83.88
476.814	66.88
477.033	71.88
477.252	79.88
477.471	74.88
477.69	78.88
477.908	82.88
478.127	86.88
478.346	74.88
478.564	77.88
478.783	68.88
479.002	84.88
479.22	84.88
479.439	66.88
479.658	89.88
479.876	80.88
480.095	87.88
480.313	98.88
480.532	82.88
480.751	98.88
480.969	98.88
481.188	92.88
481.406	69.88
481.624	78.88
481.843	89.88
482.061	74.88
482.28	68.88
482.498	89.88
482.717	77.88
482.935	83.88
483.153	83.88
483.372	90.88
483.59	90.88
483.808	77.88
484.027	81.88
484.245	85.88
484.463	78.88
484.681	93.88
484.9	79.88
485.118	88.88
485.336	75.88
485.554	74.88
485.772	74.88
485.99	85.88
486.209	71.88
486.427	65.88
486.645	81.88
486.863	81.88
487.081	83.88
487.299	82.88
487.517	82.88
487.735	88.88
487.953	80.88
488.171	104.88
488.389	91.88
488.607	77.88
488.825	74.88
489.043	62.88
489.261	94.88
489.479	93.88
489.696	105.88
489.914	95.88
490.132	73.88
490.35	70.88
490.568	95.88
490.786	85.88
491.003	92.88
491.221	62.88
491.439	92.88
491.657	72.88
491.874	89.88
492.092	86.88
492.31	87.88
492.527	78.88
492.745	76.88
492.963	87.88
493.18	100.88
493.398	90.88
493.615	90.88
493.833	89.88
494.05	84.88
494.268	86.88
494.485	85.88
494.703	85.88
494.92	94.88
495.138	93.88
495.355	82.88
495.573	79.88
495.79	93.88
496.008	83.88
496.225	85.88
496.442	84.88
496.66	91.88
496.877	69.88
497.094	81.88
497.312	78.88
497.529	74.88
497.746	79.88
497.963	76.88
498.181	79.88
498.398	71.88
498.615	74.88
498.832	76.88
499.049	78.88
499.267	75.88
499.484	68.88
499.701	80.88
499.918	82.88
500.135	84.88
500.352	92.88
500.569	66.88
500.786	71.88
501.003	94.88
501.22	81.88
501.437	79.88
501.654	87.88
501.871	83.88
502.088	80.88
502.305	106.88
502.522	77.88
502.739	79.88
502.956	88.88
503.172	77.88
503.389	77.88
503.606	85.88
503.823	78.88
504.04	81.88
504.256	91.88
504.473	85.88
504.69	74.88
504.907	67.88
505.123	69.88
505.34	87.88
505.557	85.88
505.773	85.88
505.99	85.88
506.207	91.88
506.423	75.88
506.64	74.88
506.856	97.88
507.073	78.88
507.289	81.88
507.506	73.88
507.722	74.88
507.939	79.88
508.155	67.88
508.372	88.88
508.588	85.88
508.805	88.88
509.021	70.88
509.238	76.88
509.454	70.88
509.67	94.88
509.887	79.88
510.103	73.88
510.319	92.88
510.536	88.88
510.752	74.88
510.968	69.88
511.184	75.88
511.401	87.88
511.617	106.88
511.833	85.88
512.049	73.88
512.265	71.88
512.481	79.88
512.698	71.88
512.914	68.88
513.13	83.88
513.346	88.88
513.562	92.88
513.778	82.88
513.994	77.88
514.21	89.88
514.426	61.88
514.642	81.88
514.858	78.88
515.074	90.88
515.29	76.88
515.506	75.88
515.721	85.88
515.937	76.88
516.153	81.88
516.369	78.88
516.585	77.88
516.801	87.88
517.016	85.88
517.232	63.88
517.448	78.88
517.664	77.88
517.879	76.88
518.095	99.88
518.311	76.88
518.527	84.88
518.742	81.88
518.958	68.88
519.173	71.88
519.389	78.88
519.605	87.88
519.82	62.88
520.036	81.88
520.251	70.88
