Data from StdD_HRD10591_052.txt Node
Date: Fri May 16 15:31:47 EDT 2025
User: Yrep
Spectrometer: HR+D1059
Trigger mode: 1
Integration Time (sec): 1.000000E-1
Scans to average: 1
Electric dark correction enabled: true
Nonlinearity correction enabled: false
Boxcar width: 0
XAxis mode: Wavelengths
Number of Pixels in Spectrum: 2048
>>>>>Begin Spectral Data<<<<<
223.165	-5.19
223.4	-5.19
223.635	-5.19
223.869	-25.19
224.104	-9.19
224.338	-13.19
224.573	-18.19
224.808	-6.19
225.042	-4.19
225.277	-4.19
225.511	-3.19
225.746	-10.19
225.98	1.81
226.215	17.81
226.449	9.81
226.683	20.81
226.918	14.81
227.152	33.81
227.387	36.81
227.621	60.81
227.856	42.81
228.09	36.81
228.324	58.81
228.559	54.81
228.793	66.81
229.027	66.81
229.262	77.81
229.496	64.81
229.73	80.81
229.964	80.81
230.199	73.81
230.433	86.81
230.667	81.81
230.901	71.81
231.136	80.81
231.37	68.81
231.604	80.81
231.838	85.81
232.072	81.81
232.306	81.81
232.541	68.81
232.775	80.81
233.009	72.81
233.243	65.81
233.477	78.81
233.711	85.81
233.945	99.81
234.179	74.81
234.413	104.81
234.647	84.81
234.881	74.81
235.115	68.81
235.349	66.81
235.583	70.81
235.817	72.81
236.051	71.81
236.285	70.81
236.519	88.81
236.753	84.81
236.987	85.81
237.221	75.81
237.455	84.81
237.689	74.81
237.922	80.81
238.156	75.81
238.39	90.81
238.624	77.81
238.858	85.81
239.091	84.81
239.325	69.81
239.559	83.81
239.793	78.81
240.027	80.81
240.26	67.81
240.494	81.81
240.728	66.81
240.961	69.81
241.195	78.81
241.429	68.81
241.662	77.81
241.896	74.81
242.13	79.81
242.363	74.81
242.597	66.81
242.83	70.81
243.064	80.81
243.298	76.81
243.531	70.81
243.765	94.81
243.998	86.81
244.232	84.81
244.465	88.81
244.699	77.81
244.932	71.81
245.166	88.81
245.399	88.81
245.633	78.81
245.866	68.81
246.099	76.81
246.333	72.81
246.566	76.81
246.8	86.81
247.033	86.81
247.266	76.81
247.5	86.81
247.733	81.81
247.966	70.81
248.2	87.81
248.433	83.81
248.666	80.81
248.899	86.81
249.133	80.81
249.366	89.81
249.599	80.81
249.832	84.81
250.066	86.81
250.299	82.81
250.532	83.81
250.765	80.81
250.998	70.81
251.231	74.81
251.465	80.81
251.698	72.81
251.931	79.81
252.164	75.81
252.397	78.81
252.63	84.81
252.863	86.81
253.096	64.81
253.329	71.81
253.562	82.81
253.795	75.81
254.028	94.81
254.261	83.81
254.494	78.81
254.727	93.81
254.96	81.81
255.193	76.81
255.426	78.81
255.659	79.81
255.892	83.81
256.124	69.81
256.357	80.81
256.59	85.81
256.823	78.81
257.056	68.81
257.289	91.81
257.521	75.81
257.754	84.81
257.987	77.81
258.22	80.81
258.452	71.81
258.685	74.81
258.918	79.81
259.151	90.81
259.383	86.81
259.616	90.81
259.849	70.81
260.081	83.81
260.314	73.81
260.547	85.81
260.779	86.81
261.012	85.81
261.244	84.81
261.477	96.81
261.71	97.81
261.942	90.81
262.175	80.81
262.407	82.81
262.64	89.81
262.872	71.81
263.105	76.81
263.337	85.81
263.57	81.81
263.802	67.81
264.035	78.81
264.267	84.81
264.499	67.81
264.732	82.81
264.964	76.81
265.197	76.81
265.429	80.81
265.661	95.81
265.894	96.81
266.126	98.81
266.358	86.81
266.591	95.81
266.823	94.81
267.055	81.81
267.287	75.81
267.52	80.81
267.752	87.81
267.984	71.81
268.216	90.81
268.448	78.81
268.681	84.81
268.913	84.81
269.145	83.81
269.377	75.81
269.609	88.81
269.841	80.81
270.073	91.81
270.306	82.81
270.538	82.81
270.77	91.81
271.002	70.81
271.234	89.81
271.466	81.81
271.698	73.81
271.93	82.81
272.162	92.81
272.394	76.81
272.626	89.81
272.858	64.81
273.09	87.81
273.322	96.81
273.553	88.81
273.785	67.81
274.017	91.81
274.249	82.81
274.481	77.81
274.713	95.81
274.945	86.81
275.176	77.81
275.408	88.81
275.64	88.81
275.872	58.81
276.104	100.81
276.335	67.81
276.567	76.81
276.799	83.81
277.031	93.81
277.262	89.81
277.494	82.81
277.726	78.81
277.957	84.81
278.189	89.81
278.421	93.81
278.652	80.81
278.884	97.81
279.115	81.81
279.347	75.81
279.579	69.81
279.81	75.81
280.042	90.81
280.273	81.81
280.505	79.81
280.736	85.81
280.968	94.81
281.199	92.81
281.431	89.81
281.662	74.81
281.894	94.81
282.125	94.81
282.356	95.81
282.588	92.81
282.819	80.81
283.051	97.81
283.282	100.81
283.513	89.81
283.745	76.81
283.976	79.81
284.207	88.81
284.439	96.81
284.67	89.81
284.901	81.81
285.132	91.81
285.364	88.81
285.595	80.81
285.826	85.81
286.057	80.81
286.288	99.81
286.52	101.81
286.751	89.81
286.982	94.81
287.213	101.81
287.444	83.81
287.675	76.81
287.906	89.81
288.138	85.81
288.369	85.81
288.6	89.81
288.831	84.81
289.062	85.81
289.293	94.81
289.524	88.81
289.755	93.81
289.986	87.81
290.217	86.81
290.448	92.81
290.679	82.81
290.91	87.81
291.141	98.81
291.371	78.81
291.602	68.81
291.833	97.81
292.064	76.81
292.295	82.81
292.526	71.81
292.757	97.81
292.987	105.81
293.218	78.81
293.449	90.81
293.68	92.81
293.91	74.81
294.141	84.81
294.372	92.81
294.603	92.81
294.833	91.81
295.064	84.81
295.295	80.81
295.525	74.81
295.756	81.81
295.987	92.81
296.217	83.81
296.448	84.81
296.679	100.81
296.909	81.81
297.14	92.81
297.37	85.81
297.601	81.81
297.831	87.81
298.062	87.81
298.292	76.81
298.523	80.81
298.753	86.81
298.984	92.81
299.214	97.81
299.445	84.81
299.675	84.81
299.905	81.81
300.136	78.81
300.366	92.81
300.597	79.81
300.827	76.81
301.057	85.81
301.288	90.81
301.518	97.81
301.748	88.81
301.979	92.81
302.209	85.81
302.439	105.81
302.669	81.81
302.9	88.81
303.13	70.81
303.36	94.81
303.59	70.81
303.82	87.81
304.051	100.81
304.281	88.81
304.511	87.81
304.741	94.81
304.971	74.81
305.201	82.81
305.431	86.81
305.661	91.81
305.891	93.81
306.121	85.81
306.352	78.81
306.582	86.81
306.812	101.81
307.042	79.81
307.272	74.81
307.502	94.81
307.731	77.81
307.961	76.81
308.191	88.81
308.421	87.81
308.651	95.81
308.881	90.81
309.111	74.81
309.341	83.81
309.571	91.81
309.8	86.81
310.03	84.81
310.26	88.81
310.49	84.81
310.72	85.81
310.949	77.81
311.179	70.81
311.409	88.81
311.639	81.81
311.868	101.81
312.098	102.81
312.328	89.81
312.557	86.81
312.787	94.81
313.017	87.81
313.246	98.81
313.476	96.81
313.706	94.81
313.935	78.81
314.165	91.81
314.394	88.81
314.624	93.81
314.853	85.81
315.083	92.81
315.312	86.81
315.542	91.81
315.771	73.81
316.001	80.81
316.23	86.81
316.46	95.81
316.689	84.81
316.919	82.81
317.148	95.81
317.377	94.81
317.607	91.81
317.836	89.81
318.065	92.81
318.295	90.81
318.524	74.81
318.753	92.81
318.983	77.81
319.212	76.81
319.441	99.81
319.67	84.81
319.9	85.81
320.129	74.81
320.358	90.81
320.587	77.81
320.816	74.81
321.046	89.81
321.275	86.81
321.504	82.81
321.733	85.81
321.962	80.81
322.191	73.81
322.42	74.81
322.649	92.81
322.878	80.81
323.108	90.81
323.337	86.81
323.566	82.81
323.795	92.81
324.024	81.81
324.253	86.81
324.482	80.81
324.71	101.81
324.939	85.81
325.168	92.81
325.397	74.81
325.626	75.81
325.855	78.81
326.084	73.81
326.313	94.81
326.542	100.81
326.77	89.81
326.999	83.81
327.228	86.81
327.457	94.81
327.686	81.81
327.914	82.81
328.143	107.81
328.372	84.81
328.6	77.81
328.829	81.81
329.058	81.81
329.287	71.81
329.515	108.81
329.744	70.81
329.972	93.81
330.201	90.81
330.43	90.81
330.658	84.81
330.887	83.81
331.115	84.81
331.344	80.81
331.572	79.81
331.801	82.81
332.03	83.81
332.258	95.81
332.486	80.81
332.715	82.81
332.943	94.81
333.172	93.81
333.4	80.81
333.629	86.81
333.857	70.81
334.085	78.81
334.314	84.81
334.542	77.81
334.771	85.81
334.999	79.81
335.227	89.81
335.455	76.81
335.684	79.81
335.912	84.81
336.14	72.81
336.369	80.81
336.597	83.81
336.825	85.81
337.053	97.81
337.281	89.81
337.51	89.81
337.738	85.81
337.966	83.81
338.194	79.81
338.422	80.81
338.65	70.81
338.878	91.81
339.106	76.81
339.334	77.81
339.562	91.81
339.79	78.81
340.018	88.81
340.246	74.81
340.474	79.81
340.702	80.81
340.93	79.81
341.158	84.81
341.386	68.81
341.614	75.81
341.842	85.81
342.07	74.81
342.298	83.81
342.526	79.81
342.754	80.81
342.981	76.81
343.209	84.81
343.437	100.81
343.665	74.81
343.893	107.81
344.12	80.81
344.348	76.81
344.576	76.81
344.804	85.81
345.031	87.81
345.259	82.81
345.487	71.81
345.714	77.81
345.942	89.81
346.17	88.81
346.397	71.81
346.625	79.81
346.853	88.81
347.08	78.81
347.308	82.81
347.535	75.81
347.763	77.81
347.99	81.81
348.218	95.81
348.445	71.81
348.673	98.81
348.9	97.81
349.128	75.81
349.355	80.81
349.583	97.81
349.81	85.81
350.037	84.81
350.265	83.81
350.492	68.81
350.72	92.81
350.947	82.81
351.174	88.81
351.402	104.81
351.629	109.81
351.856	81.81
352.083	82.81
352.311	90.81
352.538	93.81
352.765	92.81
352.992	90.81
353.22	83.81
353.447	80.81
353.674	97.81
353.901	87.81
354.128	95.81
354.355	90.81
354.583	78.81
354.81	81.81
355.037	80.81
355.264	100.81
355.491	86.81
355.718	85.81
355.945	74.81
356.172	77.81
356.399	74.81
356.626	92.81
356.853	70.81
357.08	71.81
357.307	77.81
357.534	78.81
357.761	89.81
357.988	83.81
358.215	73.81
358.441	85.81
358.668	78.81
358.895	83.81
359.122	94.81
359.349	84.81
359.576	93.81
359.802	90.81
360.029	75.81
360.256	74.81
360.483	78.81
360.709	82.81
360.936	78.81
361.163	85.81
361.39	89.81
361.616	93.81
361.843	92.81
362.07	84.81
362.296	77.81
362.523	78.81
362.749	77.81
362.976	90.81
363.203	86.81
363.429	80.81
363.656	88.81
363.882	82.81
364.109	82.81
364.335	77.81
364.562	93.81
364.788	81.81
365.015	84.81
365.241	90.81
365.468	94.81
365.694	84.81
365.92	80.81
366.147	91.81
366.373	91.81
366.599	71.81
366.826	81.81
367.052	84.81
367.278	91.81
367.505	93.81
367.731	97.81
367.957	95.81
368.184	87.81
368.41	91.81
368.636	78.81
368.862	82.81
369.089	83.81
369.315	70.81
369.541	95.81
369.767	89.81
369.993	101.81
370.219	82.81
370.445	77.81
370.672	97.81
370.898	82.81
371.124	86.81
371.35	93.81
371.576	97.81
371.802	85.81
372.028	85.81
372.254	87.81
372.48	88.81
372.706	91.81
372.932	100.81
373.158	83.81
373.384	107.81
373.61	86.81
373.835	82.81
374.061	85.81
374.287	78.81
374.513	86.81
374.739	82.81
374.965	67.81
375.191	78.81
375.416	85.81
375.642	89.81
375.868	85.81
376.094	95.81
376.319	79.81
376.545	91.81
376.771	76.81
376.997	90.81
377.222	74.81
377.448	91.81
377.674	95.81
377.899	84.81
378.125	99.81
378.35	95.81
378.576	84.81
378.802	97.81
379.027	77.81
379.253	89.81
379.478	91.81
379.704	69.81
379.929	94.81
380.155	79.81
380.38	83.81
380.606	84.81
380.831	97.81
381.057	86.81
381.282	88.81
381.507	82.81
381.733	94.81
381.958	92.81
382.184	85.81
382.409	88.81
382.634	91.81
382.86	87.81
383.085	88.81
383.31	85.81
383.535	85.81
383.761	86.81
383.986	80.81
384.211	87.81
384.436	77.81
384.662	78.81
384.887	87.81
385.112	77.81
385.337	90.81
385.562	71.81
385.787	72.81
386.013	87.81
386.238	79.81
386.463	80.81
386.688	78.81
386.913	81.81
387.138	93.81
387.363	90.81
387.588	94.81
387.813	84.81
388.038	86.81
388.263	92.81
388.488	87.81
388.713	85.81
388.938	91.81
389.163	76.81
389.387	77.81
389.612	68.81
389.837	96.81
390.062	100.81
390.287	84.81
390.512	96.81
390.736	85.81
390.961	84.81
391.186	78.81
391.411	78.81
391.636	83.81
391.86	91.81
392.085	84.81
392.31	78.81
392.534	92.81
392.759	89.81
392.984	75.81
393.208	89.81
393.433	88.81
393.658	89.81
393.882	76.81
394.107	88.81
394.331	76.81
394.556	94.81
394.78	79.81
395.005	90.81
395.229	81.81
395.454	75.81
395.678	86.81
395.903	91.81
396.127	79.81
396.352	78.81
396.576	88.81
396.801	56.81
397.025	69.81
397.249	96.81
397.474	95.81
397.698	97.81
397.922	90.81
398.147	90.81
398.371	83.81
398.595	74.81
398.82	86.81
399.044	70.81
399.268	81.81
399.492	87.81
399.717	89.81
399.941	61.81
400.165	99.81
400.389	77.81
400.613	88.81
400.837	82.81
401.062	94.81
401.286	73.81
401.51	85.81
401.734	85.81
401.958	89.81
402.182	76.81
402.406	75.81
402.63	76.81
402.854	64.81
403.078	79.81
403.302	92.81
403.526	84.81
403.75	81.81
403.974	81.81
404.198	84.81
404.422	87.81
404.645	77.81
404.869	92.81
405.093	88.81
405.317	77.81
405.541	75.81
405.765	77.81
405.988	75.81
406.212	72.81
406.436	77.81
406.66	77.81
406.883	90.81
407.107	93.81
407.331	70.81
407.555	94.81
407.778	74.81
408.002	81.81
408.226	86.81
408.449	77.81
408.673	75.81
408.896	69.81
409.12	80.81
409.344	82.81
409.567	82.81
409.791	85.81
410.014	88.81
410.238	71.81
410.461	83.81
410.685	82.81
410.908	83.81
411.132	88.81
411.355	92.81
411.578	73.81
411.802	90.81
412.025	85.81
412.249	90.81
412.472	88.81
412.695	87.81
412.919	77.81
413.142	78.81
413.365	99.81
413.589	89.81
413.812	80.81
414.035	81.81
414.258	88.81
414.482	88.81
414.705	84.81
414.928	84.81
415.151	89.81
415.374	85.81
415.597	77.81
415.821	79.81
416.044	84.81
416.267	96.81
416.49	76.81
416.713	80.81
416.936	81.81
417.159	79.81
417.382	88.81
417.605	78.81
417.828	89.81
418.051	94.81
418.274	80.81
418.497	80.81
418.72	93.81
418.943	80.81
419.166	76.81
419.389	69.81
419.611	85.81
419.834	99.81
420.057	94.81
420.28	78.81
420.503	87.81
420.726	93.81
420.948	79.81
421.171	86.81
421.394	86.81
421.617	78.81
421.839	76.81
422.062	92.81
422.285	81.81
422.507	90.81
422.73	81.81
422.953	72.81
423.175	77.81
423.398	67.81
423.621	68.81
423.843	84.81
424.066	84.81
424.288	84.81
424.511	88.81
424.733	87.81
424.956	79.81
425.178	85.81
425.401	68.81
425.623	82.81
425.846	92.81
426.068	83.81
426.291	91.81
426.513	81.81
426.735	85.81
426.958	76.81
427.18	85.81
427.402	89.81
427.625	86.81
427.847	90.81
428.069	96.81
428.292	84.81
428.514	79.81
428.736	76.81
428.958	83.81
429.181	86.81
429.403	83.81
429.625	85.81
429.847	88.81
430.069	90.81
430.292	93.81
430.514	86.81
430.736	85.81
430.958	72.81
431.18	82.81
431.402	71.81
431.624	73.81
431.846	74.81
432.068	86.81
432.29	93.81
432.512	80.81
432.734	66.81
432.956	92.81
433.178	81.81
433.4	80.81
433.622	84.81
433.844	85.81
434.066	86.81
434.287	93.81
434.509	75.81
434.731	78.81
434.953	77.81
435.175	75.81
435.397	94.81
435.618	83.81
435.84	77.81
436.062	96.81
436.284	84.81
436.505	90.81
436.727	78.81
436.949	83.81
437.17	73.81
437.392	80.81
437.614	86.81
437.835	83.81
438.057	84.81
438.278	79.81
438.5	82.81
438.721	91.81
438.943	98.81
439.165	91.81
439.386	96.81
439.608	76.81
439.829	86.81
440.05	93.81
440.272	88.81
440.493	82.81
440.715	83.81
440.936	86.81
441.158	84.81
441.379	84.81
441.6	86.81
441.822	93.81
442.043	85.81
442.264	92.81
442.486	77.81
442.707	83.81
442.928	83.81
443.149	93.81
443.371	80.81
443.592	86.81
443.813	80.81
444.034	96.81
444.255	82.81
444.476	85.81
444.698	76.81
444.919	76.81
445.14	155.81
445.361	130.81
445.582	91.81
445.803	84.81
446.024	97.81
446.245	97.81
446.466	60.81
446.687	76.81
446.908	89.81
447.129	83.81
447.35	92.81
447.571	92.81
447.792	78.81
448.013	81.81
448.234	87.81
448.455	82.81
448.675	90.81
448.896	70.81
449.117	74.81
449.338	79.81
449.559	88.81
449.779	70.81
450	81.81
450.221	92.81
450.442	71.81
450.662	101.81
450.883	79.81
451.104	93.81
451.324	84.81
451.545	94.81
451.766	69.81
451.986	76.81
452.207	72.81
452.428	91.81
452.648	82.81
452.869	84.81
453.089	82.81
453.31	95.81
453.53	94.81
453.751	95.81
453.971	86.81
454.192	86.81
454.412	76.81
454.633	77.81
454.853	73.81
455.073	74.81
455.294	82.81
455.514	88.81
455.734	71.81
455.955	89.81
456.175	98.81
456.395	88.81
456.616	83.81
456.836	89.81
457.056	74.81
457.276	70.81
457.497	90.81
457.717	87.81
457.937	70.81
458.157	83.81
458.377	78.81
458.598	82.81
458.818	70.81
459.038	82.81
459.258	85.81
459.478	84.81
459.698	81.81
459.918	82.81
460.138	92.81
460.358	75.81
460.578	73.81
460.798	96.81
461.018	93.81
461.238	85.81
461.458	77.81
461.678	91.81
461.898	93.81
462.118	73.81
462.338	86.81
462.558	91.81
462.777	85.81
462.997	81.81
463.217	75.81
463.437	80.81
463.657	82.81
463.876	77.81
464.096	104.81
464.316	81.81
464.536	87.81
464.755	74.81
464.975	85.81
465.195	86.81
465.414	86.81
465.634	78.81
465.854	85.81
466.073	75.81
466.293	76.81
466.512	91.81
466.732	72.81
466.951	89.81
467.171	82.81
467.391	95.81
467.61	77.81
467.829	80.81
468.049	88.81
468.268	85.81
468.488	85.81
468.707	81.81
468.927	79.81
469.146	93.81
469.365	90.81
469.585	79.81
469.804	77.81
470.023	86.81
470.243	77.81
470.462	97.81
470.681	90.81
470.901	72.81
471.12	94.81
471.339	81.81
471.558	82.81
471.777	86.81
471.997	89.81
472.216	92.81
472.435	73.81
472.654	70.81
472.873	85.81
473.092	84.81
473.311	94.81
473.53	78.81
473.749	84.81
473.968	92.81
474.187	92.81
474.406	77.81
474.625	82.81
474.844	80.81
475.063	92.81
475.282	86.81
475.501	85.81
475.72	81.81
475.939	88.81
476.158	75.81
476.377	86.81
476.596	82.81
476.814	81.81
477.033	86.81
477.252	80.81
477.471	96.81
477.69	90.81
477.908	85.81
478.127	69.81
478.346	85.81
478.564	78.81
478.783	84.81
479.002	78.81
479.22	91.81
479.439	91.81
479.658	69.81
479.876	76.81
480.095	82.81
480.313	84.81
480.532	90.81
480.751	86.81
480.969	84.81
481.188	101.81
481.406	75.81
481.624	80.81
481.843	90.81
482.061	82.81
482.28	77.81
482.498	85.81
482.717	68.81
482.935	98.81
483.153	86.81
483.372	83.81
483.59	78.81
483.808	86.81
484.027	73.81
484.245	76.81
484.463	77.81
484.681	90.81
484.9	80.81
485.118	111.81
485.336	93.81
485.554	70.81
485.772	71.81
485.99	84.81
486.209	85.81
486.427	84.81
486.645	77.81
486.863	83.81
487.081	84.81
487.299	90.81
487.517	85.81
487.735	100.81
487.953	90.81
488.171	74.81
488.389	74.81
488.607	84.81
488.825	85.81
489.043	80.81
489.261	78.81
489.479	87.81
489.696	85.81
489.914	81.81
490.132	79.81
490.35	104.81
490.568	76.81
490.786	83.81
491.003	99.81
491.221	85.81
491.439	79.81
491.657	85.81
491.874	94.81
492.092	82.81
492.31	99.81
492.527	89.81
492.745	80.81
492.963	95.81
493.18	73.81
493.398	83.81
493.615	90.81
493.833	84.81
494.05	84.81
494.268	92.81
494.485	90.81
494.703	88.81
494.92	99.81
495.138	81.81
495.355	80.81
495.573	92.81
495.79	90.81
496.008	94.81
496.225	91.81
496.442	81.81
496.66	84.81
496.877	87.81
497.094	89.81
497.312	89.81
497.529	85.81
497.746	86.81
497.963	63.81
498.181	81.81
498.398	79.81
498.615	87.81
498.832	86.81
499.049	84.81
499.267	78.81
499.484	81.81
499.701	79.81
499.918	74.81
500.135	81.81
500.352	91.81
500.569	104.81
500.786	82.81
501.003	84.81
501.22	75.81
501.437	78.81
501.654	76.81
501.871	78.81
502.088	82.81
502.305	88.81
502.522	88.81
502.739	89.81
502.956	71.81
503.172	80.81
503.389	78.81
503.606	89.81
503.823	81.81
504.04	89.81
504.256	99.81
504.473	76.81
504.69	82.81
504.907	98.81
505.123	76.81
505.34	95.81
505.557	76.81
505.773	97.81
505.99	74.81
506.207	91.81
506.423	81.81
506.64	69.81
506.856	93.81
507.073	70.81
507.289	86.81
507.506	94.81
507.722	84.81
507.939	82.81
508.155	84.81
508.372	73.81
508.588	74.81
508.805	77.81
509.021	80.81
509.238	96.81
509.454	86.81
509.67	81.81
509.887	82.81
510.103	77.81
510.319	89.81
510.536	79.81
510.752	82.81
510.968	101.81
511.184	81.81
511.401	86.81
511.617	89.81
511.833	88.81
512.049	87.81
512.265	76.81
512.481	76.81
512.698	93.81
512.914	80.81
513.13	83.81
513.346	88.81
513.562	85.81
513.778	91.81
513.994	82.81
514.21	96.81
514.426	87.81
514.642	96.81
514.858	70.81
515.074	79.81
515.29	80.81
515.506	88.81
515.721	85.81
515.937	91.81
516.153	80.81
516.369	87.81
516.585	78.81
516.801	89.81
517.016	81.81
517.232	92.81
517.448	91.81
517.664	85.81
517.879	90.81
518.095	82.81
518.311	84.81
518.527	85.81
518.742	83.81
518.958	80.81
519.173	81.81
519.389	91.81
519.605	83.81
519.82	73.81
520.036	80.81
