Data from StdD_HRD10591_066.txt Node
Date: Fri May 16 15:31:54 EDT 2025
User: Yrep
Spectrometer: HR+D1059
Trigger mode: 1
Integration Time (sec): 1.000000E-1
Scans to average: 1
Electric dark correction enabled: true
Nonlinearity correction enabled: false
Boxcar width: 0
XAxis mode: Wavelengths
Number of Pixels in Spectrum: 2048
>>>>>Begin Spectral Data<<<<<
223.165	-11.38
223.4	-11.38
223.635	-11.38
223.869	-19.38
224.104	-27.38
224.338	-15.38
224.573	-27.38
224.808	-16.38
225.042	-7.38
225.277	3.62
225.511	6.62
225.746	-1.38
225.98	3.62
226.215	18.62
226.449	15.62
226.683	14.62
226.918	27.62
227.152	35.62
227.387	24.62
227.621	32.62
227.856	48.62
228.09	42.62
228.324	59.62
228.559	54.62
228.793	56.62
229.027	59.62
229.262	64.62
229.496	64.62
229.73	62.62
229.964	73.62
230.199	66.62
230.433	72.62
230.667	82.62
230.901	86.62
231.136	69.62
231.37	82.62
231.604	86.62
231.838	74.62
232.072	73.62
232.306	83.62
232.541	71.62
232.775	66.62
233.009	68.62
233.243	78.62
233.477	94.62
233.711	74.62
233.945	87.62
234.179	76.62
234.413	76.62
234.647	76.62
234.881	54.62
235.115	64.62
235.349	88.62
235.583	72.62
235.817	68.62
236.051	74.62
236.285	69.62
236.519	79.62
236.753	78.62
236.987	70.62
237.221	79.62
237.455	75.62
237.689	74.62
237.922	77.62
238.156	74.62
238.39	73.62
238.624	71.62
238.858	76.62
239.091	74.62
239.325	54.62
239.559	72.62
239.793	80.62
240.027	76.62
240.26	75.62
240.494	76.62
240.728	80.62
240.961	57.62
241.195	73.62
241.429	83.62
241.662	72.62
241.896	80.62
242.13	68.62
242.363	67.62
242.597	78.62
242.83	90.62
243.064	76.62
243.298	66.62
243.531	75.62
243.765	71.62
243.998	87.62
244.232	67.62
244.465	66.62
244.699	72.62
244.932	69.62
245.166	68.62
245.399	78.62
245.633	84.62
245.866	81.62
246.099	70.62
246.333	77.62
246.566	69.62
246.8	65.62
247.033	71.62
247.266	78.62
247.5	74.62
247.733	85.62
247.966	80.62
248.2	70.62
248.433	82.62
248.666	67.62
248.899	86.62
249.133	65.62
249.366	80.62
249.599	75.62
249.832	71.62
250.066	77.62
250.299	90.62
250.532	78.62
250.765	93.62
250.998	70.62
251.231	65.62
251.465	79.62
251.698	87.62
251.931	68.62
252.164	92.62
252.397	77.62
252.63	82.62
252.863	76.62
253.096	71.62
253.329	79.62
253.562	79.62
253.795	86.62
254.028	92.62
254.261	64.62
254.494	71.62
254.727	67.62
254.96	70.62
255.193	78.62
255.426	81.62
255.659	76.62
255.892	72.62
256.124	80.62
256.357	76.62
256.59	90.62
256.823	95.62
257.056	68.62
257.289	84.62
257.521	72.62
257.754	67.62
257.987	70.62
258.22	70.62
258.452	77.62
258.685	75.62
258.918	78.62
259.151	85.62
259.383	80.62
259.616	76.62
259.849	57.62
260.081	76.62
260.314	77.62
260.547	82.62
260.779	77.62
261.012	72.62
261.244	72.62
261.477	65.62
261.71	81.62
261.942	86.62
262.175	77.62
262.407	83.62
262.64	78.62
262.872	77.62
263.105	78.62
263.337	79.62
263.57	83.62
263.802	74.62
264.035	80.62
264.267	86.62
264.499	86.62
264.732	78.62
264.964	76.62
265.197	87.62
265.429	68.62
265.661	71.62
265.894	94.62
266.126	77.62
266.358	87.62
266.591	85.62
266.823	87.62
267.055	69.62
267.287	66.62
267.52	65.62
267.752	69.62
267.984	77.62
268.216	82.62
268.448	74.62
268.681	78.62
268.913	88.62
269.145	63.62
269.377	87.62
269.609	68.62
269.841	72.62
270.073	76.62
270.306	91.62
270.538	76.62
270.77	77.62
271.002	83.62
271.234	83.62
271.466	64.62
271.698	76.62
271.93	87.62
272.162	76.62
272.394	77.62
272.626	79.62
272.858	85.62
273.09	83.62
273.322	75.62
273.553	79.62
273.785	64.62
274.017	81.62
274.249	61.62
274.481	76.62
274.713	82.62
274.945	74.62
275.176	77.62
275.408	65.62
275.64	72.62
275.872	80.62
276.104	80.62
276.335	75.62
276.567	81.62
276.799	65.62
277.031	85.62
277.262	88.62
277.494	74.62
277.726	79.62
277.957	87.62
278.189	86.62
278.421	74.62
278.652	81.62
278.884	88.62
279.115	68.62
279.347	79.62
279.579	81.62
279.81	79.62
280.042	71.62
280.273	72.62
280.505	77.62
280.736	69.62
280.968	71.62
281.199	83.62
281.431	83.62
281.662	79.62
281.894	77.62
282.125	81.62
282.356	72.62
282.588	76.62
282.819	88.62
283.051	86.62
283.282	79.62
283.513	70.62
283.745	98.62
283.976	76.62
284.207	74.62
284.439	80.62
284.67	79.62
284.901	75.62
285.132	79.62
285.364	65.62
285.595	78.62
285.826	84.62
286.057	87.62
286.288	79.62
286.52	82.62
286.751	82.62
286.982	90.62
287.213	81.62
287.444	85.62
287.675	84.62
287.906	72.62
288.138	81.62
288.369	75.62
288.6	77.62
288.831	88.62
289.062	84.62
289.293	76.62
289.524	76.62
289.755	76.62
289.986	76.62
290.217	75.62
290.448	72.62
290.679	82.62
290.91	100.62
291.141	89.62
291.371	84.62
291.602	92.62
291.833	70.62
292.064	68.62
292.295	71.62
292.526	64.62
292.757	92.62
292.987	89.62
293.218	63.62
293.449	79.62
293.68	88.62
293.91	90.62
294.141	91.62
294.372	93.62
294.603	83.62
294.833	86.62
295.064	94.62
295.295	74.62
295.525	61.62
295.756	76.62
295.987	68.62
296.217	79.62
296.448	88.62
296.679	92.62
296.909	98.62
297.14	79.62
297.37	90.62
297.601	78.62
297.831	80.62
298.062	90.62
298.292	94.62
298.523	74.62
298.753	77.62
298.984	75.62
299.214	73.62
299.445	73.62
299.675	78.62
299.905	82.62
300.136	74.62
300.366	79.62
300.597	63.62
300.827	87.62
301.057	78.62
301.288	70.62
301.518	83.62
301.748	93.62
301.979	110.62
302.209	84.62
302.439	75.62
302.669	87.62
302.9	79.62
303.13	78.62
303.36	88.62
303.59	91.62
303.82	78.62
304.051	80.62
304.281	92.62
304.511	87.62
304.741	81.62
304.971	64.62
305.201	71.62
305.431	96.62
305.661	81.62
305.891	90.62
306.121	79.62
306.352	90.62
306.582	89.62
306.812	78.62
307.042	89.62
307.272	87.62
307.502	71.62
307.731	86.62
307.961	88.62
308.191	86.62
308.421	59.62
308.651	72.62
308.881	71.62
309.111	85.62
309.341	79.62
309.571	98.62
309.8	87.62
310.03	90.62
310.26	80.62
310.49	95.62
310.72	91.62
310.949	66.62
311.179	83.62
311.409	91.62
311.639	91.62
311.868	72.62
312.098	85.62
312.328	92.62
312.557	78.62
312.787	75.62
313.017	76.62
313.246	82.62
313.476	84.62
313.706	90.62
313.935	84.62
314.165	70.62
314.394	72.62
314.624	76.62
314.853	84.62
315.083	86.62
315.312	67.62
315.542	86.62
315.771	80.62
316.001	87.62
316.23	89.62
316.46	93.62
316.689	84.62
316.919	78.62
317.148	75.62
317.377	89.62
317.607	74.62
317.836	82.62
318.065	76.62
318.295	84.62
318.524	83.62
318.753	71.62
318.983	74.62
319.212	87.62
319.441	85.62
319.67	74.62
319.9	78.62
320.129	78.62
320.358	80.62
320.587	104.62
320.816	91.62
321.046	82.62
321.275	79.62
321.504	80.62
321.733	83.62
321.962	78.62
322.191	83.62
322.42	84.62
322.649	94.62
322.878	80.62
323.108	86.62
323.337	73.62
323.566	89.62
323.795	71.62
324.024	68.62
324.253	84.62
324.482	76.62
324.71	69.62
324.939	90.62
325.168	77.62
325.397	88.62
325.626	70.62
325.855	83.62
326.084	88.62
326.313	80.62
326.542	87.62
326.77	84.62
326.999	80.62
327.228	78.62
327.457	78.62
327.686	80.62
327.914	74.62
328.143	65.62
328.372	87.62
328.6	92.62
328.829	84.62
329.058	83.62
329.287	79.62
329.515	77.62
329.744	93.62
329.972	86.62
330.201	88.62
330.43	80.62
330.658	82.62
330.887	88.62
331.115	91.62
331.344	84.62
331.572	87.62
331.801	87.62
332.03	97.62
332.258	84.62
332.486	71.62
332.715	74.62
332.943	85.62
333.172	75.62
333.4	70.62
333.629	88.62
333.857	75.62
334.085	96.62
334.314	89.62
334.542	73.62
334.771	68.62
334.999	84.62
335.227	88.62
335.455	74.62
335.684	84.62
335.912	78.62
336.14	87.62
336.369	85.62
336.597	90.62
336.825	84.62
337.053	82.62
337.281	63.62
337.51	82.62
337.738	75.62
337.966	83.62
338.194	90.62
338.422	71.62
338.65	84.62
338.878	92.62
339.106	63.62
339.334	80.62
339.562	72.62
339.79	71.62
340.018	80.62
340.246	79.62
340.474	60.62
340.702	64.62
340.93	80.62
341.158	91.62
341.386	68.62
341.614	80.62
341.842	90.62
342.07	79.62
342.298	70.62
342.526	87.62
342.754	82.62
342.981	82.62
343.209	72.62
343.437	100.62
343.665	62.62
343.893	82.62
344.12	89.62
344.348	81.62
344.576	65.62
344.804	90.62
345.031	84.62
345.259	83.62
345.487	90.62
345.714	84.62
345.942	72.62
346.17	90.62
346.397	80.62
346.625	71.62
346.853	88.62
347.08	62.62
347.308	88.62
347.535	83.62
347.763	77.62
347.99	83.62
348.218	68.62
348.445	91.62
348.673	87.62
348.9	75.62
349.128	84.62
349.355	54.62
349.583	64.62
349.81	80.62
350.037	85.62
350.265	80.62
350.492	84.62
350.72	79.62
350.947	80.62
351.174	76.62
351.402	70.62
351.629	82.62
351.856	79.62
352.083	68.62
352.311	84.62
352.538	104.62
352.765	77.62
352.992	84.62
353.22	81.62
353.447	82.62
353.674	73.62
353.901	80.62
354.128	72.62
354.355	76.62
354.583	83.62
354.81	93.62
355.037	83.62
355.264	78.62
355.491	58.62
355.718	82.62
355.945	68.62
356.172	76.62
356.399	80.62
356.626	92.62
356.853	86.62
357.08	69.62
357.307	75.62
357.534	63.62
357.761	93.62
357.988	87.62
358.215	81.62
358.441	83.62
358.668	87.62
358.895	77.62
359.122	87.62
359.349	78.62
359.576	75.62
359.802	69.62
360.029	90.62
360.256	80.62
360.483	75.62
360.709	69.62
360.936	88.62
361.163	81.62
361.39	76.62
361.616	73.62
361.843	90.62
362.07	82.62
362.296	84.62
362.523	79.62
362.749	79.62
362.976	87.62
363.203	87.62
363.429	81.62
363.656	86.62
363.882	75.62
364.109	70.62
364.335	79.62
364.562	78.62
364.788	62.62
365.015	87.62
365.241	68.62
365.468	91.62
365.694	65.62
365.92	81.62
366.147	93.62
366.373	91.62
366.599	79.62
366.826	86.62
367.052	65.62
367.278	71.62
367.505	83.62
367.731	94.62
367.957	77.62
368.184	74.62
368.41	80.62
368.636	70.62
368.862	92.62
369.089	70.62
369.315	84.62
369.541	76.62
369.767	77.62
369.993	74.62
370.219	78.62
370.445	76.62
370.672	86.62
370.898	81.62
371.124	78.62
371.35	69.62
371.576	89.62
371.802	71.62
372.028	74.62
372.254	77.62
372.48	76.62
372.706	92.62
372.932	84.62
373.158	87.62
373.384	76.62
373.61	81.62
373.835	98.62
374.061	80.62
374.287	96.62
374.513	81.62
374.739	77.62
374.965	77.62
375.191	71.62
375.416	60.62
375.642	90.62
375.868	65.62
376.094	80.62
376.319	84.62
376.545	86.62
376.771	85.62
376.997	90.62
377.222	87.62
377.448	70.62
377.674	72.62
377.899	74.62
378.125	72.62
378.35	89.62
378.576	92.62
378.802	61.62
379.027	81.62
379.253	89.62
379.478	74.62
379.704	82.62
379.929	76.62
380.155	81.62
380.38	78.62
380.606	66.62
380.831	82.62
381.057	79.62
381.282	78.62
381.507	77.62
381.733	78.62
381.958	71.62
382.184	86.62
382.409	69.62
382.634	82.62
382.86	92.62
383.085	76.62
383.31	79.62
383.535	85.62
383.761	71.62
383.986	64.62
384.211	85.62
384.436	79.62
384.662	78.62
384.887	93.62
385.112	87.62
385.337	78.62
385.562	78.62
385.787	80.62
386.013	83.62
386.238	97.62
386.463	74.62
386.688	88.62
386.913	70.62
387.138	75.62
387.363	82.62
387.588	80.62
387.813	70.62
388.038	78.62
388.263	70.62
388.488	90.62
388.713	90.62
388.938	71.62
389.163	81.62
389.387	73.62
389.612	78.62
389.837	69.62
390.062	77.62
390.287	79.62
390.512	80.62
390.736	64.62
390.961	77.62
391.186	52.62
391.411	75.62
391.636	71.62
391.86	77.62
392.085	83.62
392.31	63.62
392.534	74.62
392.759	85.62
392.984	75.62
393.208	86.62
393.433	82.62
393.658	74.62
393.882	80.62
394.107	72.62
394.331	93.62
394.556	83.62
394.78	86.62
395.005	87.62
395.229	78.62
395.454	92.62
395.678	63.62
395.903	72.62
396.127	75.62
396.352	74.62
396.576	84.62
396.801	84.62
397.025	80.62
397.249	94.62
397.474	79.62
397.698	87.62
397.922	80.62
398.147	74.62
398.371	82.62
398.595	81.62
398.82	89.62
399.044	79.62
399.268	69.62
399.492	72.62
399.717	77.62
399.941	85.62
400.165	77.62
400.389	85.62
400.613	82.62
400.837	65.62
401.062	68.62
401.286	80.62
401.51	80.62
401.734	61.62
401.958	68.62
402.182	78.62
402.406	70.62
402.63	78.62
402.854	86.62
403.078	83.62
403.302	76.62
403.526	80.62
403.75	71.62
403.974	74.62
404.198	85.62
404.422	83.62
404.645	74.62
404.869	80.62
405.093	73.62
405.317	72.62
405.541	72.62
405.765	64.62
405.988	78.62
406.212	85.62
406.436	78.62
406.66	76.62
406.883	75.62
407.107	73.62
407.331	85.62
407.555	96.62
407.778	78.62
408.002	93.62
408.226	94.62
408.449	74.62
408.673	78.62
408.896	82.62
409.12	80.62
409.344	83.62
409.567	86.62
409.791	62.62
410.014	87.62
410.238	77.62
410.461	66.62
410.685	83.62
410.908	81.62
411.132	75.62
411.355	72.62
411.578	79.62
411.802	65.62
412.025	70.62
412.249	67.62
412.472	62.62
412.695	82.62
412.919	80.62
413.142	77.62
413.365	72.62
413.589	84.62
413.812	76.62
414.035	91.62
414.258	80.62
414.482	84.62
414.705	81.62
414.928	86.62
415.151	82.62
415.374	72.62
415.597	82.62
415.821	84.62
416.044	87.62
416.267	74.62
416.49	82.62
416.713	91.62
416.936	79.62
417.159	69.62
417.382	76.62
417.605	90.62
417.828	80.62
418.051	71.62
418.274	76.62
418.497	88.62
418.72	80.62
418.943	85.62
419.166	75.62
419.389	78.62
419.611	74.62
419.834	66.62
420.057	59.62
420.28	82.62
420.503	78.62
420.726	74.62
420.948	71.62
421.171	78.62
421.394	69.62
421.617	80.62
421.839	91.62
422.062	57.62
422.285	89.62
422.507	83.62
422.73	69.62
422.953	82.62
423.175	56.62
423.398	74.62
423.621	70.62
423.843	65.62
424.066	66.62
424.288	82.62
424.511	90.62
424.733	89.62
424.956	84.62
425.178	72.62
425.401	72.62
425.623	88.62
425.846	76.62
426.068	77.62
426.291	85.62
426.513	78.62
426.735	79.62
426.958	60.62
427.18	69.62
427.402	75.62
427.625	73.62
427.847	84.62
428.069	86.62
428.292	68.62
428.514	70.62
428.736	75.62
428.958	80.62
429.181	74.62
429.403	74.62
429.625	85.62
429.847	80.62
430.069	84.62
430.292	77.62
430.514	82.62
430.736	77.62
430.958	78.62
431.18	83.62
431.402	67.62
431.624	77.62
431.846	87.62
432.068	78.62
432.29	80.62
432.512	83.62
432.734	74.62
432.956	71.62
433.178	93.62
433.4	82.62
433.622	87.62
433.844	75.62
434.066	75.62
434.287	71.62
434.509	85.62
434.731	85.62
434.953	68.62
435.175	78.62
435.397	83.62
435.618	76.62
435.84	65.62
436.062	64.62
436.284	72.62
436.505	61.62
436.727	90.62
436.949	85.62
437.17	78.62
437.392	67.62
437.614	67.62
437.835	71.62
438.057	76.62
438.278	63.62
438.5	63.62
438.721	86.62
438.943	82.62
439.165	84.62
439.386	84.62
439.608	77.62
439.829	80.62
440.05	82.62
440.272	87.62
440.493	78.62
440.715	85.62
440.936	81.62
441.158	77.62
441.379	67.62
441.6	74.62
441.822	78.62
442.043	83.62
442.264	85.62
442.486	89.62
442.707	84.62
442.928	78.62
443.149	78.62
443.371	82.62
443.592	56.62
443.813	83.62
444.034	82.62
444.255	88.62
444.476	73.62
444.698	65.62
444.919	67.62
445.14	163.62
445.361	108.62
445.582	76.62
445.803	84.62
446.024	83.62
446.245	92.62
446.466	77.62
446.687	79.62
446.908	91.62
447.129	94.62
447.35	73.62
447.571	71.62
447.792	83.62
448.013	70.62
448.234	66.62
448.455	91.62
448.675	78.62
448.896	70.62
449.117	64.62
449.338	74.62
449.559	78.62
449.779	85.62
450	81.62
450.221	85.62
450.442	88.62
450.662	82.62
450.883	87.62
451.104	74.62
451.324	52.62
451.545	86.62
451.766	71.62
451.986	78.62
452.207	86.62
452.428	76.62
452.648	85.62
452.869	92.62
453.089	74.62
453.31	86.62
453.53	84.62
453.751	86.62
453.971	79.62
454.192	77.62
454.412	78.62
454.633	71.62
454.853	64.62
455.073	78.62
455.294	71.62
455.514	72.62
455.734	84.62
455.955	77.62
456.175	84.62
456.395	64.62
456.616	75.62
456.836	76.62
457.056	73.62
457.276	78.62
457.497	82.62
457.717	82.62
457.937	79.62
458.157	82.62
458.377	79.62
458.598	80.62
458.818	76.62
459.038	69.62
459.258	60.62
459.478	86.62
459.698	68.62
459.918	91.62
460.138	70.62
460.358	87.62
460.578	71.62
460.798	69.62
461.018	87.62
461.238	85.62
461.458	79.62
461.678	72.62
461.898	89.62
462.118	87.62
462.338	80.62
462.558	82.62
462.777	89.62
462.997	79.62
463.217	71.62
463.437	68.62
463.657	64.62
463.876	66.62
464.096	84.62
464.316	82.62
464.536	78.62
464.755	84.62
464.975	91.62
465.195	87.62
465.414	71.62
465.634	92.62
465.854	86.62
466.073	79.62
466.293	84.62
466.512	84.62
466.732	85.62
466.951	75.62
467.171	86.62
467.391	76.62
467.61	73.62
467.829	85.62
468.049	67.62
468.268	71.62
468.488	63.62
468.707	80.62
468.927	93.62
469.146	81.62
469.365	85.62
469.585	72.62
469.804	75.62
470.023	70.62
470.243	88.62
470.462	84.62
470.681	83.62
470.901	70.62
471.12	72.62
471.339	76.62
471.558	86.62
471.777	76.62
471.997	79.62
472.216	83.62
472.435	74.62
472.654	89.62
472.873	87.62
473.092	75.62
473.311	94.62
473.53	84.62
473.749	68.62
473.968	75.62
474.187	88.62
474.406	77.62
474.625	94.62
474.844	75.62
475.063	76.62
475.282	64.62
475.501	70.62
475.72	81.62
475.939	70.62
476.158	74.62
476.377	84.62
476.596	84.62
476.814	63.62
477.033	76.62
477.252	74.62
477.471	76.62
477.69	83.62
477.908	83.62
478.127	85.62
478.346	88.62
478.564	74.62
478.783	72.62
479.002	68.62
479.22	62.62
479.439	72.62
479.658	77.62
479.876	82.62
480.095	73.62
480.313	80.62
480.532	88.62
480.751	72.62
480.969	66.62
481.188	72.62
481.406	75.62
481.624	81.62
481.843	58.62
482.061	88.62
482.28	82.62
482.498	75.62
482.717	84.62
482.935	74.62
483.153	71.62
483.372	70.62
483.59	89.62
483.808	82.62
484.027	87.62
484.245	75.62
484.463	77.62
484.681	79.62
484.9	80.62
485.118	75.62
485.336	83.62
485.554	79.62
485.772	71.62
485.99	81.62
486.209	74.62
486.427	75.62
486.645	79.62
486.863	85.62
487.081	76.62
487.299	76.62
487.517	83.62
487.735	91.62
487.953	78.62
488.171	79.62
488.389	69.62
488.607	85.62
488.825	85.62
489.043	80.62
489.261	78.62
489.479	76.62
489.696	76.62
489.914	83.62
490.132	82.62
490.35	81.62
490.568	84.62
490.786	85.62
491.003	82.62
491.221	86.62
491.439	87.62
491.657	91.62
491.874	84.62
492.092	77.62
492.31	81.62
492.527	91.62
492.745	71.62
492.963	84.62
493.18	90.62
493.398	92.62
493.615	88.62
493.833	85.62
494.05	82.62
494.268	90.62
494.485	86.62
494.703	72.62
494.92	90.62
495.138	97.62
495.355	90.62
495.573	92.62
495.79	84.62
496.008	90.62
496.225	71.62
496.442	83.62
496.66	76.62
496.877	84.62
497.094	87.62
497.312	77.62
497.529	76.62
497.746	88.62
497.963	71.62
498.181	82.62
498.398	76.62
498.615	70.62
498.832	87.62
499.049	84.62
499.267	90.62
499.484	73.62
499.701	94.62
499.918	75.62
500.135	75.62
500.352	64.62
500.569	71.62
500.786	73.62
501.003	85.62
501.22	65.62
501.437	78.62
501.654	93.62
501.871	74.62
502.088	79.62
502.305	88.62
502.522	77.62
502.739	71.62
502.956	67.62
503.172	80.62
503.389	82.62
503.606	86.62
503.823	88.62
504.04	84.62
504.256	80.62
504.473	77.62
504.69	85.62
504.907	85.62
505.123	86.62
505.34	70.62
505.557	94.62
505.773	84.62
505.99	72.62
506.207	83.62
506.423	69.62
506.64	80.62
506.856	81.62
507.073	95.62
507.289	72.62
507.506	83.62
507.722	86.62
507.939	72.62
508.155	76.62
508.372	85.62
508.588	74.62
508.805	85.62
509.021	73.62
509.238	69.62
509.454	86.62
509.67	82.62
509.887	79.62
510.103	84.62
510.319	79.62
510.536	65.62
510.752	87.62
510.968	69.62
511.184	99.62
511.401	76.62
511.617	91.62
511.833	63.62
512.049	69.62
512.265	80.62
512.481	83.62
512.698	79.62
512.914	94.62
513.13	77.62
513.346	71.62
513.562	79.62
513.778	80.62
513.994	79.62
514.21	78.62
514.426	65.62
514.642	81.62
514.858	83.62
515.074	78.62
515.29	74.62
515.506	91.62
515.721	86.62
515.937	82.62
516.153	91.62
516.369	77.62
516.585	76.62
516.801	84.62
517.016	82.62
517.232	87.62
517.448	72.62
517.664	83.62
517.879	83.62
518.095	65.62
518.311	86.62
518.527	86.62
518.742	87.62
518.958	71.62
519.173	86.62
519.389	86.62
519.605	79.62
519.82	70.62
520.036	85.62
520.251	83.62
