Data from StdD_HRD10591_073.txt Node
Date: Fri May 16 15:31:57 EDT 2025
User: Yrep
Spectrometer: HR+D1059
Trigger mode: 1
Integration Time (sec): 1.000000E-1
Scans to average: 1
Electric dark correction enabled: true
Nonlinearity correction enabled: false
Boxcar width: 0
XAxis mode: Wavelengths
Number of Pixels in Spectrum: 2048
>>>>>Begin Spectral Data<<<<<
223.165	-17.88
223.4	-17.88
223.635	-17.88
223.869	-2.88
224.104	-8.88
224.338	-22.88
224.573	-19.88
224.808	-19.88
225.042	-14.88
225.277	-14.88
225.511	-8.88
225.746	3.12
225.98	6.12
226.215	7.12
226.449	23.12
226.683	22.12
226.918	33.12
227.152	36.12
227.387	41.12
227.621	41.12
227.856	34.12
228.09	45.12
228.324	41.12
228.559	54.12
228.793	58.12
229.027	67.12
229.262	55.12
229.496	58.12
229.73	60.12
229.964	77.12
230.199	76.12
230.433	64.12
230.667	57.12
230.901	70.12
231.136	71.12
231.37	72.12
231.604	80.12
231.838	82.12
232.072	77.12
232.306	77.12
232.541	73.12
232.775	70.12
233.009	77.12
233.243	78.12
233.477	65.12
233.711	85.12
233.945	82.12
234.179	70.12
234.413	80.12
234.647	80.12
234.881	66.12
235.115	71.12
235.349	78.12
235.583	83.12
235.817	75.12
236.051	67.12
236.285	74.12
236.519	72.12
236.753	79.12
236.987	62.12
237.221	77.12
237.455	76.12
237.689	74.12
237.922	75.12
238.156	82.12
238.39	67.12
238.624	69.12
238.858	76.12
239.091	72.12
239.325	66.12
239.559	89.12
239.793	69.12
240.027	73.12
240.26	65.12
240.494	73.12
240.728	62.12
240.961	67.12
241.195	84.12
241.429	75.12
241.662	88.12
241.896	63.12
242.13	63.12
242.363	62.12
242.597	73.12
242.83	77.12
243.064	69.12
243.298	78.12
243.531	82.12
243.765	81.12
243.998	82.12
244.232	89.12
244.465	77.12
244.699	81.12
244.932	75.12
245.166	73.12
245.399	70.12
245.633	67.12
245.866	65.12
246.099	71.12
246.333	78.12
246.566	81.12
246.8	79.12
247.033	83.12
247.266	76.12
247.5	70.12
247.733	53.12
247.966	83.12
248.2	73.12
248.433	87.12
248.666	79.12
248.899	68.12
249.133	70.12
249.366	81.12
249.599	81.12
249.832	71.12
250.066	84.12
250.299	85.12
250.532	73.12
250.765	68.12
250.998	76.12
251.231	64.12
251.465	74.12
251.698	75.12
251.931	67.12
252.164	73.12
252.397	76.12
252.63	91.12
252.863	69.12
253.096	56.12
253.329	71.12
253.562	77.12
253.795	77.12
254.028	64.12
254.261	71.12
254.494	58.12
254.727	77.12
254.96	85.12
255.193	89.12
255.426	81.12
255.659	78.12
255.892	73.12
256.124	85.12
256.357	76.12
256.59	88.12
256.823	78.12
257.056	70.12
257.289	76.12
257.521	67.12
257.754	67.12
257.987	72.12
258.22	78.12
258.452	67.12
258.685	85.12
258.918	74.12
259.151	72.12
259.383	81.12
259.616	69.12
259.849	72.12
260.081	82.12
260.314	77.12
260.547	63.12
260.779	70.12
261.012	91.12
261.244	66.12
261.477	76.12
261.71	68.12
261.942	63.12
262.175	76.12
262.407	74.12
262.64	70.12
262.872	83.12
263.105	71.12
263.337	83.12
263.57	83.12
263.802	83.12
264.035	74.12
264.267	86.12
264.499	74.12
264.732	85.12
264.964	85.12
265.197	93.12
265.429	80.12
265.661	87.12
265.894	84.12
266.126	74.12
266.358	83.12
266.591	84.12
266.823	61.12
267.055	79.12
267.287	81.12
267.52	74.12
267.752	77.12
267.984	71.12
268.216	65.12
268.448	86.12
268.681	79.12
268.913	69.12
269.145	87.12
269.377	84.12
269.609	78.12
269.841	89.12
270.073	67.12
270.306	83.12
270.538	75.12
270.77	63.12
271.002	74.12
271.234	80.12
271.466	79.12
271.698	73.12
271.93	77.12
272.162	79.12
272.394	72.12
272.626	70.12
272.858	70.12
273.09	70.12
273.322	67.12
273.553	70.12
273.785	90.12
274.017	73.12
274.249	85.12
274.481	65.12
274.713	75.12
274.945	83.12
275.176	90.12
275.408	91.12
275.64	88.12
275.872	79.12
276.104	78.12
276.335	81.12
276.567	77.12
276.799	90.12
277.031	82.12
277.262	78.12
277.494	86.12
277.726	74.12
277.957	87.12
278.189	82.12
278.421	85.12
278.652	88.12
278.884	80.12
279.115	79.12
279.347	82.12
279.579	70.12
279.81	77.12
280.042	97.12
280.273	78.12
280.505	67.12
280.736	64.12
280.968	73.12
281.199	85.12
281.431	77.12
281.662	87.12
281.894	78.12
282.125	82.12
282.356	76.12
282.588	81.12
282.819	88.12
283.051	71.12
283.282	81.12
283.513	95.12
283.745	91.12
283.976	83.12
284.207	81.12
284.439	90.12
284.67	81.12
284.901	75.12
285.132	85.12
285.364	78.12
285.595	77.12
285.826	71.12
286.057	81.12
286.288	82.12
286.52	71.12
286.751	69.12
286.982	63.12
287.213	91.12
287.444	72.12
287.675	74.12
287.906	83.12
288.138	78.12
288.369	64.12
288.6	87.12
288.831	82.12
289.062	81.12
289.293	76.12
289.524	81.12
289.755	85.12
289.986	85.12
290.217	75.12
290.448	87.12
290.679	75.12
290.91	97.12
291.141	85.12
291.371	91.12
291.602	84.12
291.833	65.12
292.064	76.12
292.295	85.12
292.526	77.12
292.757	86.12
292.987	95.12
293.218	81.12
293.449	89.12
293.68	85.12
293.91	85.12
294.141	90.12
294.372	90.12
294.603	80.12
294.833	65.12
295.064	71.12
295.295	71.12
295.525	71.12
295.756	70.12
295.987	82.12
296.217	78.12
296.448	84.12
296.679	62.12
296.909	92.12
297.14	75.12
297.37	97.12
297.601	74.12
297.831	73.12
298.062	78.12
298.292	84.12
298.523	82.12
298.753	73.12
298.984	72.12
299.214	78.12
299.445	69.12
299.675	79.12
299.905	86.12
300.136	75.12
300.366	64.12
300.597	79.12
300.827	67.12
301.057	81.12
301.288	71.12
301.518	84.12
301.748	75.12
301.979	91.12
302.209	75.12
302.439	76.12
302.669	81.12
302.9	81.12
303.13	89.12
303.36	76.12
303.59	64.12
303.82	87.12
304.051	79.12
304.281	72.12
304.511	94.12
304.741	76.12
304.971	70.12
305.201	93.12
305.431	78.12
305.661	84.12
305.891	75.12
306.121	84.12
306.352	77.12
306.582	84.12
306.812	89.12
307.042	71.12
307.272	86.12
307.502	89.12
307.731	81.12
307.961	85.12
308.191	84.12
308.421	78.12
308.651	87.12
308.881	84.12
309.111	60.12
309.341	62.12
309.571	69.12
309.8	83.12
310.03	86.12
310.26	81.12
310.49	85.12
310.72	77.12
310.949	84.12
311.179	79.12
311.409	85.12
311.639	77.12
311.868	85.12
312.098	84.12
312.328	88.12
312.557	85.12
312.787	76.12
313.017	82.12
313.246	73.12
313.476	80.12
313.706	78.12
313.935	77.12
314.165	72.12
314.394	95.12
314.624	71.12
314.853	58.12
315.083	84.12
315.312	81.12
315.542	74.12
315.771	75.12
316.001	75.12
316.23	75.12
316.46	75.12
316.689	75.12
316.919	62.12
317.148	73.12
317.377	77.12
317.607	84.12
317.836	72.12
318.065	79.12
318.295	81.12
318.524	70.12
318.753	77.12
318.983	77.12
319.212	69.12
319.441	73.12
319.67	63.12
319.9	79.12
320.129	78.12
320.358	89.12
320.587	76.12
320.816	94.12
321.046	77.12
321.275	66.12
321.504	63.12
321.733	77.12
321.962	71.12
322.191	75.12
322.42	71.12
322.649	78.12
322.878	81.12
323.108	88.12
323.337	88.12
323.566	91.12
323.795	86.12
324.024	93.12
324.253	83.12
324.482	84.12
324.71	73.12
324.939	84.12
325.168	81.12
325.397	63.12
325.626	85.12
325.855	77.12
326.084	67.12
326.313	71.12
326.542	87.12
326.77	88.12
326.999	68.12
327.228	90.12
327.457	83.12
327.686	84.12
327.914	93.12
328.143	85.12
328.372	81.12
328.6	95.12
328.829	80.12
329.058	83.12
329.287	91.12
329.515	70.12
329.744	77.12
329.972	65.12
330.201	84.12
330.43	82.12
330.658	78.12
330.887	84.12
331.115	79.12
331.344	77.12
331.572	81.12
331.801	87.12
332.03	75.12
332.258	80.12
332.486	64.12
332.715	69.12
332.943	84.12
333.172	68.12
333.4	83.12
333.629	76.12
333.857	73.12
334.085	67.12
334.314	92.12
334.542	84.12
334.771	68.12
334.999	83.12
335.227	75.12
335.455	78.12
335.684	85.12
335.912	78.12
336.14	85.12
336.369	82.12
336.597	71.12
336.825	81.12
337.053	82.12
337.281	82.12
337.51	86.12
337.738	77.12
337.966	77.12
338.194	85.12
338.422	86.12
338.65	81.12
338.878	82.12
339.106	79.12
339.334	81.12
339.562	88.12
339.79	85.12
340.018	69.12
340.246	78.12
340.474	69.12
340.702	81.12
340.93	81.12
341.158	81.12
341.386	68.12
341.614	77.12
341.842	73.12
342.07	75.12
342.298	81.12
342.526	81.12
342.754	85.12
342.981	69.12
343.209	82.12
343.437	93.12
343.665	67.12
343.893	82.12
344.12	79.12
344.348	93.12
344.576	84.12
344.804	85.12
345.031	71.12
345.259	74.12
345.487	72.12
345.714	87.12
345.942	67.12
346.17	76.12
346.397	77.12
346.625	81.12
346.853	74.12
347.08	82.12
347.308	77.12
347.535	87.12
347.763	76.12
347.99	82.12
348.218	65.12
348.445	77.12
348.673	69.12
348.9	83.12
349.128	73.12
349.355	75.12
349.583	79.12
349.81	60.12
350.037	83.12
350.265	79.12
350.492	74.12
350.72	81.12
350.947	80.12
351.174	84.12
351.402	69.12
351.629	64.12
351.856	70.12
352.083	93.12
352.311	67.12
352.538	79.12
352.765	82.12
352.992	90.12
353.22	77.12
353.447	71.12
353.674	78.12
353.901	78.12
354.128	79.12
354.355	79.12
354.583	84.12
354.81	79.12
355.037	78.12
355.264	86.12
355.491	82.12
355.718	89.12
355.945	77.12
356.172	83.12
356.399	65.12
356.626	68.12
356.853	70.12
357.08	76.12
357.307	82.12
357.534	84.12
357.761	77.12
357.988	66.12
358.215	70.12
358.441	84.12
358.668	86.12
358.895	85.12
359.122	82.12
359.349	76.12
359.576	85.12
359.802	85.12
360.029	75.12
360.256	78.12
360.483	71.12
360.709	71.12
360.936	97.12
361.163	79.12
361.39	78.12
361.616	74.12
361.843	59.12
362.07	81.12
362.296	91.12
362.523	81.12
362.749	79.12
362.976	84.12
363.203	77.12
363.429	99.12
363.656	92.12
363.882	75.12
364.109	67.12
364.335	74.12
364.562	87.12
364.788	83.12
365.015	82.12
365.241	87.12
365.468	75.12
365.694	86.12
365.92	71.12
366.147	84.12
366.373	86.12
366.599	89.12
366.826	63.12
367.052	78.12
367.278	75.12
367.505	78.12
367.731	93.12
367.957	86.12
368.184	74.12
368.41	67.12
368.636	85.12
368.862	72.12
369.089	84.12
369.315	76.12
369.541	78.12
369.767	82.12
369.993	97.12
370.219	78.12
370.445	71.12
370.672	71.12
370.898	88.12
371.124	78.12
371.35	90.12
371.576	80.12
371.802	76.12
372.028	71.12
372.254	88.12
372.48	90.12
372.706	82.12
372.932	86.12
373.158	74.12
373.384	76.12
373.61	79.12
373.835	87.12
374.061	67.12
374.287	85.12
374.513	71.12
374.739	81.12
374.965	69.12
375.191	73.12
375.416	74.12
375.642	91.12
375.868	96.12
376.094	81.12
376.319	88.12
376.545	94.12
376.771	83.12
376.997	69.12
377.222	74.12
377.448	87.12
377.674	83.12
377.899	72.12
378.125	87.12
378.35	89.12
378.576	81.12
378.802	93.12
379.027	66.12
379.253	72.12
379.478	68.12
379.704	78.12
379.929	73.12
380.155	81.12
380.38	64.12
380.606	90.12
380.831	84.12
381.057	96.12
381.282	86.12
381.507	83.12
381.733	94.12
381.958	75.12
382.184	67.12
382.409	75.12
382.634	71.12
382.86	76.12
383.085	71.12
383.31	81.12
383.535	77.12
383.761	92.12
383.986	81.12
384.211	86.12
384.436	84.12
384.662	85.12
384.887	74.12
385.112	77.12
385.337	59.12
385.562	78.12
385.787	81.12
386.013	69.12
386.238	77.12
386.463	85.12
386.688	84.12
386.913	74.12
387.138	90.12
387.363	69.12
387.588	79.12
387.813	94.12
388.038	77.12
388.263	86.12
388.488	64.12
388.713	91.12
388.938	83.12
389.163	82.12
389.387	84.12
389.612	81.12
389.837	85.12
390.062	69.12
390.287	80.12
390.512	77.12
390.736	56.12
390.961	82.12
391.186	79.12
391.411	75.12
391.636	64.12
391.86	80.12
392.085	89.12
392.31	74.12
392.534	69.12
392.759	78.12
392.984	90.12
393.208	68.12
393.433	73.12
393.658	76.12
393.882	73.12
394.107	73.12
394.331	84.12
394.556	83.12
394.78	81.12
395.005	70.12
395.229	75.12
395.454	67.12
395.678	71.12
395.903	75.12
396.127	67.12
396.352	81.12
396.576	74.12
396.801	88.12
397.025	89.12
397.249	97.12
397.474	75.12
397.698	74.12
397.922	85.12
398.147	60.12
398.371	77.12
398.595	72.12
398.82	85.12
399.044	78.12
399.268	76.12
399.492	82.12
399.717	79.12
399.941	78.12
400.165	74.12
400.389	74.12
400.613	75.12
400.837	79.12
401.062	71.12
401.286	80.12
401.51	77.12
401.734	73.12
401.958	86.12
402.182	73.12
402.406	78.12
402.63	91.12
402.854	80.12
403.078	79.12
403.302	89.12
403.526	86.12
403.75	75.12
403.974	85.12
404.198	78.12
404.422	76.12
404.645	80.12
404.869	59.12
405.093	78.12
405.317	83.12
405.541	82.12
405.765	73.12
405.988	79.12
406.212	63.12
406.436	73.12
406.66	77.12
406.883	83.12
407.107	81.12
407.331	75.12
407.555	67.12
407.778	74.12
408.002	83.12
408.226	76.12
408.449	84.12
408.673	88.12
408.896	71.12
409.12	84.12
409.344	78.12
409.567	81.12
409.791	86.12
410.014	92.12
410.238	65.12
410.461	66.12
410.685	64.12
410.908	71.12
411.132	82.12
411.355	78.12
411.578	101.12
411.802	71.12
412.025	77.12
412.249	84.12
412.472	82.12
412.695	72.12
412.919	86.12
413.142	77.12
413.365	85.12
413.589	82.12
413.812	67.12
414.035	85.12
414.258	65.12
414.482	91.12
414.705	62.12
414.928	72.12
415.151	62.12
415.374	72.12
415.597	75.12
415.821	78.12
416.044	77.12
416.267	75.12
416.49	87.12
416.713	78.12
416.936	76.12
417.159	81.12
417.382	90.12
417.605	79.12
417.828	63.12
418.051	69.12
418.274	82.12
418.497	82.12
418.72	70.12
418.943	68.12
419.166	84.12
419.389	74.12
419.611	86.12
419.834	89.12
420.057	84.12
420.28	76.12
420.503	78.12
420.726	84.12
420.948	61.12
421.171	70.12
421.394	86.12
421.617	61.12
421.839	86.12
422.062	77.12
422.285	74.12
422.507	77.12
422.73	76.12
422.953	71.12
423.175	91.12
423.398	73.12
423.621	61.12
423.843	84.12
424.066	85.12
424.288	70.12
424.511	82.12
424.733	79.12
424.956	92.12
425.178	81.12
425.401	69.12
425.623	87.12
425.846	76.12
426.068	84.12
426.291	81.12
426.513	83.12
426.735	78.12
426.958	89.12
427.18	87.12
427.402	76.12
427.625	65.12
427.847	73.12
428.069	81.12
428.292	75.12
428.514	83.12
428.736	74.12
428.958	67.12
429.181	71.12
429.403	79.12
429.625	77.12
429.847	87.12
430.069	73.12
430.292	67.12
430.514	63.12
430.736	86.12
430.958	71.12
431.18	78.12
431.402	84.12
431.624	82.12
431.846	83.12
432.068	80.12
432.29	64.12
432.512	76.12
432.734	90.12
432.956	85.12
433.178	85.12
433.4	77.12
433.622	79.12
433.844	84.12
434.066	72.12
434.287	87.12
434.509	76.12
434.731	89.12
434.953	73.12
435.175	77.12
435.397	77.12
435.618	80.12
435.84	75.12
436.062	91.12
436.284	82.12
436.505	72.12
436.727	73.12
436.949	88.12
437.17	68.12
437.392	67.12
437.614	73.12
437.835	66.12
438.057	75.12
438.278	71.12
438.5	78.12
438.721	81.12
438.943	80.12
439.165	92.12
439.386	83.12
439.608	69.12
439.829	72.12
440.05	84.12
440.272	88.12
440.493	76.12
440.715	85.12
440.936	90.12
441.158	79.12
441.379	69.12
441.6	69.12
441.822	71.12
442.043	77.12
442.264	69.12
442.486	74.12
442.707	91.12
442.928	72.12
443.149	69.12
443.371	86.12
443.592	83.12
443.813	73.12
444.034	82.12
444.255	73.12
444.476	81.12
444.698	67.12
444.919	74.12
445.14	153.12
445.361	121.12
445.582	84.12
445.803	92.12
446.024	70.12
446.245	84.12
446.466	70.12
446.687	75.12
446.908	69.12
447.129	72.12
447.35	83.12
447.571	81.12
447.792	62.12
448.013	60.12
448.234	70.12
448.455	65.12
448.675	85.12
448.896	70.12
449.117	75.12
449.338	74.12
449.559	68.12
449.779	93.12
450	64.12
450.221	73.12
450.442	79.12
450.662	79.12
450.883	85.12
451.104	81.12
451.324	87.12
451.545	90.12
451.766	85.12
451.986	79.12
452.207	73.12
452.428	77.12
452.648	79.12
452.869	62.12
453.089	78.12
453.31	79.12
453.53	69.12
453.751	84.12
453.971	74.12
454.192	76.12
454.412	80.12
454.633	90.12
454.853	92.12
455.073	78.12
455.294	80.12
455.514	85.12
455.734	61.12
455.955	78.12
456.175	82.12
456.395	83.12
456.616	74.12
456.836	82.12
457.056	69.12
457.276	74.12
457.497	73.12
457.717	87.12
457.937	77.12
458.157	89.12
458.377	69.12
458.598	71.12
458.818	77.12
459.038	68.12
459.258	70.12
459.478	85.12
459.698	63.12
459.918	62.12
460.138	77.12
460.358	71.12
460.578	77.12
460.798	70.12
461.018	85.12
461.238	69.12
461.458	74.12
461.678	81.12
461.898	68.12
462.118	76.12
462.338	81.12
462.558	81.12
462.777	56.12
462.997	81.12
463.217	77.12
463.437	88.12
463.657	70.12
463.876	76.12
464.096	71.12
464.316	75.12
464.536	71.12
464.755	73.12
464.975	69.12
465.195	80.12
465.414	86.12
465.634	78.12
465.854	81.12
466.073	84.12
466.293	83.12
466.512	81.12
466.732	85.12
466.951	83.12
467.171	83.12
467.391	78.12
467.61	83.12
467.829	81.12
468.049	66.12
468.268	89.12
468.488	87.12
468.707	67.12
468.927	80.12
469.146	85.12
469.365	75.12
469.585	89.12
469.804	73.12
470.023	78.12
470.243	93.12
470.462	86.12
470.681	86.12
470.901	86.12
471.12	88.12
471.339	74.12
471.558	71.12
471.777	82.12
471.997	73.12
472.216	73.12
472.435	87.12
472.654	94.12
472.873	90.12
473.092	81.12
473.311	77.12
473.53	87.12
473.749	68.12
473.968	80.12
474.187	78.12
474.406	73.12
474.625	69.12
474.844	76.12
475.063	75.12
475.282	76.12
475.501	89.12
475.72	79.12
475.939	78.12
476.158	82.12
476.377	66.12
476.596	82.12
476.814	73.12
477.033	75.12
477.252	71.12
477.471	73.12
477.69	68.12
477.908	90.12
478.127	87.12
478.346	70.12
478.564	77.12
478.783	72.12
479.002	68.12
479.22	82.12
479.439	76.12
479.658	73.12
479.876	75.12
480.095	83.12
480.313	78.12
480.532	87.12
480.751	67.12
480.969	69.12
481.188	83.12
481.406	65.12
481.624	83.12
481.843	87.12
482.061	78.12
482.28	84.12
482.498	89.12
482.717	71.12
482.935	73.12
483.153	79.12
483.372	80.12
483.59	75.12
483.808	76.12
484.027	68.12
484.245	81.12
484.463	75.12
484.681	80.12
484.9	73.12
485.118	84.12
485.336	97.12
485.554	75.12
485.772	82.12
485.99	82.12
486.209	74.12
486.427	73.12
486.645	72.12
486.863	88.12
487.081	82.12
487.299	73.12
487.517	70.12
487.735	70.12
487.953	81.12
488.171	83.12
488.389	87.12
488.607	70.12
488.825	70.12
489.043	76.12
489.261	85.12
489.479	50.12
489.696	78.12
489.914	72.12
490.132	82.12
490.35	86.12
490.568	78.12
490.786	91.12
491.003	88.12
491.221	76.12
491.439	71.12
491.657	87.12
491.874	80.12
492.092	86.12
492.31	72.12
492.527	78.12
492.745	92.12
492.963	82.12
493.18	86.12
493.398	88.12
493.615	79.12
493.833	70.12
494.05	89.12
494.268	86.12
494.485	73.12
494.703	81.12
494.92	81.12
495.138	85.12
495.355	98.12
495.573	89.12
495.79	89.12
496.008	74.12
496.225	89.12
496.442	77.12
496.66	71.12
496.877	83.12
497.094	82.12
497.312	74.12
497.529	84.12
497.746	84.12
497.963	73.12
498.181	86.12
498.398	75.12
498.615	92.12
498.832	79.12
499.049	64.12
499.267	89.12
499.484	61.12
499.701	85.12
499.918	91.12
500.135	85.12
500.352	85.12
500.569	70.12
500.786	84.12
501.003	79.12
501.22	69.12
501.437	71.12
501.654	78.12
501.871	72.12
502.088	76.12
502.305	90.12
502.522	76.12
502.739	80.12
502.956	87.12
503.172	89.12
503.389	78.12
503.606	94.12
503.823	84.12
504.04	73.12
504.256	90.12
504.473	76.12
504.69	80.12
504.907	73.12
505.123	82.12
505.34	85.12
505.557	82.12
505.773	83.12
505.99	80.12
506.207	85.12
506.423	75.12
506.64	92.12
506.856	74.12
507.073	62.12
507.289	77.12
507.506	89.12
507.722	82.12
507.939	81.12
508.155	77.12
508.372	73.12
508.588	87.12
508.805	71.12
509.021	81.12
509.238	86.12
509.454	65.12
509.67	81.12
509.887	87.12
510.103	84.12
510.319	83.12
510.536	86.12
510.752	79.12
510.968	84.12
511.184	72.12
511.401	79.12
511.617	64.12
511.833	82.12
512.049	83.12
512.265	70.12
512.481	66.12
512.698	93.12
512.914	73.12
513.13	89.12
513.346	62.12
513.562	74.12
513.778	81.12
513.994	84.12
514.21	77.12
514.426	76.12
514.642	73.12
514.858	68.12
515.074	78.12
515.29	90.12
515.506	75.12
515.721	72.12
515.937	82.12
516.153	80.12
516.369	87.12
516.585	73.12
516.801	78.12
517.016	77.12
517.232	89.12
517.448	75.12
517.664	61.12
517.879	75.12
518.095	76.12
518.311	82.12
518.527	77.12
518.742	78.12
518.958	71.12
519.173	93.12
519.389	82.12
519.605	67.12
519.82	73.12
520.036	75.12
520.251	81.12
