Data from StdD_HRD10591_010.txt Node
Date: Fri May 16 15:31:26 EDT 2025
User: Yrep
Spectrometer: HR+D1059
Trigger mode: 1
Integration Time (sec): 1.000000E-1
Scans to average: 1
Electric dark correction enabled: true
Nonlinearity correction enabled: false
Boxcar width: 0
XAxis mode: Wavelengths
Number of Pixels in Spectrum: 2048
>>>>>Begin Spectral Data<<<<<
223.165	-13.44
223.4	-13.44
223.635	-13.44
223.869	-17.44
224.104	-16.44
224.338	-12.44
224.573	-9.44
224.808	-6.44
225.042	-12.44
225.277	-16.44
225.511	-8.44
225.746	1.56
225.98	7.56
226.215	6.56
226.449	9.56
226.683	26.56
226.918	35.56
227.152	25.56
227.387	34.56
227.621	57.56
227.856	46.56
228.09	44.56
228.324	60.56
228.559	57.56
228.793	57.56
229.027	60.56
229.262	69.56
229.496	76.56
229.73	50.56
229.964	67.56
230.199	67.56
230.433	69.56
230.667	83.56
230.901	67.56
231.136	82.56
231.37	75.56
231.604	82.56
231.838	95.56
232.072	76.56
232.306	78.56
232.541	81.56
232.775	74.56
233.009	71.56
233.243	76.56
233.477	82.56
233.711	87.56
233.945	60.56
234.179	84.56
234.413	83.56
234.647	68.56
234.881	79.56
235.115	92.56
235.349	72.56
235.583	80.56
235.817	66.56
236.051	82.56
236.285	68.56
236.519	71.56
236.753	83.56
236.987	82.56
237.221	74.56
237.455	75.56
237.689	78.56
237.922	87.56
238.156	72.56
238.39	82.56
238.624	74.56
238.858	82.56
239.091	72.56
239.325	78.56
239.559	93.56
239.793	84.56
240.027	74.56
240.26	78.56
240.494	73.56
240.728	64.56
240.961	78.56
241.195	74.56
241.429	84.56
241.662	59.56
241.896	76.56
242.13	82.56
242.363	77.56
242.597	74.56
242.83	72.56
243.064	83.56
243.298	81.56
243.531	74.56
243.765	86.56
243.998	85.56
244.232	67.56
244.465	67.56
244.699	86.56
244.932	77.56
245.166	80.56
245.399	78.56
245.633	74.56
245.866	86.56
246.099	86.56
246.333	87.56
246.566	77.56
246.8	81.56
247.033	74.56
247.266	71.56
247.5	87.56
247.733	69.56
247.966	81.56
248.2	83.56
248.433	88.56
248.666	94.56
248.899	74.56
249.133	80.56
249.366	85.56
249.599	71.56
249.832	75.56
250.066	72.56
250.299	74.56
250.532	85.56
250.765	69.56
250.998	86.56
251.231	84.56
251.465	83.56
251.698	83.56
251.931	81.56
252.164	86.56
252.397	87.56
252.63	83.56
252.863	71.56
253.096	73.56
253.329	74.56
253.562	74.56
253.795	80.56
254.028	96.56
254.261	73.56
254.494	85.56
254.727	87.56
254.96	88.56
255.193	75.56
255.426	66.56
255.659	85.56
255.892	82.56
256.124	86.56
256.357	68.56
256.59	77.56
256.823	56.56
257.056	77.56
257.289	70.56
257.521	74.56
257.754	79.56
257.987	74.56
258.22	81.56
258.452	77.56
258.685	82.56
258.918	77.56
259.151	67.56
259.383	79.56
259.616	78.56
259.849	79.56
260.081	92.56
260.314	79.56
260.547	96.56
260.779	86.56
261.012	77.56
261.244	64.56
261.477	64.56
261.71	81.56
261.942	74.56
262.175	81.56
262.407	74.56
262.64	65.56
262.872	84.56
263.105	88.56
263.337	80.56
263.57	83.56
263.802	83.56
264.035	83.56
264.267	75.56
264.499	75.56
264.732	98.56
264.964	88.56
265.197	91.56
265.429	78.56
265.661	78.56
265.894	78.56
266.126	89.56
266.358	88.56
266.591	87.56
266.823	93.56
267.055	87.56
267.287	80.56
267.52	83.56
267.752	90.56
267.984	81.56
268.216	84.56
268.448	77.56
268.681	82.56
268.913	76.56
269.145	83.56
269.377	83.56
269.609	86.56
269.841	80.56
270.073	85.56
270.306	80.56
270.538	76.56
270.77	90.56
271.002	87.56
271.234	77.56
271.466	93.56
271.698	72.56
271.93	78.56
272.162	81.56
272.394	82.56
272.626	81.56
272.858	88.56
273.09	74.56
273.322	74.56
273.553	83.56
273.785	76.56
274.017	74.56
274.249	82.56
274.481	80.56
274.713	78.56
274.945	98.56
275.176	78.56
275.408	97.56
275.64	78.56
275.872	76.56
276.104	91.56
276.335	90.56
276.567	89.56
276.799	94.56
277.031	91.56
277.262	88.56
277.494	78.56
277.726	88.56
277.957	75.56
278.189	80.56
278.421	84.56
278.652	84.56
278.884	89.56
279.115	84.56
279.347	74.56
279.579	84.56
279.81	79.56
280.042	83.56
280.273	84.56
280.505	66.56
280.736	68.56
280.968	79.56
281.199	71.56
281.431	88.56
281.662	91.56
281.894	77.56
282.125	82.56
282.356	79.56
282.588	75.56
282.819	83.56
283.051	97.56
283.282	74.56
283.513	102.56
283.745	82.56
283.976	85.56
284.207	80.56
284.439	77.56
284.67	72.56
284.901	76.56
285.132	83.56
285.364	92.56
285.595	99.56
285.826	90.56
286.057	86.56
286.288	90.56
286.52	95.56
286.751	86.56
286.982	66.56
287.213	79.56
287.444	96.56
287.675	69.56
287.906	86.56
288.138	90.56
288.369	79.56
288.6	91.56
288.831	88.56
289.062	88.56
289.293	77.56
289.524	72.56
289.755	85.56
289.986	74.56
290.217	81.56
290.448	80.56
290.679	81.56
290.91	83.56
291.141	103.56
291.371	89.56
291.602	102.56
291.833	84.56
292.064	77.56
292.295	76.56
292.526	72.56
292.757	78.56
292.987	98.56
293.218	82.56
293.449	97.56
293.68	94.56
293.91	87.56
294.141	80.56
294.372	83.56
294.603	80.56
294.833	78.56
295.064	86.56
295.295	98.56
295.525	69.56
295.756	96.56
295.987	94.56
296.217	92.56
296.448	83.56
296.679	84.56
296.909	89.56
297.14	93.56
297.37	91.56
297.601	76.56
297.831	89.56
298.062	92.56
298.292	90.56
298.523	84.56
298.753	70.56
298.984	88.56
299.214	94.56
299.445	95.56
299.675	78.56
299.905	99.56
300.136	94.56
300.366	71.56
300.597	86.56
300.827	80.56
301.057	77.56
301.288	86.56
301.518	103.56
301.748	82.56
301.979	108.56
302.209	86.56
302.439	85.56
302.669	93.56
302.9	77.56
303.13	86.56
303.36	92.56
303.59	84.56
303.82	87.56
304.051	86.56
304.281	74.56
304.511	84.56
304.741	92.56
304.971	107.56
305.201	78.56
305.431	86.56
305.661	83.56
305.891	80.56
306.121	95.56
306.352	86.56
306.582	86.56
306.812	91.56
307.042	76.56
307.272	94.56
307.502	86.56
307.731	87.56
307.961	83.56
308.191	92.56
308.421	86.56
308.651	96.56
308.881	91.56
309.111	81.56
309.341	82.56
309.571	87.56
309.8	93.56
310.03	77.56
310.26	94.56
310.49	97.56
310.72	93.56
310.949	83.56
311.179	74.56
311.409	72.56
311.639	94.56
311.868	92.56
312.098	83.56
312.328	78.56
312.557	90.56
312.787	82.56
313.017	88.56
313.246	67.56
313.476	68.56
313.706	92.56
313.935	88.56
314.165	79.56
314.394	73.56
314.624	84.56
314.853	78.56
315.083	71.56
315.312	78.56
315.542	75.56
315.771	89.56
316.001	88.56
316.23	85.56
316.46	76.56
316.689	80.56
316.919	69.56
317.148	86.56
317.377	90.56
317.607	83.56
317.836	93.56
318.065	82.56
318.295	104.56
318.524	79.56
318.753	79.56
318.983	75.56
319.212	91.56
319.441	90.56
319.67	81.56
319.9	74.56
320.129	74.56
320.358	81.56
320.587	87.56
320.816	92.56
321.046	83.56
321.275	73.56
321.504	78.56
321.733	81.56
321.962	81.56
322.191	88.56
322.42	73.56
322.649	82.56
322.878	76.56
323.108	69.56
323.337	69.56
323.566	92.56
323.795	90.56
324.024	90.56
324.253	84.56
324.482	90.56
324.71	86.56
324.939	66.56
325.168	72.56
325.397	93.56
325.626	88.56
325.855	101.56
326.084	78.56
326.313	89.56
326.542	84.56
326.77	89.56
326.999	68.56
327.228	74.56
327.457	98.56
327.686	107.56
327.914	83.56
328.143	91.56
328.372	75.56
328.6	77.56
328.829	76.56
329.058	81.56
329.287	70.56
329.515	81.56
329.744	92.56
329.972	91.56
330.201	91.56
330.43	78.56
330.658	72.56
330.887	88.56
331.115	81.56
331.344	83.56
331.572	104.56
331.801	91.56
332.03	91.56
332.258	77.56
332.486	91.56
332.715	75.56
332.943	73.56
333.172	79.56
333.4	83.56
333.629	84.56
333.857	77.56
334.085	90.56
334.314	79.56
334.542	83.56
334.771	81.56
334.999	88.56
335.227	81.56
335.455	80.56
335.684	88.56
335.912	92.56
336.14	83.56
336.369	82.56
336.597	84.56
336.825	78.56
337.053	82.56
337.281	91.56
337.51	88.56
337.738	86.56
337.966	89.56
338.194	86.56
338.422	63.56
338.65	87.56
338.878	86.56
339.106	80.56
339.334	82.56
339.562	62.56
339.79	83.56
340.018	82.56
340.246	78.56
340.474	79.56
340.702	90.56
340.93	87.56
341.158	83.56
341.386	92.56
341.614	78.56
341.842	91.56
342.07	80.56
342.298	79.56
342.526	79.56
342.754	81.56
342.981	81.56
343.209	74.56
343.437	100.56
343.665	85.56
343.893	67.56
344.12	99.56
344.348	82.56
344.576	84.56
344.804	82.56
345.031	70.56
345.259	86.56
345.487	96.56
345.714	82.56
345.942	80.56
346.17	76.56
346.397	101.56
346.625	92.56
346.853	88.56
347.08	73.56
347.308	86.56
347.535	91.56
347.763	71.56
347.99	90.56
348.218	81.56
348.445	82.56
348.673	85.56
348.9	80.56
349.128	91.56
349.355	75.56
349.583	81.56
349.81	80.56
350.037	62.56
350.265	91.56
350.492	80.56
350.72	98.56
350.947	79.56
351.174	95.56
351.402	80.56
351.629	80.56
351.856	95.56
352.083	94.56
352.311	73.56
352.538	82.56
352.765	81.56
352.992	75.56
353.22	73.56
353.447	81.56
353.674	92.56
353.901	78.56
354.128	80.56
354.355	88.56
354.583	74.56
354.81	86.56
355.037	90.56
355.264	84.56
355.491	84.56
355.718	90.56
355.945	82.56
356.172	75.56
356.399	81.56
356.626	92.56
356.853	91.56
357.08	90.56
357.307	97.56
357.534	91.56
357.761	84.56
357.988	80.56
358.215	82.56
358.441	89.56
358.668	79.56
358.895	75.56
359.122	94.56
359.349	104.56
359.576	67.56
359.802	81.56
360.029	89.56
360.256	82.56
360.483	68.56
360.709	79.56
360.936	87.56
361.163	90.56
361.39	79.56
361.616	76.56
361.843	80.56
362.07	88.56
362.296	77.56
362.523	78.56
362.749	71.56
362.976	98.56
363.203	94.56
363.429	67.56
363.656	87.56
363.882	94.56
364.109	91.56
364.335	94.56
364.562	96.56
364.788	77.56
365.015	78.56
365.241	89.56
365.468	72.56
365.694	88.56
365.92	81.56
366.147	91.56
366.373	88.56
366.599	83.56
366.826	82.56
367.052	82.56
367.278	84.56
367.505	73.56
367.731	78.56
367.957	75.56
368.184	80.56
368.41	78.56
368.636	80.56
368.862	79.56
369.089	69.56
369.315	63.56
369.541	93.56
369.767	78.56
369.993	80.56
370.219	89.56
370.445	84.56
370.672	74.56
370.898	69.56
371.124	78.56
371.35	89.56
371.576	76.56
371.802	64.56
372.028	79.56
372.254	68.56
372.48	86.56
372.706	83.56
372.932	90.56
373.158	88.56
373.384	100.56
373.61	91.56
373.835	77.56
374.061	89.56
374.287	86.56
374.513	66.56
374.739	75.56
374.965	88.56
375.191	84.56
375.416	77.56
375.642	72.56
375.868	84.56
376.094	86.56
376.319	77.56
376.545	75.56
376.771	76.56
376.997	81.56
377.222	72.56
377.448	95.56
377.674	82.56
377.899	76.56
378.125	90.56
378.35	93.56
378.576	87.56
378.802	81.56
379.027	93.56
379.253	86.56
379.478	86.56
379.704	71.56
379.929	75.56
380.155	76.56
380.38	75.56
380.606	80.56
380.831	83.56
381.057	92.56
381.282	81.56
381.507	95.56
381.733	76.56
381.958	62.56
382.184	77.56
382.409	84.56
382.634	83.56
382.86	77.56
383.085	88.56
383.31	84.56
383.535	91.56
383.761	67.56
383.986	74.56
384.211	86.56
384.436	76.56
384.662	94.56
384.887	89.56
385.112	95.56
385.337	75.56
385.562	79.56
385.787	82.56
386.013	88.56
386.238	104.56
386.463	89.56
386.688	80.56
386.913	77.56
387.138	74.56
387.363	81.56
387.588	75.56
387.813	82.56
388.038	76.56
388.263	98.56
388.488	89.56
388.713	84.56
388.938	86.56
389.163	74.56
389.387	75.56
389.612	76.56
389.837	93.56
390.062	74.56
390.287	87.56
390.512	91.56
390.736	91.56
390.961	77.56
391.186	82.56
391.411	71.56
391.636	75.56
391.86	86.56
392.085	87.56
392.31	95.56
392.534	87.56
392.759	90.56
392.984	76.56
393.208	75.56
393.433	95.56
393.658	79.56
393.882	90.56
394.107	70.56
394.331	90.56
394.556	77.56
394.78	81.56
395.005	85.56
395.229	67.56
395.454	81.56
395.678	72.56
395.903	87.56
396.127	87.56
396.352	89.56
396.576	76.56
396.801	86.56
397.025	91.56
397.249	93.56
397.474	84.56
397.698	71.56
397.922	82.56
398.147	84.56
398.371	74.56
398.595	79.56
398.82	73.56
399.044	78.56
399.268	88.56
399.492	81.56
399.717	83.56
399.941	82.56
400.165	80.56
400.389	91.56
400.613	86.56
400.837	83.56
401.062	85.56
401.286	83.56
401.51	71.56
401.734	74.56
401.958	76.56
402.182	92.56
402.406	100.56
402.63	63.56
402.854	79.56
403.078	78.56
403.302	82.56
403.526	84.56
403.75	87.56
403.974	90.56
404.198	73.56
404.422	85.56
404.645	78.56
404.869	80.56
405.093	75.56
405.317	78.56
405.541	75.56
405.765	80.56
405.988	94.56
406.212	86.56
406.436	81.56
406.66	75.56
406.883	74.56
407.107	83.56
407.331	90.56
407.555	78.56
407.778	86.56
408.002	78.56
408.226	81.56
408.449	88.56
408.673	96.56
408.896	75.56
409.12	79.56
409.344	82.56
409.567	88.56
409.791	80.56
410.014	89.56
410.238	83.56
410.461	82.56
410.685	80.56
410.908	88.56
411.132	90.56
411.355	90.56
411.578	90.56
411.802	83.56
412.025	79.56
412.249	81.56
412.472	75.56
412.695	88.56
412.919	96.56
413.142	78.56
413.365	83.56
413.589	78.56
413.812	79.56
414.035	92.56
414.258	89.56
414.482	82.56
414.705	82.56
414.928	79.56
415.151	74.56
415.374	77.56
415.597	90.56
415.821	85.56
416.044	78.56
416.267	82.56
416.49	91.56
416.713	87.56
416.936	87.56
417.159	84.56
417.382	94.56
417.605	80.56
417.828	87.56
418.051	80.56
418.274	83.56
418.497	78.56
418.72	81.56
418.943	98.56
419.166	82.56
419.389	84.56
419.611	94.56
419.834	74.56
420.057	90.56
420.28	80.56
420.503	100.56
420.726	84.56
420.948	88.56
421.171	89.56
421.394	78.56
421.617	88.56
421.839	67.56
422.062	84.56
422.285	84.56
422.507	80.56
422.73	88.56
422.953	95.56
423.175	74.56
423.398	89.56
423.621	82.56
423.843	98.56
424.066	84.56
424.288	84.56
424.511	86.56
424.733	88.56
424.956	93.56
425.178	79.56
425.401	80.56
425.623	66.56
425.846	70.56
426.068	69.56
426.291	70.56
426.513	76.56
426.735	74.56
426.958	85.56
427.18	84.56
427.402	84.56
427.625	79.56
427.847	77.56
428.069	92.56
428.292	100.56
428.514	86.56
428.736	75.56
428.958	86.56
429.181	76.56
429.403	82.56
429.625	91.56
429.847	78.56
430.069	83.56
430.292	83.56
430.514	81.56
430.736	76.56
430.958	73.56
431.18	86.56
431.402	84.56
431.624	86.56
431.846	78.56
432.068	93.56
432.29	83.56
432.512	89.56
432.734	90.56
432.956	80.56
433.178	86.56
433.4	78.56
433.622	78.56
433.844	74.56
434.066	83.56
434.287	87.56
434.509	71.56
434.731	87.56
434.953	68.56
435.175	88.56
435.397	75.56
435.618	82.56
435.84	78.56
436.062	75.56
436.284	75.56
436.505	89.56
436.727	90.56
436.949	105.56
437.17	75.56
437.392	94.56
437.614	71.56
437.835	87.56
438.057	72.56
438.278	82.56
438.5	90.56
438.721	92.56
438.943	72.56
439.165	82.56
439.386	77.56
439.608	81.56
439.829	75.56
440.05	88.56
440.272	81.56
440.493	82.56
440.715	66.56
440.936	84.56
441.158	82.56
441.379	68.56
441.6	90.56
441.822	98.56
442.043	88.56
442.264	93.56
442.486	65.56
442.707	84.56
442.928	80.56
443.149	86.56
443.371	82.56
443.592	89.56
443.813	102.56
444.034	81.56
444.255	79.56
444.476	86.56
444.698	80.56
444.919	84.56
445.14	182.56
445.361	126.56
445.582	96.56
445.803	87.56
446.024	76.56
446.245	84.56
446.466	84.56
446.687	76.56
446.908	104.56
447.129	92.56
447.35	83.56
447.571	87.56
447.792	91.56
448.013	74.56
448.234	79.56
448.455	90.56
448.675	76.56
448.896	79.56
449.117	72.56
449.338	83.56
449.559	88.56
449.779	88.56
450	84.56
450.221	86.56
450.442	84.56
450.662	88.56
450.883	83.56
451.104	77.56
451.324	97.56
451.545	97.56
451.766	93.56
451.986	89.56
452.207	86.56
452.428	77.56
452.648	80.56
452.869	87.56
453.089	96.56
453.31	76.56
453.53	80.56
453.751	85.56
453.971	80.56
454.192	78.56
454.412	81.56
454.633	83.56
454.853	83.56
455.073	78.56
455.294	92.56
455.514	70.56
455.734	70.56
455.955	86.56
456.175	84.56
456.395	88.56
456.616	78.56
456.836	88.56
457.056	99.56
457.276	72.56
457.497	88.56
457.717	80.56
457.937	71.56
458.157	85.56
458.377	95.56
458.598	85.56
458.818	92.56
459.038	89.56
459.258	78.56
459.478	79.56
459.698	67.56
459.918	91.56
460.138	92.56
460.358	84.56
460.578	72.56
460.798	74.56
461.018	73.56
461.238	86.56
461.458	83.56
461.678	90.56
461.898	89.56
462.118	76.56
462.338	81.56
462.558	96.56
462.777	94.56
462.997	88.56
463.217	79.56
463.437	77.56
463.657	76.56
463.876	80.56
464.096	75.56
464.316	78.56
464.536	80.56
464.755	81.56
464.975	83.56
465.195	98.56
465.414	90.56
465.634	87.56
465.854	92.56
466.073	96.56
466.293	86.56
466.512	76.56
466.732	76.56
466.951	78.56
467.171	69.56
467.391	82.56
467.61	72.56
467.829	78.56
468.049	88.56
468.268	84.56
468.488	89.56
468.707	82.56
468.927	78.56
469.146	63.56
469.365	92.56
469.585	89.56
469.804	87.56
470.023	89.56
470.243	94.56
470.462	95.56
470.681	81.56
470.901	70.56
471.12	81.56
471.339	82.56
471.558	84.56
471.777	73.56
471.997	88.56
472.216	80.56
472.435	82.56
472.654	82.56
472.873	85.56
473.092	83.56
473.311	93.56
473.53	89.56
473.749	91.56
473.968	79.56
474.187	87.56
474.406	90.56
474.625	75.56
474.844	96.56
475.063	88.56
475.282	85.56
475.501	77.56
475.72	81.56
475.939	82.56
476.158	78.56
476.377	97.56
476.596	80.56
476.814	90.56
477.033	89.56
477.252	78.56
477.471	95.56
477.69	92.56
477.908	73.56
478.127	83.56
478.346	85.56
478.564	75.56
478.783	86.56
479.002	81.56
479.22	83.56
479.439	90.56
479.658	79.56
479.876	97.56
480.095	81.56
480.313	89.56
480.532	99.56
480.751	90.56
480.969	88.56
481.188	95.56
481.406	72.56
481.624	98.56
481.843	90.56
482.061	94.56
482.28	86.56
482.498	81.56
482.717	87.56
482.935	80.56
483.153	83.56
483.372	75.56
483.59	92.56
483.808	81.56
484.027	83.56
484.245	87.56
484.463	90.56
484.681	95.56
484.9	72.56
485.118	81.56
485.336	77.56
485.554	74.56
485.772	72.56
485.99	77.56
486.209	72.56
486.427	93.56
486.645	79.56
486.863	90.56
487.081	102.56
487.299	93.56
487.517	104.56
487.735	85.56
487.953	100.56
488.171	88.56
488.389	95.56
488.607	84.56
488.825	87.56
489.043	91.56
489.261	94.56
489.479	82.56
489.696	74.56
489.914	92.56
490.132	85.56
490.35	84.56
490.568	83.56
490.786	91.56
491.003	82.56
491.221	86.56
491.439	104.56
491.657	97.56
491.874	81.56
492.092	86.56
492.31	86.56
492.527	82.56
492.745	87.56
492.963	96.56
493.18	97.56
493.398	91.56
493.615	97.56
493.833	95.56
494.05	79.56
494.268	84.56
494.485	88.56
494.703	84.56
494.92	88.56
495.138	91.56
495.355	87.56
495.573	87.56
495.79	78.56
496.008	92.56
496.225	94.56
496.442	87.56
496.66	97.56
496.877	92.56
497.094	88.56
497.312	90.56
497.529	74.56
497.746	82.56
497.963	83.56
498.181	74.56
498.398	81.56
498.615	80.56
498.832	84.56
499.049	83.56
499.267	90.56
499.484	109.56
499.701	95.56
499.918	80.56
500.135	81.56
500.352	87.56
500.569	82.56
500.786	91.56
501.003	79.56
501.22	85.56
501.437	81.56
501.654	78.56
501.871	83.56
502.088	84.56
502.305	88.56
502.522	87.56
502.739	86.56
502.956	82.56
503.172	74.56
503.389	85.56
503.606	86.56
503.823	76.56
504.04	79.56
504.256	75.56
504.473	73.56
504.69	84.56
504.907	83.56
505.123	77.56
505.34	82.56
505.557	90.56
505.773	79.56
505.99	102.56
506.207	90.56
506.423	99.56
506.64	82.56
506.856	89.56
507.073	80.56
507.289	88.56
507.506	98.56
507.722	87.56
507.939	82.56
508.155	93.56
508.372	78.56
508.588	103.56
508.805	82.56
509.021	94.56
509.238	86.56
509.454	86.56
509.67	79.56
509.887	73.56
510.103	74.56
510.319	83.56
510.536	87.56
510.752	86.56
510.968	83.56
511.184	75.56
511.401	75.56
511.617	92.56
511.833	86.56
512.049	82.56
512.265	93.56
512.481	79.56
512.698	85.56
512.914	84.56
513.13	89.56
513.346	99.56
513.562	86.56
513.778	94.56
513.994	98.56
514.21	80.56
514.426	79.56
514.642	77.56
514.858	87.56
515.074	94.56
515.29	90.56
515.506	81.56
515.721	82.56
515.937	80.56
516.153	83.56
516.369	86.56
516.585	95.56
516.801	85.56
517.016	80.56
517.232	87.56
517.448	96.56
517.664	99.56
517.879	96.56
518.095	93.56
518.311	80.56
518.527	86.56
518.742	96.56
518.958	90.56
519.173	92.56
519.389	100.56
519.605	79.56
519.82	88.56
520.036	77.56
