Data from StdD_HRD10591_041.txt Node
Date: Fri May 16 15:31:41 EDT 2025
User: Yrep
Spectrometer: HR+D1059
Trigger mode: 1
Integration Time (sec): 1.000000E-1
Scans to average: 1
Electric dark correction enabled: true
Nonlinearity correction enabled: false
Boxcar width: 0
XAxis mode: Wavelengths
Number of Pixels in Spectrum: 2048
>>>>>Begin Spectral Data<<<<<
223.165	-11.44
223.4	-11.44
223.635	-11.44
223.869	-22.44
224.104	-21.44
224.338	-12.44
224.573	-28.44
224.808	-12.44
225.042	-0.44
225.277	-17.44
225.511	-3.44
225.746	5.56
225.98	9.56
226.215	14.56
226.449	16.56
226.683	22.56
226.918	25.56
227.152	35.56
227.387	29.56
227.621	33.56
227.856	51.56
228.09	49.56
228.324	52.56
228.559	54.56
228.793	63.56
229.027	81.56
229.262	80.56
229.496	59.56
229.73	79.56
229.964	79.56
230.199	73.56
230.433	79.56
230.667	82.56
230.901	68.56
231.136	88.56
231.37	78.56
231.604	85.56
231.838	88.56
232.072	89.56
232.306	79.56
232.541	77.56
232.775	83.56
233.009	83.56
233.243	67.56
233.477	89.56
233.711	85.56
233.945	75.56
234.179	92.56
234.413	87.56
234.647	72.56
234.881	83.56
235.115	85.56
235.349	75.56
235.583	78.56
235.817	95.56
236.051	77.56
236.285	76.56
236.519	95.56
236.753	59.56
236.987	85.56
237.221	83.56
237.455	81.56
237.689	75.56
237.922	83.56
238.156	75.56
238.39	69.56
238.624	90.56
238.858	87.56
239.091	84.56
239.325	86.56
239.559	80.56
239.793	65.56
240.027	90.56
240.26	75.56
240.494	84.56
240.728	85.56
240.961	85.56
241.195	80.56
241.429	78.56
241.662	79.56
241.896	85.56
242.13	80.56
242.363	75.56
242.597	76.56
242.83	93.56
243.064	72.56
243.298	83.56
243.531	81.56
243.765	81.56
243.998	78.56
244.232	89.56
244.465	77.56
244.699	74.56
244.932	97.56
245.166	89.56
245.399	81.56
245.633	83.56
245.866	80.56
246.099	75.56
246.333	79.56
246.566	74.56
246.8	73.56
247.033	75.56
247.266	80.56
247.5	84.56
247.733	87.56
247.966	79.56
248.2	85.56
248.433	94.56
248.666	75.56
248.899	83.56
249.133	87.56
249.366	79.56
249.599	83.56
249.832	87.56
250.066	80.56
250.299	88.56
250.532	79.56
250.765	75.56
250.998	83.56
251.231	82.56
251.465	73.56
251.698	91.56
251.931	70.56
252.164	77.56
252.397	72.56
252.63	70.56
252.863	85.56
253.096	75.56
253.329	85.56
253.562	65.56
253.795	91.56
254.028	83.56
254.261	82.56
254.494	81.56
254.727	82.56
254.96	68.56
255.193	78.56
255.426	87.56
255.659	83.56
255.892	95.56
256.124	86.56
256.357	82.56
256.59	79.56
256.823	71.56
257.056	90.56
257.289	65.56
257.521	93.56
257.754	75.56
257.987	80.56
258.22	85.56
258.452	86.56
258.685	80.56
258.918	91.56
259.151	76.56
259.383	73.56
259.616	80.56
259.849	83.56
260.081	93.56
260.314	105.56
260.547	91.56
260.779	71.56
261.012	70.56
261.244	86.56
261.477	83.56
261.71	80.56
261.942	85.56
262.175	98.56
262.407	82.56
262.64	89.56
262.872	70.56
263.105	87.56
263.337	99.56
263.57	88.56
263.802	100.56
264.035	83.56
264.267	85.56
264.499	91.56
264.732	77.56
264.964	75.56
265.197	79.56
265.429	85.56
265.661	91.56
265.894	84.56
266.126	65.56
266.358	73.56
266.591	68.56
266.823	86.56
267.055	84.56
267.287	91.56
267.52	81.56
267.752	83.56
267.984	86.56
268.216	97.56
268.448	92.56
268.681	91.56
268.913	95.56
269.145	86.56
269.377	87.56
269.609	85.56
269.841	103.56
270.073	88.56
270.306	83.56
270.538	83.56
270.77	87.56
271.002	78.56
271.234	97.56
271.466	91.56
271.698	88.56
271.93	95.56
272.162	92.56
272.394	100.56
272.626	95.56
272.858	78.56
273.09	87.56
273.322	91.56
273.553	83.56
273.785	89.56
274.017	93.56
274.249	82.56
274.481	92.56
274.713	91.56
274.945	79.56
275.176	94.56
275.408	80.56
275.64	88.56
275.872	86.56
276.104	88.56
276.335	96.56
276.567	87.56
276.799	75.56
277.031	77.56
277.262	75.56
277.494	83.56
277.726	74.56
277.957	89.56
278.189	84.56
278.421	85.56
278.652	89.56
278.884	78.56
279.115	91.56
279.347	82.56
279.579	88.56
279.81	99.56
280.042	85.56
280.273	88.56
280.505	76.56
280.736	95.56
280.968	78.56
281.199	79.56
281.431	99.56
281.662	83.56
281.894	79.56
282.125	81.56
282.356	74.56
282.588	78.56
282.819	84.56
283.051	82.56
283.282	74.56
283.513	78.56
283.745	100.56
283.976	96.56
284.207	81.56
284.439	90.56
284.67	80.56
284.901	88.56
285.132	82.56
285.364	85.56
285.595	93.56
285.826	83.56
286.057	88.56
286.288	95.56
286.52	90.56
286.751	79.56
286.982	91.56
287.213	87.56
287.444	79.56
287.675	94.56
287.906	93.56
288.138	96.56
288.369	85.56
288.6	78.56
288.831	90.56
289.062	93.56
289.293	90.56
289.524	80.56
289.755	82.56
289.986	87.56
290.217	82.56
290.448	91.56
290.679	99.56
290.91	95.56
291.141	93.56
291.371	101.56
291.602	90.56
291.833	72.56
292.064	94.56
292.295	80.56
292.526	90.56
292.757	83.56
292.987	94.56
293.218	81.56
293.449	83.56
293.68	83.56
293.91	85.56
294.141	95.56
294.372	90.56
294.603	92.56
294.833	90.56
295.064	84.56
295.295	94.56
295.525	80.56
295.756	92.56
295.987	80.56
296.217	101.56
296.448	77.56
296.679	91.56
296.909	95.56
297.14	81.56
297.37	90.56
297.601	89.56
297.831	85.56
298.062	89.56
298.292	86.56
298.523	77.56
298.753	91.56
298.984	93.56
299.214	86.56
299.445	87.56
299.675	89.56
299.905	79.56
300.136	79.56
300.366	90.56
300.597	84.56
300.827	95.56
301.057	94.56
301.288	88.56
301.518	97.56
301.748	103.56
301.979	111.56
302.209	86.56
302.439	81.56
302.669	87.56
302.9	99.56
303.13	86.56
303.36	100.56
303.59	84.56
303.82	94.56
304.051	93.56
304.281	87.56
304.511	91.56
304.741	73.56
304.971	100.56
305.201	91.56
305.431	98.56
305.661	82.56
305.891	90.56
306.121	90.56
306.352	97.56
306.582	83.56
306.812	75.56
307.042	109.56
307.272	90.56
307.502	94.56
307.731	88.56
307.961	77.56
308.191	94.56
308.421	84.56
308.651	84.56
308.881	85.56
309.111	85.56
309.341	84.56
309.571	87.56
309.8	89.56
310.03	73.56
310.26	86.56
310.49	77.56
310.72	89.56
310.949	92.56
311.179	89.56
311.409	101.56
311.639	83.56
311.868	86.56
312.098	70.56
312.328	96.56
312.557	78.56
312.787	77.56
313.017	91.56
313.246	82.56
313.476	85.56
313.706	90.56
313.935	84.56
314.165	95.56
314.394	90.56
314.624	87.56
314.853	97.56
315.083	99.56
315.312	87.56
315.542	94.56
315.771	92.56
316.001	87.56
316.23	81.56
316.46	90.56
316.689	97.56
316.919	83.56
317.148	85.56
317.377	84.56
317.607	77.56
317.836	91.56
318.065	79.56
318.295	67.56
318.524	82.56
318.753	88.56
318.983	94.56
319.212	87.56
319.441	94.56
319.67	96.56
319.9	90.56
320.129	91.56
320.358	68.56
320.587	91.56
320.816	88.56
321.046	72.56
321.275	93.56
321.504	88.56
321.733	78.56
321.962	90.56
322.191	89.56
322.42	77.56
322.649	84.56
322.878	88.56
323.108	94.56
323.337	77.56
323.566	92.56
323.795	94.56
324.024	82.56
324.253	77.56
324.482	62.56
324.71	90.56
324.939	79.56
325.168	96.56
325.397	97.56
325.626	83.56
325.855	91.56
326.084	89.56
326.313	97.56
326.542	81.56
326.77	89.56
326.999	83.56
327.228	85.56
327.457	92.56
327.686	85.56
327.914	96.56
328.143	82.56
328.372	91.56
328.6	81.56
328.829	84.56
329.058	83.56
329.287	91.56
329.515	89.56
329.744	85.56
329.972	84.56
330.201	83.56
330.43	82.56
330.658	81.56
330.887	85.56
331.115	87.56
331.344	67.56
331.572	91.56
331.801	95.56
332.03	96.56
332.258	98.56
332.486	89.56
332.715	77.56
332.943	98.56
333.172	84.56
333.4	84.56
333.629	84.56
333.857	83.56
334.085	90.56
334.314	86.56
334.542	85.56
334.771	80.56
334.999	86.56
335.227	94.56
335.455	89.56
335.684	91.56
335.912	76.56
336.14	96.56
336.369	66.56
336.597	77.56
336.825	85.56
337.053	89.56
337.281	77.56
337.51	79.56
337.738	84.56
337.966	77.56
338.194	86.56
338.422	86.56
338.65	96.56
338.878	88.56
339.106	87.56
339.334	83.56
339.562	86.56
339.79	73.56
340.018	87.56
340.246	89.56
340.474	79.56
340.702	88.56
340.93	84.56
341.158	88.56
341.386	88.56
341.614	83.56
341.842	85.56
342.07	75.56
342.298	77.56
342.526	86.56
342.754	96.56
342.981	94.56
343.209	92.56
343.437	98.56
343.665	87.56
343.893	78.56
344.12	108.56
344.348	87.56
344.576	91.56
344.804	98.56
345.031	94.56
345.259	87.56
345.487	82.56
345.714	91.56
345.942	85.56
346.17	100.56
346.397	78.56
346.625	83.56
346.853	97.56
347.08	85.56
347.308	103.56
347.535	101.56
347.763	89.56
347.99	75.56
348.218	88.56
348.445	91.56
348.673	83.56
348.9	87.56
349.128	83.56
349.355	92.56
349.583	92.56
349.81	88.56
350.037	94.56
350.265	92.56
350.492	81.56
350.72	89.56
350.947	87.56
351.174	92.56
351.402	85.56
351.629	91.56
351.856	82.56
352.083	91.56
352.311	98.56
352.538	75.56
352.765	81.56
352.992	79.56
353.22	77.56
353.447	86.56
353.674	81.56
353.901	86.56
354.128	92.56
354.355	73.56
354.583	85.56
354.81	89.56
355.037	91.56
355.264	92.56
355.491	95.56
355.718	96.56
355.945	103.56
356.172	79.56
356.399	91.56
356.626	83.56
356.853	94.56
357.08	77.56
357.307	73.56
357.534	85.56
357.761	99.56
357.988	85.56
358.215	88.56
358.441	77.56
358.668	92.56
358.895	91.56
359.122	93.56
359.349	86.56
359.576	81.56
359.802	84.56
360.029	75.56
360.256	69.56
360.483	97.56
360.709	82.56
360.936	100.56
361.163	84.56
361.39	72.56
361.616	73.56
361.843	95.56
362.07	83.56
362.296	82.56
362.523	84.56
362.749	83.56
362.976	97.56
363.203	90.56
363.429	97.56
363.656	90.56
363.882	91.56
364.109	69.56
364.335	87.56
364.562	79.56
364.788	80.56
365.015	99.56
365.241	89.56
365.468	82.56
365.694	75.56
365.92	83.56
366.147	78.56
366.373	89.56
366.599	89.56
366.826	89.56
367.052	101.56
367.278	87.56
367.505	83.56
367.731	103.56
367.957	107.56
368.184	72.56
368.41	79.56
368.636	81.56
368.862	77.56
369.089	71.56
369.315	90.56
369.541	76.56
369.767	83.56
369.993	87.56
370.219	84.56
370.445	79.56
370.672	95.56
370.898	89.56
371.124	77.56
371.35	84.56
371.576	94.56
371.802	87.56
372.028	76.56
372.254	95.56
372.48	83.56
372.706	89.56
372.932	82.56
373.158	82.56
373.384	87.56
373.61	89.56
373.835	85.56
374.061	85.56
374.287	83.56
374.513	92.56
374.739	75.56
374.965	83.56
375.191	93.56
375.416	81.56
375.642	91.56
375.868	103.56
376.094	89.56
376.319	87.56
376.545	90.56
376.771	77.56
376.997	87.56
377.222	91.56
377.448	84.56
377.674	88.56
377.899	89.56
378.125	89.56
378.35	83.56
378.576	74.56
378.802	75.56
379.027	80.56
379.253	83.56
379.478	88.56
379.704	89.56
379.929	84.56
380.155	88.56
380.38	84.56
380.606	92.56
380.831	98.56
381.057	80.56
381.282	85.56
381.507	83.56
381.733	97.56
381.958	89.56
382.184	77.56
382.409	96.56
382.634	75.56
382.86	88.56
383.085	91.56
383.31	98.56
383.535	94.56
383.761	80.56
383.986	83.56
384.211	75.56
384.436	99.56
384.662	74.56
384.887	88.56
385.112	96.56
385.337	94.56
385.562	88.56
385.787	99.56
386.013	92.56
386.238	98.56
386.463	90.56
386.688	100.56
386.913	91.56
387.138	92.56
387.363	89.56
387.588	101.56
387.813	85.56
388.038	88.56
388.263	90.56
388.488	85.56
388.713	87.56
388.938	67.56
389.163	84.56
389.387	94.56
389.612	72.56
389.837	65.56
390.062	84.56
390.287	89.56
390.512	77.56
390.736	79.56
390.961	80.56
391.186	95.56
391.411	86.56
391.636	91.56
391.86	80.56
392.085	92.56
392.31	100.56
392.534	87.56
392.759	97.56
392.984	89.56
393.208	89.56
393.433	94.56
393.658	87.56
393.882	80.56
394.107	83.56
394.331	87.56
394.556	89.56
394.78	94.56
395.005	98.56
395.229	76.56
395.454	96.56
395.678	89.56
395.903	83.56
396.127	83.56
396.352	92.56
396.576	89.56
396.801	87.56
397.025	100.56
397.249	98.56
397.474	94.56
397.698	75.56
397.922	93.56
398.147	85.56
398.371	74.56
398.595	95.56
398.82	81.56
399.044	93.56
399.268	92.56
399.492	93.56
399.717	94.56
399.941	88.56
400.165	91.56
400.389	91.56
400.613	91.56
400.837	91.56
401.062	80.56
401.286	85.56
401.51	76.56
401.734	69.56
401.958	73.56
402.182	73.56
402.406	87.56
402.63	95.56
402.854	89.56
403.078	88.56
403.302	82.56
403.526	82.56
403.75	83.56
403.974	89.56
404.198	99.56
404.422	69.56
404.645	84.56
404.869	71.56
405.093	85.56
405.317	109.56
405.541	93.56
405.765	92.56
405.988	93.56
406.212	91.56
406.436	67.56
406.66	99.56
406.883	87.56
407.107	85.56
407.331	83.56
407.555	74.56
407.778	88.56
408.002	89.56
408.226	83.56
408.449	73.56
408.673	84.56
408.896	83.56
409.12	83.56
409.344	93.56
409.567	92.56
409.791	83.56
410.014	97.56
410.238	82.56
410.461	81.56
410.685	89.56
410.908	76.56
411.132	72.56
411.355	83.56
411.578	94.56
411.802	91.56
412.025	75.56
412.249	83.56
412.472	82.56
412.695	83.56
412.919	89.56
413.142	75.56
413.365	92.56
413.589	81.56
413.812	86.56
414.035	91.56
414.258	86.56
414.482	79.56
414.705	91.56
414.928	88.56
415.151	73.56
415.374	78.56
415.597	84.56
415.821	81.56
416.044	83.56
416.267	92.56
416.49	84.56
416.713	104.56
416.936	82.56
417.159	77.56
417.382	84.56
417.605	80.56
417.828	87.56
418.051	79.56
418.274	85.56
418.497	78.56
418.72	64.56
418.943	90.56
419.166	93.56
419.389	95.56
419.611	75.56
419.834	79.56
420.057	89.56
420.28	88.56
420.503	79.56
420.726	84.56
420.948	79.56
421.171	82.56
421.394	84.56
421.617	73.56
421.839	83.56
422.062	76.56
422.285	79.56
422.507	76.56
422.73	85.56
422.953	83.56
423.175	87.56
423.398	84.56
423.621	92.56
423.843	75.56
424.066	72.56
424.288	69.56
424.511	83.56
424.733	75.56
424.956	70.56
425.178	84.56
425.401	69.56
425.623	84.56
425.846	88.56
426.068	87.56
426.291	84.56
426.513	91.56
426.735	83.56
426.958	93.56
427.18	97.56
427.402	89.56
427.625	85.56
427.847	89.56
428.069	87.56
428.292	89.56
428.514	75.56
428.736	82.56
428.958	96.56
429.181	82.56
429.403	87.56
429.625	83.56
429.847	85.56
430.069	81.56
430.292	75.56
430.514	79.56
430.736	94.56
430.958	86.56
431.18	98.56
431.402	73.56
431.624	83.56
431.846	74.56
432.068	70.56
432.29	80.56
432.512	83.56
432.734	90.56
432.956	74.56
433.178	68.56
433.4	70.56
433.622	85.56
433.844	95.56
434.066	88.56
434.287	84.56
434.509	88.56
434.731	88.56
434.953	88.56
435.175	94.56
435.397	94.56
435.618	83.56
435.84	67.56
436.062	73.56
436.284	84.56
436.505	91.56
436.727	85.56
436.949	95.56
437.17	83.56
437.392	71.56
437.614	88.56
437.835	81.56
438.057	75.56
438.278	89.56
438.5	70.56
438.721	89.56
438.943	81.56
439.165	84.56
439.386	75.56
439.608	91.56
439.829	80.56
440.05	78.56
440.272	87.56
440.493	93.56
440.715	87.56
440.936	80.56
441.158	81.56
441.379	84.56
441.6	89.56
441.822	85.56
442.043	93.56
442.264	100.56
442.486	81.56
442.707	89.56
442.928	103.56
443.149	82.56
443.371	83.56
443.592	79.56
443.813	104.56
444.034	83.56
444.255	85.56
444.476	80.56
444.698	89.56
444.919	77.56
445.14	146.56
445.361	121.56
445.582	93.56
445.803	91.56
446.024	82.56
446.245	97.56
446.466	81.56
446.687	92.56
446.908	96.56
447.129	69.56
447.35	88.56
447.571	90.56
447.792	82.56
448.013	77.56
448.234	75.56
448.455	84.56
448.675	85.56
448.896	84.56
449.117	84.56
449.338	82.56
449.559	77.56
449.779	83.56
450	85.56
450.221	99.56
450.442	77.56
450.662	77.56
450.883	95.56
451.104	83.56
451.324	91.56
451.545	80.56
451.766	93.56
451.986	86.56
452.207	77.56
452.428	85.56
452.648	91.56
452.869	79.56
453.089	99.56
453.31	83.56
453.53	83.56
453.751	88.56
453.971	93.56
454.192	91.56
454.412	84.56
454.633	77.56
454.853	88.56
455.073	98.56
455.294	79.56
455.514	86.56
455.734	91.56
455.955	87.56
456.175	73.56
456.395	84.56
456.616	86.56
456.836	80.56
457.056	89.56
457.276	82.56
457.497	92.56
457.717	87.56
457.937	95.56
458.157	95.56
458.377	83.56
458.598	83.56
458.818	80.56
459.038	87.56
459.258	84.56
459.478	83.56
459.698	81.56
459.918	84.56
460.138	89.56
460.358	75.56
460.578	83.56
460.798	83.56
461.018	79.56
461.238	102.56
461.458	99.56
461.678	75.56
461.898	94.56
462.118	101.56
462.338	92.56
462.558	84.56
462.777	88.56
462.997	89.56
463.217	75.56
463.437	81.56
463.657	79.56
463.876	81.56
464.096	92.56
464.316	77.56
464.536	89.56
464.755	84.56
464.975	83.56
465.195	77.56
465.414	97.56
465.634	89.56
465.854	93.56
466.073	93.56
466.293	81.56
466.512	81.56
466.732	78.56
466.951	94.56
467.171	93.56
467.391	86.56
467.61	79.56
467.829	77.56
468.049	84.56
468.268	83.56
468.488	83.56
468.707	89.56
468.927	92.56
469.146	93.56
469.365	90.56
469.585	94.56
469.804	92.56
470.023	88.56
470.243	83.56
470.462	70.56
470.681	73.56
470.901	80.56
471.12	93.56
471.339	96.56
471.558	81.56
471.777	77.56
471.997	90.56
472.216	83.56
472.435	73.56
472.654	63.56
472.873	93.56
473.092	90.56
473.311	78.56
473.53	87.56
473.749	85.56
473.968	93.56
474.187	88.56
474.406	81.56
474.625	68.56
474.844	72.56
475.063	91.56
475.282	81.56
475.501	84.56
475.72	83.56
475.939	87.56
476.158	78.56
476.377	67.56
476.596	84.56
476.814	83.56
477.033	88.56
477.252	84.56
477.471	93.56
477.69	91.56
477.908	86.56
478.127	87.56
478.346	77.56
478.564	79.56
478.783	79.56
479.002	82.56
479.22	96.56
479.439	88.56
479.658	82.56
479.876	77.56
480.095	69.56
480.313	93.56
480.532	98.56
480.751	87.56
480.969	83.56
481.188	73.56
481.406	77.56
481.624	75.56
481.843	83.56
482.061	87.56
482.28	79.56
482.498	79.56
482.717	80.56
482.935	87.56
483.153	89.56
483.372	79.56
483.59	96.56
483.808	100.56
484.027	88.56
484.245	80.56
484.463	84.56
484.681	79.56
484.9	83.56
485.118	85.56
485.336	88.56
485.554	73.56
485.772	99.56
485.99	85.56
486.209	95.56
486.427	75.56
486.645	90.56
486.863	84.56
487.081	80.56
487.299	110.56
487.517	94.56
487.735	100.56
487.953	80.56
488.171	81.56
488.389	88.56
488.607	77.56
488.825	84.56
489.043	85.56
489.261	102.56
489.479	95.56
489.696	103.56
489.914	99.56
490.132	89.56
490.35	92.56
490.568	87.56
490.786	87.56
491.003	87.56
491.221	81.56
491.439	97.56
491.657	88.56
491.874	95.56
492.092	82.56
492.31	91.56
492.527	90.56
492.745	89.56
492.963	89.56
493.18	105.56
493.398	100.56
493.615	88.56
493.833	96.56
494.05	96.56
494.268	77.56
494.485	86.56
494.703	93.56
494.92	69.56
495.138	71.56
495.355	98.56
495.573	82.56
495.79	93.56
496.008	88.56
496.225	89.56
496.442	85.56
496.66	93.56
496.877	91.56
497.094	84.56
497.312	91.56
497.529	71.56
497.746	80.56
497.963	79.56
498.181	74.56
498.398	92.56
498.615	91.56
498.832	90.56
499.049	97.56
499.267	93.56
499.484	89.56
499.701	87.56
499.918	87.56
500.135	93.56
500.352	89.56
500.569	84.56
500.786	87.56
501.003	82.56
501.22	108.56
501.437	82.56
501.654	89.56
501.871	77.56
502.088	76.56
502.305	77.56
502.522	99.56
502.739	88.56
502.956	92.56
503.172	80.56
503.389	92.56
503.606	96.56
503.823	79.56
504.04	90.56
504.256	97.56
504.473	72.56
504.69	95.56
504.907	101.56
505.123	80.56
505.34	90.56
505.557	98.56
505.773	95.56
505.99	91.56
506.207	85.56
506.423	88.56
506.64	88.56
506.856	97.56
507.073	84.56
507.289	74.56
507.506	96.56
507.722	87.56
507.939	84.56
508.155	81.56
508.372	87.56
508.588	82.56
508.805	91.56
509.021	91.56
509.238	76.56
509.454	86.56
509.67	78.56
509.887	86.56
510.103	99.56
510.319	85.56
510.536	85.56
510.752	103.56
510.968	83.56
511.184	82.56
511.401	87.56
511.617	84.56
511.833	70.56
512.049	97.56
512.265	89.56
512.481	89.56
512.698	95.56
512.914	82.56
513.13	97.56
513.346	80.56
513.562	83.56
513.778	77.56
513.994	87.56
514.21	83.56
514.426	95.56
514.642	87.56
514.858	101.56
515.074	77.56
515.29	85.56
515.506	94.56
515.721	70.56
515.937	94.56
516.153	88.56
516.369	82.56
516.585	87.56
516.801	80.56
517.016	97.56
517.232	93.56
517.448	94.56
517.664	83.56
517.879	83.56
518.095	86.56
518.311	91.56
518.527	101.56
518.742	94.56
518.958	66.56
519.173	88.56
519.389	83.56
519.605	92.56
