Data from StdD_HRD10591_042.txt Node
Date: Fri May 16 15:31:42 EDT 2025
User: Yrep
Spectrometer: HR+D1059
Trigger mode: 1
Integration Time (sec): 1.000000E-1
Scans to average: 1
Electric dark correction enabled: true
Nonlinearity correction enabled: false
Boxcar width: 0
XAxis mode: Wavelengths
Number of Pixels in Spectrum: 2048
>>>>>Begin Spectral Data<<<<<
223.165	-18
223.4	-18
223.635	-18
223.869	-21
224.104	-18
224.338	-18
224.573	-19
224.808	-22
225.042	5
225.277	-23
225.511	-3
225.746	-3
225.98	21
226.215	8
226.449	19
226.683	26
226.918	21
227.152	45
227.387	33
227.621	31
227.856	43
228.09	35
228.324	36
228.559	48
228.793	81
229.027	52
229.262	57
229.496	63
229.73	72
229.964	70
230.199	71
230.433	78
230.667	68
230.901	69
231.136	72
231.37	77
231.604	70
231.838	81
232.072	73
232.306	83
232.541	77
232.775	66
233.009	82
233.243	70
233.477	80
233.711	68
233.945	69
234.179	63
234.413	68
234.647	70
234.881	76
235.115	73
235.349	76
235.583	89
235.817	93
236.051	56
236.285	82
236.519	85
236.753	86
236.987	69
237.221	78
237.455	76
237.689	83
237.922	71
238.156	76
238.39	72
238.624	69
238.858	74
239.091	74
239.325	65
239.559	65
239.793	61
240.027	62
240.26	58
240.494	80
240.728	76
240.961	70
241.195	74
241.429	81
241.662	61
241.896	73
242.13	74
242.363	75
242.597	66
242.83	78
243.064	96
243.298	87
243.531	82
243.765	81
243.998	71
244.232	72
244.465	71
244.699	87
244.932	79
245.166	63
245.399	58
245.633	58
245.866	77
246.099	70
246.333	77
246.566	70
246.8	82
247.033	74
247.266	67
247.5	67
247.733	66
247.966	75
248.2	72
248.433	75
248.666	60
248.899	62
249.133	83
249.366	84
249.599	80
249.832	86
250.066	69
250.299	75
250.532	77
250.765	73
250.998	60
251.231	72
251.465	72
251.698	71
251.931	69
252.164	61
252.397	76
252.63	72
252.863	54
253.096	68
253.329	88
253.562	67
253.795	75
254.028	84
254.261	85
254.494	65
254.727	69
254.96	69
255.193	76
255.426	57
255.659	65
255.892	73
256.124	76
256.357	70
256.59	73
256.823	80
257.056	76
257.289	71
257.521	77
257.754	68
257.987	74
258.22	70
258.452	77
258.685	87
258.918	75
259.151	74
259.383	87
259.616	72
259.849	66
260.081	74
260.314	83
260.547	87
260.779	92
261.012	81
261.244	88
261.477	71
261.71	76
261.942	85
262.175	83
262.407	84
262.64	77
262.872	81
263.105	69
263.337	82
263.57	83
263.802	75
264.035	76
264.267	76
264.499	81
264.732	90
264.964	84
265.197	80
265.429	75
265.661	78
265.894	73
266.126	88
266.358	87
266.591	87
266.823	66
267.055	80
267.287	70
267.52	81
267.752	79
267.984	80
268.216	80
268.448	77
268.681	85
268.913	78
269.145	76
269.377	81
269.609	66
269.841	80
270.073	68
270.306	83
270.538	70
270.77	76
271.002	78
271.234	77
271.466	84
271.698	69
271.93	75
272.162	88
272.394	84
272.626	78
272.858	91
273.09	90
273.322	84
273.553	76
273.785	77
274.017	75
274.249	69
274.481	73
274.713	82
274.945	72
275.176	75
275.408	67
275.64	76
275.872	98
276.104	70
276.335	81
276.567	72
276.799	84
277.031	85
277.262	77
277.494	90
277.726	81
277.957	87
278.189	75
278.421	78
278.652	85
278.884	83
279.115	93
279.347	76
279.579	71
279.81	69
280.042	76
280.273	74
280.505	92
280.736	89
280.968	81
281.199	91
281.431	68
281.662	78
281.894	78
282.125	73
282.356	77
282.588	89
282.819	81
283.051	78
283.282	85
283.513	93
283.745	91
283.976	87
284.207	62
284.439	88
284.67	86
284.901	88
285.132	83
285.364	76
285.595	72
285.826	81
286.057	93
286.288	73
286.52	73
286.751	64
286.982	73
287.213	85
287.444	93
287.675	82
287.906	88
288.138	76
288.369	85
288.6	78
288.831	87
289.062	78
289.293	92
289.524	75
289.755	74
289.986	74
290.217	78
290.448	88
290.679	71
290.91	80
291.141	90
291.371	91
291.602	91
291.833	78
292.064	74
292.295	73
292.526	72
292.757	83
292.987	80
293.218	73
293.449	83
293.68	80
293.91	89
294.141	72
294.372	66
294.603	81
294.833	83
295.064	76
295.295	90
295.525	80
295.756	84
295.987	76
296.217	74
296.448	71
296.679	65
296.909	82
297.14	82
297.37	83
297.601	66
297.831	77
298.062	90
298.292	77
298.523	78
298.753	84
298.984	86
299.214	81
299.445	79
299.675	76
299.905	93
300.136	80
300.366	73
300.597	82
300.827	95
301.057	92
301.288	72
301.518	79
301.748	75
301.979	87
302.209	85
302.439	81
302.669	84
302.9	68
303.13	79
303.36	80
303.59	80
303.82	89
304.051	65
304.281	75
304.511	78
304.741	84
304.971	79
305.201	89
305.431	83
305.661	80
305.891	62
306.121	96
306.352	83
306.582	85
306.812	69
307.042	90
307.272	96
307.502	80
307.731	82
307.961	92
308.191	76
308.421	90
308.651	105
308.881	64
309.111	88
309.341	82
309.571	78
309.8	78
310.03	71
310.26	71
310.49	87
310.72	77
310.949	77
311.179	87
311.409	68
311.639	82
311.868	74
312.098	76
312.328	76
312.557	69
312.787	86
313.017	76
313.246	73
313.476	80
313.706	84
313.935	70
314.165	81
314.394	78
314.624	84
314.853	93
315.083	86
315.312	76
315.542	77
315.771	82
316.001	77
316.23	78
316.46	61
316.689	78
316.919	70
317.148	70
317.377	78
317.607	89
317.836	85
318.065	84
318.295	80
318.524	65
318.753	92
318.983	64
319.212	79
319.441	74
319.67	70
319.9	71
320.129	82
320.358	77
320.587	81
320.816	76
321.046	92
321.275	74
321.504	78
321.733	78
321.962	77
322.191	86
322.42	91
322.649	74
322.878	65
323.108	71
323.337	73
323.566	82
323.795	81
324.024	88
324.253	82
324.482	83
324.71	74
324.939	86
325.168	74
325.397	79
325.626	96
325.855	84
326.084	74
326.313	72
326.542	73
326.77	62
326.999	68
327.228	83
327.457	82
327.686	80
327.914	78
328.143	71
328.372	65
328.6	73
328.829	93
329.058	76
329.287	92
329.515	71
329.744	87
329.972	70
330.201	72
330.43	83
330.658	70
330.887	78
331.115	75
331.344	73
331.572	79
331.801	86
332.03	93
332.258	92
332.486	84
332.715	71
332.943	88
333.172	61
333.4	70
333.629	72
333.857	89
334.085	84
334.314	69
334.542	74
334.771	88
334.999	68
335.227	66
335.455	87
335.684	99
335.912	85
336.14	87
336.369	68
336.597	71
336.825	73
337.053	62
337.281	84
337.51	83
337.738	82
337.966	76
338.194	73
338.422	101
338.65	68
338.878	72
339.106	69
339.334	73
339.562	83
339.79	68
340.018	63
340.246	65
340.474	80
340.702	82
340.93	66
341.158	58
341.386	87
341.614	74
341.842	83
342.07	90
342.298	72
342.526	70
342.754	89
342.981	81
343.209	55
343.437	77
343.665	69
343.893	77
344.12	90
344.348	85
344.576	70
344.804	83
345.031	79
345.259	67
345.487	88
345.714	74
345.942	88
346.17	72
346.397	82
346.625	76
346.853	68
347.08	75
347.308	77
347.535	86
347.763	76
347.99	70
348.218	85
348.445	86
348.673	83
348.9	83
349.128	69
349.355	65
349.583	76
349.81	87
350.037	82
350.265	76
350.492	76
350.72	79
350.947	75
351.174	80
351.402	72
351.629	80
351.856	75
352.083	88
352.311	77
352.538	87
352.765	89
352.992	94
353.22	94
353.447	67
353.674	82
353.901	72
354.128	76
354.355	79
354.583	86
354.81	79
355.037	98
355.264	72
355.491	74
355.718	82
355.945	88
356.172	82
356.399	90
356.626	90
356.853	83
357.08	86
357.307	72
357.534	82
357.761	104
357.988	73
358.215	66
358.441	82
358.668	78
358.895	72
359.122	76
359.349	78
359.576	69
359.802	62
360.029	84
360.256	85
360.483	76
360.709	93
360.936	80
361.163	69
361.39	72
361.616	74
361.843	73
362.07	72
362.296	65
362.523	80
362.749	77
362.976	81
363.203	74
363.429	81
363.656	89
363.882	75
364.109	77
364.335	86
364.562	71
364.788	84
365.015	69
365.241	74
365.468	71
365.694	67
365.92	60
366.147	77
366.373	76
366.599	77
366.826	72
367.052	70
367.278	76
367.505	83
367.731	85
367.957	75
368.184	84
368.41	73
368.636	90
368.862	80
369.089	69
369.315	76
369.541	64
369.767	73
369.993	84
370.219	74
370.445	72
370.672	74
370.898	75
371.124	67
371.35	72
371.576	76
371.802	75
372.028	82
372.254	72
372.48	85
372.706	98
372.932	80
373.158	68
373.384	68
373.61	72
373.835	73
374.061	84
374.287	70
374.513	81
374.739	78
374.965	86
375.191	60
375.416	76
375.642	82
375.868	71
376.094	62
376.319	98
376.545	80
376.771	72
376.997	70
377.222	79
377.448	83
377.674	83
377.899	82
378.125	73
378.35	81
378.576	82
378.802	79
379.027	77
379.253	72
379.478	80
379.704	76
379.929	82
380.155	75
380.38	80
380.606	80
380.831	74
381.057	86
381.282	72
381.507	70
381.733	76
381.958	65
382.184	78
382.409	72
382.634	78
382.86	90
383.085	89
383.31	70
383.535	78
383.761	86
383.986	77
384.211	57
384.436	72
384.662	82
384.887	84
385.112	87
385.337	97
385.562	93
385.787	72
386.013	73
386.238	81
386.463	72
386.688	90
386.913	72
387.138	75
387.363	76
387.588	87
387.813	75
388.038	76
388.263	72
388.488	60
388.713	70
388.938	80
389.163	70
389.387	72
389.612	75
389.837	87
390.062	75
390.287	90
390.512	81
390.736	73
390.961	78
391.186	82
391.411	79
391.636	76
391.86	67
392.085	83
392.31	97
392.534	75
392.759	93
392.984	71
393.208	71
393.433	73
393.658	62
393.882	68
394.107	85
394.331	76
394.556	81
394.78	61
395.005	67
395.229	88
395.454	70
395.678	75
395.903	62
396.127	82
396.352	68
396.576	68
396.801	80
397.025	72
397.249	76
397.474	69
397.698	77
397.922	84
398.147	88
398.371	65
398.595	81
398.82	66
399.044	81
399.268	85
399.492	72
399.717	82
399.941	86
400.165	85
400.389	73
400.613	85
400.837	72
401.062	82
401.286	65
401.51	67
401.734	71
401.958	77
402.182	83
402.406	82
402.63	81
402.854	73
403.078	84
403.302	85
403.526	77
403.75	80
403.974	82
404.198	78
404.422	90
404.645	71
404.869	80
405.093	75
405.317	77
405.541	62
405.765	53
405.988	54
406.212	86
406.436	86
406.66	70
406.883	80
407.107	76
407.331	74
407.555	78
407.778	67
408.002	86
408.226	77
408.449	66
408.673	81
408.896	92
409.12	66
409.344	75
409.567	71
409.791	74
410.014	88
410.238	72
410.461	85
410.685	80
410.908	69
411.132	61
411.355	79
411.578	77
411.802	80
412.025	77
412.249	90
412.472	73
412.695	86
412.919	65
413.142	84
413.365	72
413.589	69
413.812	72
414.035	79
414.258	75
414.482	78
414.705	80
414.928	76
415.151	66
415.374	71
415.597	86
415.821	70
416.044	75
416.267	88
416.49	86
416.713	74
416.936	84
417.159	66
417.382	77
417.605	74
417.828	80
418.051	64
418.274	80
418.497	75
418.72	78
418.943	83
419.166	72
419.389	72
419.611	69
419.834	80
420.057	97
420.28	80
420.503	71
420.726	83
420.948	78
421.171	88
421.394	83
421.617	75
421.839	73
422.062	75
422.285	82
422.507	71
422.73	68
422.953	69
423.175	82
423.398	82
423.621	83
423.843	86
424.066	84
424.288	83
424.511	97
424.733	85
424.956	86
425.178	94
425.401	78
425.623	72
425.846	75
426.068	73
426.291	87
426.513	90
426.735	76
426.958	89
427.18	78
427.402	67
427.625	88
427.847	60
428.069	78
428.292	85
428.514	83
428.736	76
428.958	83
429.181	84
429.403	82
429.625	81
429.847	68
430.069	87
430.292	82
430.514	75
430.736	75
430.958	73
431.18	83
431.402	66
431.624	74
431.846	78
432.068	80
432.29	81
432.512	68
432.734	71
432.956	77
433.178	73
433.4	71
433.622	85
433.844	74
434.066	75
434.287	82
434.509	62
434.731	79
434.953	86
435.175	88
435.397	76
435.618	76
435.84	70
436.062	86
436.284	87
436.505	96
436.727	76
436.949	79
437.17	78
437.392	70
437.614	89
437.835	67
438.057	76
438.278	69
438.5	87
438.721	76
438.943	75
439.165	69
439.386	58
439.608	87
439.829	74
440.05	73
440.272	72
440.493	75
440.715	52
440.936	87
441.158	88
441.379	74
441.6	84
441.822	68
442.043	68
442.264	67
442.486	80
442.707	73
442.928	76
443.149	88
443.371	71
443.592	76
443.813	80
444.034	83
444.255	85
444.476	91
444.698	73
444.919	71
445.14	144
445.361	101
445.582	97
445.803	80
446.024	83
446.245	74
446.466	87
446.687	89
446.908	73
447.129	75
447.35	69
447.571	90
447.792	83
448.013	70
448.234	93
448.455	88
448.675	87
448.896	71
449.117	69
449.338	72
449.559	70
449.779	79
450	83
450.221	88
450.442	90
450.662	84
450.883	80
451.104	72
451.324	62
451.545	96
451.766	77
451.986	62
452.207	90
452.428	96
452.648	81
452.869	86
453.089	76
453.31	80
453.53	80
453.751	68
453.971	81
454.192	62
454.412	86
454.633	82
454.853	84
455.073	72
455.294	68
455.514	87
455.734	84
455.955	85
456.175	84
456.395	81
456.616	74
456.836	66
457.056	78
457.276	64
457.497	74
457.717	78
457.937	74
458.157	75
458.377	63
458.598	83
458.818	69
459.038	84
459.258	58
459.478	72
459.698	80
459.918	82
460.138	68
460.358	77
460.578	87
460.798	77
461.018	78
461.238	76
461.458	72
461.678	80
461.898	73
462.118	75
462.338	67
462.558	79
462.777	81
462.997	69
463.217	70
463.437	69
463.657	72
463.876	84
464.096	86
464.316	70
464.536	59
464.755	75
464.975	84
465.195	62
465.414	81
465.634	86
465.854	83
466.073	84
466.293	75
466.512	86
466.732	85
466.951	74
467.171	92
467.391	78
467.61	74
467.829	58
468.049	80
468.268	72
468.488	68
468.707	81
468.927	81
469.146	71
469.365	87
469.585	79
469.804	91
470.023	77
470.243	90
470.462	77
470.681	73
470.901	74
471.12	84
471.339	83
471.558	57
471.777	80
471.997	91
472.216	88
472.435	81
472.654	61
472.873	77
473.092	84
473.311	81
473.53	90
473.749	86
473.968	86
474.187	78
474.406	72
474.625	88
474.844	83
475.063	74
475.282	69
475.501	78
475.72	71
475.939	85
476.158	90
476.377	76
476.596	86
476.814	80
477.033	78
477.252	81
477.471	93
477.69	92
477.908	85
478.127	77
478.346	82
478.564	80
478.783	75
479.002	78
479.22	84
479.439	85
479.658	84
479.876	82
480.095	67
480.313	66
480.532	82
480.751	68
480.969	75
481.188	90
481.406	73
481.624	70
481.843	69
482.061	74
482.28	88
482.498	84
482.717	74
482.935	80
483.153	87
483.372	73
483.59	77
483.808	69
484.027	80
484.245	85
484.463	60
484.681	80
484.9	62
485.118	76
485.336	80
485.554	69
485.772	72
485.99	72
486.209	80
486.427	83
486.645	76
486.863	74
487.081	89
487.299	87
487.517	78
487.735	70
487.953	87
488.171	77
488.389	79
488.607	82
488.825	64
489.043	71
489.261	76
489.479	79
489.696	85
489.914	78
490.132	84
490.35	82
490.568	86
490.786	88
491.003	80
491.221	68
491.439	82
491.657	79
491.874	82
492.092	88
492.31	72
492.527	83
492.745	82
492.963	83
493.18	86
493.398	63
493.615	86
493.833	84
494.05	85
494.268	78
494.485	84
494.703	75
494.92	86
495.138	74
495.355	72
495.573	91
495.79	76
496.008	77
496.225	85
496.442	82
496.66	89
496.877	84
497.094	97
497.312	64
497.529	89
497.746	87
497.963	76
498.181	80
498.398	82
498.615	80
498.832	83
499.049	81
499.267	82
499.484	74
499.701	76
499.918	83
500.135	75
500.352	69
500.569	85
500.786	83
501.003	76
501.22	84
501.437	89
501.654	69
501.871	72
502.088	88
502.305	77
502.522	87
502.739	92
502.956	89
503.172	78
503.389	83
503.606	76
503.823	74
504.04	78
504.256	73
504.473	88
504.69	80
504.907	83
505.123	71
505.34	74
505.557	83
505.773	81
505.99	76
506.207	71
506.423	77
506.64	87
506.856	77
507.073	64
507.289	84
507.506	79
507.722	75
507.939	65
508.155	77
508.372	84
508.588	76
508.805	84
509.021	93
509.238	73
509.454	82
509.67	89
509.887	68
510.103	90
510.319	75
510.536	80
510.752	79
510.968	89
511.184	77
511.401	73
511.617	69
511.833	74
512.049	79
512.265	91
512.481	77
512.698	75
512.914	75
513.13	72
513.346	76
513.562	78
513.778	68
513.994	88
514.21	94
514.426	62
514.642	70
514.858	93
515.074	74
515.29	89
515.506	81
515.721	74
515.937	84
516.153	84
516.369	82
516.585	80
516.801	76
517.016	89
517.232	82
517.448	65
517.664	69
517.879	62
518.095	84
518.311	83
518.527	68
518.742	64
518.958	84
519.173	75
519.389	92
519.605	76
519.82	94
520.036	77
520.251	80
520.467	82
520.682	78
520.898	76
521.113	66
521.329	72
521.544	72
521.76	93
521.975	89
522.19	79
522.406	77
522.621	74
522.836	81
523.052	72
523.267	92
523.482	69
523.698	81
523.913	82
524.128	67
524.343	68
524.559	85
524.774	86
524.989	76
525.204	86
525.419	72
525.634	80
525.849	76
526.064	81
526.28	90
526.495	87
526.71	86
526.925	82
527.14	75
527.355	80
527.57	80
527.785	80
527.999	88
528.214	81
528.429	71
528.644	66
528.859	63
529.074	87
529.289	72
529.503	91
529.718	88
529.933	95
530.148	78
530.363	84
530.577	86
530.792	82
531.007	69
531.221	66
531.436	83
531.651	86
531.865	80
532.08	76
532.295	76
532.509	69
532.724	79
532.938	81
533.153	85
533.367	89
533.582	76
533.796	83
534.011	82
534.225	84
534.44	88
534.654	81
534.868	72
535.083	83
535.297	70
535.511	86
535.726	80
535.94	71
536.154	72
536.369	80
536.583	80
536.797	74
537.011	74
537.225	100
537.44	71
537.654	76
537.868	60
538.082	84
538.296	98
538.51	92
538.724	90
538.938	80
539.153	72
539.367	75
539.581	78
539.795	81
540.009	84
540.222	101
540.436	85
540.65	75
540.864	88
541.078	81
541.292	84
541.506	81
541.72	78
541.934	72
542.147	74
542.361	82
542.575	85
542.789	73
543.002	83
543.216	80
543.43	72
543.644	84
543.857	83
544.071	71
544.285	76
544.498	96
544.712	84
544.925	97
545.139	82
545.352	91
545.566	80
545.779	80
545.993	94
546.206	93
546.42	90
546.633	60
546.847	71
547.06	81
547.274	74
547.487	72
547.7	73
547.914	85
548.127	89
548.34	96
548.554	88
548.767	94
548.98	102
549.193	76
549.407	80
549.62	90
549.833	74
550.046	73
550.259	82
550.473	81
550.686	83
550.899	79
551.112	89
551.325	99
551.538	76
551.751	82
551.964	85
552.177	83
552.39	91
552.603	88
552.816	84
553.029	83
553.242	87
553.455	85
553.667	65
553.88	87
554.093	78
554.306	76
554.519	84
554.732	89
554.944	86
555.157	91
555.37	92
555.583	90
555.795	85
556.008	73
556.221	83
556.433	80
556.646	81
556.859	85
557.071	81
557.284	84
557.496	78
557.709	90
557.921	82
558.134	91
558.346	88
558.559	81
558.771	95
558.984	86
559.196	80
559.409	85
559.621	86
559.833	72
560.046	88
560.258	77
560.47	80
560.683	91
560.895	75
561.107	71
561.32	80
561.532	92
561.744	93
561.956	62
562.168	76
562.381	82
562.593	85
562.805	83
563.017	77
563.229	75
563.441	88
563.653	72
563.865	89
564.077	96
564.289	88
564.501	72
564.713	68
564.925	76
565.137	82
565.349	69
565.561	85
565.773	90
565.985	86
566.197	69
566.408	80
566.62	74
566.832	71
567.044	84
567.255	70
567.467	79
567.679	74
567.891	91
568.102	79
568.314	91
568.526	78
568.737	52
568.949	76
569.161	70
569.372	82
569.584	85
569.795	80
570.007	76
570.218	83
570.43	82
570.641	79
570.853	60
571.064	82
571.276	76
571.487	78
571.698	88
571.91	81
572.121	77
572.333	75
572.544	83
572.755	79
572.966	76
573.178	59
573.389	75
573.6	71
573.811	71
574.023	91
574.234	71
574.445	59
574.656	72
574.867	82
575.078	88
575.289	60
575.501	93
575.712	76
575.923	76
576.134	99
576.345	66
576.556	79
576.767	68
576.978	83
577.188	82
577.399	80
577.61	82
577.821	81
578.032	78
578.243	72
578.454	93
578.665	72
578.875	74
579.086	78
579.297	82
579.508	63
579.718	80
579.929	96
580.14	77
580.35	75
580.561	72
580.772	87
580.982	69
581.193	89
581.403	81
581.614	82
581.825	82
582.035	70
582.246	76
582.456	83
582.667	86
582.877	71
583.087	69
583.298	84
583.508	79
583.719	79
583.929	87
584.139	77
584.35	79
584.56	82
584.77	83
584.981	85
585.191	80
585.401	87
585.611	86
585.821	70
586.032	75
586.242	83
586.452	86
586.662	80
586.872	80
587.082	83
587.292	84
587.502	84
587.713	90
587.923	83
588.133	88
588.343	80
588.553	77
588.762	72
588.972	71
589.182	87
589.392	82
589.602	89
589.812	79
590.022	87
590.232	80
590.441	62
590.651	82
590.861	84
591.071	72
