Data from StdD_HRD10591_055.txt Node
Date: Fri May 16 15:31:48 EDT 2025
User: Yrep
Spectrometer: HR+D1059
Trigger mode: 1
Integration Time (sec): 1.000000E-1
Scans to average: 1
Electric dark correction enabled: true
Nonlinearity correction enabled: false
Boxcar width: 0
XAxis mode: Wavelengths
Number of Pixels in Spectrum: 2048
>>>>>Begin Spectral Data<<<<<
223.165	-16.56
223.4	-16.56
223.635	-16.56
223.869	-19.56
224.104	-16.56
224.338	-9.56
224.573	-10.56
224.808	-8.56
225.042	-3.56
225.277	-5.56
225.511	9.44
225.746	1.44
225.98	-2.56
226.215	7.44
226.449	24.44
226.683	14.44
226.918	13.44
227.152	22.44
227.387	41.44
227.621	31.44
227.856	55.44
228.09	53.44
228.324	58.44
228.559	74.44
228.793	63.44
229.027	50.44
229.262	58.44
229.496	65.44
229.73	52.44
229.964	64.44
230.199	57.44
230.433	69.44
230.667	76.44
230.901	66.44
231.136	80.44
231.37	61.44
231.604	73.44
231.838	76.44
232.072	87.44
232.306	79.44
232.541	86.44
232.775	72.44
233.009	72.44
233.243	75.44
233.477	74.44
233.711	71.44
233.945	85.44
234.179	73.44
234.413	78.44
234.647	75.44
234.881	77.44
235.115	67.44
235.349	67.44
235.583	74.44
235.817	76.44
236.051	66.44
236.285	56.44
236.519	72.44
236.753	72.44
236.987	77.44
237.221	68.44
237.455	61.44
237.689	69.44
237.922	77.44
238.156	83.44
238.39	76.44
238.624	63.44
238.858	72.44
239.091	57.44
239.325	70.44
239.559	60.44
239.793	65.44
240.027	83.44
240.26	64.44
240.494	66.44
240.728	68.44
240.961	71.44
241.195	76.44
241.429	85.44
241.662	57.44
241.896	76.44
242.13	67.44
242.363	72.44
242.597	71.44
242.83	57.44
243.064	75.44
243.298	73.44
243.531	83.44
243.765	72.44
243.998	62.44
244.232	90.44
244.465	70.44
244.699	71.44
244.932	64.44
245.166	80.44
245.399	73.44
245.633	72.44
245.866	71.44
246.099	74.44
246.333	53.44
246.566	73.44
246.8	80.44
247.033	66.44
247.266	70.44
247.5	76.44
247.733	68.44
247.966	75.44
248.2	80.44
248.433	85.44
248.666	85.44
248.899	73.44
249.133	83.44
249.366	81.44
249.599	78.44
249.832	82.44
250.066	81.44
250.299	87.44
250.532	77.44
250.765	67.44
250.998	83.44
251.231	67.44
251.465	88.44
251.698	75.44
251.931	87.44
252.164	69.44
252.397	75.44
252.63	79.44
252.863	76.44
253.096	84.44
253.329	77.44
253.562	81.44
253.795	75.44
254.028	92.44
254.261	74.44
254.494	74.44
254.727	82.44
254.96	81.44
255.193	62.44
255.426	71.44
255.659	76.44
255.892	83.44
256.124	80.44
256.357	81.44
256.59	88.44
256.823	83.44
257.056	72.44
257.289	71.44
257.521	85.44
257.754	72.44
257.987	81.44
258.22	72.44
258.452	67.44
258.685	87.44
258.918	73.44
259.151	71.44
259.383	91.44
259.616	73.44
259.849	63.44
260.081	90.44
260.314	74.44
260.547	69.44
260.779	83.44
261.012	80.44
261.244	79.44
261.477	77.44
261.71	81.44
261.942	55.44
262.175	69.44
262.407	78.44
262.64	79.44
262.872	71.44
263.105	81.44
263.337	75.44
263.57	76.44
263.802	84.44
264.035	86.44
264.267	75.44
264.499	74.44
264.732	69.44
264.964	73.44
265.197	77.44
265.429	78.44
265.661	69.44
265.894	89.44
266.126	87.44
266.358	75.44
266.591	83.44
266.823	72.44
267.055	69.44
267.287	66.44
267.52	68.44
267.752	90.44
267.984	85.44
268.216	80.44
268.448	78.44
268.681	66.44
268.913	86.44
269.145	93.44
269.377	80.44
269.609	71.44
269.841	85.44
270.073	91.44
270.306	81.44
270.538	76.44
270.77	71.44
271.002	69.44
271.234	81.44
271.466	87.44
271.698	75.44
271.93	75.44
272.162	87.44
272.394	89.44
272.626	81.44
272.858	69.44
273.09	83.44
273.322	75.44
273.553	90.44
273.785	80.44
274.017	86.44
274.249	89.44
274.481	75.44
274.713	90.44
274.945	82.44
275.176	80.44
275.408	82.44
275.64	86.44
275.872	77.44
276.104	77.44
276.335	71.44
276.567	79.44
276.799	73.44
277.031	81.44
277.262	80.44
277.494	93.44
277.726	82.44
277.957	71.44
278.189	81.44
278.421	81.44
278.652	84.44
278.884	77.44
279.115	85.44
279.347	74.44
279.579	67.44
279.81	93.44
280.042	77.44
280.273	88.44
280.505	110.44
280.736	78.44
280.968	69.44
281.199	93.44
281.431	89.44
281.662	83.44
281.894	78.44
282.125	76.44
282.356	81.44
282.588	88.44
282.819	80.44
283.051	86.44
283.282	76.44
283.513	91.44
283.745	78.44
283.976	91.44
284.207	82.44
284.439	78.44
284.67	71.44
284.901	88.44
285.132	71.44
285.364	79.44
285.595	73.44
285.826	79.44
286.057	72.44
286.288	75.44
286.52	73.44
286.751	82.44
286.982	75.44
287.213	72.44
287.444	76.44
287.675	73.44
287.906	83.44
288.138	79.44
288.369	71.44
288.6	73.44
288.831	78.44
289.062	78.44
289.293	72.44
289.524	79.44
289.755	83.44
289.986	82.44
290.217	84.44
290.448	94.44
290.679	79.44
290.91	72.44
291.141	75.44
291.371	84.44
291.602	85.44
291.833	68.44
292.064	84.44
292.295	85.44
292.526	66.44
292.757	78.44
292.987	63.44
293.218	89.44
293.449	73.44
293.68	80.44
293.91	69.44
294.141	78.44
294.372	81.44
294.603	81.44
294.833	88.44
295.064	94.44
295.295	84.44
295.525	83.44
295.756	80.44
295.987	72.44
296.217	86.44
296.448	71.44
296.679	92.44
296.909	75.44
297.14	75.44
297.37	79.44
297.601	87.44
297.831	79.44
298.062	80.44
298.292	77.44
298.523	86.44
298.753	87.44
298.984	83.44
299.214	91.44
299.445	89.44
299.675	85.44
299.905	79.44
300.136	86.44
300.366	72.44
300.597	65.44
300.827	87.44
301.057	89.44
301.288	78.44
301.518	77.44
301.748	86.44
301.979	99.44
302.209	92.44
302.439	83.44
302.669	71.44
302.9	77.44
303.13	83.44
303.36	80.44
303.59	84.44
303.82	110.44
304.051	86.44
304.281	74.44
304.511	81.44
304.741	77.44
304.971	85.44
305.201	75.44
305.431	76.44
305.661	79.44
305.891	73.44
306.121	91.44
306.352	80.44
306.582	87.44
306.812	70.44
307.042	83.44
307.272	72.44
307.502	79.44
307.731	79.44
307.961	69.44
308.191	85.44
308.421	77.44
308.651	82.44
308.881	85.44
309.111	70.44
309.341	78.44
309.571	79.44
309.8	93.44
310.03	84.44
310.26	83.44
310.49	67.44
310.72	72.44
310.949	80.44
311.179	91.44
311.409	68.44
311.639	81.44
311.868	90.44
312.098	88.44
312.328	74.44
312.557	81.44
312.787	76.44
313.017	72.44
313.246	85.44
313.476	84.44
313.706	78.44
313.935	75.44
314.165	78.44
314.394	83.44
314.624	80.44
314.853	77.44
315.083	88.44
315.312	76.44
315.542	82.44
315.771	92.44
316.001	84.44
316.23	78.44
316.46	78.44
316.689	79.44
316.919	92.44
317.148	78.44
317.377	89.44
317.607	94.44
317.836	86.44
318.065	76.44
318.295	93.44
318.524	87.44
318.753	81.44
318.983	75.44
319.212	85.44
319.441	89.44
319.67	75.44
319.9	80.44
320.129	78.44
320.358	77.44
320.587	78.44
320.816	83.44
321.046	85.44
321.275	83.44
321.504	82.44
321.733	84.44
321.962	106.44
322.191	84.44
322.42	80.44
322.649	84.44
322.878	88.44
323.108	78.44
323.337	83.44
323.566	71.44
323.795	87.44
324.024	64.44
324.253	85.44
324.482	78.44
324.71	79.44
324.939	97.44
325.168	75.44
325.397	73.44
325.626	78.44
325.855	75.44
326.084	64.44
326.313	85.44
326.542	88.44
326.77	81.44
326.999	85.44
327.228	89.44
327.457	73.44
327.686	75.44
327.914	88.44
328.143	87.44
328.372	93.44
328.6	77.44
328.829	79.44
329.058	85.44
329.287	81.44
329.515	88.44
329.744	89.44
329.972	63.44
330.201	78.44
330.43	87.44
330.658	83.44
330.887	79.44
331.115	94.44
331.344	80.44
331.572	89.44
331.801	77.44
332.03	96.44
332.258	77.44
332.486	85.44
332.715	64.44
332.943	77.44
333.172	94.44
333.4	95.44
333.629	89.44
333.857	79.44
334.085	81.44
334.314	72.44
334.542	77.44
334.771	93.44
334.999	87.44
335.227	83.44
335.455	73.44
335.684	84.44
335.912	81.44
336.14	84.44
336.369	69.44
336.597	68.44
336.825	78.44
337.053	79.44
337.281	81.44
337.51	73.44
337.738	85.44
337.966	76.44
338.194	84.44
338.422	90.44
338.65	109.44
338.878	93.44
339.106	75.44
339.334	76.44
339.562	71.44
339.79	87.44
340.018	75.44
340.246	80.44
340.474	72.44
340.702	75.44
340.93	83.44
341.158	91.44
341.386	91.44
341.614	77.44
341.842	85.44
342.07	75.44
342.298	76.44
342.526	70.44
342.754	78.44
342.981	75.44
343.209	72.44
343.437	97.44
343.665	73.44
343.893	99.44
344.12	80.44
344.348	72.44
344.576	69.44
344.804	88.44
345.031	73.44
345.259	79.44
345.487	79.44
345.714	75.44
345.942	73.44
346.17	92.44
346.397	75.44
346.625	75.44
346.853	87.44
347.08	91.44
347.308	86.44
347.535	83.44
347.763	89.44
347.99	78.44
348.218	77.44
348.445	83.44
348.673	77.44
348.9	66.44
349.128	81.44
349.355	77.44
349.583	76.44
349.81	84.44
350.037	91.44
350.265	89.44
350.492	73.44
350.72	65.44
350.947	80.44
351.174	78.44
351.402	83.44
351.629	86.44
351.856	78.44
352.083	87.44
352.311	66.44
352.538	71.44
352.765	82.44
352.992	94.44
353.22	76.44
353.447	85.44
353.674	78.44
353.901	79.44
354.128	84.44
354.355	77.44
354.583	73.44
354.81	93.44
355.037	91.44
355.264	84.44
355.491	84.44
355.718	82.44
355.945	68.44
356.172	72.44
356.399	99.44
356.626	83.44
356.853	70.44
357.08	88.44
357.307	83.44
357.534	80.44
357.761	80.44
357.988	77.44
358.215	91.44
358.441	92.44
358.668	77.44
358.895	94.44
359.122	81.44
359.349	74.44
359.576	77.44
359.802	76.44
360.029	80.44
360.256	78.44
360.483	64.44
360.709	84.44
360.936	85.44
361.163	71.44
361.39	91.44
361.616	91.44
361.843	82.44
362.07	73.44
362.296	65.44
362.523	82.44
362.749	78.44
362.976	69.44
363.203	84.44
363.429	90.44
363.656	89.44
363.882	94.44
364.109	81.44
364.335	77.44
364.562	76.44
364.788	85.44
365.015	86.44
365.241	77.44
365.468	68.44
365.694	72.44
365.92	90.44
366.147	79.44
366.373	77.44
366.599	84.44
366.826	79.44
367.052	63.44
367.278	80.44
367.505	83.44
367.731	87.44
367.957	81.44
368.184	84.44
368.41	88.44
368.636	79.44
368.862	93.44
369.089	83.44
369.315	69.44
369.541	76.44
369.767	81.44
369.993	86.44
370.219	95.44
370.445	86.44
370.672	85.44
370.898	73.44
371.124	93.44
371.35	86.44
371.576	100.44
371.802	79.44
372.028	85.44
372.254	78.44
372.48	76.44
372.706	80.44
372.932	83.44
373.158	87.44
373.384	86.44
373.61	80.44
373.835	73.44
374.061	66.44
374.287	72.44
374.513	80.44
374.739	59.44
374.965	79.44
375.191	84.44
375.416	86.44
375.642	79.44
375.868	73.44
376.094	74.44
376.319	94.44
376.545	71.44
376.771	92.44
376.997	83.44
377.222	74.44
377.448	90.44
377.674	81.44
377.899	84.44
378.125	90.44
378.35	88.44
378.576	70.44
378.802	83.44
379.027	78.44
379.253	76.44
379.478	79.44
379.704	88.44
379.929	96.44
380.155	86.44
380.38	74.44
380.606	83.44
380.831	90.44
381.057	99.44
381.282	71.44
381.507	80.44
381.733	86.44
381.958	61.44
382.184	91.44
382.409	83.44
382.634	86.44
382.86	85.44
383.085	84.44
383.31	70.44
383.535	103.44
383.761	81.44
383.986	96.44
384.211	85.44
384.436	87.44
384.662	85.44
384.887	67.44
385.112	84.44
385.337	68.44
385.562	81.44
385.787	92.44
386.013	88.44
386.238	87.44
386.463	78.44
386.688	100.44
386.913	98.44
387.138	80.44
387.363	84.44
387.588	81.44
387.813	84.44
388.038	99.44
388.263	88.44
388.488	85.44
388.713	68.44
388.938	67.44
389.163	90.44
389.387	83.44
389.612	79.44
389.837	82.44
390.062	93.44
390.287	91.44
390.512	69.44
390.736	83.44
390.961	77.44
391.186	79.44
391.411	82.44
391.636	60.44
391.86	77.44
392.085	70.44
392.31	77.44
392.534	66.44
392.759	79.44
392.984	86.44
393.208	84.44
393.433	86.44
393.658	89.44
393.882	71.44
394.107	80.44
394.331	82.44
394.556	73.44
394.78	92.44
395.005	60.44
395.229	92.44
395.454	89.44
395.678	80.44
395.903	86.44
396.127	73.44
396.352	74.44
396.576	88.44
396.801	89.44
397.025	85.44
397.249	79.44
397.474	84.44
397.698	72.44
397.922	80.44
398.147	88.44
398.371	79.44
398.595	85.44
398.82	75.44
399.044	77.44
399.268	73.44
399.492	85.44
399.717	76.44
399.941	88.44
400.165	87.44
400.389	79.44
400.613	79.44
400.837	76.44
401.062	70.44
401.286	70.44
401.51	74.44
401.734	75.44
401.958	62.44
402.182	70.44
402.406	79.44
402.63	94.44
402.854	74.44
403.078	72.44
403.302	79.44
403.526	65.44
403.75	87.44
403.974	75.44
404.198	80.44
404.422	64.44
404.645	89.44
404.869	92.44
405.093	63.44
405.317	86.44
405.541	75.44
405.765	79.44
405.988	79.44
406.212	76.44
406.436	76.44
406.66	87.44
406.883	98.44
407.107	64.44
407.331	68.44
407.555	94.44
407.778	85.44
408.002	76.44
408.226	77.44
408.449	81.44
408.673	74.44
408.896	79.44
409.12	85.44
409.344	74.44
409.567	75.44
409.791	73.44
410.014	73.44
410.238	89.44
410.461	72.44
410.685	91.44
410.908	90.44
411.132	79.44
411.355	75.44
411.578	84.44
411.802	73.44
412.025	83.44
412.249	75.44
412.472	85.44
412.695	78.44
412.919	71.44
413.142	85.44
413.365	75.44
413.589	83.44
413.812	83.44
414.035	85.44
414.258	88.44
414.482	83.44
414.705	84.44
414.928	86.44
415.151	78.44
415.374	84.44
415.597	75.44
415.821	74.44
416.044	88.44
416.267	96.44
416.49	77.44
416.713	87.44
416.936	74.44
417.159	82.44
417.382	75.44
417.605	81.44
417.828	85.44
418.051	80.44
418.274	89.44
418.497	78.44
418.72	90.44
418.943	100.44
419.166	77.44
419.389	97.44
419.611	79.44
419.834	77.44
420.057	84.44
420.28	76.44
420.503	87.44
420.726	75.44
420.948	81.44
421.171	81.44
421.394	83.44
421.617	82.44
421.839	79.44
422.062	78.44
422.285	71.44
422.507	86.44
422.73	69.44
422.953	71.44
423.175	81.44
423.398	85.44
423.621	78.44
423.843	77.44
424.066	75.44
424.288	75.44
424.511	80.44
424.733	74.44
424.956	90.44
425.178	80.44
425.401	77.44
425.623	78.44
425.846	80.44
426.068	79.44
426.291	89.44
426.513	93.44
426.735	80.44
426.958	88.44
427.18	92.44
427.402	80.44
427.625	83.44
427.847	66.44
428.069	79.44
428.292	61.44
428.514	65.44
428.736	61.44
428.958	79.44
429.181	78.44
429.403	85.44
429.625	96.44
429.847	80.44
430.069	95.44
430.292	88.44
430.514	86.44
430.736	75.44
430.958	72.44
431.18	71.44
431.402	78.44
431.624	81.44
431.846	81.44
432.068	71.44
432.29	88.44
432.512	84.44
432.734	74.44
432.956	76.44
433.178	81.44
433.4	76.44
433.622	75.44
433.844	78.44
434.066	75.44
434.287	90.44
434.509	75.44
434.731	76.44
434.953	85.44
435.175	73.44
435.397	81.44
435.618	89.44
435.84	82.44
436.062	77.44
436.284	59.44
436.505	76.44
436.727	75.44
436.949	75.44
437.17	74.44
437.392	75.44
437.614	83.44
437.835	92.44
438.057	72.44
438.278	87.44
438.5	71.44
438.721	73.44
438.943	74.44
439.165	86.44
439.386	76.44
439.608	84.44
439.829	87.44
440.05	96.44
440.272	90.44
440.493	75.44
440.715	74.44
440.936	94.44
441.158	89.44
441.379	71.44
441.6	80.44
441.822	60.44
442.043	86.44
442.264	85.44
442.486	79.44
442.707	78.44
442.928	73.44
443.149	66.44
443.371	82.44
443.592	68.44
443.813	77.44
444.034	80.44
444.255	79.44
444.476	83.44
444.698	72.44
444.919	67.44
445.14	157.44
445.361	128.44
445.582	83.44
445.803	79.44
446.024	81.44
446.245	68.44
446.466	77.44
446.687	78.44
446.908	93.44
447.129	85.44
447.35	90.44
447.571	80.44
447.792	83.44
448.013	81.44
448.234	70.44
448.455	73.44
448.675	89.44
448.896	83.44
449.117	88.44
449.338	84.44
449.559	80.44
449.779	75.44
450	91.44
450.221	86.44
450.442	79.44
450.662	74.44
450.883	69.44
451.104	87.44
451.324	75.44
451.545	95.44
451.766	78.44
451.986	91.44
452.207	68.44
452.428	75.44
452.648	81.44
452.869	82.44
453.089	89.44
453.31	83.44
453.53	81.44
453.751	78.44
453.971	69.44
454.192	72.44
454.412	73.44
454.633	87.44
454.853	80.44
455.073	80.44
455.294	61.44
455.514	85.44
455.734	87.44
455.955	92.44
456.175	81.44
456.395	75.44
456.616	77.44
456.836	80.44
457.056	80.44
457.276	75.44
457.497	84.44
457.717	69.44
457.937	76.44
458.157	73.44
458.377	69.44
458.598	77.44
458.818	69.44
459.038	74.44
459.258	76.44
459.478	75.44
459.698	79.44
459.918	75.44
460.138	79.44
460.358	80.44
460.578	77.44
460.798	93.44
461.018	77.44
461.238	73.44
461.458	83.44
461.678	79.44
461.898	81.44
462.118	72.44
462.338	81.44
462.558	76.44
462.777	90.44
462.997	89.44
463.217	75.44
463.437	84.44
463.657	92.44
463.876	84.44
464.096	77.44
464.316	72.44
464.536	81.44
464.755	72.44
464.975	75.44
465.195	70.44
465.414	69.44
465.634	90.44
465.854	79.44
466.073	73.44
466.293	72.44
466.512	67.44
466.732	78.44
466.951	80.44
467.171	83.44
467.391	81.44
467.61	72.44
467.829	80.44
468.049	78.44
468.268	70.44
468.488	61.44
468.707	81.44
468.927	87.44
469.146	77.44
469.365	86.44
469.585	82.44
469.804	75.44
470.023	69.44
470.243	68.44
470.462	77.44
470.681	71.44
470.901	83.44
471.12	92.44
471.339	86.44
471.558	75.44
471.777	73.44
471.997	76.44
472.216	79.44
472.435	79.44
472.654	79.44
472.873	87.44
473.092	80.44
473.311	77.44
473.53	85.44
473.749	93.44
473.968	83.44
474.187	59.44
474.406	69.44
474.625	99.44
474.844	91.44
475.063	85.44
475.282	70.44
475.501	89.44
475.72	94.44
475.939	99.44
476.158	79.44
476.377	90.44
476.596	64.44
476.814	78.44
477.033	89.44
477.252	90.44
477.471	64.44
477.69	84.44
477.908	77.44
478.127	85.44
478.346	70.44
478.564	88.44
478.783	83.44
479.002	85.44
479.22	84.44
479.439	68.44
479.658	74.44
479.876	77.44
480.095	80.44
480.313	88.44
480.532	73.44
480.751	88.44
480.969	78.44
481.188	72.44
481.406	88.44
481.624	79.44
481.843	65.44
482.061	79.44
482.28	81.44
482.498	76.44
482.717	83.44
482.935	88.44
483.153	76.44
483.372	89.44
483.59	69.44
483.808	92.44
484.027	91.44
484.245	84.44
484.463	81.44
484.681	81.44
484.9	87.44
485.118	75.44
485.336	83.44
485.554	73.44
485.772	89.44
485.99	80.44
486.209	90.44
486.427	73.44
486.645	88.44
486.863	83.44
487.081	71.44
487.299	74.44
487.517	79.44
487.735	67.44
487.953	81.44
488.171	83.44
488.389	80.44
488.607	69.44
488.825	72.44
489.043	80.44
489.261	68.44
489.479	79.44
489.696	78.44
489.914	83.44
490.132	77.44
490.35	87.44
490.568	83.44
490.786	82.44
491.003	79.44
491.221	63.44
491.439	81.44
491.657	85.44
491.874	67.44
492.092	76.44
492.31	68.44
492.527	87.44
492.745	74.44
492.963	84.44
493.18	95.44
493.398	95.44
493.615	70.44
493.833	94.44
494.05	79.44
494.268	84.44
494.485	78.44
494.703	90.44
494.92	80.44
495.138	76.44
495.355	85.44
495.573	90.44
495.79	92.44
496.008	85.44
496.225	75.44
496.442	71.44
496.66	89.44
496.877	95.44
497.094	73.44
497.312	83.44
497.529	76.44
497.746	76.44
497.963	80.44
498.181	87.44
498.398	77.44
498.615	92.44
498.832	81.44
499.049	87.44
499.267	74.44
499.484	78.44
499.701	87.44
499.918	89.44
500.135	76.44
500.352	80.44
500.569	90.44
500.786	93.44
501.003	78.44
501.22	84.44
501.437	79.44
501.654	77.44
501.871	79.44
502.088	82.44
502.305	83.44
502.522	88.44
502.739	91.44
502.956	79.44
503.172	94.44
503.389	80.44
503.606	91.44
503.823	76.44
504.04	82.44
504.256	69.44
504.473	86.44
504.69	67.44
504.907	89.44
505.123	80.44
505.34	78.44
505.557	76.44
505.773	84.44
505.99	89.44
506.207	104.44
506.423	76.44
506.64	86.44
506.856	76.44
507.073	80.44
507.289	80.44
507.506	84.44
507.722	95.44
507.939	84.44
508.155	73.44
508.372	83.44
508.588	88.44
508.805	85.44
509.021	85.44
509.238	76.44
509.454	92.44
509.67	81.44
509.887	93.44
510.103	103.44
510.319	73.44
510.536	78.44
510.752	76.44
510.968	88.44
511.184	66.44
511.401	71.44
511.617	83.44
511.833	85.44
512.049	61.44
512.265	80.44
512.481	84.44
512.698	87.44
512.914	85.44
513.13	78.44
513.346	84.44
513.562	85.44
513.778	79.44
513.994	74.44
514.21	96.44
514.426	97.44
514.642	84.44
514.858	64.44
515.074	83.44
515.29	88.44
515.506	70.44
515.721	80.44
515.937	93.44
516.153	83.44
516.369	82.44
516.585	85.44
516.801	77.44
517.016	87.44
517.232	73.44
517.448	91.44
517.664	77.44
517.879	87.44
518.095	69.44
518.311	63.44
518.527	73.44
518.742	87.44
518.958	77.44
519.173	88.44
519.389	92.44
519.605	92.44
519.82	85.44
520.036	79.44
520.251	89.44
