Data from StdD_HRD10591_075.txt Node
Date: Fri May 16 15:31:58 EDT 2025
User: Yrep
Spectrometer: HR+D1059
Trigger mode: 1
Integration Time (sec): 1.000000E-1
Scans to average: 1
Electric dark correction enabled: true
Nonlinearity correction enabled: false
Boxcar width: 0
XAxis mode: Wavelengths
Number of Pixels in Spectrum: 2048
>>>>>Begin Spectral Data<<<<<
223.165	-19.44
223.4	-19.44
223.635	-19.44
223.869	-12.44
224.104	-24.44
224.338	-15.44
224.573	-1.44
224.808	-10.44
225.042	-15.44
225.277	-10.44
225.511	3.56
225.746	8.56
225.98	9.56
226.215	3.56
226.449	6.56
226.683	18.56
226.918	28.56
227.152	30.56
227.387	29.56
227.621	49.56
227.856	41.56
228.09	44.56
228.324	50.56
228.559	64.56
228.793	70.56
229.027	60.56
229.262	45.56
229.496	60.56
229.73	68.56
229.964	65.56
230.199	72.56
230.433	72.56
230.667	80.56
230.901	78.56
231.136	76.56
231.37	86.56
231.604	84.56
231.838	88.56
232.072	68.56
232.306	73.56
232.541	81.56
232.775	73.56
233.009	87.56
233.243	70.56
233.477	76.56
233.711	87.56
233.945	96.56
234.179	76.56
234.413	102.56
234.647	95.56
234.881	82.56
235.115	82.56
235.349	76.56
235.583	85.56
235.817	85.56
236.051	86.56
236.285	70.56
236.519	72.56
236.753	75.56
236.987	85.56
237.221	84.56
237.455	86.56
237.689	81.56
237.922	85.56
238.156	64.56
238.39	94.56
238.624	71.56
238.858	84.56
239.091	72.56
239.325	63.56
239.559	75.56
239.793	73.56
240.027	74.56
240.26	82.56
240.494	82.56
240.728	73.56
240.961	57.56
241.195	75.56
241.429	77.56
241.662	91.56
241.896	66.56
242.13	75.56
242.363	75.56
242.597	77.56
242.83	73.56
243.064	88.56
243.298	65.56
243.531	78.56
243.765	71.56
243.998	74.56
244.232	75.56
244.465	87.56
244.699	85.56
244.932	84.56
245.166	79.56
245.399	77.56
245.633	74.56
245.866	78.56
246.099	85.56
246.333	82.56
246.566	77.56
246.8	81.56
247.033	73.56
247.266	80.56
247.5	76.56
247.733	105.56
247.966	76.56
248.2	69.56
248.433	79.56
248.666	79.56
248.899	88.56
249.133	73.56
249.366	83.56
249.599	90.56
249.832	75.56
250.066	67.56
250.299	81.56
250.532	85.56
250.765	80.56
250.998	79.56
251.231	87.56
251.465	84.56
251.698	84.56
251.931	104.56
252.164	80.56
252.397	86.56
252.63	77.56
252.863	78.56
253.096	61.56
253.329	71.56
253.562	76.56
253.795	74.56
254.028	84.56
254.261	78.56
254.494	87.56
254.727	73.56
254.96	89.56
255.193	82.56
255.426	82.56
255.659	84.56
255.892	78.56
256.124	81.56
256.357	85.56
256.59	82.56
256.823	93.56
257.056	84.56
257.289	92.56
257.521	68.56
257.754	80.56
257.987	82.56
258.22	79.56
258.452	79.56
258.685	82.56
258.918	74.56
259.151	71.56
259.383	75.56
259.616	74.56
259.849	89.56
260.081	76.56
260.314	82.56
260.547	83.56
260.779	86.56
261.012	74.56
261.244	70.56
261.477	64.56
261.71	65.56
261.942	82.56
262.175	92.56
262.407	89.56
262.64	87.56
262.872	83.56
263.105	78.56
263.337	91.56
263.57	74.56
263.802	80.56
264.035	86.56
264.267	89.56
264.499	91.56
264.732	93.56
264.964	74.56
265.197	83.56
265.429	89.56
265.661	67.56
265.894	82.56
266.126	95.56
266.358	69.56
266.591	79.56
266.823	82.56
267.055	85.56
267.287	86.56
267.52	82.56
267.752	77.56
267.984	82.56
268.216	92.56
268.448	73.56
268.681	82.56
268.913	82.56
269.145	84.56
269.377	83.56
269.609	68.56
269.841	89.56
270.073	85.56
270.306	73.56
270.538	93.56
270.77	77.56
271.002	75.56
271.234	77.56
271.466	86.56
271.698	88.56
271.93	79.56
272.162	93.56
272.394	79.56
272.626	86.56
272.858	72.56
273.09	83.56
273.322	71.56
273.553	79.56
273.785	68.56
274.017	71.56
274.249	82.56
274.481	80.56
274.713	85.56
274.945	83.56
275.176	81.56
275.408	86.56
275.64	79.56
275.872	92.56
276.104	83.56
276.335	87.56
276.567	82.56
276.799	69.56
277.031	75.56
277.262	84.56
277.494	88.56
277.726	86.56
277.957	86.56
278.189	74.56
278.421	83.56
278.652	88.56
278.884	89.56
279.115	87.56
279.347	72.56
279.579	72.56
279.81	80.56
280.042	93.56
280.273	82.56
280.505	88.56
280.736	77.56
280.968	75.56
281.199	93.56
281.431	93.56
281.662	65.56
281.894	74.56
282.125	89.56
282.356	77.56
282.588	83.56
282.819	75.56
283.051	83.56
283.282	79.56
283.513	88.56
283.745	91.56
283.976	85.56
284.207	76.56
284.439	86.56
284.67	91.56
284.901	85.56
285.132	83.56
285.364	95.56
285.595	86.56
285.826	95.56
286.057	85.56
286.288	83.56
286.52	79.56
286.751	91.56
286.982	76.56
287.213	79.56
287.444	79.56
287.675	102.56
287.906	106.56
288.138	90.56
288.369	83.56
288.6	80.56
288.831	82.56
289.062	68.56
289.293	79.56
289.524	79.56
289.755	89.56
289.986	89.56
290.217	74.56
290.448	92.56
290.679	81.56
290.91	73.56
291.141	73.56
291.371	81.56
291.602	81.56
291.833	95.56
292.064	84.56
292.295	73.56
292.526	79.56
292.757	88.56
292.987	80.56
293.218	81.56
293.449	86.56
293.68	65.56
293.91	71.56
294.141	78.56
294.372	79.56
294.603	91.56
294.833	88.56
295.064	76.56
295.295	80.56
295.525	87.56
295.756	88.56
295.987	81.56
296.217	93.56
296.448	81.56
296.679	82.56
296.909	82.56
297.14	78.56
297.37	90.56
297.601	94.56
297.831	76.56
298.062	78.56
298.292	90.56
298.523	86.56
298.753	89.56
298.984	75.56
299.214	89.56
299.445	73.56
299.675	71.56
299.905	74.56
300.136	68.56
300.366	64.56
300.597	79.56
300.827	89.56
301.057	74.56
301.288	70.56
301.518	87.56
301.748	97.56
301.979	102.56
302.209	74.56
302.439	79.56
302.669	87.56
302.9	78.56
303.13	81.56
303.36	77.56
303.59	87.56
303.82	90.56
304.051	92.56
304.281	82.56
304.511	90.56
304.741	71.56
304.971	83.56
305.201	80.56
305.431	81.56
305.661	85.56
305.891	79.56
306.121	62.56
306.352	91.56
306.582	92.56
306.812	85.56
307.042	74.56
307.272	78.56
307.502	75.56
307.731	91.56
307.961	75.56
308.191	98.56
308.421	82.56
308.651	84.56
308.881	76.56
309.111	76.56
309.341	85.56
309.571	94.56
309.8	93.56
310.03	80.56
310.26	84.56
310.49	87.56
310.72	77.56
310.949	85.56
311.179	77.56
311.409	77.56
311.639	90.56
311.868	87.56
312.098	76.56
312.328	77.56
312.557	82.56
312.787	72.56
313.017	83.56
313.246	87.56
313.476	73.56
313.706	82.56
313.935	90.56
314.165	70.56
314.394	81.56
314.624	80.56
314.853	74.56
315.083	78.56
315.312	80.56
315.542	91.56
315.771	89.56
316.001	78.56
316.23	79.56
316.46	84.56
316.689	82.56
316.919	77.56
317.148	79.56
317.377	93.56
317.607	78.56
317.836	74.56
318.065	96.56
318.295	87.56
318.524	70.56
318.753	62.56
318.983	89.56
319.212	76.56
319.441	66.56
319.67	77.56
319.9	81.56
320.129	90.56
320.358	77.56
320.587	90.56
320.816	78.56
321.046	79.56
321.275	69.56
321.504	82.56
321.733	90.56
321.962	87.56
322.191	93.56
322.42	75.56
322.649	75.56
322.878	71.56
323.108	69.56
323.337	81.56
323.566	87.56
323.795	85.56
324.024	86.56
324.253	95.56
324.482	77.56
324.71	81.56
324.939	80.56
325.168	84.56
325.397	73.56
325.626	75.56
325.855	83.56
326.084	77.56
326.313	75.56
326.542	85.56
326.77	95.56
326.999	75.56
327.228	86.56
327.457	85.56
327.686	80.56
327.914	85.56
328.143	86.56
328.372	78.56
328.6	103.56
328.829	80.56
329.058	77.56
329.287	93.56
329.515	79.56
329.744	77.56
329.972	91.56
330.201	81.56
330.43	86.56
330.658	85.56
330.887	87.56
331.115	87.56
331.344	79.56
331.572	87.56
331.801	96.56
332.03	85.56
332.258	89.56
332.486	86.56
332.715	86.56
332.943	77.56
333.172	91.56
333.4	72.56
333.629	80.56
333.857	93.56
334.085	79.56
334.314	94.56
334.542	85.56
334.771	88.56
334.999	85.56
335.227	81.56
335.455	90.56
335.684	79.56
335.912	77.56
336.14	90.56
336.369	91.56
336.597	90.56
336.825	80.56
337.053	76.56
337.281	82.56
337.51	77.56
337.738	76.56
337.966	76.56
338.194	84.56
338.422	74.56
338.65	86.56
338.878	94.56
339.106	80.56
339.334	80.56
339.562	88.56
339.79	76.56
340.018	79.56
340.246	56.56
340.474	89.56
340.702	86.56
340.93	85.56
341.158	74.56
341.386	91.56
341.614	94.56
341.842	78.56
342.07	86.56
342.298	80.56
342.526	89.56
342.754	85.56
342.981	78.56
343.209	65.56
343.437	76.56
343.665	93.56
343.893	87.56
344.12	92.56
344.348	82.56
344.576	71.56
344.804	81.56
345.031	76.56
345.259	80.56
345.487	94.56
345.714	73.56
345.942	85.56
346.17	78.56
346.397	66.56
346.625	70.56
346.853	82.56
347.08	83.56
347.308	65.56
347.535	73.56
347.763	90.56
347.99	91.56
348.218	88.56
348.445	58.56
348.673	86.56
348.9	95.56
349.128	85.56
349.355	78.56
349.583	71.56
349.81	89.56
350.037	92.56
350.265	79.56
350.492	73.56
350.72	81.56
350.947	79.56
351.174	90.56
351.402	87.56
351.629	85.56
351.856	73.56
352.083	79.56
352.311	74.56
352.538	91.56
352.765	85.56
352.992	88.56
353.22	103.56
353.447	86.56
353.674	71.56
353.901	97.56
354.128	94.56
354.355	83.56
354.583	81.56
354.81	88.56
355.037	86.56
355.264	77.56
355.491	75.56
355.718	65.56
355.945	83.56
356.172	79.56
356.399	76.56
356.626	76.56
356.853	77.56
357.08	85.56
357.307	88.56
357.534	90.56
357.761	80.56
357.988	105.56
358.215	87.56
358.441	79.56
358.668	73.56
358.895	95.56
359.122	76.56
359.349	73.56
359.576	84.56
359.802	72.56
360.029	97.56
360.256	86.56
360.483	93.56
360.709	83.56
360.936	87.56
361.163	72.56
361.39	85.56
361.616	85.56
361.843	86.56
362.07	80.56
362.296	87.56
362.523	73.56
362.749	83.56
362.976	81.56
363.203	102.56
363.429	76.56
363.656	85.56
363.882	89.56
364.109	107.56
364.335	89.56
364.562	94.56
364.788	86.56
365.015	87.56
365.241	69.56
365.468	85.56
365.694	83.56
365.92	82.56
366.147	75.56
366.373	74.56
366.599	88.56
366.826	93.56
367.052	79.56
367.278	90.56
367.505	74.56
367.731	77.56
367.957	58.56
368.184	70.56
368.41	82.56
368.636	86.56
368.862	86.56
369.089	85.56
369.315	77.56
369.541	70.56
369.767	87.56
369.993	76.56
370.219	89.56
370.445	81.56
370.672	66.56
370.898	71.56
371.124	71.56
371.35	80.56
371.576	79.56
371.802	85.56
372.028	82.56
372.254	82.56
372.48	78.56
372.706	86.56
372.932	73.56
373.158	73.56
373.384	81.56
373.61	85.56
373.835	85.56
374.061	76.56
374.287	68.56
374.513	88.56
374.739	76.56
374.965	73.56
375.191	93.56
375.416	78.56
375.642	79.56
375.868	90.56
376.094	67.56
376.319	89.56
376.545	85.56
376.771	101.56
376.997	77.56
377.222	74.56
377.448	86.56
377.674	93.56
377.899	86.56
378.125	83.56
378.35	85.56
378.576	74.56
378.802	86.56
379.027	89.56
379.253	80.56
379.478	64.56
379.704	88.56
379.929	80.56
380.155	80.56
380.38	75.56
380.606	85.56
380.831	89.56
381.057	86.56
381.282	79.56
381.507	81.56
381.733	83.56
381.958	77.56
382.184	84.56
382.409	81.56
382.634	85.56
382.86	75.56
383.085	73.56
383.31	73.56
383.535	98.56
383.761	81.56
383.986	98.56
384.211	85.56
384.436	82.56
384.662	79.56
384.887	67.56
385.112	75.56
385.337	83.56
385.562	83.56
385.787	87.56
386.013	93.56
386.238	74.56
386.463	77.56
386.688	95.56
386.913	80.56
387.138	63.56
387.363	86.56
387.588	89.56
387.813	77.56
388.038	69.56
388.263	80.56
388.488	78.56
388.713	70.56
388.938	71.56
389.163	81.56
389.387	94.56
389.612	71.56
389.837	94.56
390.062	81.56
390.287	73.56
390.512	78.56
390.736	83.56
390.961	74.56
391.186	65.56
391.411	71.56
391.636	61.56
391.86	86.56
392.085	83.56
392.31	67.56
392.534	79.56
392.759	93.56
392.984	81.56
393.208	96.56
393.433	77.56
393.658	81.56
393.882	71.56
394.107	73.56
394.331	69.56
394.556	88.56
394.78	77.56
395.005	83.56
395.229	82.56
395.454	80.56
395.678	87.56
395.903	93.56
396.127	86.56
396.352	81.56
396.576	79.56
396.801	75.56
397.025	76.56
397.249	81.56
397.474	85.56
397.698	84.56
397.922	81.56
398.147	89.56
398.371	81.56
398.595	79.56
398.82	76.56
399.044	91.56
399.268	96.56
399.492	82.56
399.717	72.56
399.941	98.56
400.165	95.56
400.389	84.56
400.613	87.56
400.837	83.56
401.062	89.56
401.286	86.56
401.51	75.56
401.734	81.56
401.958	67.56
402.182	88.56
402.406	73.56
402.63	88.56
402.854	82.56
403.078	79.56
403.302	80.56
403.526	77.56
403.75	82.56
403.974	89.56
404.198	72.56
404.422	76.56
404.645	80.56
404.869	81.56
405.093	80.56
405.317	74.56
405.541	86.56
405.765	90.56
405.988	66.56
406.212	79.56
406.436	75.56
406.66	87.56
406.883	87.56
407.107	77.56
407.331	73.56
407.555	77.56
407.778	76.56
408.002	77.56
408.226	79.56
408.449	89.56
408.673	87.56
408.896	107.56
409.12	82.56
409.344	85.56
409.567	86.56
409.791	82.56
410.014	82.56
410.238	73.56
410.461	90.56
410.685	84.56
410.908	80.56
411.132	95.56
411.355	79.56
411.578	76.56
411.802	87.56
412.025	79.56
412.249	86.56
412.472	88.56
412.695	85.56
412.919	79.56
413.142	76.56
413.365	75.56
413.589	89.56
413.812	93.56
414.035	96.56
414.258	74.56
414.482	75.56
414.705	77.56
414.928	93.56
415.151	81.56
415.374	67.56
415.597	84.56
415.821	71.56
416.044	86.56
416.267	70.56
416.49	88.56
416.713	76.56
416.936	77.56
417.159	87.56
417.382	78.56
417.605	75.56
417.828	83.56
418.051	74.56
418.274	94.56
418.497	75.56
418.72	73.56
418.943	76.56
419.166	89.56
419.389	75.56
419.611	81.56
419.834	77.56
420.057	86.56
420.28	77.56
420.503	79.56
420.726	74.56
420.948	86.56
421.171	81.56
421.394	73.56
421.617	89.56
421.839	88.56
422.062	79.56
422.285	79.56
422.507	84.56
422.73	82.56
422.953	80.56
423.175	74.56
423.398	68.56
423.621	84.56
423.843	82.56
424.066	71.56
424.288	79.56
424.511	75.56
424.733	85.56
424.956	77.56
425.178	87.56
425.401	81.56
425.623	79.56
425.846	90.56
426.068	75.56
426.291	77.56
426.513	81.56
426.735	85.56
426.958	80.56
427.18	68.56
427.402	68.56
427.625	66.56
427.847	84.56
428.069	74.56
428.292	92.56
428.514	90.56
428.736	75.56
428.958	85.56
429.181	92.56
429.403	86.56
429.625	80.56
429.847	81.56
430.069	77.56
430.292	75.56
430.514	83.56
430.736	78.56
430.958	89.56
431.18	83.56
431.402	87.56
431.624	89.56
431.846	69.56
432.068	69.56
432.29	80.56
432.512	81.56
432.734	75.56
432.956	82.56
433.178	82.56
433.4	72.56
433.622	67.56
433.844	73.56
434.066	74.56
434.287	72.56
434.509	82.56
434.731	85.56
434.953	94.56
435.175	88.56
435.397	79.56
435.618	89.56
435.84	81.56
436.062	82.56
436.284	79.56
436.505	87.56
436.727	65.56
436.949	70.56
437.17	70.56
437.392	73.56
437.614	91.56
437.835	90.56
438.057	77.56
438.278	80.56
438.5	77.56
438.721	79.56
438.943	74.56
439.165	83.56
439.386	78.56
439.608	75.56
439.829	92.56
440.05	91.56
440.272	75.56
440.493	86.56
440.715	79.56
440.936	89.56
441.158	82.56
441.379	65.56
441.6	87.56
441.822	69.56
442.043	80.56
442.264	85.56
442.486	68.56
442.707	71.56
442.928	80.56
443.149	67.56
443.371	77.56
443.592	85.56
443.813	85.56
444.034	87.56
444.255	85.56
444.476	85.56
444.698	80.56
444.919	89.56
445.14	160.56
445.361	124.56
445.582	74.56
445.803	90.56
446.024	80.56
446.245	87.56
446.466	91.56
446.687	78.56
446.908	72.56
447.129	81.56
447.35	77.56
447.571	84.56
447.792	77.56
448.013	77.56
448.234	79.56
448.455	95.56
448.675	84.56
448.896	87.56
449.117	81.56
449.338	88.56
449.559	72.56
449.779	75.56
450	88.56
450.221	84.56
450.442	92.56
450.662	83.56
450.883	77.56
451.104	85.56
451.324	79.56
451.545	86.56
451.766	82.56
451.986	78.56
452.207	82.56
452.428	75.56
452.648	85.56
452.869	79.56
453.089	78.56
453.31	91.56
453.53	61.56
453.751	73.56
453.971	82.56
454.192	64.56
454.412	72.56
454.633	80.56
454.853	67.56
455.073	75.56
455.294	75.56
455.514	80.56
455.734	75.56
455.955	88.56
456.175	88.56
456.395	82.56
456.616	82.56
456.836	74.56
457.056	85.56
457.276	80.56
457.497	83.56
457.717	86.56
457.937	77.56
458.157	73.56
458.377	86.56
458.598	87.56
458.818	99.56
459.038	79.56
459.258	70.56
459.478	71.56
459.698	70.56
459.918	80.56
460.138	90.56
460.358	88.56
460.578	79.56
460.798	79.56
461.018	87.56
461.238	95.56
461.458	77.56
461.678	86.56
461.898	83.56
462.118	72.56
462.338	95.56
462.558	89.56
462.777	97.56
462.997	79.56
463.217	90.56
463.437	71.56
463.657	84.56
463.876	80.56
464.096	90.56
464.316	84.56
464.536	75.56
464.755	71.56
464.975	80.56
465.195	79.56
465.414	85.56
465.634	67.56
465.854	82.56
466.073	87.56
466.293	75.56
466.512	85.56
466.732	70.56
466.951	77.56
467.171	76.56
467.391	84.56
467.61	74.56
467.829	89.56
468.049	83.56
468.268	94.56
468.488	88.56
468.707	69.56
468.927	65.56
469.146	87.56
469.365	89.56
469.585	87.56
469.804	82.56
470.023	92.56
470.243	74.56
470.462	83.56
470.681	90.56
470.901	81.56
471.12	76.56
471.339	74.56
471.558	71.56
471.777	68.56
471.997	93.56
472.216	86.56
472.435	75.56
472.654	75.56
472.873	95.56
473.092	87.56
473.311	89.56
473.53	82.56
473.749	93.56
473.968	95.56
474.187	72.56
474.406	82.56
474.625	93.56
474.844	80.56
475.063	80.56
475.282	68.56
475.501	81.56
475.72	78.56
475.939	94.56
476.158	93.56
476.377	93.56
476.596	73.56
476.814	90.56
477.033	79.56
477.252	66.56
477.471	82.56
477.69	82.56
477.908	76.56
478.127	84.56
478.346	76.56
478.564	85.56
478.783	82.56
479.002	78.56
479.22	82.56
479.439	86.56
479.658	74.56
479.876	85.56
480.095	87.56
480.313	91.56
480.532	78.56
480.751	101.56
480.969	78.56
481.188	68.56
481.406	89.56
481.624	69.56
481.843	75.56
482.061	88.56
482.28	80.56
482.498	68.56
482.717	78.56
482.935	65.56
483.153	81.56
483.372	68.56
483.59	82.56
483.808	83.56
484.027	87.56
484.245	98.56
484.463	75.56
484.681	81.56
484.9	77.56
485.118	77.56
485.336	65.56
485.554	82.56
485.772	79.56
485.99	85.56
486.209	81.56
486.427	70.56
486.645	87.56
486.863	76.56
487.081	68.56
487.299	77.56
487.517	85.56
487.735	73.56
487.953	79.56
488.171	87.56
488.389	79.56
488.607	89.56
488.825	85.56
489.043	70.56
489.261	81.56
489.479	88.56
489.696	97.56
489.914	67.56
490.132	87.56
490.35	82.56
490.568	95.56
490.786	87.56
491.003	76.56
491.221	75.56
491.439	74.56
491.657	71.56
491.874	82.56
492.092	84.56
492.31	85.56
492.527	74.56
492.745	77.56
492.963	85.56
493.18	73.56
493.398	95.56
493.615	70.56
493.833	78.56
494.05	98.56
494.268	91.56
494.485	88.56
494.703	85.56
494.92	88.56
495.138	94.56
495.355	92.56
495.573	90.56
495.79	86.56
496.008	87.56
496.225	96.56
496.442	77.56
496.66	76.56
496.877	80.56
497.094	93.56
497.312	68.56
497.529	89.56
497.746	82.56
497.963	87.56
498.181	90.56
498.398	86.56
498.615	75.56
498.832	76.56
499.049	71.56
499.267	83.56
499.484	70.56
499.701	88.56
499.918	70.56
500.135	66.56
500.352	73.56
500.569	81.56
500.786	90.56
501.003	81.56
501.22	82.56
501.437	83.56
501.654	80.56
501.871	81.56
502.088	81.56
502.305	86.56
502.522	86.56
502.739	77.56
502.956	89.56
503.172	82.56
503.389	86.56
503.606	90.56
503.823	79.56
504.04	93.56
504.256	70.56
504.473	73.56
504.69	84.56
504.907	81.56
505.123	86.56
505.34	85.56
505.557	102.56
505.773	88.56
505.99	69.56
506.207	82.56
506.423	87.56
506.64	88.56
506.856	93.56
507.073	80.56
507.289	81.56
507.506	75.56
507.722	77.56
507.939	94.56
508.155	66.56
508.372	64.56
508.588	81.56
508.805	88.56
509.021	77.56
509.238	90.56
509.454	65.56
509.67	81.56
509.887	79.56
510.103	89.56
510.319	89.56
510.536	76.56
510.752	77.56
510.968	86.56
511.184	81.56
511.401	89.56
511.617	81.56
511.833	87.56
512.049	69.56
512.265	71.56
512.481	86.56
512.698	93.56
512.914	86.56
513.13	83.56
513.346	76.56
513.562	86.56
513.778	84.56
513.994	89.56
514.21	78.56
514.426	81.56
514.642	90.56
514.858	81.56
515.074	85.56
515.29	87.56
515.506	78.56
515.721	90.56
515.937	60.56
516.153	80.56
516.369	90.56
516.585	73.56
516.801	84.56
517.016	87.56
517.232	83.56
517.448	81.56
517.664	73.56
517.879	79.56
518.095	74.56
518.311	70.56
518.527	90.56
518.742	76.56
518.958	81.56
519.173	75.56
519.389	88.56
519.605	90.56
519.82	78.56
520.036	84.56
520.251	74.56
