Data from StdD_HRD10591_023.txt Node
Date: Fri May 16 15:31:32 EDT 2025
User: Yrep
Spectrometer: HR+D1059
Trigger mode: 1
Integration Time (sec): 1.000000E-1
Scans to average: 1
Electric dark correction enabled: true
Nonlinearity correction enabled: false
Boxcar width: 0
XAxis mode: Wavelengths
Number of Pixels in Spectrum: 2048
>>>>>Begin Spectral Data<<<<<
223.165	-17.56
223.4	-17.56
223.635	-17.56
223.869	-28.56
224.104	-28.56
224.338	-18.56
224.573	-12.56
224.808	-12.56
225.042	-9.56
225.277	-1.56
225.511	-4.56
225.746	0.44
225.98	10.44
226.215	22.44
226.449	21.44
226.683	28.44
226.918	24.44
227.152	26.44
227.387	32.44
227.621	33.44
227.856	45.44
228.09	44.44
228.324	45.44
228.559	56.44
228.793	44.44
229.027	59.44
229.262	62.44
229.496	66.44
229.73	58.44
229.964	65.44
230.199	70.44
230.433	77.44
230.667	74.44
230.901	78.44
231.136	73.44
231.37	67.44
231.604	72.44
231.838	64.44
232.072	77.44
232.306	78.44
232.541	76.44
232.775	93.44
233.009	76.44
233.243	89.44
233.477	81.44
233.711	78.44
233.945	81.44
234.179	81.44
234.413	73.44
234.647	96.44
234.881	72.44
235.115	74.44
235.349	67.44
235.583	79.44
235.817	75.44
236.051	82.44
236.285	78.44
236.519	85.44
236.753	77.44
236.987	85.44
237.221	69.44
237.455	66.44
237.689	72.44
237.922	72.44
238.156	52.44
238.39	88.44
238.624	71.44
238.858	74.44
239.091	66.44
239.325	78.44
239.559	71.44
239.793	76.44
240.027	88.44
240.26	65.44
240.494	84.44
240.728	72.44
240.961	77.44
241.195	82.44
241.429	68.44
241.662	70.44
241.896	73.44
242.13	75.44
242.363	70.44
242.597	71.44
242.83	73.44
243.064	78.44
243.298	72.44
243.531	85.44
243.765	88.44
243.998	84.44
244.232	76.44
244.465	88.44
244.699	71.44
244.932	72.44
245.166	66.44
245.399	87.44
245.633	83.44
245.866	78.44
246.099	72.44
246.333	76.44
246.566	75.44
246.8	71.44
247.033	74.44
247.266	68.44
247.5	72.44
247.733	66.44
247.966	62.44
248.2	74.44
248.433	73.44
248.666	75.44
248.899	71.44
249.133	77.44
249.366	84.44
249.599	67.44
249.832	79.44
250.066	69.44
250.299	79.44
250.532	84.44
250.765	82.44
250.998	81.44
251.231	71.44
251.465	84.44
251.698	78.44
251.931	70.44
252.164	78.44
252.397	83.44
252.63	70.44
252.863	63.44
253.096	70.44
253.329	67.44
253.562	74.44
253.795	75.44
254.028	81.44
254.261	65.44
254.494	71.44
254.727	81.44
254.96	68.44
255.193	80.44
255.426	81.44
255.659	83.44
255.892	72.44
256.124	93.44
256.357	75.44
256.59	81.44
256.823	88.44
257.056	64.44
257.289	94.44
257.521	82.44
257.754	85.44
257.987	67.44
258.22	93.44
258.452	72.44
258.685	68.44
258.918	76.44
259.151	65.44
259.383	84.44
259.616	74.44
259.849	73.44
260.081	82.44
260.314	91.44
260.547	84.44
260.779	89.44
261.012	74.44
261.244	75.44
261.477	86.44
261.71	73.44
261.942	86.44
262.175	78.44
262.407	76.44
262.64	69.44
262.872	85.44
263.105	80.44
263.337	82.44
263.57	77.44
263.802	85.44
264.035	74.44
264.267	70.44
264.499	64.44
264.732	75.44
264.964	84.44
265.197	83.44
265.429	62.44
265.661	86.44
265.894	85.44
266.126	80.44
266.358	67.44
266.591	70.44
266.823	74.44
267.055	86.44
267.287	82.44
267.52	92.44
267.752	80.44
267.984	73.44
268.216	80.44
268.448	83.44
268.681	77.44
268.913	77.44
269.145	93.44
269.377	84.44
269.609	81.44
269.841	73.44
270.073	80.44
270.306	76.44
270.538	90.44
270.77	76.44
271.002	85.44
271.234	95.44
271.466	88.44
271.698	88.44
271.93	80.44
272.162	84.44
272.394	90.44
272.626	72.44
272.858	90.44
273.09	79.44
273.322	77.44
273.553	74.44
273.785	76.44
274.017	77.44
274.249	73.44
274.481	95.44
274.713	80.44
274.945	84.44
275.176	66.44
275.408	86.44
275.64	62.44
275.872	72.44
276.104	84.44
276.335	91.44
276.567	82.44
276.799	88.44
277.031	74.44
277.262	72.44
277.494	93.44
277.726	84.44
277.957	87.44
278.189	84.44
278.421	86.44
278.652	87.44
278.884	84.44
279.115	90.44
279.347	75.44
279.579	74.44
279.81	80.44
280.042	82.44
280.273	73.44
280.505	70.44
280.736	81.44
280.968	74.44
281.199	77.44
281.431	72.44
281.662	84.44
281.894	75.44
282.125	81.44
282.356	81.44
282.588	84.44
282.819	82.44
283.051	82.44
283.282	79.44
283.513	78.44
283.745	81.44
283.976	79.44
284.207	86.44
284.439	89.44
284.67	85.44
284.901	66.44
285.132	70.44
285.364	66.44
285.595	85.44
285.826	92.44
286.057	88.44
286.288	80.44
286.52	80.44
286.751	82.44
286.982	81.44
287.213	92.44
287.444	87.44
287.675	90.44
287.906	100.44
288.138	83.44
288.369	104.44
288.6	80.44
288.831	89.44
289.062	84.44
289.293	76.44
289.524	78.44
289.755	65.44
289.986	75.44
290.217	73.44
290.448	85.44
290.679	90.44
290.91	76.44
291.141	89.44
291.371	82.44
291.602	72.44
291.833	84.44
292.064	78.44
292.295	90.44
292.526	80.44
292.757	94.44
292.987	80.44
293.218	79.44
293.449	80.44
293.68	90.44
293.91	79.44
294.141	84.44
294.372	73.44
294.603	80.44
294.833	81.44
295.064	77.44
295.295	94.44
295.525	86.44
295.756	84.44
295.987	66.44
296.217	84.44
296.448	72.44
296.679	78.44
296.909	91.44
297.14	78.44
297.37	81.44
297.601	86.44
297.831	85.44
298.062	78.44
298.292	86.44
298.523	85.44
298.753	74.44
298.984	64.44
299.214	88.44
299.445	72.44
299.675	92.44
299.905	102.44
300.136	84.44
300.366	87.44
300.597	82.44
300.827	89.44
301.057	82.44
301.288	93.44
301.518	78.44
301.748	84.44
301.979	104.44
302.209	82.44
302.439	87.44
302.669	94.44
302.9	75.44
303.13	86.44
303.36	84.44
303.59	84.44
303.82	81.44
304.051	72.44
304.281	91.44
304.511	87.44
304.741	77.44
304.971	84.44
305.201	86.44
305.431	93.44
305.661	72.44
305.891	74.44
306.121	86.44
306.352	83.44
306.582	75.44
306.812	88.44
307.042	72.44
307.272	76.44
307.502	81.44
307.731	101.44
307.961	82.44
308.191	74.44
308.421	84.44
308.651	76.44
308.881	83.44
309.111	96.44
309.341	91.44
309.571	71.44
309.8	85.44
310.03	84.44
310.26	89.44
310.49	78.44
310.72	80.44
310.949	89.44
311.179	80.44
311.409	78.44
311.639	78.44
311.868	94.44
312.098	72.44
312.328	95.44
312.557	85.44
312.787	87.44
313.017	71.44
313.246	92.44
313.476	73.44
313.706	93.44
313.935	71.44
314.165	92.44
314.394	86.44
314.624	77.44
314.853	87.44
315.083	101.44
315.312	78.44
315.542	76.44
315.771	84.44
316.001	83.44
316.23	85.44
316.46	84.44
316.689	78.44
316.919	86.44
317.148	85.44
317.377	91.44
317.607	94.44
317.836	89.44
318.065	87.44
318.295	81.44
318.524	81.44
318.753	101.44
318.983	81.44
319.212	85.44
319.441	90.44
319.67	94.44
319.9	96.44
320.129	88.44
320.358	79.44
320.587	85.44
320.816	79.44
321.046	82.44
321.275	86.44
321.504	92.44
321.733	90.44
321.962	86.44
322.191	88.44
322.42	72.44
322.649	91.44
322.878	83.44
323.108	74.44
323.337	95.44
323.566	88.44
323.795	77.44
324.024	93.44
324.253	85.44
324.482	71.44
324.71	61.44
324.939	93.44
325.168	76.44
325.397	90.44
325.626	84.44
325.855	89.44
326.084	94.44
326.313	90.44
326.542	78.44
326.77	84.44
326.999	94.44
327.228	85.44
327.457	88.44
327.686	72.44
327.914	73.44
328.143	81.44
328.372	90.44
328.6	76.44
328.829	76.44
329.058	78.44
329.287	76.44
329.515	89.44
329.744	86.44
329.972	84.44
330.201	87.44
330.43	71.44
330.658	78.44
330.887	78.44
331.115	72.44
331.344	66.44
331.572	83.44
331.801	75.44
332.03	84.44
332.258	85.44
332.486	92.44
332.715	88.44
332.943	76.44
333.172	96.44
333.4	81.44
333.629	73.44
333.857	78.44
334.085	75.44
334.314	92.44
334.542	76.44
334.771	77.44
334.999	87.44
335.227	73.44
335.455	94.44
335.684	84.44
335.912	88.44
336.14	102.44
336.369	78.44
336.597	79.44
336.825	80.44
337.053	93.44
337.281	88.44
337.51	78.44
337.738	83.44
337.966	84.44
338.194	93.44
338.422	93.44
338.65	86.44
338.878	67.44
339.106	70.44
339.334	81.44
339.562	78.44
339.79	79.44
340.018	74.44
340.246	73.44
340.474	84.44
340.702	97.44
340.93	71.44
341.158	90.44
341.386	76.44
341.614	88.44
341.842	74.44
342.07	82.44
342.298	69.44
342.526	83.44
342.754	84.44
342.981	56.44
343.209	78.44
343.437	86.44
343.665	80.44
343.893	81.44
344.12	88.44
344.348	85.44
344.576	76.44
344.804	81.44
345.031	90.44
345.259	86.44
345.487	95.44
345.714	80.44
345.942	90.44
346.17	80.44
346.397	87.44
346.625	74.44
346.853	89.44
347.08	75.44
347.308	70.44
347.535	70.44
347.763	81.44
347.99	90.44
348.218	70.44
348.445	71.44
348.673	95.44
348.9	94.44
349.128	79.44
349.355	82.44
349.583	79.44
349.81	72.44
350.037	80.44
350.265	83.44
350.492	84.44
350.72	75.44
350.947	90.44
351.174	82.44
351.402	75.44
351.629	73.44
351.856	79.44
352.083	89.44
352.311	86.44
352.538	84.44
352.765	74.44
352.992	80.44
353.22	84.44
353.447	78.44
353.674	79.44
353.901	78.44
354.128	84.44
354.355	89.44
354.583	101.44
354.81	88.44
355.037	98.44
355.264	85.44
355.491	88.44
355.718	76.44
355.945	86.44
356.172	85.44
356.399	81.44
356.626	85.44
356.853	82.44
357.08	76.44
357.307	74.44
357.534	80.44
357.761	82.44
357.988	75.44
358.215	72.44
358.441	82.44
358.668	92.44
358.895	86.44
359.122	84.44
359.349	86.44
359.576	66.44
359.802	84.44
360.029	91.44
360.256	81.44
360.483	79.44
360.709	79.44
360.936	76.44
361.163	90.44
361.39	70.44
361.616	73.44
361.843	80.44
362.07	93.44
362.296	79.44
362.523	72.44
362.749	87.44
362.976	73.44
363.203	84.44
363.429	76.44
363.656	99.44
363.882	96.44
364.109	94.44
364.335	105.44
364.562	76.44
364.788	78.44
365.015	78.44
365.241	75.44
365.468	86.44
365.694	88.44
365.92	82.44
366.147	84.44
366.373	84.44
366.599	94.44
366.826	98.44
367.052	77.44
367.278	82.44
367.505	83.44
367.731	94.44
367.957	80.44
368.184	72.44
368.41	79.44
368.636	103.44
368.862	91.44
369.089	90.44
369.315	86.44
369.541	87.44
369.767	91.44
369.993	74.44
370.219	82.44
370.445	82.44
370.672	86.44
370.898	98.44
371.124	79.44
371.35	77.44
371.576	84.44
371.802	79.44
372.028	77.44
372.254	71.44
372.48	78.44
372.706	80.44
372.932	88.44
373.158	66.44
373.384	68.44
373.61	88.44
373.835	79.44
374.061	88.44
374.287	86.44
374.513	70.44
374.739	77.44
374.965	93.44
375.191	82.44
375.416	76.44
375.642	84.44
375.868	72.44
376.094	88.44
376.319	84.44
376.545	104.44
376.771	88.44
376.997	91.44
377.222	75.44
377.448	80.44
377.674	78.44
377.899	74.44
378.125	101.44
378.35	77.44
378.576	79.44
378.802	70.44
379.027	92.44
379.253	79.44
379.478	81.44
379.704	88.44
379.929	79.44
380.155	81.44
380.38	73.44
380.606	81.44
380.831	95.44
381.057	97.44
381.282	80.44
381.507	80.44
381.733	85.44
381.958	83.44
382.184	92.44
382.409	97.44
382.634	82.44
382.86	92.44
383.085	90.44
383.31	102.44
383.535	98.44
383.761	73.44
383.986	89.44
384.211	94.44
384.436	84.44
384.662	87.44
384.887	77.44
385.112	82.44
385.337	76.44
385.562	82.44
385.787	70.44
386.013	72.44
386.238	85.44
386.463	84.44
386.688	93.44
386.913	84.44
387.138	101.44
387.363	79.44
387.588	90.44
387.813	86.44
388.038	86.44
388.263	95.44
388.488	98.44
388.713	74.44
388.938	77.44
389.163	70.44
389.387	91.44
389.612	70.44
389.837	85.44
390.062	80.44
390.287	89.44
390.512	72.44
390.736	77.44
390.961	86.44
391.186	68.44
391.411	66.44
391.636	102.44
391.86	84.44
392.085	85.44
392.31	90.44
392.534	78.44
392.759	88.44
392.984	80.44
393.208	79.44
393.433	86.44
393.658	76.44
393.882	77.44
394.107	87.44
394.331	76.44
394.556	85.44
394.78	78.44
395.005	68.44
395.229	77.44
395.454	84.44
395.678	70.44
395.903	88.44
396.127	64.44
396.352	90.44
396.576	80.44
396.801	74.44
397.025	75.44
397.249	81.44
397.474	63.44
397.698	74.44
397.922	83.44
398.147	83.44
398.371	81.44
398.595	97.44
398.82	98.44
399.044	81.44
399.268	97.44
399.492	85.44
399.717	84.44
399.941	72.44
400.165	80.44
400.389	82.44
400.613	64.44
400.837	80.44
401.062	83.44
401.286	80.44
401.51	72.44
401.734	80.44
401.958	80.44
402.182	91.44
402.406	78.44
402.63	85.44
402.854	79.44
403.078	80.44
403.302	92.44
403.526	84.44
403.75	93.44
403.974	84.44
404.198	81.44
404.422	74.44
404.645	69.44
404.869	73.44
405.093	76.44
405.317	80.44
405.541	79.44
405.765	73.44
405.988	94.44
406.212	78.44
406.436	77.44
406.66	82.44
406.883	71.44
407.107	84.44
407.331	70.44
407.555	70.44
407.778	80.44
408.002	67.44
408.226	74.44
408.449	81.44
408.673	81.44
408.896	80.44
409.12	80.44
409.344	73.44
409.567	81.44
409.791	87.44
410.014	85.44
410.238	86.44
410.461	89.44
410.685	77.44
410.908	87.44
411.132	85.44
411.355	90.44
411.578	85.44
411.802	76.44
412.025	85.44
412.249	71.44
412.472	67.44
412.695	73.44
412.919	76.44
413.142	78.44
413.365	86.44
413.589	84.44
413.812	79.44
414.035	68.44
414.258	72.44
414.482	86.44
414.705	78.44
414.928	102.44
415.151	86.44
415.374	75.44
415.597	83.44
415.821	91.44
416.044	82.44
416.267	86.44
416.49	84.44
416.713	95.44
416.936	66.44
417.159	79.44
417.382	80.44
417.605	82.44
417.828	86.44
418.051	71.44
418.274	96.44
418.497	79.44
418.72	74.44
418.943	84.44
419.166	80.44
419.389	84.44
419.611	86.44
419.834	74.44
420.057	81.44
420.28	77.44
420.503	77.44
420.726	75.44
420.948	72.44
421.171	85.44
421.394	82.44
421.617	87.44
421.839	82.44
422.062	84.44
422.285	69.44
422.507	76.44
422.73	96.44
422.953	71.44
423.175	73.44
423.398	87.44
423.621	70.44
423.843	94.44
424.066	81.44
424.288	88.44
424.511	75.44
424.733	74.44
424.956	67.44
425.178	62.44
425.401	87.44
425.623	88.44
425.846	65.44
426.068	82.44
426.291	85.44
426.513	76.44
426.735	94.44
426.958	68.44
427.18	72.44
427.402	84.44
427.625	75.44
427.847	76.44
428.069	95.44
428.292	82.44
428.514	72.44
428.736	78.44
428.958	80.44
429.181	90.44
429.403	87.44
429.625	74.44
429.847	66.44
430.069	95.44
430.292	85.44
430.514	66.44
430.736	90.44
430.958	87.44
431.18	60.44
431.402	79.44
431.624	72.44
431.846	85.44
432.068	95.44
432.29	94.44
432.512	81.44
432.734	97.44
432.956	71.44
433.178	93.44
433.4	89.44
433.622	79.44
433.844	86.44
434.066	82.44
434.287	89.44
434.509	81.44
434.731	85.44
434.953	93.44
435.175	88.44
435.397	86.44
435.618	78.44
435.84	83.44
436.062	87.44
436.284	87.44
436.505	75.44
436.727	81.44
436.949	73.44
437.17	63.44
437.392	76.44
437.614	84.44
437.835	78.44
438.057	89.44
438.278	82.44
438.5	80.44
438.721	88.44
438.943	75.44
439.165	80.44
439.386	85.44
439.608	80.44
439.829	72.44
440.05	81.44
440.272	76.44
440.493	88.44
440.715	84.44
440.936	79.44
441.158	74.44
441.379	74.44
441.6	84.44
441.822	72.44
442.043	85.44
442.264	86.44
442.486	79.44
442.707	85.44
442.928	82.44
443.149	70.44
443.371	80.44
443.592	86.44
443.813	85.44
444.034	72.44
444.255	81.44
444.476	81.44
444.698	89.44
444.919	81.44
445.14	163.44
445.361	102.44
445.582	90.44
445.803	73.44
446.024	85.44
446.245	92.44
446.466	78.44
446.687	72.44
446.908	81.44
447.129	72.44
447.35	76.44
447.571	90.44
447.792	84.44
448.013	80.44
448.234	68.44
448.455	64.44
448.675	84.44
448.896	66.44
449.117	70.44
449.338	81.44
449.559	88.44
449.779	86.44
450	79.44
450.221	82.44
450.442	90.44
450.662	77.44
450.883	78.44
451.104	64.44
451.324	74.44
451.545	64.44
451.766	79.44
451.986	78.44
452.207	80.44
452.428	76.44
452.648	70.44
452.869	71.44
453.089	72.44
453.31	86.44
453.53	60.44
453.751	77.44
453.971	80.44
454.192	73.44
454.412	89.44
454.633	76.44
454.853	76.44
455.073	72.44
455.294	87.44
455.514	81.44
455.734	86.44
455.955	78.44
456.175	67.44
456.395	76.44
456.616	89.44
456.836	80.44
457.056	84.44
457.276	64.44
457.497	82.44
457.717	82.44
457.937	69.44
458.157	78.44
458.377	85.44
458.598	93.44
458.818	78.44
459.038	73.44
459.258	57.44
459.478	77.44
459.698	87.44
459.918	79.44
460.138	88.44
460.358	63.44
460.578	70.44
460.798	68.44
461.018	78.44
461.238	72.44
461.458	76.44
461.678	82.44
461.898	90.44
462.118	88.44
462.338	71.44
462.558	71.44
462.777	77.44
462.997	74.44
463.217	81.44
463.437	78.44
463.657	73.44
463.876	69.44
464.096	90.44
464.316	80.44
464.536	77.44
464.755	89.44
464.975	92.44
465.195	79.44
465.414	85.44
465.634	88.44
465.854	85.44
466.073	89.44
466.293	77.44
466.512	69.44
466.732	80.44
466.951	92.44
467.171	85.44
467.391	79.44
467.61	82.44
467.829	73.44
468.049	74.44
468.268	78.44
468.488	95.44
468.707	70.44
468.927	88.44
469.146	85.44
469.365	78.44
469.585	72.44
469.804	91.44
470.023	81.44
470.243	75.44
470.462	84.44
470.681	79.44
470.901	88.44
471.12	80.44
471.339	86.44
471.558	84.44
471.777	77.44
471.997	70.44
472.216	79.44
472.435	71.44
472.654	87.44
472.873	78.44
473.092	86.44
473.311	74.44
473.53	78.44
473.749	77.44
473.968	84.44
474.187	82.44
474.406	78.44
474.625	81.44
474.844	72.44
475.063	67.44
475.282	81.44
475.501	85.44
475.72	90.44
475.939	79.44
476.158	80.44
476.377	72.44
476.596	94.44
476.814	93.44
477.033	78.44
477.252	87.44
477.471	72.44
477.69	76.44
477.908	88.44
478.127	80.44
478.346	94.44
478.564	85.44
478.783	77.44
479.002	77.44
479.22	70.44
479.439	77.44
479.658	72.44
479.876	84.44
480.095	85.44
480.313	84.44
480.532	87.44
480.751	81.44
480.969	85.44
481.188	90.44
481.406	86.44
481.624	74.44
481.843	90.44
482.061	84.44
482.28	58.44
482.498	87.44
482.717	81.44
482.935	85.44
483.153	87.44
483.372	81.44
483.59	94.44
483.808	78.44
484.027	86.44
484.245	91.44
484.463	85.44
484.681	74.44
484.9	75.44
485.118	70.44
485.336	82.44
485.554	77.44
485.772	87.44
485.99	101.44
486.209	79.44
486.427	81.44
486.645	96.44
486.863	88.44
487.081	85.44
487.299	77.44
487.517	79.44
487.735	78.44
487.953	91.44
488.171	76.44
488.389	88.44
488.607	65.44
488.825	75.44
489.043	69.44
489.261	84.44
489.479	84.44
489.696	74.44
489.914	81.44
490.132	81.44
490.35	81.44
490.568	81.44
490.786	87.44
491.003	85.44
491.221	75.44
491.439	73.44
491.657	85.44
491.874	77.44
492.092	85.44
492.31	91.44
492.527	83.44
492.745	77.44
492.963	94.44
493.18	87.44
493.398	86.44
493.615	93.44
493.833	88.44
494.05	70.44
494.268	84.44
494.485	71.44
494.703	85.44
494.92	96.44
495.138	90.44
495.355	78.44
495.573	90.44
495.79	76.44
496.008	93.44
496.225	82.44
496.442	74.44
496.66	97.44
496.877	87.44
497.094	94.44
497.312	86.44
497.529	81.44
497.746	71.44
497.963	81.44
498.181	88.44
498.398	73.44
498.615	76.44
498.832	87.44
499.049	76.44
499.267	82.44
499.484	84.44
499.701	81.44
499.918	63.44
500.135	79.44
500.352	80.44
500.569	82.44
500.786	89.44
501.003	79.44
501.22	92.44
501.437	83.44
501.654	79.44
501.871	89.44
502.088	84.44
502.305	74.44
502.522	85.44
502.739	80.44
502.956	82.44
503.172	85.44
503.389	84.44
503.606	95.44
503.823	88.44
504.04	77.44
504.256	80.44
504.473	70.44
504.69	70.44
504.907	82.44
505.123	79.44
505.34	88.44
505.557	91.44
505.773	90.44
505.99	78.44
506.207	88.44
506.423	86.44
506.64	78.44
506.856	81.44
507.073	85.44
507.289	78.44
507.506	88.44
507.722	84.44
507.939	85.44
508.155	69.44
508.372	82.44
508.588	77.44
508.805	72.44
509.021	75.44
509.238	83.44
509.454	84.44
509.67	66.44
509.887	76.44
510.103	72.44
510.319	67.44
510.536	74.44
510.752	68.44
510.968	77.44
511.184	90.44
511.401	72.44
511.617	80.44
511.833	70.44
512.049	66.44
512.265	73.44
512.481	86.44
512.698	82.44
512.914	80.44
513.13	87.44
513.346	74.44
513.562	87.44
513.778	81.44
513.994	90.44
514.21	78.44
514.426	72.44
514.642	87.44
514.858	87.44
515.074	82.44
515.29	87.44
515.506	75.44
515.721	72.44
515.937	70.44
516.153	87.44
516.369	80.44
516.585	89.44
516.801	85.44
517.016	85.44
517.232	75.44
517.448	86.44
517.664	81.44
517.879	72.44
518.095	87.44
518.311	87.44
518.527	67.44
518.742	80.44
518.958	77.44
519.173	84.44
519.389	89.44
519.605	80.44
519.82	71.44
520.036	80.44
