Data from StdD_HRD10591_070.txt Node
Date: Fri May 16 15:31:56 EDT 2025
User: Yrep
Spectrometer: HR+D1059
Trigger mode: 1
Integration Time (sec): 1.000000E-1
Scans to average: 1
Electric dark correction enabled: true
Nonlinearity correction enabled: false
Boxcar width: 0
XAxis mode: Wavelengths
Number of Pixels in Spectrum: 2048
>>>>>Begin Spectral Data<<<<<
223.165	-18.69
223.4	-18.69
223.635	-18.69
223.869	-12.69
224.104	-26.69
224.338	-25.69
224.573	-10.69
224.808	-8.69
225.042	-14.69
225.277	-10.69
225.511	-9.69
225.746	0.31
225.98	14.31
226.215	12.31
226.449	21.31
226.683	22.31
226.918	33.31
227.152	34.31
227.387	12.31
227.621	34.31
227.856	44.31
228.09	56.31
228.324	38.31
228.559	53.31
228.793	68.31
229.027	53.31
229.262	75.31
229.496	50.31
229.73	61.31
229.964	89.31
230.199	78.31
230.433	75.31
230.667	64.31
230.901	85.31
231.136	81.31
231.37	85.31
231.604	79.31
231.838	77.31
232.072	86.31
232.306	66.31
232.541	82.31
232.775	86.31
233.009	92.31
233.243	83.31
233.477	87.31
233.711	82.31
233.945	71.31
234.179	74.31
234.413	74.31
234.647	75.31
234.881	70.31
235.115	79.31
235.349	83.31
235.583	70.31
235.817	74.31
236.051	80.31
236.285	77.31
236.519	76.31
236.753	78.31
236.987	73.31
237.221	63.31
237.455	66.31
237.689	54.31
237.922	81.31
238.156	71.31
238.39	71.31
238.624	78.31
238.858	79.31
239.091	65.31
239.325	80.31
239.559	82.31
239.793	73.31
240.027	67.31
240.26	69.31
240.494	66.31
240.728	83.31
240.961	79.31
241.195	88.31
241.429	73.31
241.662	79.31
241.896	85.31
242.13	75.31
242.363	67.31
242.597	70.31
242.83	68.31
243.064	71.31
243.298	93.31
243.531	85.31
243.765	95.31
243.998	77.31
244.232	67.31
244.465	69.31
244.699	61.31
244.932	74.31
245.166	80.31
245.399	81.31
245.633	72.31
245.866	72.31
246.099	68.31
246.333	70.31
246.566	73.31
246.8	68.31
247.033	97.31
247.266	72.31
247.5	76.31
247.733	75.31
247.966	80.31
248.2	87.31
248.433	83.31
248.666	76.31
248.899	82.31
249.133	81.31
249.366	77.31
249.599	66.31
249.832	81.31
250.066	77.31
250.299	90.31
250.532	71.31
250.765	85.31
250.998	76.31
251.231	62.31
251.465	75.31
251.698	79.31
251.931	80.31
252.164	65.31
252.397	66.31
252.63	81.31
252.863	87.31
253.096	75.31
253.329	90.31
253.562	82.31
253.795	71.31
254.028	73.31
254.261	84.31
254.494	82.31
254.727	79.31
254.96	79.31
255.193	86.31
255.426	93.31
255.659	76.31
255.892	77.31
256.124	88.31
256.357	80.31
256.59	70.31
256.823	94.31
257.056	81.31
257.289	69.31
257.521	64.31
257.754	69.31
257.987	73.31
258.22	78.31
258.452	72.31
258.685	74.31
258.918	76.31
259.151	79.31
259.383	82.31
259.616	68.31
259.849	66.31
260.081	83.31
260.314	76.31
260.547	79.31
260.779	59.31
261.012	80.31
261.244	83.31
261.477	88.31
261.71	76.31
261.942	85.31
262.175	86.31
262.407	85.31
262.64	78.31
262.872	67.31
263.105	71.31
263.337	70.31
263.57	75.31
263.802	77.31
264.035	84.31
264.267	85.31
264.499	84.31
264.732	91.31
264.964	71.31
265.197	59.31
265.429	82.31
265.661	72.31
265.894	76.31
266.126	91.31
266.358	76.31
266.591	84.31
266.823	90.31
267.055	77.31
267.287	95.31
267.52	70.31
267.752	81.31
267.984	83.31
268.216	79.31
268.448	75.31
268.681	79.31
268.913	87.31
269.145	80.31
269.377	86.31
269.609	77.31
269.841	82.31
270.073	81.31
270.306	90.31
270.538	81.31
270.77	64.31
271.002	79.31
271.234	74.31
271.466	88.31
271.698	77.31
271.93	79.31
272.162	87.31
272.394	82.31
272.626	85.31
272.858	73.31
273.09	79.31
273.322	86.31
273.553	67.31
273.785	81.31
274.017	77.31
274.249	68.31
274.481	86.31
274.713	93.31
274.945	90.31
275.176	97.31
275.408	76.31
275.64	82.31
275.872	82.31
276.104	91.31
276.335	87.31
276.567	89.31
276.799	78.31
277.031	89.31
277.262	81.31
277.494	77.31
277.726	86.31
277.957	72.31
278.189	75.31
278.421	82.31
278.652	82.31
278.884	76.31
279.115	82.31
279.347	71.31
279.579	73.31
279.81	76.31
280.042	93.31
280.273	63.31
280.505	90.31
280.736	94.31
280.968	88.31
281.199	64.31
281.431	85.31
281.662	87.31
281.894	73.31
282.125	79.31
282.356	79.31
282.588	69.31
282.819	70.31
283.051	89.31
283.282	86.31
283.513	92.31
283.745	77.31
283.976	76.31
284.207	62.31
284.439	87.31
284.67	74.31
284.901	86.31
285.132	55.31
285.364	77.31
285.595	77.31
285.826	75.31
286.057	93.31
286.288	80.31
286.52	80.31
286.751	95.31
286.982	81.31
287.213	80.31
287.444	91.31
287.675	87.31
287.906	68.31
288.138	94.31
288.369	82.31
288.6	81.31
288.831	77.31
289.062	66.31
289.293	91.31
289.524	86.31
289.755	95.31
289.986	73.31
290.217	85.31
290.448	75.31
290.679	71.31
290.91	79.31
291.141	88.31
291.371	87.31
291.602	92.31
291.833	81.31
292.064	88.31
292.295	85.31
292.526	81.31
292.757	79.31
292.987	74.31
293.218	81.31
293.449	84.31
293.68	67.31
293.91	80.31
294.141	77.31
294.372	75.31
294.603	78.31
294.833	85.31
295.064	87.31
295.295	82.31
295.525	78.31
295.756	60.31
295.987	92.31
296.217	78.31
296.448	81.31
296.679	76.31
296.909	75.31
297.14	79.31
297.37	77.31
297.601	83.31
297.831	77.31
298.062	89.31
298.292	91.31
298.523	76.31
298.753	71.31
298.984	89.31
299.214	96.31
299.445	88.31
299.675	90.31
299.905	87.31
300.136	85.31
300.366	76.31
300.597	75.31
300.827	81.31
301.057	79.31
301.288	89.31
301.518	75.31
301.748	79.31
301.979	98.31
302.209	80.31
302.439	68.31
302.669	83.31
302.9	79.31
303.13	76.31
303.36	86.31
303.59	78.31
303.82	81.31
304.051	66.31
304.281	78.31
304.511	85.31
304.741	75.31
304.971	92.31
305.201	81.31
305.431	82.31
305.661	82.31
305.891	82.31
306.121	66.31
306.352	85.31
306.582	83.31
306.812	79.31
307.042	91.31
307.272	84.31
307.502	87.31
307.731	89.31
307.961	96.31
308.191	82.31
308.421	86.31
308.651	82.31
308.881	82.31
309.111	78.31
309.341	78.31
309.571	87.31
309.8	90.31
310.03	81.31
310.26	77.31
310.49	86.31
310.72	97.31
310.949	78.31
311.179	97.31
311.409	79.31
311.639	59.31
311.868	69.31
312.098	86.31
312.328	63.31
312.557	85.31
312.787	75.31
313.017	89.31
313.246	77.31
313.476	78.31
313.706	92.31
313.935	94.31
314.165	67.31
314.394	82.31
314.624	80.31
314.853	86.31
315.083	95.31
315.312	84.31
315.542	82.31
315.771	69.31
316.001	72.31
316.23	90.31
316.46	79.31
316.689	79.31
316.919	70.31
317.148	71.31
317.377	80.31
317.607	82.31
317.836	87.31
318.065	78.31
318.295	91.31
318.524	92.31
318.753	91.31
318.983	85.31
319.212	92.31
319.441	78.31
319.67	85.31
319.9	86.31
320.129	86.31
320.358	85.31
320.587	73.31
320.816	90.31
321.046	64.31
321.275	72.31
321.504	87.31
321.733	85.31
321.962	91.31
322.191	100.31
322.42	87.31
322.649	71.31
322.878	73.31
323.108	81.31
323.337	93.31
323.566	77.31
323.795	74.31
324.024	96.31
324.253	97.31
324.482	91.31
324.71	83.31
324.939	94.31
325.168	89.31
325.397	88.31
325.626	64.31
325.855	82.31
326.084	83.31
326.313	82.31
326.542	74.31
326.77	94.31
326.999	84.31
327.228	94.31
327.457	77.31
327.686	78.31
327.914	87.31
328.143	78.31
328.372	81.31
328.6	83.31
328.829	81.31
329.058	80.31
329.287	67.31
329.515	85.31
329.744	81.31
329.972	89.31
330.201	93.31
330.43	89.31
330.658	78.31
330.887	81.31
331.115	72.31
331.344	81.31
331.572	103.31
331.801	91.31
332.03	78.31
332.258	87.31
332.486	69.31
332.715	73.31
332.943	87.31
333.172	84.31
333.4	73.31
333.629	78.31
333.857	70.31
334.085	89.31
334.314	89.31
334.542	66.31
334.771	87.31
334.999	86.31
335.227	72.31
335.455	77.31
335.684	98.31
335.912	86.31
336.14	82.31
336.369	68.31
336.597	77.31
336.825	87.31
337.053	89.31
337.281	91.31
337.51	81.31
337.738	84.31
337.966	82.31
338.194	85.31
338.422	87.31
338.65	82.31
338.878	75.31
339.106	86.31
339.334	80.31
339.562	82.31
339.79	80.31
340.018	88.31
340.246	87.31
340.474	84.31
340.702	85.31
340.93	75.31
341.158	94.31
341.386	85.31
341.614	79.31
341.842	77.31
342.07	82.31
342.298	92.31
342.526	78.31
342.754	67.31
342.981	93.31
343.209	77.31
343.437	66.31
343.665	84.31
343.893	81.31
344.12	91.31
344.348	74.31
344.576	90.31
344.804	71.31
345.031	73.31
345.259	61.31
345.487	70.31
345.714	93.31
345.942	88.31
346.17	87.31
346.397	68.31
346.625	74.31
346.853	78.31
347.08	80.31
347.308	101.31
347.535	90.31
347.763	93.31
347.99	87.31
348.218	79.31
348.445	86.31
348.673	68.31
348.9	61.31
349.128	92.31
349.355	78.31
349.583	70.31
349.81	78.31
350.037	87.31
350.265	85.31
350.492	80.31
350.72	67.31
350.947	86.31
351.174	76.31
351.402	70.31
351.629	95.31
351.856	86.31
352.083	95.31
352.311	91.31
352.538	74.31
352.765	74.31
352.992	84.31
353.22	85.31
353.447	91.31
353.674	87.31
353.901	83.31
354.128	91.31
354.355	74.31
354.583	99.31
354.81	81.31
355.037	68.31
355.264	65.31
355.491	80.31
355.718	84.31
355.945	72.31
356.172	82.31
356.399	85.31
356.626	75.31
356.853	86.31
357.08	65.31
357.307	90.31
357.534	96.31
357.761	82.31
357.988	84.31
358.215	76.31
358.441	81.31
358.668	82.31
358.895	90.31
359.122	91.31
359.349	96.31
359.576	78.31
359.802	74.31
360.029	87.31
360.256	85.31
360.483	89.31
360.709	77.31
360.936	75.31
361.163	76.31
361.39	80.31
361.616	83.31
361.843	82.31
362.07	87.31
362.296	83.31
362.523	87.31
362.749	76.31
362.976	79.31
363.203	86.31
363.429	74.31
363.656	82.31
363.882	81.31
364.109	78.31
364.335	83.31
364.562	82.31
364.788	78.31
365.015	81.31
365.241	90.31
365.468	88.31
365.694	70.31
365.92	94.31
366.147	80.31
366.373	85.31
366.599	88.31
366.826	79.31
367.052	82.31
367.278	82.31
367.505	71.31
367.731	80.31
367.957	83.31
368.184	89.31
368.41	80.31
368.636	90.31
368.862	93.31
369.089	81.31
369.315	64.31
369.541	75.31
369.767	78.31
369.993	67.31
370.219	81.31
370.445	81.31
370.672	70.31
370.898	77.31
371.124	81.31
371.35	73.31
371.576	87.31
371.802	75.31
372.028	88.31
372.254	77.31
372.48	71.31
372.706	52.31
372.932	64.31
373.158	75.31
373.384	92.31
373.61	88.31
373.835	86.31
374.061	79.31
374.287	75.31
374.513	81.31
374.739	87.31
374.965	71.31
375.191	78.31
375.416	75.31
375.642	81.31
375.868	76.31
376.094	90.31
376.319	87.31
376.545	92.31
376.771	80.31
376.997	71.31
377.222	87.31
377.448	81.31
377.674	78.31
377.899	92.31
378.125	77.31
378.35	99.31
378.576	81.31
378.802	75.31
379.027	76.31
379.253	93.31
379.478	74.31
379.704	83.31
379.929	76.31
380.155	101.31
380.38	74.31
380.606	74.31
380.831	81.31
381.057	88.31
381.282	93.31
381.507	77.31
381.733	91.31
381.958	96.31
382.184	80.31
382.409	85.31
382.634	96.31
382.86	89.31
383.085	88.31
383.31	75.31
383.535	80.31
383.761	82.31
383.986	88.31
384.211	82.31
384.436	81.31
384.662	81.31
384.887	78.31
385.112	75.31
385.337	96.31
385.562	72.31
385.787	77.31
386.013	79.31
386.238	78.31
386.463	75.31
386.688	110.31
386.913	85.31
387.138	83.31
387.363	77.31
387.588	94.31
387.813	74.31
388.038	86.31
388.263	89.31
388.488	62.31
388.713	80.31
388.938	65.31
389.163	88.31
389.387	65.31
389.612	77.31
389.837	75.31
390.062	88.31
390.287	88.31
390.512	73.31
390.736	78.31
390.961	79.31
391.186	85.31
391.411	87.31
391.636	79.31
391.86	72.31
392.085	89.31
392.31	74.31
392.534	73.31
392.759	83.31
392.984	84.31
393.208	77.31
393.433	73.31
393.658	84.31
393.882	90.31
394.107	84.31
394.331	78.31
394.556	82.31
394.78	92.31
395.005	79.31
395.229	85.31
395.454	77.31
395.678	88.31
395.903	75.31
396.127	94.31
396.352	77.31
396.576	75.31
396.801	83.31
397.025	72.31
397.249	74.31
397.474	75.31
397.698	65.31
397.922	72.31
398.147	76.31
398.371	78.31
398.595	70.31
398.82	81.31
399.044	84.31
399.268	84.31
399.492	79.31
399.717	78.31
399.941	67.31
400.165	88.31
400.389	80.31
400.613	75.31
400.837	87.31
401.062	90.31
401.286	85.31
401.51	81.31
401.734	81.31
401.958	76.31
402.182	95.31
402.406	88.31
402.63	86.31
402.854	80.31
403.078	74.31
403.302	73.31
403.526	82.31
403.75	73.31
403.974	71.31
404.198	74.31
404.422	89.31
404.645	78.31
404.869	90.31
405.093	77.31
405.317	88.31
405.541	68.31
405.765	83.31
405.988	88.31
406.212	70.31
406.436	77.31
406.66	73.31
406.883	79.31
407.107	73.31
407.331	85.31
407.555	67.31
407.778	75.31
408.002	75.31
408.226	82.31
408.449	81.31
408.673	85.31
408.896	84.31
409.12	71.31
409.344	74.31
409.567	73.31
409.791	79.31
410.014	82.31
410.238	81.31
410.461	85.31
410.685	79.31
410.908	69.31
411.132	92.31
411.355	79.31
411.578	90.31
411.802	81.31
412.025	74.31
412.249	85.31
412.472	80.31
412.695	84.31
412.919	71.31
413.142	82.31
413.365	90.31
413.589	86.31
413.812	78.31
414.035	85.31
414.258	85.31
414.482	104.31
414.705	75.31
414.928	89.31
415.151	69.31
415.374	79.31
415.597	104.31
415.821	88.31
416.044	95.31
416.267	79.31
416.49	80.31
416.713	80.31
416.936	71.31
417.159	77.31
417.382	98.31
417.605	84.31
417.828	81.31
418.051	85.31
418.274	82.31
418.497	88.31
418.72	90.31
418.943	71.31
419.166	79.31
419.389	69.31
419.611	78.31
419.834	87.31
420.057	80.31
420.28	74.31
420.503	92.31
420.726	71.31
420.948	86.31
421.171	90.31
421.394	75.31
421.617	65.31
421.839	65.31
422.062	74.31
422.285	74.31
422.507	76.31
422.73	83.31
422.953	71.31
423.175	71.31
423.398	88.31
423.621	92.31
423.843	82.31
424.066	87.31
424.288	85.31
424.511	90.31
424.733	83.31
424.956	63.31
425.178	85.31
425.401	80.31
425.623	80.31
425.846	72.31
426.068	68.31
426.291	78.31
426.513	92.31
426.735	85.31
426.958	89.31
427.18	82.31
427.402	85.31
427.625	63.31
427.847	87.31
428.069	89.31
428.292	74.31
428.514	84.31
428.736	82.31
428.958	71.31
429.181	97.31
429.403	76.31
429.625	85.31
429.847	91.31
430.069	83.31
430.292	92.31
430.514	94.31
430.736	79.31
430.958	82.31
431.18	80.31
431.402	73.31
431.624	66.31
431.846	65.31
432.068	82.31
432.29	73.31
432.512	89.31
432.734	99.31
432.956	92.31
433.178	86.31
433.4	86.31
433.622	76.31
433.844	87.31
434.066	77.31
434.287	74.31
434.509	74.31
434.731	80.31
434.953	78.31
435.175	82.31
435.397	80.31
435.618	85.31
435.84	80.31
436.062	70.31
436.284	81.31
436.505	63.31
436.727	78.31
436.949	88.31
437.17	98.31
437.392	81.31
437.614	79.31
437.835	71.31
438.057	90.31
438.278	88.31
438.5	77.31
438.721	76.31
438.943	77.31
439.165	67.31
439.386	100.31
439.608	88.31
439.829	83.31
440.05	93.31
440.272	89.31
440.493	82.31
440.715	78.31
440.936	78.31
441.158	67.31
441.379	78.31
441.6	74.31
441.822	85.31
442.043	81.31
442.264	88.31
442.486	88.31
442.707	80.31
442.928	80.31
443.149	97.31
443.371	65.31
443.592	81.31
443.813	83.31
444.034	83.31
444.255	92.31
444.476	85.31
444.698	89.31
444.919	93.31
445.14	179.31
445.361	119.31
445.582	71.31
445.803	88.31
446.024	87.31
446.245	79.31
446.466	79.31
446.687	87.31
446.908	91.31
447.129	67.31
447.35	87.31
447.571	86.31
447.792	86.31
448.013	86.31
448.234	77.31
448.455	87.31
448.675	94.31
448.896	90.31
449.117	82.31
449.338	77.31
449.559	98.31
449.779	95.31
450	80.31
450.221	77.31
450.442	69.31
450.662	78.31
450.883	71.31
451.104	93.31
451.324	86.31
451.545	78.31
451.766	88.31
451.986	88.31
452.207	84.31
452.428	84.31
452.648	86.31
452.869	83.31
453.089	67.31
453.31	86.31
453.53	86.31
453.751	82.31
453.971	86.31
454.192	86.31
454.412	84.31
454.633	78.31
454.853	71.31
455.073	79.31
455.294	79.31
455.514	84.31
455.734	90.31
455.955	95.31
456.175	72.31
456.395	68.31
456.616	82.31
456.836	74.31
457.056	88.31
457.276	80.31
457.497	73.31
457.717	86.31
457.937	91.31
458.157	81.31
458.377	89.31
458.598	94.31
458.818	79.31
459.038	73.31
459.258	66.31
459.478	86.31
459.698	86.31
459.918	78.31
460.138	78.31
460.358	76.31
460.578	75.31
460.798	63.31
461.018	86.31
461.238	70.31
461.458	87.31
461.678	74.31
461.898	86.31
462.118	78.31
462.338	90.31
462.558	82.31
462.777	75.31
462.997	93.31
463.217	81.31
463.437	88.31
463.657	66.31
463.876	74.31
464.096	74.31
464.316	83.31
464.536	73.31
464.755	77.31
464.975	66.31
465.195	85.31
465.414	103.31
465.634	82.31
465.854	95.31
466.073	75.31
466.293	80.31
466.512	90.31
466.732	77.31
466.951	94.31
467.171	84.31
467.391	101.31
467.61	66.31
467.829	88.31
468.049	78.31
468.268	82.31
468.488	88.31
468.707	77.31
468.927	79.31
469.146	85.31
469.365	73.31
469.585	76.31
469.804	78.31
470.023	83.31
470.243	80.31
470.462	80.31
470.681	75.31
470.901	86.31
471.12	82.31
471.339	65.31
471.558	74.31
471.777	71.31
471.997	82.31
472.216	74.31
472.435	77.31
472.654	80.31
472.873	75.31
473.092	76.31
473.311	74.31
473.53	90.31
473.749	75.31
473.968	87.31
474.187	82.31
474.406	91.31
474.625	67.31
474.844	73.31
475.063	81.31
475.282	83.31
475.501	92.31
475.72	77.31
475.939	84.31
476.158	81.31
476.377	69.31
476.596	73.31
476.814	73.31
477.033	80.31
477.252	81.31
477.471	75.31
477.69	93.31
477.908	68.31
478.127	85.31
478.346	83.31
478.564	87.31
478.783	81.31
479.002	73.31
479.22	84.31
479.439	82.31
479.658	79.31
479.876	76.31
480.095	75.31
480.313	70.31
480.532	88.31
480.751	84.31
480.969	74.31
481.188	70.31
481.406	73.31
481.624	82.31
481.843	81.31
482.061	95.31
482.28	77.31
482.498	75.31
482.717	84.31
482.935	88.31
483.153	94.31
483.372	87.31
483.59	78.31
483.808	78.31
484.027	82.31
484.245	74.31
484.463	69.31
484.681	94.31
484.9	84.31
485.118	76.31
485.336	102.31
485.554	87.31
485.772	79.31
485.99	68.31
486.209	90.31
486.427	71.31
486.645	90.31
486.863	86.31
487.081	83.31
487.299	85.31
487.517	77.31
487.735	92.31
487.953	79.31
488.171	73.31
488.389	75.31
488.607	76.31
488.825	73.31
489.043	91.31
489.261	85.31
489.479	83.31
489.696	79.31
489.914	87.31
490.132	94.31
490.35	81.31
490.568	88.31
490.786	90.31
491.003	88.31
491.221	90.31
491.439	91.31
491.657	75.31
491.874	84.31
492.092	83.31
492.31	81.31
492.527	90.31
492.745	86.31
492.963	92.31
493.18	85.31
493.398	89.31
493.615	96.31
493.833	70.31
494.05	85.31
494.268	65.31
494.485	96.31
494.703	86.31
494.92	82.31
495.138	101.31
495.355	69.31
495.573	85.31
495.79	81.31
496.008	90.31
496.225	85.31
496.442	76.31
496.66	92.31
496.877	90.31
497.094	88.31
497.312	84.31
497.529	86.31
497.746	86.31
497.963	77.31
498.181	81.31
498.398	71.31
498.615	77.31
498.832	88.31
499.049	82.31
499.267	91.31
499.484	89.31
499.701	94.31
499.918	81.31
500.135	91.31
500.352	88.31
500.569	89.31
500.786	107.31
501.003	84.31
501.22	82.31
501.437	112.31
501.654	88.31
501.871	99.31
502.088	64.31
502.305	83.31
502.522	65.31
502.739	85.31
502.956	98.31
503.172	76.31
503.389	79.31
503.606	80.31
503.823	81.31
504.04	88.31
504.256	72.31
504.473	107.31
504.69	97.31
504.907	105.31
505.123	85.31
505.34	94.31
505.557	74.31
505.773	80.31
505.99	78.31
506.207	82.31
506.423	91.31
506.64	88.31
506.856	72.31
507.073	81.31
507.289	78.31
507.506	79.31
507.722	90.31
507.939	82.31
508.155	83.31
508.372	80.31
508.588	84.31
508.805	73.31
509.021	80.31
509.238	68.31
509.454	85.31
509.67	72.31
509.887	79.31
510.103	79.31
510.319	88.31
510.536	81.31
510.752	77.31
510.968	80.31
511.184	80.31
511.401	88.31
511.617	87.31
511.833	88.31
512.049	75.31
512.265	91.31
512.481	87.31
512.698	88.31
512.914	77.31
513.13	86.31
513.346	73.31
513.562	80.31
513.778	85.31
513.994	79.31
514.21	79.31
514.426	75.31
514.642	83.31
514.858	95.31
515.074	78.31
515.29	64.31
515.506	78.31
515.721	95.31
515.937	80.31
516.153	74.31
516.369	76.31
516.585	78.31
516.801	85.31
517.016	85.31
517.232	79.31
517.448	83.31
517.664	81.31
517.879	75.31
518.095	88.31
518.311	87.31
518.527	80.31
518.742	82.31
518.958	79.31
519.173	83.31
519.389	91.31
519.605	70.31
519.82	75.31
520.036	75.31
