Data from StdD_HRD10591_032.txt Node
Date: Fri May 16 15:31:37 EDT 2025
User: Yrep
Spectrometer: HR+D1059
Trigger mode: 1
Integration Time (sec): 1.000000E-1
Scans to average: 1
Electric dark correction enabled: true
Nonlinearity correction enabled: false
Boxcar width: 0
XAxis mode: Wavelengths
Number of Pixels in Spectrum: 2048
>>>>>Begin Spectral Data<<<<<
223.165	-18.69
223.4	-18.69
223.635	-18.69
223.869	-16.69
224.104	-15.69
224.338	-6.69
224.573	-12.69
224.808	-4.69
225.042	-16.69
225.277	-3.69
225.511	2.31
225.746	-7.69
225.98	-9.69
226.215	8.31
226.449	5.31
226.683	35.31
226.918	36.31
227.152	25.31
227.387	38.31
227.621	35.31
227.856	47.31
228.09	42.31
228.324	51.31
228.559	59.31
228.793	64.31
229.027	71.31
229.262	58.31
229.496	70.31
229.73	69.31
229.964	82.31
230.199	64.31
230.433	80.31
230.667	80.31
230.901	77.31
231.136	84.31
231.37	75.31
231.604	66.31
231.838	83.31
232.072	95.31
232.306	80.31
232.541	77.31
232.775	85.31
233.009	78.31
233.243	82.31
233.477	86.31
233.711	78.31
233.945	93.31
234.179	84.31
234.413	81.31
234.647	85.31
234.881	81.31
235.115	89.31
235.349	91.31
235.583	91.31
235.817	81.31
236.051	78.31
236.285	72.31
236.519	79.31
236.753	74.31
236.987	72.31
237.221	81.31
237.455	82.31
237.689	88.31
237.922	65.31
238.156	79.31
238.39	75.31
238.624	91.31
238.858	87.31
239.091	79.31
239.325	78.31
239.559	69.31
239.793	80.31
240.027	86.31
240.26	80.31
240.494	79.31
240.728	70.31
240.961	64.31
241.195	86.31
241.429	87.31
241.662	72.31
241.896	83.31
242.13	101.31
242.363	74.31
242.597	83.31
242.83	79.31
243.064	93.31
243.298	92.31
243.531	88.31
243.765	97.31
243.998	80.31
244.232	89.31
244.465	80.31
244.699	78.31
244.932	88.31
245.166	79.31
245.399	87.31
245.633	84.31
245.866	82.31
246.099	80.31
246.333	80.31
246.566	72.31
246.8	73.31
247.033	65.31
247.266	74.31
247.5	75.31
247.733	70.31
247.966	84.31
248.2	77.31
248.433	82.31
248.666	82.31
248.899	93.31
249.133	83.31
249.366	92.31
249.599	77.31
249.832	82.31
250.066	82.31
250.299	78.31
250.532	89.31
250.765	78.31
250.998	86.31
251.231	80.31
251.465	92.31
251.698	78.31
251.931	93.31
252.164	88.31
252.397	79.31
252.63	86.31
252.863	74.31
253.096	77.31
253.329	84.31
253.562	82.31
253.795	82.31
254.028	75.31
254.261	96.31
254.494	75.31
254.727	85.31
254.96	83.31
255.193	81.31
255.426	90.31
255.659	89.31
255.892	80.31
256.124	80.31
256.357	95.31
256.59	93.31
256.823	71.31
257.056	64.31
257.289	92.31
257.521	78.31
257.754	79.31
257.987	76.31
258.22	80.31
258.452	78.31
258.685	105.31
258.918	85.31
259.151	85.31
259.383	75.31
259.616	82.31
259.849	86.31
260.081	77.31
260.314	79.31
260.547	74.31
260.779	80.31
261.012	95.31
261.244	92.31
261.477	87.31
261.71	77.31
261.942	90.31
262.175	68.31
262.407	68.31
262.64	82.31
262.872	85.31
263.105	83.31
263.337	92.31
263.57	93.31
263.802	89.31
264.035	85.31
264.267	82.31
264.499	85.31
264.732	94.31
264.964	89.31
265.197	78.31
265.429	86.31
265.661	82.31
265.894	77.31
266.126	93.31
266.358	85.31
266.591	69.31
266.823	81.31
267.055	88.31
267.287	86.31
267.52	94.31
267.752	80.31
267.984	90.31
268.216	82.31
268.448	93.31
268.681	100.31
268.913	94.31
269.145	98.31
269.377	76.31
269.609	88.31
269.841	90.31
270.073	104.31
270.306	77.31
270.538	91.31
270.77	80.31
271.002	100.31
271.234	75.31
271.466	77.31
271.698	85.31
271.93	89.31
272.162	105.31
272.394	101.31
272.626	84.31
272.858	90.31
273.09	83.31
273.322	88.31
273.553	74.31
273.785	92.31
274.017	82.31
274.249	86.31
274.481	85.31
274.713	92.31
274.945	80.31
275.176	79.31
275.408	72.31
275.64	91.31
275.872	80.31
276.104	84.31
276.335	94.31
276.567	82.31
276.799	68.31
277.031	79.31
277.262	80.31
277.494	90.31
277.726	93.31
277.957	75.31
278.189	80.31
278.421	81.31
278.652	90.31
278.884	80.31
279.115	86.31
279.347	99.31
279.579	86.31
279.81	82.31
280.042	85.31
280.273	100.31
280.505	76.31
280.736	83.31
280.968	89.31
281.199	93.31
281.431	90.31
281.662	88.31
281.894	79.31
282.125	89.31
282.356	93.31
282.588	75.31
282.819	89.31
283.051	78.31
283.282	75.31
283.513	85.31
283.745	93.31
283.976	69.31
284.207	92.31
284.439	76.31
284.67	92.31
284.901	85.31
285.132	84.31
285.364	84.31
285.595	94.31
285.826	85.31
286.057	85.31
286.288	74.31
286.52	86.31
286.751	85.31
286.982	81.31
287.213	75.31
287.444	78.31
287.675	86.31
287.906	84.31
288.138	95.31
288.369	88.31
288.6	84.31
288.831	74.31
289.062	86.31
289.293	82.31
289.524	94.31
289.755	80.31
289.986	63.31
290.217	98.31
290.448	85.31
290.679	85.31
290.91	97.31
291.141	73.31
291.371	71.31
291.602	74.31
291.833	83.31
292.064	93.31
292.295	92.31
292.526	78.31
292.757	91.31
292.987	100.31
293.218	70.31
293.449	90.31
293.68	89.31
293.91	78.31
294.141	85.31
294.372	90.31
294.603	94.31
294.833	92.31
295.064	103.31
295.295	90.31
295.525	92.31
295.756	84.31
295.987	90.31
296.217	82.31
296.448	87.31
296.679	78.31
296.909	96.31
297.14	86.31
297.37	76.31
297.601	82.31
297.831	82.31
298.062	93.31
298.292	92.31
298.523	79.31
298.753	84.31
298.984	86.31
299.214	96.31
299.445	94.31
299.675	99.31
299.905	82.31
300.136	78.31
300.366	100.31
300.597	97.31
300.827	88.31
301.057	92.31
301.288	80.31
301.518	76.31
301.748	81.31
301.979	117.31
302.209	94.31
302.439	94.31
302.669	102.31
302.9	84.31
303.13	89.31
303.36	84.31
303.59	92.31
303.82	94.31
304.051	90.31
304.281	90.31
304.511	71.31
304.741	93.31
304.971	70.31
305.201	100.31
305.431	93.31
305.661	79.31
305.891	84.31
306.121	83.31
306.352	83.31
306.582	73.31
306.812	84.31
307.042	95.31
307.272	98.31
307.502	93.31
307.731	92.31
307.961	85.31
308.191	78.31
308.421	87.31
308.651	97.31
308.881	87.31
309.111	83.31
309.341	93.31
309.571	84.31
309.8	74.31
310.03	111.31
310.26	86.31
310.49	98.31
310.72	85.31
310.949	91.31
311.179	88.31
311.409	84.31
311.639	87.31
311.868	82.31
312.098	97.31
312.328	84.31
312.557	76.31
312.787	95.31
313.017	85.31
313.246	81.31
313.476	81.31
313.706	89.31
313.935	86.31
314.165	92.31
314.394	90.31
314.624	71.31
314.853	87.31
315.083	84.31
315.312	88.31
315.542	79.31
315.771	91.31
316.001	94.31
316.23	98.31
316.46	76.31
316.689	77.31
316.919	98.31
317.148	88.31
317.377	95.31
317.607	83.31
317.836	106.31
318.065	86.31
318.295	85.31
318.524	89.31
318.753	93.31
318.983	89.31
319.212	108.31
319.441	77.31
319.67	74.31
319.9	72.31
320.129	86.31
320.358	84.31
320.587	88.31
320.816	63.31
321.046	90.31
321.275	84.31
321.504	82.31
321.733	89.31
321.962	87.31
322.191	72.31
322.42	95.31
322.649	88.31
322.878	86.31
323.108	83.31
323.337	80.31
323.566	81.31
323.795	88.31
324.024	81.31
324.253	89.31
324.482	70.31
324.71	94.31
324.939	69.31
325.168	90.31
325.397	82.31
325.626	88.31
325.855	94.31
326.084	79.31
326.313	75.31
326.542	79.31
326.77	83.31
326.999	92.31
327.228	96.31
327.457	93.31
327.686	89.31
327.914	86.31
328.143	89.31
328.372	88.31
328.6	88.31
328.829	81.31
329.058	79.31
329.287	92.31
329.515	90.31
329.744	84.31
329.972	78.31
330.201	99.31
330.43	86.31
330.658	84.31
330.887	90.31
331.115	84.31
331.344	89.31
331.572	76.31
331.801	87.31
332.03	91.31
332.258	90.31
332.486	105.31
332.715	85.31
332.943	78.31
333.172	86.31
333.4	80.31
333.629	83.31
333.857	88.31
334.085	91.31
334.314	90.31
334.542	69.31
334.771	84.31
334.999	72.31
335.227	83.31
335.455	86.31
335.684	85.31
335.912	82.31
336.14	98.31
336.369	85.31
336.597	89.31
336.825	93.31
337.053	92.31
337.281	82.31
337.51	76.31
337.738	97.31
337.966	86.31
338.194	82.31
338.422	88.31
338.65	78.31
338.878	80.31
339.106	85.31
339.334	86.31
339.562	90.31
339.79	77.31
340.018	78.31
340.246	92.31
340.474	97.31
340.702	92.31
340.93	86.31
341.158	90.31
341.386	77.31
341.614	88.31
341.842	83.31
342.07	92.31
342.298	88.31
342.526	94.31
342.754	89.31
342.981	75.31
343.209	100.31
343.437	93.31
343.665	92.31
343.893	82.31
344.12	93.31
344.348	82.31
344.576	83.31
344.804	92.31
345.031	75.31
345.259	82.31
345.487	91.31
345.714	93.31
345.942	90.31
346.17	92.31
346.397	90.31
346.625	90.31
346.853	93.31
347.08	94.31
347.308	88.31
347.535	90.31
347.763	82.31
347.99	88.31
348.218	80.31
348.445	71.31
348.673	79.31
348.9	86.31
349.128	93.31
349.355	64.31
349.583	87.31
349.81	83.31
350.037	83.31
350.265	92.31
350.492	83.31
350.72	84.31
350.947	76.31
351.174	80.31
351.402	86.31
351.629	92.31
351.856	79.31
352.083	79.31
352.311	85.31
352.538	91.31
352.765	80.31
352.992	86.31
353.22	89.31
353.447	84.31
353.674	74.31
353.901	97.31
354.128	94.31
354.355	100.31
354.583	85.31
354.81	91.31
355.037	77.31
355.264	71.31
355.491	85.31
355.718	80.31
355.945	78.31
356.172	81.31
356.399	83.31
356.626	76.31
356.853	94.31
357.08	79.31
357.307	76.31
357.534	89.31
357.761	93.31
357.988	78.31
358.215	83.31
358.441	87.31
358.668	78.31
358.895	101.31
359.122	97.31
359.349	91.31
359.576	82.31
359.802	88.31
360.029	94.31
360.256	104.31
360.483	86.31
360.709	76.31
360.936	90.31
361.163	82.31
361.39	80.31
361.616	90.31
361.843	87.31
362.07	76.31
362.296	78.31
362.523	85.31
362.749	94.31
362.976	81.31
363.203	86.31
363.429	93.31
363.656	78.31
363.882	70.31
364.109	82.31
364.335	86.31
364.562	84.31
364.788	88.31
365.015	101.31
365.241	92.31
365.468	98.31
365.694	90.31
365.92	99.31
366.147	108.31
366.373	97.31
366.599	80.31
366.826	74.31
367.052	92.31
367.278	90.31
367.505	78.31
367.731	102.31
367.957	88.31
368.184	96.31
368.41	94.31
368.636	96.31
368.862	84.31
369.089	92.31
369.315	71.31
369.541	84.31
369.767	80.31
369.993	80.31
370.219	89.31
370.445	80.31
370.672	99.31
370.898	97.31
371.124	92.31
371.35	72.31
371.576	85.31
371.802	92.31
372.028	69.31
372.254	92.31
372.48	82.31
372.706	90.31
372.932	79.31
373.158	86.31
373.384	80.31
373.61	78.31
373.835	93.31
374.061	86.31
374.287	93.31
374.513	86.31
374.739	86.31
374.965	85.31
375.191	74.31
375.416	85.31
375.642	90.31
375.868	67.31
376.094	94.31
376.319	92.31
376.545	71.31
376.771	93.31
376.997	93.31
377.222	96.31
377.448	72.31
377.674	80.31
377.899	81.31
378.125	86.31
378.35	99.31
378.576	86.31
378.802	80.31
379.027	88.31
379.253	93.31
379.478	75.31
379.704	70.31
379.929	77.31
380.155	77.31
380.38	90.31
380.606	98.31
380.831	84.31
381.057	89.31
381.282	93.31
381.507	86.31
381.733	86.31
381.958	86.31
382.184	96.31
382.409	86.31
382.634	92.31
382.86	87.31
383.085	81.31
383.31	94.31
383.535	84.31
383.761	68.31
383.986	86.31
384.211	94.31
384.436	98.31
384.662	85.31
384.887	85.31
385.112	91.31
385.337	85.31
385.562	96.31
385.787	79.31
386.013	81.31
386.238	93.31
386.463	88.31
386.688	88.31
386.913	86.31
387.138	83.31
387.363	98.31
387.588	81.31
387.813	81.31
388.038	98.31
388.263	88.31
388.488	92.31
388.713	85.31
388.938	89.31
389.163	72.31
389.387	89.31
389.612	93.31
389.837	94.31
390.062	101.31
390.287	91.31
390.512	60.31
390.736	76.31
390.961	79.31
391.186	71.31
391.411	91.31
391.636	84.31
391.86	81.31
392.085	85.31
392.31	81.31
392.534	89.31
392.759	87.31
392.984	71.31
393.208	100.31
393.433	79.31
393.658	87.31
393.882	74.31
394.107	88.31
394.331	81.31
394.556	68.31
394.78	80.31
395.005	89.31
395.229	90.31
395.454	88.31
395.678	97.31
395.903	98.31
396.127	91.31
396.352	95.31
396.576	84.31
396.801	79.31
397.025	78.31
397.249	91.31
397.474	77.31
397.698	74.31
397.922	87.31
398.147	93.31
398.371	78.31
398.595	80.31
398.82	88.31
399.044	89.31
399.268	90.31
399.492	75.31
399.717	75.31
399.941	73.31
400.165	84.31
400.389	104.31
400.613	91.31
400.837	86.31
401.062	76.31
401.286	85.31
401.51	89.31
401.734	85.31
401.958	75.31
402.182	84.31
402.406	76.31
402.63	89.31
402.854	86.31
403.078	72.31
403.302	84.31
403.526	110.31
403.75	87.31
403.974	94.31
404.198	86.31
404.422	90.31
404.645	77.31
404.869	99.31
405.093	93.31
405.317	83.31
405.541	96.31
405.765	69.31
405.988	85.31
406.212	83.31
406.436	82.31
406.66	102.31
406.883	84.31
407.107	69.31
407.331	90.31
407.555	82.31
407.778	75.31
408.002	75.31
408.226	97.31
408.449	108.31
408.673	88.31
408.896	89.31
409.12	90.31
409.344	83.31
409.567	88.31
409.791	84.31
410.014	92.31
410.238	82.31
410.461	94.31
410.685	87.31
410.908	69.31
411.132	93.31
411.355	78.31
411.578	100.31
411.802	93.31
412.025	82.31
412.249	89.31
412.472	90.31
412.695	84.31
412.919	87.31
413.142	86.31
413.365	76.31
413.589	90.31
413.812	86.31
414.035	99.31
414.258	89.31
414.482	86.31
414.705	94.31
414.928	84.31
415.151	75.31
415.374	86.31
415.597	89.31
415.821	95.31
416.044	100.31
416.267	89.31
416.49	75.31
416.713	82.31
416.936	81.31
417.159	83.31
417.382	95.31
417.605	80.31
417.828	82.31
418.051	88.31
418.274	83.31
418.497	82.31
418.72	84.31
418.943	82.31
419.166	90.31
419.389	104.31
419.611	86.31
419.834	78.31
420.057	85.31
420.28	70.31
420.503	87.31
420.726	84.31
420.948	83.31
421.171	88.31
421.394	88.31
421.617	71.31
421.839	75.31
422.062	70.31
422.285	84.31
422.507	85.31
422.73	87.31
422.953	83.31
423.175	86.31
423.398	86.31
423.621	78.31
423.843	71.31
424.066	83.31
424.288	90.31
424.511	74.31
424.733	93.31
424.956	94.31
425.178	75.31
425.401	109.31
425.623	74.31
425.846	93.31
426.068	74.31
426.291	97.31
426.513	75.31
426.735	82.31
426.958	80.31
427.18	85.31
427.402	72.31
427.625	95.31
427.847	81.31
428.069	84.31
428.292	73.31
428.514	82.31
428.736	87.31
428.958	95.31
429.181	83.31
429.403	68.31
429.625	76.31
429.847	79.31
430.069	90.31
430.292	103.31
430.514	83.31
430.736	82.31
430.958	86.31
431.18	84.31
431.402	92.31
431.624	95.31
431.846	79.31
432.068	88.31
432.29	77.31
432.512	97.31
432.734	90.31
432.956	84.31
433.178	84.31
433.4	82.31
433.622	91.31
433.844	86.31
434.066	84.31
434.287	91.31
434.509	92.31
434.731	84.31
434.953	97.31
435.175	82.31
435.397	97.31
435.618	67.31
435.84	96.31
436.062	76.31
436.284	83.31
436.505	82.31
436.727	80.31
436.949	86.31
437.17	74.31
437.392	95.31
437.614	84.31
437.835	83.31
438.057	91.31
438.278	89.31
438.5	84.31
438.721	94.31
438.943	92.31
439.165	83.31
439.386	88.31
439.608	71.31
439.829	90.31
440.05	82.31
440.272	79.31
440.493	80.31
440.715	97.31
440.936	76.31
441.158	84.31
441.379	93.31
441.6	80.31
441.822	82.31
442.043	89.31
442.264	93.31
442.486	78.31
442.707	79.31
442.928	84.31
443.149	83.31
443.371	82.31
443.592	77.31
443.813	81.31
444.034	84.31
444.255	94.31
444.476	83.31
444.698	85.31
444.919	89.31
445.14	149.31
445.361	107.31
445.582	71.31
445.803	82.31
446.024	72.31
446.245	90.31
446.466	81.31
446.687	81.31
446.908	93.31
447.129	80.31
447.35	78.31
447.571	92.31
447.792	89.31
448.013	88.31
448.234	84.31
448.455	82.31
448.675	79.31
448.896	85.31
449.117	94.31
449.338	82.31
449.559	80.31
449.779	76.31
450	100.31
450.221	81.31
450.442	77.31
450.662	85.31
450.883	80.31
451.104	74.31
451.324	71.31
451.545	68.31
451.766	93.31
451.986	79.31
452.207	88.31
452.428	88.31
452.648	94.31
452.869	94.31
453.089	74.31
453.31	93.31
453.53	88.31
453.751	88.31
453.971	98.31
454.192	89.31
454.412	96.31
454.633	84.31
454.853	82.31
455.073	83.31
455.294	66.31
455.514	85.31
455.734	90.31
455.955	81.31
456.175	74.31
456.395	82.31
456.616	79.31
456.836	79.31
457.056	76.31
457.276	85.31
457.497	85.31
457.717	80.31
457.937	85.31
458.157	76.31
458.377	88.31
458.598	72.31
458.818	79.31
459.038	78.31
459.258	83.31
459.478	70.31
459.698	68.31
459.918	88.31
460.138	92.31
460.358	68.31
460.578	84.31
460.798	95.31
461.018	78.31
461.238	83.31
461.458	84.31
461.678	101.31
461.898	93.31
462.118	90.31
462.338	91.31
462.558	97.31
462.777	98.31
462.997	70.31
463.217	75.31
463.437	78.31
463.657	78.31
463.876	77.31
464.096	95.31
464.316	73.31
464.536	83.31
464.755	91.31
464.975	82.31
465.195	85.31
465.414	88.31
465.634	88.31
465.854	91.31
466.073	75.31
466.293	91.31
466.512	95.31
466.732	88.31
466.951	78.31
467.171	82.31
467.391	71.31
467.61	87.31
467.829	85.31
468.049	84.31
468.268	82.31
468.488	91.31
468.707	80.31
468.927	88.31
469.146	101.31
469.365	86.31
469.585	90.31
469.804	77.31
470.023	77.31
470.243	81.31
470.462	85.31
470.681	81.31
470.901	76.31
471.12	88.31
471.339	76.31
471.558	85.31
471.777	94.31
471.997	80.31
472.216	97.31
472.435	84.31
472.654	85.31
472.873	91.31
473.092	74.31
473.311	79.31
473.53	88.31
473.749	97.31
473.968	90.31
474.187	95.31
474.406	85.31
474.625	87.31
474.844	97.31
475.063	84.31
475.282	84.31
475.501	85.31
475.72	92.31
475.939	93.31
476.158	87.31
476.377	79.31
476.596	100.31
476.814	73.31
477.033	88.31
477.252	81.31
477.471	82.31
477.69	76.31
477.908	85.31
478.127	88.31
478.346	78.31
478.564	75.31
478.783	91.31
479.002	80.31
479.22	72.31
479.439	93.31
479.658	74.31
479.876	82.31
480.095	88.31
480.313	74.31
480.532	85.31
480.751	81.31
480.969	82.31
481.188	91.31
481.406	73.31
481.624	62.31
481.843	90.31
482.061	83.31
482.28	99.31
482.498	85.31
482.717	81.31
482.935	81.31
483.153	82.31
483.372	91.31
483.59	88.31
483.808	83.31
484.027	81.31
484.245	89.31
484.463	88.31
484.681	90.31
484.9	92.31
485.118	84.31
485.336	84.31
485.554	76.31
485.772	85.31
485.99	90.31
486.209	89.31
486.427	97.31
486.645	80.31
486.863	77.31
487.081	76.31
487.299	81.31
487.517	78.31
487.735	93.31
487.953	105.31
488.171	82.31
488.389	83.31
488.607	90.31
488.825	92.31
489.043	87.31
489.261	92.31
489.479	95.31
489.696	86.31
489.914	89.31
490.132	70.31
490.35	97.31
490.568	84.31
490.786	82.31
491.003	86.31
491.221	92.31
491.439	85.31
491.657	89.31
491.874	95.31
492.092	88.31
492.31	82.31
492.527	83.31
492.745	85.31
492.963	85.31
493.18	86.31
493.398	97.31
493.615	92.31
493.833	96.31
494.05	91.31
494.268	90.31
494.485	84.31
494.703	90.31
494.92	87.31
495.138	79.31
495.355	77.31
495.573	100.31
495.79	82.31
496.008	80.31
496.225	90.31
496.442	93.31
496.66	84.31
496.877	82.31
497.094	90.31
497.312	82.31
497.529	77.31
497.746	98.31
497.963	81.31
498.181	81.31
498.398	83.31
498.615	71.31
498.832	93.31
499.049	84.31
499.267	88.31
499.484	88.31
499.701	97.31
499.918	108.31
500.135	92.31
500.352	86.31
500.569	91.31
500.786	88.31
501.003	89.31
501.22	93.31
501.437	90.31
501.654	80.31
501.871	95.31
502.088	89.31
502.305	85.31
502.522	88.31
502.739	88.31
502.956	83.31
503.172	89.31
503.389	91.31
503.606	83.31
503.823	81.31
504.04	79.31
504.256	82.31
504.473	93.31
504.69	91.31
504.907	96.31
505.123	78.31
505.34	80.31
505.557	81.31
505.773	87.31
505.99	89.31
506.207	93.31
506.423	76.31
506.64	87.31
506.856	80.31
507.073	91.31
507.289	96.31
507.506	80.31
507.722	74.31
507.939	85.31
508.155	85.31
508.372	85.31
508.588	85.31
508.805	87.31
509.021	86.31
509.238	88.31
509.454	79.31
509.67	78.31
509.887	84.31
510.103	95.31
510.319	81.31
510.536	91.31
510.752	82.31
510.968	78.31
511.184	83.31
511.401	88.31
511.617	79.31
511.833	74.31
512.049	83.31
512.265	83.31
512.481	86.31
512.698	79.31
512.914	97.31
513.13	91.31
513.346	80.31
513.562	86.31
513.778	88.31
513.994	96.31
514.21	81.31
514.426	93.31
514.642	102.31
514.858	84.31
515.074	90.31
515.29	77.31
515.506	77.31
515.721	76.31
515.937	88.31
516.153	87.31
516.369	90.31
516.585	88.31
516.801	86.31
517.016	81.31
517.232	85.31
517.448	81.31
517.664	89.31
517.879	85.31
518.095	94.31
518.311	85.31
518.527	70.31
518.742	97.31
518.958	69.31
519.173	87.31
519.389	70.31
519.605	79.31
519.82	90.31
