Data from StdD_HRD10591_028.txt Node
Date: Fri May 16 15:31:35 EDT 2025
User: Yrep
Spectrometer: HR+D1059
Trigger mode: 1
Integration Time (sec): 1.000000E-1
Scans to average: 1
Electric dark correction enabled: true
Nonlinearity correction enabled: false
Boxcar width: 0
XAxis mode: Wavelengths
Number of Pixels in Spectrum: 2048
>>>>>Begin Spectral Data<<<<<
223.165	-18.5
223.4	-18.5
223.635	-18.5
223.869	-22.5
224.104	-14.5
224.338	-12.5
224.573	-13.5
224.808	-11.5
225.042	-2.5
225.277	12.5
225.511	-13.5
225.746	-5.5
225.98	11.5
226.215	17.5
226.449	6.5
226.683	18.5
226.918	21.5
227.152	26.5
227.387	51.5
227.621	30.5
227.856	46.5
228.09	50.5
228.324	59.5
228.559	61.5
228.793	54.5
229.027	51.5
229.262	68.5
229.496	63.5
229.73	74.5
229.964	72.5
230.199	75.5
230.433	78.5
230.667	74.5
230.901	74.5
231.136	93.5
231.37	79.5
231.604	81.5
231.838	75.5
232.072	83.5
232.306	64.5
232.541	73.5
232.775	79.5
233.009	83.5
233.243	84.5
233.477	89.5
233.711	90.5
233.945	81.5
234.179	79.5
234.413	101.5
234.647	75.5
234.881	83.5
235.115	77.5
235.349	75.5
235.583	85.5
235.817	88.5
236.051	64.5
236.285	77.5
236.519	77.5
236.753	72.5
236.987	66.5
237.221	74.5
237.455	73.5
237.689	89.5
237.922	88.5
238.156	81.5
238.39	83.5
238.624	66.5
238.858	74.5
239.091	72.5
239.325	85.5
239.559	78.5
239.793	55.5
240.027	75.5
240.26	75.5
240.494	76.5
240.728	72.5
240.961	83.5
241.195	86.5
241.429	88.5
241.662	75.5
241.896	73.5
242.13	73.5
242.363	77.5
242.597	74.5
242.83	84.5
243.064	78.5
243.298	85.5
243.531	76.5
243.765	70.5
243.998	89.5
244.232	69.5
244.465	78.5
244.699	81.5
244.932	79.5
245.166	82.5
245.399	75.5
245.633	75.5
245.866	75.5
246.099	74.5
246.333	73.5
246.566	72.5
246.8	80.5
247.033	93.5
247.266	79.5
247.5	92.5
247.733	80.5
247.966	79.5
248.2	93.5
248.433	83.5
248.666	94.5
248.899	87.5
249.133	86.5
249.366	91.5
249.599	87.5
249.832	101.5
250.066	80.5
250.299	80.5
250.532	83.5
250.765	79.5
250.998	88.5
251.231	89.5
251.465	84.5
251.698	81.5
251.931	83.5
252.164	85.5
252.397	76.5
252.63	83.5
252.863	91.5
253.096	92.5
253.329	89.5
253.562	82.5
253.795	90.5
254.028	88.5
254.261	76.5
254.494	85.5
254.727	82.5
254.96	67.5
255.193	81.5
255.426	88.5
255.659	75.5
255.892	93.5
256.124	88.5
256.357	81.5
256.59	79.5
256.823	65.5
257.056	91.5
257.289	91.5
257.521	73.5
257.754	83.5
257.987	69.5
258.22	100.5
258.452	92.5
258.685	73.5
258.918	87.5
259.151	76.5
259.383	74.5
259.616	86.5
259.849	81.5
260.081	91.5
260.314	74.5
260.547	93.5
260.779	70.5
261.012	83.5
261.244	76.5
261.477	88.5
261.71	85.5
261.942	94.5
262.175	91.5
262.407	94.5
262.64	88.5
262.872	74.5
263.105	71.5
263.337	80.5
263.57	87.5
263.802	85.5
264.035	74.5
264.267	96.5
264.499	94.5
264.732	100.5
264.964	85.5
265.197	90.5
265.429	89.5
265.661	81.5
265.894	97.5
266.126	92.5
266.358	80.5
266.591	83.5
266.823	81.5
267.055	89.5
267.287	72.5
267.52	81.5
267.752	77.5
267.984	81.5
268.216	88.5
268.448	84.5
268.681	87.5
268.913	91.5
269.145	96.5
269.377	90.5
269.609	91.5
269.841	86.5
270.073	82.5
270.306	72.5
270.538	80.5
270.77	76.5
271.002	77.5
271.234	78.5
271.466	89.5
271.698	78.5
271.93	93.5
272.162	85.5
272.394	84.5
272.626	65.5
272.858	76.5
273.09	84.5
273.322	91.5
273.553	88.5
273.785	76.5
274.017	84.5
274.249	91.5
274.481	77.5
274.713	88.5
274.945	83.5
275.176	93.5
275.408	73.5
275.64	89.5
275.872	80.5
276.104	96.5
276.335	78.5
276.567	90.5
276.799	91.5
277.031	76.5
277.262	96.5
277.494	82.5
277.726	90.5
277.957	88.5
278.189	91.5
278.421	81.5
278.652	80.5
278.884	88.5
279.115	81.5
279.347	95.5
279.579	80.5
279.81	90.5
280.042	99.5
280.273	85.5
280.505	77.5
280.736	89.5
280.968	75.5
281.199	81.5
281.431	78.5
281.662	91.5
281.894	95.5
282.125	89.5
282.356	86.5
282.588	84.5
282.819	84.5
283.051	87.5
283.282	89.5
283.513	76.5
283.745	77.5
283.976	68.5
284.207	86.5
284.439	78.5
284.67	89.5
284.901	96.5
285.132	89.5
285.364	85.5
285.595	90.5
285.826	88.5
286.057	93.5
286.288	83.5
286.52	81.5
286.751	82.5
286.982	94.5
287.213	89.5
287.444	84.5
287.675	90.5
287.906	81.5
288.138	70.5
288.369	85.5
288.6	82.5
288.831	75.5
289.062	76.5
289.293	97.5
289.524	85.5
289.755	75.5
289.986	77.5
290.217	85.5
290.448	91.5
290.679	91.5
290.91	83.5
291.141	82.5
291.371	99.5
291.602	105.5
291.833	97.5
292.064	80.5
292.295	72.5
292.526	81.5
292.757	83.5
292.987	97.5
293.218	91.5
293.449	78.5
293.68	82.5
293.91	90.5
294.141	80.5
294.372	81.5
294.603	100.5
294.833	81.5
295.064	88.5
295.295	90.5
295.525	82.5
295.756	84.5
295.987	77.5
296.217	98.5
296.448	91.5
296.679	79.5
296.909	96.5
297.14	97.5
297.37	101.5
297.601	90.5
297.831	89.5
298.062	84.5
298.292	89.5
298.523	86.5
298.753	82.5
298.984	96.5
299.214	75.5
299.445	102.5
299.675	95.5
299.905	92.5
300.136	88.5
300.366	86.5
300.597	92.5
300.827	84.5
301.057	82.5
301.288	95.5
301.518	84.5
301.748	77.5
301.979	86.5
302.209	82.5
302.439	77.5
302.669	77.5
302.9	92.5
303.13	79.5
303.36	78.5
303.59	85.5
303.82	72.5
304.051	77.5
304.281	97.5
304.511	84.5
304.741	94.5
304.971	98.5
305.201	81.5
305.431	94.5
305.661	89.5
305.891	80.5
306.121	87.5
306.352	77.5
306.582	84.5
306.812	89.5
307.042	86.5
307.272	89.5
307.502	93.5
307.731	92.5
307.961	85.5
308.191	76.5
308.421	90.5
308.651	89.5
308.881	96.5
309.111	89.5
309.341	98.5
309.571	106.5
309.8	94.5
310.03	93.5
310.26	88.5
310.49	91.5
310.72	91.5
310.949	78.5
311.179	96.5
311.409	72.5
311.639	92.5
311.868	91.5
312.098	97.5
312.328	77.5
312.557	70.5
312.787	87.5
313.017	89.5
313.246	90.5
313.476	86.5
313.706	101.5
313.935	90.5
314.165	81.5
314.394	93.5
314.624	99.5
314.853	88.5
315.083	89.5
315.312	92.5
315.542	83.5
315.771	81.5
316.001	93.5
316.23	69.5
316.46	83.5
316.689	94.5
316.919	89.5
317.148	98.5
317.377	88.5
317.607	84.5
317.836	74.5
318.065	86.5
318.295	76.5
318.524	77.5
318.753	98.5
318.983	93.5
319.212	97.5
319.441	71.5
319.67	86.5
319.9	87.5
320.129	90.5
320.358	88.5
320.587	82.5
320.816	82.5
321.046	98.5
321.275	92.5
321.504	91.5
321.733	95.5
321.962	88.5
322.191	100.5
322.42	77.5
322.649	90.5
322.878	81.5
323.108	77.5
323.337	95.5
323.566	100.5
323.795	96.5
324.024	84.5
324.253	88.5
324.482	101.5
324.71	100.5
324.939	82.5
325.168	80.5
325.397	79.5
325.626	77.5
325.855	78.5
326.084	87.5
326.313	92.5
326.542	80.5
326.77	80.5
326.999	77.5
327.228	84.5
327.457	76.5
327.686	80.5
327.914	84.5
328.143	81.5
328.372	90.5
328.6	72.5
328.829	68.5
329.058	90.5
329.287	72.5
329.515	74.5
329.744	81.5
329.972	100.5
330.201	105.5
330.43	86.5
330.658	97.5
330.887	70.5
331.115	76.5
331.344	79.5
331.572	104.5
331.801	74.5
332.03	97.5
332.258	78.5
332.486	89.5
332.715	90.5
332.943	83.5
333.172	71.5
333.4	68.5
333.629	96.5
333.857	98.5
334.085	87.5
334.314	84.5
334.542	83.5
334.771	82.5
334.999	88.5
335.227	86.5
335.455	85.5
335.684	85.5
335.912	91.5
336.14	80.5
336.369	83.5
336.597	85.5
336.825	105.5
337.053	91.5
337.281	92.5
337.51	78.5
337.738	84.5
337.966	88.5
338.194	96.5
338.422	92.5
338.65	81.5
338.878	102.5
339.106	78.5
339.334	84.5
339.562	92.5
339.79	90.5
340.018	95.5
340.246	80.5
340.474	88.5
340.702	78.5
340.93	78.5
341.158	81.5
341.386	93.5
341.614	89.5
341.842	94.5
342.07	85.5
342.298	91.5
342.526	88.5
342.754	86.5
342.981	81.5
343.209	92.5
343.437	104.5
343.665	84.5
343.893	83.5
344.12	106.5
344.348	80.5
344.576	84.5
344.804	73.5
345.031	92.5
345.259	69.5
345.487	89.5
345.714	92.5
345.942	86.5
346.17	85.5
346.397	80.5
346.625	84.5
346.853	84.5
347.08	86.5
347.308	95.5
347.535	85.5
347.763	78.5
347.99	76.5
348.218	90.5
348.445	88.5
348.673	81.5
348.9	66.5
349.128	78.5
349.355	88.5
349.583	95.5
349.81	91.5
350.037	90.5
350.265	79.5
350.492	89.5
350.72	71.5
350.947	81.5
351.174	87.5
351.402	81.5
351.629	88.5
351.856	85.5
352.083	71.5
352.311	86.5
352.538	89.5
352.765	96.5
352.992	89.5
353.22	94.5
353.447	74.5
353.674	113.5
353.901	88.5
354.128	88.5
354.355	84.5
354.583	87.5
354.81	77.5
355.037	90.5
355.264	78.5
355.491	80.5
355.718	92.5
355.945	89.5
356.172	99.5
356.399	88.5
356.626	94.5
356.853	80.5
357.08	98.5
357.307	80.5
357.534	80.5
357.761	88.5
357.988	105.5
358.215	101.5
358.441	90.5
358.668	95.5
358.895	87.5
359.122	82.5
359.349	85.5
359.576	80.5
359.802	80.5
360.029	84.5
360.256	88.5
360.483	93.5
360.709	83.5
360.936	84.5
361.163	74.5
361.39	82.5
361.616	78.5
361.843	78.5
362.07	82.5
362.296	84.5
362.523	82.5
362.749	75.5
362.976	79.5
363.203	85.5
363.429	70.5
363.656	77.5
363.882	88.5
364.109	89.5
364.335	92.5
364.562	94.5
364.788	84.5
365.015	90.5
365.241	82.5
365.468	96.5
365.694	92.5
365.92	105.5
366.147	95.5
366.373	83.5
366.599	79.5
366.826	82.5
367.052	73.5
367.278	89.5
367.505	79.5
367.731	83.5
367.957	84.5
368.184	73.5
368.41	88.5
368.636	86.5
368.862	100.5
369.089	80.5
369.315	84.5
369.541	77.5
369.767	95.5
369.993	79.5
370.219	99.5
370.445	87.5
370.672	78.5
370.898	85.5
371.124	78.5
371.35	83.5
371.576	88.5
371.802	96.5
372.028	81.5
372.254	84.5
372.48	88.5
372.706	84.5
372.932	71.5
373.158	78.5
373.384	91.5
373.61	83.5
373.835	81.5
374.061	82.5
374.287	84.5
374.513	90.5
374.739	91.5
374.965	90.5
375.191	76.5
375.416	86.5
375.642	90.5
375.868	92.5
376.094	87.5
376.319	92.5
376.545	82.5
376.771	82.5
376.997	86.5
377.222	81.5
377.448	77.5
377.674	86.5
377.899	88.5
378.125	88.5
378.35	88.5
378.576	88.5
378.802	73.5
379.027	76.5
379.253	85.5
379.478	87.5
379.704	92.5
379.929	89.5
380.155	84.5
380.38	78.5
380.606	90.5
380.831	99.5
381.057	91.5
381.282	89.5
381.507	88.5
381.733	73.5
381.958	86.5
382.184	76.5
382.409	86.5
382.634	70.5
382.86	76.5
383.085	93.5
383.31	68.5
383.535	77.5
383.761	80.5
383.986	80.5
384.211	84.5
384.436	97.5
384.662	86.5
384.887	78.5
385.112	89.5
385.337	97.5
385.562	86.5
385.787	80.5
386.013	83.5
386.238	83.5
386.463	91.5
386.688	114.5
386.913	93.5
387.138	93.5
387.363	91.5
387.588	84.5
387.813	81.5
388.038	88.5
388.263	90.5
388.488	96.5
388.713	82.5
388.938	79.5
389.163	92.5
389.387	84.5
389.612	85.5
389.837	80.5
390.062	84.5
390.287	99.5
390.512	92.5
390.736	77.5
390.961	93.5
391.186	86.5
391.411	93.5
391.636	82.5
391.86	64.5
392.085	83.5
392.31	99.5
392.534	77.5
392.759	82.5
392.984	90.5
393.208	83.5
393.433	83.5
393.658	78.5
393.882	80.5
394.107	95.5
394.331	82.5
394.556	76.5
394.78	83.5
395.005	88.5
395.229	89.5
395.454	92.5
395.678	74.5
395.903	101.5
396.127	90.5
396.352	94.5
396.576	93.5
396.801	83.5
397.025	80.5
397.249	90.5
397.474	102.5
397.698	82.5
397.922	101.5
398.147	91.5
398.371	79.5
398.595	88.5
398.82	85.5
399.044	81.5
399.268	91.5
399.492	67.5
399.717	84.5
399.941	81.5
400.165	85.5
400.389	99.5
400.613	93.5
400.837	85.5
401.062	93.5
401.286	91.5
401.51	89.5
401.734	75.5
401.958	86.5
402.182	78.5
402.406	80.5
402.63	91.5
402.854	76.5
403.078	73.5
403.302	90.5
403.526	89.5
403.75	87.5
403.974	81.5
404.198	87.5
404.422	86.5
404.645	79.5
404.869	80.5
405.093	85.5
405.317	75.5
405.541	96.5
405.765	98.5
405.988	93.5
406.212	77.5
406.436	90.5
406.66	98.5
406.883	81.5
407.107	90.5
407.331	76.5
407.555	81.5
407.778	80.5
408.002	86.5
408.226	85.5
408.449	78.5
408.673	75.5
408.896	91.5
409.12	88.5
409.344	86.5
409.567	92.5
409.791	83.5
410.014	85.5
410.238	91.5
410.461	81.5
410.685	96.5
410.908	98.5
411.132	83.5
411.355	85.5
411.578	84.5
411.802	97.5
412.025	74.5
412.249	82.5
412.472	80.5
412.695	77.5
412.919	85.5
413.142	94.5
413.365	101.5
413.589	84.5
413.812	85.5
414.035	86.5
414.258	93.5
414.482	91.5
414.705	98.5
414.928	88.5
415.151	85.5
415.374	74.5
415.597	91.5
415.821	76.5
416.044	78.5
416.267	78.5
416.49	92.5
416.713	71.5
416.936	102.5
417.159	88.5
417.382	86.5
417.605	69.5
417.828	89.5
418.051	79.5
418.274	104.5
418.497	78.5
418.72	96.5
418.943	100.5
419.166	92.5
419.389	77.5
419.611	85.5
419.834	84.5
420.057	88.5
420.28	76.5
420.503	90.5
420.726	78.5
420.948	77.5
421.171	86.5
421.394	82.5
421.617	94.5
421.839	80.5
422.062	92.5
422.285	99.5
422.507	88.5
422.73	72.5
422.953	93.5
423.175	80.5
423.398	77.5
423.621	75.5
423.843	83.5
424.066	85.5
424.288	98.5
424.511	93.5
424.733	76.5
424.956	90.5
425.178	87.5
425.401	71.5
425.623	83.5
425.846	82.5
426.068	100.5
426.291	85.5
426.513	78.5
426.735	93.5
426.958	100.5
427.18	84.5
427.402	69.5
427.625	82.5
427.847	83.5
428.069	84.5
428.292	91.5
428.514	76.5
428.736	84.5
428.958	87.5
429.181	85.5
429.403	71.5
429.625	88.5
429.847	84.5
430.069	85.5
430.292	91.5
430.514	80.5
430.736	88.5
430.958	70.5
431.18	68.5
431.402	69.5
431.624	88.5
431.846	78.5
432.068	77.5
432.29	78.5
432.512	78.5
432.734	70.5
432.956	86.5
433.178	92.5
433.4	94.5
433.622	95.5
433.844	83.5
434.066	77.5
434.287	91.5
434.509	85.5
434.731	76.5
434.953	87.5
435.175	74.5
435.397	74.5
435.618	91.5
435.84	72.5
436.062	82.5
436.284	85.5
436.505	89.5
436.727	89.5
436.949	92.5
437.17	80.5
437.392	81.5
437.614	80.5
437.835	78.5
438.057	88.5
438.278	76.5
438.5	86.5
438.721	91.5
438.943	88.5
439.165	91.5
439.386	85.5
439.608	81.5
439.829	78.5
440.05	92.5
440.272	83.5
440.493	88.5
440.715	83.5
440.936	94.5
441.158	84.5
441.379	81.5
441.6	88.5
441.822	80.5
442.043	80.5
442.264	86.5
442.486	84.5
442.707	71.5
442.928	95.5
443.149	78.5
443.371	61.5
443.592	90.5
443.813	85.5
444.034	85.5
444.255	88.5
444.476	90.5
444.698	75.5
444.919	83.5
445.14	172.5
445.361	121.5
445.582	80.5
445.803	76.5
446.024	84.5
446.245	77.5
446.466	81.5
446.687	96.5
446.908	76.5
447.129	87.5
447.35	86.5
447.571	90.5
447.792	76.5
448.013	77.5
448.234	75.5
448.455	84.5
448.675	91.5
448.896	78.5
449.117	81.5
449.338	68.5
449.559	78.5
449.779	82.5
450	97.5
450.221	77.5
450.442	79.5
450.662	93.5
450.883	80.5
451.104	84.5
451.324	92.5
451.545	87.5
451.766	74.5
451.986	81.5
452.207	95.5
452.428	97.5
452.648	86.5
452.869	83.5
453.089	84.5
453.31	71.5
453.53	80.5
453.751	77.5
453.971	81.5
454.192	82.5
454.412	76.5
454.633	86.5
454.853	90.5
455.073	90.5
455.294	82.5
455.514	79.5
455.734	91.5
455.955	89.5
456.175	91.5
456.395	86.5
456.616	70.5
456.836	88.5
457.056	70.5
457.276	85.5
457.497	80.5
457.717	74.5
457.937	78.5
458.157	70.5
458.377	90.5
458.598	79.5
458.818	88.5
459.038	73.5
459.258	78.5
459.478	89.5
459.698	81.5
459.918	83.5
460.138	80.5
460.358	86.5
460.578	101.5
460.798	75.5
461.018	91.5
461.238	96.5
461.458	75.5
461.678	81.5
461.898	78.5
462.118	82.5
462.338	87.5
462.558	80.5
462.777	79.5
462.997	101.5
463.217	74.5
463.437	85.5
463.657	83.5
463.876	77.5
464.096	82.5
464.316	85.5
464.536	92.5
464.755	97.5
464.975	98.5
465.195	84.5
465.414	85.5
465.634	80.5
465.854	84.5
466.073	94.5
466.293	88.5
466.512	78.5
466.732	88.5
466.951	74.5
467.171	78.5
467.391	89.5
467.61	90.5
467.829	88.5
468.049	91.5
468.268	94.5
468.488	72.5
468.707	75.5
468.927	82.5
469.146	70.5
469.365	79.5
469.585	84.5
469.804	79.5
470.023	83.5
470.243	84.5
470.462	91.5
470.681	67.5
470.901	95.5
471.12	80.5
471.339	82.5
471.558	100.5
471.777	83.5
471.997	81.5
472.216	89.5
472.435	78.5
472.654	89.5
472.873	91.5
473.092	90.5
473.311	101.5
473.53	98.5
473.749	90.5
473.968	89.5
474.187	92.5
474.406	83.5
474.625	95.5
474.844	83.5
475.063	80.5
475.282	85.5
475.501	91.5
475.72	94.5
475.939	88.5
476.158	84.5
476.377	91.5
476.596	77.5
476.814	84.5
477.033	80.5
477.252	85.5
477.471	77.5
477.69	84.5
477.908	89.5
478.127	90.5
478.346	73.5
478.564	76.5
478.783	92.5
479.002	88.5
479.22	83.5
479.439	83.5
479.658	98.5
479.876	91.5
480.095	76.5
480.313	82.5
480.532	83.5
480.751	88.5
480.969	77.5
481.188	81.5
481.406	65.5
481.624	87.5
481.843	71.5
482.061	84.5
482.28	89.5
482.498	86.5
482.717	94.5
482.935	84.5
483.153	84.5
483.372	85.5
483.59	80.5
483.808	92.5
484.027	84.5
484.245	88.5
484.463	79.5
484.681	77.5
484.9	92.5
485.118	81.5
485.336	85.5
485.554	92.5
485.772	85.5
485.99	94.5
486.209	73.5
486.427	80.5
486.645	85.5
486.863	83.5
487.081	78.5
487.299	88.5
487.517	109.5
487.735	85.5
487.953	81.5
488.171	84.5
488.389	90.5
488.607	88.5
488.825	86.5
489.043	84.5
489.261	81.5
489.479	96.5
489.696	90.5
489.914	82.5
490.132	91.5
490.35	98.5
490.568	96.5
490.786	80.5
491.003	89.5
491.221	84.5
491.439	93.5
491.657	90.5
491.874	94.5
492.092	116.5
492.31	74.5
492.527	84.5
492.745	92.5
492.963	90.5
493.18	80.5
493.398	88.5
493.615	93.5
493.833	80.5
494.05	96.5
494.268	92.5
494.485	83.5
494.703	94.5
494.92	90.5
495.138	83.5
495.355	89.5
495.573	100.5
495.79	95.5
496.008	86.5
496.225	80.5
496.442	95.5
496.66	99.5
496.877	89.5
497.094	89.5
497.312	80.5
497.529	88.5
497.746	74.5
497.963	88.5
498.181	74.5
498.398	81.5
498.615	86.5
498.832	88.5
499.049	84.5
499.267	73.5
499.484	89.5
499.701	76.5
499.918	85.5
500.135	82.5
500.352	73.5
500.569	77.5
500.786	78.5
501.003	77.5
501.22	93.5
501.437	84.5
501.654	80.5
501.871	88.5
502.088	80.5
502.305	86.5
502.522	85.5
502.739	85.5
502.956	88.5
503.172	75.5
503.389	87.5
503.606	91.5
503.823	81.5
504.04	96.5
504.256	96.5
504.473	80.5
504.69	83.5
504.907	74.5
505.123	96.5
505.34	97.5
505.557	84.5
505.773	83.5
505.99	87.5
506.207	80.5
506.423	84.5
506.64	88.5
506.856	83.5
507.073	95.5
507.289	86.5
507.506	85.5
507.722	83.5
507.939	93.5
508.155	82.5
508.372	76.5
508.588	99.5
508.805	87.5
509.021	68.5
509.238	86.5
509.454	90.5
509.67	78.5
509.887	98.5
510.103	86.5
510.319	73.5
510.536	84.5
510.752	86.5
510.968	77.5
511.184	92.5
511.401	90.5
511.617	85.5
511.833	88.5
512.049	95.5
512.265	80.5
512.481	91.5
512.698	90.5
512.914	79.5
513.13	88.5
513.346	73.5
513.562	89.5
513.778	85.5
513.994	87.5
514.21	86.5
514.426	85.5
514.642	69.5
514.858	86.5
515.074	101.5
515.29	98.5
515.506	92.5
515.721	67.5
515.937	83.5
516.153	101.5
516.369	85.5
516.585	82.5
516.801	68.5
517.016	74.5
517.232	85.5
517.448	75.5
517.664	70.5
517.879	80.5
518.095	85.5
518.311	79.5
518.527	90.5
518.742	84.5
518.958	94.5
519.173	85.5
519.389	80.5
519.605	91.5
519.82	76.5
520.036	82.5
520.251	69.5
520.467	94.5
520.682	105.5
520.898	97.5
521.113	88.5
521.329	85.5
521.544	82.5
521.76	85.5
521.975	97.5
522.19	82.5
522.406	93.5
522.621	87.5
522.836	83.5
523.052	70.5
523.267	71.5
523.482	85.5
523.698	90.5
523.913	93.5
524.128	93.5
524.343	93.5
524.559	99.5
524.774	89.5
524.989	86.5
525.204	98.5
525.419	69.5
525.634	92.5
525.849	87.5
526.064	80.5
526.28	106.5
526.495	70.5
526.71	97.5
526.925	86.5
527.14	81.5
527.355	85.5
527.57	92.5
527.785	90.5
527.999	99.5
528.214	89.5
528.429	91.5
528.644	86.5
528.859	69.5
529.074	85.5
529.289	78.5
529.503	86.5
529.718	84.5
529.933	88.5
530.148	85.5
530.363	92.5
530.577	89.5
530.792	86.5
531.007	84.5
531.221	92.5
531.436	89.5
531.651	68.5
531.865	84.5
532.08	72.5
532.295	84.5
532.509	86.5
532.724	81.5
532.938	79.5
533.153	69.5
533.367	94.5
533.582	73.5
533.796	93.5
534.011	72.5
534.225	72.5
534.44	69.5
534.654	78.5
534.868	91.5
535.083	89.5
535.297	70.5
535.511	82.5
535.726	93.5
535.94	88.5
536.154	80.5
536.369	81.5
536.583	86.5
536.797	92.5
537.011	102.5
537.225	80.5
537.44	79.5
537.654	76.5
537.868	70.5
538.082	97.5
538.296	90.5
538.51	102.5
538.724	88.5
538.938	84.5
539.153	88.5
539.367	86.5
539.581	87.5
539.795	98.5
540.009	89.5
