Data from StdD_HRD10591_004.txt Node
Date: Fri May 16 15:31:23 EDT 2025
User: Yrep
Spectrometer: HR+D1059
Trigger mode: 1
Integration Time (sec): 1.000000E-1
Scans to average: 1
Electric dark correction enabled: true
Nonlinearity correction enabled: false
Boxcar width: 0
XAxis mode: Wavelengths
Number of Pixels in Spectrum: 2048
>>>>>Begin Spectral Data<<<<<
223.165	-16.19
223.4	-16.19
223.635	-16.19
223.869	-19.19
224.104	-14.19
224.338	-22.19
224.573	-20.19
224.808	-8.19
225.042	-7.19
225.277	3.81
225.511	-8.19
225.746	1.81
225.98	11.81
226.215	10.81
226.449	10.81
226.683	12.81
226.918	28.81
227.152	34.81
227.387	28.81
227.621	39.81
227.856	37.81
228.09	37.81
228.324	47.81
228.559	40.81
228.793	59.81
229.027	72.81
229.262	63.81
229.496	83.81
229.73	67.81
229.964	79.81
230.199	69.81
230.433	66.81
230.667	74.81
230.901	85.81
231.136	69.81
231.37	73.81
231.604	75.81
231.838	75.81
232.072	73.81
232.306	63.81
232.541	77.81
232.775	81.81
233.009	77.81
233.243	81.81
233.477	84.81
233.711	81.81
233.945	71.81
234.179	81.81
234.413	79.81
234.647	64.81
234.881	76.81
235.115	80.81
235.349	75.81
235.583	75.81
235.817	82.81
236.051	67.81
236.285	74.81
236.519	78.81
236.753	56.81
236.987	78.81
237.221	73.81
237.455	75.81
237.689	68.81
237.922	66.81
238.156	74.81
238.39	72.81
238.624	62.81
238.858	72.81
239.091	75.81
239.325	76.81
239.559	68.81
239.793	86.81
240.027	81.81
240.26	53.81
240.494	74.81
240.728	71.81
240.961	67.81
241.195	75.81
241.429	83.81
241.662	71.81
241.896	74.81
242.13	67.81
242.363	57.81
242.597	65.81
242.83	62.81
243.064	65.81
243.298	75.81
243.531	75.81
243.765	62.81
243.998	69.81
244.232	76.81
244.465	80.81
244.699	68.81
244.932	62.81
245.166	62.81
245.399	66.81
245.633	66.81
245.866	75.81
246.099	68.81
246.333	77.81
246.566	50.81
246.8	71.81
247.033	54.81
247.266	79.81
247.5	84.81
247.733	93.81
247.966	75.81
248.2	77.81
248.433	68.81
248.666	83.81
248.899	93.81
249.133	77.81
249.366	62.81
249.599	78.81
249.832	60.81
250.066	86.81
250.299	83.81
250.532	78.81
250.765	67.81
250.998	84.81
251.231	62.81
251.465	68.81
251.698	68.81
251.931	81.81
252.164	53.81
252.397	85.81
252.63	88.81
252.863	64.81
253.096	81.81
253.329	78.81
253.562	73.81
253.795	77.81
254.028	62.81
254.261	78.81
254.494	75.81
254.727	83.81
254.96	79.81
255.193	73.81
255.426	84.81
255.659	75.81
255.892	76.81
256.124	91.81
256.357	91.81
256.59	97.81
256.823	74.81
257.056	79.81
257.289	78.81
257.521	72.81
257.754	69.81
257.987	86.81
258.22	69.81
258.452	77.81
258.685	95.81
258.918	82.81
259.151	93.81
259.383	72.81
259.616	82.81
259.849	67.81
260.081	87.81
260.314	84.81
260.547	71.81
260.779	80.81
261.012	80.81
261.244	86.81
261.477	67.81
261.71	77.81
261.942	63.81
262.175	75.81
262.407	74.81
262.64	70.81
262.872	74.81
263.105	90.81
263.337	77.81
263.57	93.81
263.802	74.81
264.035	71.81
264.267	84.81
264.499	91.81
264.732	76.81
264.964	81.81
265.197	81.81
265.429	86.81
265.661	71.81
265.894	77.81
266.126	85.81
266.358	79.81
266.591	71.81
266.823	86.81
267.055	75.81
267.287	76.81
267.52	56.81
267.752	83.81
267.984	69.81
268.216	65.81
268.448	82.81
268.681	83.81
268.913	66.81
269.145	84.81
269.377	80.81
269.609	75.81
269.841	78.81
270.073	92.81
270.306	87.81
270.538	76.81
270.77	77.81
271.002	86.81
271.234	75.81
271.466	84.81
271.698	70.81
271.93	75.81
272.162	82.81
272.394	77.81
272.626	73.81
272.858	79.81
273.09	70.81
273.322	76.81
273.553	79.81
273.785	79.81
274.017	79.81
274.249	79.81
274.481	78.81
274.713	85.81
274.945	81.81
275.176	82.81
275.408	75.81
275.64	87.81
275.872	86.81
276.104	59.81
276.335	73.81
276.567	76.81
276.799	71.81
277.031	82.81
277.262	82.81
277.494	94.81
277.726	95.81
277.957	73.81
278.189	59.81
278.421	79.81
278.652	91.81
278.884	79.81
279.115	95.81
279.347	69.81
279.579	101.81
279.81	88.81
280.042	84.81
280.273	68.81
280.505	65.81
280.736	84.81
280.968	87.81
281.199	89.81
281.431	72.81
281.662	78.81
281.894	92.81
282.125	68.81
282.356	74.81
282.588	73.81
282.819	85.81
283.051	92.81
283.282	92.81
283.513	71.81
283.745	85.81
283.976	82.81
284.207	85.81
284.439	73.81
284.67	93.81
284.901	69.81
285.132	82.81
285.364	91.81
285.595	94.81
285.826	93.81
286.057	81.81
286.288	81.81
286.52	81.81
286.751	91.81
286.982	85.81
287.213	87.81
287.444	76.81
287.675	83.81
287.906	90.81
288.138	81.81
288.369	86.81
288.6	89.81
288.831	84.81
289.062	89.81
289.293	93.81
289.524	98.81
289.755	81.81
289.986	69.81
290.217	79.81
290.448	67.81
290.679	83.81
290.91	84.81
291.141	86.81
291.371	93.81
291.602	78.81
291.833	86.81
292.064	82.81
292.295	68.81
292.526	83.81
292.757	69.81
292.987	85.81
293.218	78.81
293.449	67.81
293.68	82.81
293.91	82.81
294.141	73.81
294.372	75.81
294.603	62.81
294.833	78.81
295.064	83.81
295.295	85.81
295.525	67.81
295.756	76.81
295.987	78.81
296.217	71.81
296.448	77.81
296.679	94.81
296.909	82.81
297.14	78.81
297.37	89.81
297.601	85.81
297.831	84.81
298.062	91.81
298.292	85.81
298.523	80.81
298.753	78.81
298.984	74.81
299.214	86.81
299.445	81.81
299.675	81.81
299.905	88.81
300.136	84.81
300.366	89.81
300.597	83.81
300.827	81.81
301.057	78.81
301.288	83.81
301.518	86.81
301.748	89.81
301.979	92.81
302.209	87.81
302.439	70.81
302.669	71.81
302.9	74.81
303.13	74.81
303.36	89.81
303.59	70.81
303.82	85.81
304.051	78.81
304.281	82.81
304.511	74.81
304.741	74.81
304.971	74.81
305.201	76.81
305.431	77.81
305.661	84.81
305.891	71.81
306.121	75.81
306.352	95.81
306.582	85.81
306.812	82.81
307.042	69.81
307.272	72.81
307.502	82.81
307.731	93.81
307.961	71.81
308.191	75.81
308.421	87.81
308.651	77.81
308.881	86.81
309.111	92.81
309.341	82.81
309.571	83.81
309.8	88.81
310.03	85.81
310.26	89.81
310.49	75.81
310.72	85.81
310.949	70.81
311.179	82.81
311.409	69.81
311.639	76.81
311.868	86.81
312.098	83.81
312.328	73.81
312.557	78.81
312.787	87.81
313.017	74.81
313.246	95.81
313.476	100.81
313.706	84.81
313.935	74.81
314.165	75.81
314.394	83.81
314.624	86.81
314.853	80.81
315.083	78.81
315.312	86.81
315.542	87.81
315.771	73.81
316.001	77.81
316.23	86.81
316.46	64.81
316.689	85.81
316.919	91.81
317.148	86.81
317.377	88.81
317.607	82.81
317.836	71.81
318.065	81.81
318.295	78.81
318.524	89.81
318.753	91.81
318.983	64.81
319.212	80.81
319.441	78.81
319.67	88.81
319.9	77.81
320.129	71.81
320.358	83.81
320.587	83.81
320.816	81.81
321.046	90.81
321.275	87.81
321.504	72.81
321.733	81.81
321.962	81.81
322.191	74.81
322.42	71.81
322.649	81.81
322.878	94.81
323.108	68.81
323.337	90.81
323.566	86.81
323.795	66.81
324.024	81.81
324.253	76.81
324.482	76.81
324.71	89.81
324.939	84.81
325.168	97.81
325.397	78.81
325.626	87.81
325.855	93.81
326.084	76.81
326.313	81.81
326.542	85.81
326.77	79.81
326.999	77.81
327.228	84.81
327.457	81.81
327.686	73.81
327.914	85.81
328.143	91.81
328.372	83.81
328.6	64.81
328.829	78.81
329.058	81.81
329.287	78.81
329.515	77.81
329.744	92.81
329.972	82.81
330.201	75.81
330.43	102.81
330.658	85.81
330.887	87.81
331.115	70.81
331.344	69.81
331.572	77.81
331.801	77.81
332.03	79.81
332.258	91.81
332.486	68.81
332.715	90.81
332.943	69.81
333.172	81.81
333.4	81.81
333.629	71.81
333.857	85.81
334.085	86.81
334.314	73.81
334.542	67.81
334.771	77.81
334.999	76.81
335.227	91.81
335.455	79.81
335.684	84.81
335.912	79.81
336.14	98.81
336.369	71.81
336.597	79.81
336.825	76.81
337.053	69.81
337.281	73.81
337.51	63.81
337.738	85.81
337.966	88.81
338.194	88.81
338.422	79.81
338.65	78.81
338.878	76.81
339.106	79.81
339.334	89.81
339.562	78.81
339.79	84.81
340.018	84.81
340.246	86.81
340.474	88.81
340.702	90.81
340.93	86.81
341.158	92.81
341.386	82.81
341.614	75.81
341.842	69.81
342.07	75.81
342.298	83.81
342.526	79.81
342.754	84.81
342.981	86.81
343.209	78.81
343.437	98.81
343.665	81.81
343.893	69.81
344.12	93.81
344.348	69.81
344.576	81.81
344.804	86.81
345.031	80.81
345.259	75.81
345.487	89.81
345.714	81.81
345.942	63.81
346.17	85.81
346.397	93.81
346.625	74.81
346.853	79.81
347.08	81.81
347.308	91.81
347.535	85.81
347.763	79.81
347.99	78.81
348.218	90.81
348.445	79.81
348.673	79.81
348.9	81.81
349.128	81.81
349.355	72.81
349.583	86.81
349.81	73.81
350.037	73.81
350.265	87.81
350.492	85.81
350.72	61.81
350.947	83.81
351.174	89.81
351.402	83.81
351.629	71.81
351.856	87.81
352.083	86.81
352.311	74.81
352.538	71.81
352.765	82.81
352.992	92.81
353.22	86.81
353.447	96.81
353.674	83.81
353.901	82.81
354.128	85.81
354.355	79.81
354.583	76.81
354.81	80.81
355.037	78.81
355.264	83.81
355.491	76.81
355.718	101.81
355.945	90.81
356.172	69.81
356.399	86.81
356.626	80.81
356.853	83.81
357.08	68.81
357.307	77.81
357.534	89.81
357.761	84.81
357.988	87.81
358.215	79.81
358.441	79.81
358.668	89.81
358.895	80.81
359.122	72.81
359.349	74.81
359.576	68.81
359.802	57.81
360.029	73.81
360.256	92.81
360.483	79.81
360.709	79.81
360.936	79.81
361.163	75.81
361.39	92.81
361.616	72.81
361.843	89.81
362.07	72.81
362.296	84.81
362.523	74.81
362.749	67.81
362.976	81.81
363.203	82.81
363.429	72.81
363.656	77.81
363.882	82.81
364.109	69.81
364.335	81.81
364.562	73.81
364.788	88.81
365.015	91.81
365.241	80.81
365.468	65.81
365.694	76.81
365.92	70.81
366.147	74.81
366.373	83.81
366.599	83.81
366.826	77.81
367.052	68.81
367.278	75.81
367.505	91.81
367.731	95.81
367.957	67.81
368.184	68.81
368.41	74.81
368.636	79.81
368.862	90.81
369.089	86.81
369.315	85.81
369.541	83.81
369.767	86.81
369.993	72.81
370.219	83.81
370.445	80.81
370.672	76.81
370.898	74.81
371.124	74.81
371.35	73.81
371.576	75.81
371.802	63.81
372.028	82.81
372.254	79.81
372.48	69.81
372.706	80.81
372.932	69.81
373.158	81.81
373.384	85.81
373.61	84.81
373.835	85.81
374.061	67.81
374.287	70.81
374.513	85.81
374.739	78.81
374.965	94.81
375.191	82.81
375.416	64.81
375.642	75.81
375.868	79.81
376.094	79.81
376.319	86.81
376.545	72.81
376.771	80.81
376.997	89.81
377.222	74.81
377.448	79.81
377.674	71.81
377.899	76.81
378.125	71.81
378.35	95.81
378.576	89.81
378.802	82.81
379.027	94.81
379.253	83.81
379.478	76.81
379.704	65.81
379.929	79.81
380.155	77.81
380.38	91.81
380.606	70.81
380.831	85.81
381.057	90.81
381.282	83.81
381.507	83.81
381.733	76.81
381.958	91.81
382.184	81.81
382.409	72.81
382.634	89.81
382.86	83.81
383.085	69.81
383.31	86.81
383.535	88.81
383.761	87.81
383.986	92.81
384.211	81.81
384.436	92.81
384.662	66.81
384.887	92.81
385.112	67.81
385.337	85.81
385.562	85.81
385.787	74.81
386.013	85.81
386.238	84.81
386.463	90.81
386.688	94.81
386.913	81.81
387.138	83.81
387.363	84.81
387.588	75.81
387.813	71.81
388.038	78.81
388.263	86.81
388.488	79.81
388.713	83.81
388.938	77.81
389.163	73.81
389.387	78.81
389.612	77.81
389.837	86.81
390.062	77.81
390.287	59.81
390.512	77.81
390.736	73.81
390.961	81.81
391.186	81.81
391.411	64.81
391.636	78.81
391.86	85.81
392.085	74.81
392.31	77.81
392.534	69.81
392.759	83.81
392.984	81.81
393.208	91.81
393.433	94.81
393.658	84.81
393.882	78.81
394.107	78.81
394.331	62.81
394.556	84.81
394.78	78.81
395.005	90.81
395.229	81.81
395.454	99.81
395.678	76.81
395.903	79.81
396.127	99.81
396.352	73.81
396.576	77.81
396.801	82.81
397.025	75.81
397.249	83.81
397.474	85.81
397.698	77.81
397.922	64.81
398.147	87.81
398.371	76.81
398.595	72.81
398.82	78.81
399.044	78.81
399.268	84.81
399.492	84.81
399.717	79.81
399.941	93.81
400.165	73.81
400.389	96.81
400.613	78.81
400.837	74.81
401.062	86.81
401.286	78.81
401.51	75.81
401.734	81.81
401.958	79.81
402.182	79.81
402.406	85.81
402.63	77.81
402.854	78.81
403.078	84.81
403.302	75.81
403.526	89.81
403.75	78.81
403.974	75.81
404.198	81.81
404.422	57.81
404.645	78.81
404.869	78.81
405.093	73.81
405.317	76.81
405.541	92.81
405.765	92.81
405.988	94.81
406.212	85.81
406.436	81.81
406.66	82.81
406.883	63.81
407.107	79.81
407.331	77.81
407.555	78.81
407.778	91.81
408.002	72.81
408.226	74.81
408.449	77.81
408.673	83.81
408.896	87.81
409.12	80.81
409.344	70.81
409.567	82.81
409.791	53.81
410.014	85.81
410.238	85.81
410.461	65.81
410.685	74.81
410.908	89.81
411.132	78.81
411.355	76.81
411.578	88.81
411.802	84.81
412.025	61.81
412.249	78.81
412.472	86.81
412.695	86.81
412.919	85.81
413.142	89.81
413.365	73.81
413.589	66.81
413.812	69.81
414.035	86.81
414.258	87.81
414.482	69.81
414.705	81.81
414.928	87.81
415.151	90.81
415.374	81.81
415.597	78.81
415.821	89.81
416.044	85.81
416.267	74.81
416.49	73.81
416.713	84.81
416.936	71.81
417.159	76.81
417.382	73.81
417.605	90.81
417.828	91.81
418.051	84.81
418.274	95.81
418.497	75.81
418.72	86.81
418.943	71.81
419.166	77.81
419.389	86.81
419.611	84.81
419.834	76.81
420.057	75.81
420.28	90.81
420.503	72.81
420.726	76.81
420.948	70.81
421.171	78.81
421.394	79.81
421.617	87.81
421.839	86.81
422.062	78.81
422.285	83.81
422.507	82.81
422.73	75.81
422.953	78.81
423.175	72.81
423.398	84.81
423.621	91.81
423.843	83.81
424.066	71.81
424.288	87.81
424.511	65.81
424.733	69.81
424.956	73.81
425.178	84.81
425.401	71.81
425.623	73.81
425.846	73.81
426.068	69.81
426.291	72.81
426.513	79.81
426.735	75.81
426.958	82.81
427.18	80.81
427.402	83.81
427.625	78.81
427.847	86.81
428.069	79.81
428.292	93.81
428.514	75.81
428.736	85.81
428.958	86.81
429.181	69.81
429.403	81.81
429.625	72.81
429.847	82.81
430.069	71.81
430.292	89.81
430.514	77.81
430.736	82.81
430.958	88.81
431.18	82.81
431.402	73.81
431.624	75.81
431.846	67.81
432.068	74.81
432.29	80.81
432.512	72.81
432.734	82.81
432.956	79.81
433.178	81.81
433.4	86.81
433.622	100.81
433.844	79.81
434.066	83.81
434.287	67.81
434.509	83.81
434.731	71.81
434.953	75.81
435.175	74.81
435.397	84.81
435.618	79.81
435.84	85.81
436.062	64.81
436.284	83.81
436.505	61.81
436.727	73.81
436.949	73.81
437.17	77.81
437.392	73.81
437.614	77.81
437.835	74.81
438.057	85.81
438.278	89.81
438.5	81.81
438.721	81.81
438.943	81.81
439.165	82.81
439.386	70.81
439.608	87.81
439.829	83.81
440.05	81.81
440.272	92.81
440.493	85.81
440.715	86.81
440.936	83.81
441.158	77.81
441.379	77.81
441.6	81.81
441.822	78.81
442.043	71.81
442.264	76.81
442.486	77.81
442.707	84.81
442.928	79.81
443.149	66.81
443.371	74.81
443.592	82.81
443.813	87.81
444.034	70.81
444.255	79.81
444.476	73.81
444.698	85.81
444.919	81.81
445.14	159.81
445.361	121.81
445.582	81.81
445.803	85.81
446.024	68.81
446.245	93.81
446.466	73.81
446.687	81.81
446.908	78.81
447.129	92.81
447.35	71.81
447.571	80.81
447.792	66.81
448.013	71.81
448.234	66.81
448.455	78.81
448.675	81.81
448.896	78.81
449.117	75.81
449.338	73.81
449.559	81.81
449.779	76.81
450	67.81
450.221	85.81
450.442	86.81
450.662	77.81
450.883	81.81
451.104	84.81
451.324	93.81
451.545	74.81
451.766	69.81
451.986	81.81
452.207	84.81
452.428	77.81
452.648	89.81
452.869	82.81
453.089	77.81
453.31	89.81
453.53	81.81
453.751	69.81
453.971	76.81
454.192	71.81
454.412	78.81
454.633	69.81
454.853	85.81
455.073	81.81
455.294	90.81
455.514	73.81
455.734	90.81
455.955	75.81
456.175	69.81
456.395	73.81
456.616	90.81
456.836	82.81
457.056	85.81
457.276	68.81
457.497	65.81
457.717	90.81
457.937	74.81
458.157	84.81
458.377	76.81
458.598	92.81
458.818	58.81
459.038	89.81
459.258	89.81
459.478	79.81
459.698	77.81
459.918	83.81
460.138	63.81
460.358	69.81
460.578	86.81
460.798	85.81
461.018	73.81
461.238	78.81
461.458	85.81
461.678	78.81
461.898	76.81
462.118	86.81
462.338	87.81
462.558	85.81
462.777	85.81
462.997	73.81
463.217	85.81
463.437	81.81
463.657	83.81
463.876	76.81
464.096	57.81
464.316	91.81
464.536	91.81
464.755	77.81
464.975	75.81
465.195	98.81
465.414	85.81
465.634	63.81
465.854	83.81
466.073	73.81
466.293	89.81
466.512	78.81
466.732	72.81
466.951	81.81
467.171	81.81
467.391	93.81
467.61	77.81
467.829	86.81
468.049	79.81
468.268	84.81
468.488	82.81
468.707	81.81
468.927	87.81
469.146	69.81
469.365	82.81
469.585	83.81
469.804	79.81
470.023	85.81
470.243	70.81
470.462	90.81
470.681	93.81
470.901	85.81
471.12	62.81
471.339	65.81
471.558	88.81
471.777	81.81
471.997	84.81
472.216	88.81
472.435	76.81
472.654	60.81
472.873	88.81
473.092	73.81
473.311	77.81
473.53	82.81
473.749	59.81
473.968	73.81
474.187	81.81
474.406	82.81
474.625	78.81
474.844	89.81
475.063	71.81
475.282	73.81
475.501	66.81
475.72	72.81
475.939	65.81
476.158	68.81
476.377	93.81
476.596	83.81
476.814	76.81
477.033	81.81
477.252	63.81
477.471	71.81
477.69	64.81
477.908	71.81
478.127	78.81
478.346	82.81
478.564	78.81
478.783	82.81
479.002	75.81
479.22	87.81
479.439	81.81
479.658	83.81
479.876	66.81
480.095	77.81
480.313	76.81
480.532	78.81
480.751	77.81
480.969	67.81
481.188	78.81
481.406	90.81
481.624	75.81
481.843	75.81
482.061	78.81
482.28	71.81
482.498	87.81
482.717	79.81
482.935	85.81
483.153	89.81
483.372	80.81
483.59	86.81
483.808	68.81
484.027	86.81
484.245	78.81
484.463	77.81
484.681	92.81
484.9	88.81
485.118	87.81
485.336	81.81
485.554	85.81
485.772	87.81
485.99	93.81
486.209	93.81
486.427	82.81
486.645	86.81
486.863	81.81
487.081	84.81
487.299	77.81
487.517	84.81
487.735	75.81
487.953	97.81
488.171	85.81
488.389	81.81
488.607	92.81
488.825	79.81
489.043	73.81
489.261	72.81
489.479	73.81
489.696	80.81
489.914	89.81
490.132	78.81
490.35	76.81
490.568	75.81
490.786	93.81
491.003	88.81
491.221	93.81
491.439	76.81
491.657	74.81
491.874	85.81
492.092	87.81
492.31	79.81
492.527	81.81
492.745	87.81
492.963	78.81
493.18	81.81
493.398	88.81
493.615	69.81
493.833	74.81
494.05	75.81
494.268	79.81
494.485	78.81
494.703	87.81
494.92	86.81
495.138	94.81
495.355	80.81
495.573	78.81
495.79	73.81
496.008	105.81
496.225	79.81
496.442	69.81
496.66	68.81
496.877	84.81
497.094	88.81
497.312	77.81
497.529	77.81
497.746	79.81
497.963	87.81
498.181	87.81
498.398	83.81
498.615	87.81
498.832	78.81
499.049	76.81
499.267	74.81
499.484	82.81
499.701	79.81
499.918	89.81
500.135	64.81
500.352	78.81
500.569	74.81
500.786	67.81
501.003	77.81
501.22	75.81
501.437	75.81
501.654	87.81
501.871	80.81
502.088	69.81
502.305	83.81
502.522	91.81
502.739	79.81
502.956	90.81
503.172	81.81
503.389	85.81
503.606	74.81
503.823	95.81
504.04	76.81
504.256	87.81
504.473	79.81
504.69	68.81
504.907	91.81
505.123	63.81
505.34	81.81
505.557	91.81
505.773	71.81
505.99	80.81
506.207	82.81
506.423	76.81
506.64	90.81
506.856	90.81
507.073	76.81
507.289	90.81
507.506	84.81
507.722	78.81
507.939	86.81
508.155	99.81
508.372	91.81
508.588	85.81
508.805	86.81
509.021	80.81
509.238	77.81
509.454	81.81
509.67	83.81
509.887	90.81
510.103	67.81
510.319	87.81
510.536	87.81
510.752	63.81
510.968	83.81
511.184	87.81
511.401	79.81
511.617	83.81
511.833	81.81
512.049	84.81
512.265	82.81
512.481	81.81
512.698	82.81
512.914	66.81
513.13	81.81
513.346	84.81
513.562	89.81
513.778	77.81
513.994	74.81
514.21	75.81
514.426	66.81
514.642	97.81
514.858	89.81
515.074	89.81
515.29	90.81
515.506	89.81
515.721	79.81
515.937	87.81
516.153	73.81
516.369	77.81
516.585	69.81
516.801	90.81
517.016	88.81
517.232	75.81
517.448	83.81
517.664	77.81
517.879	72.81
518.095	72.81
518.311	78.81
518.527	76.81
518.742	76.81
518.958	79.81
519.173	87.81
519.389	89.81
519.605	86.81
519.82	86.81
520.036	80.81
520.251	62.81
