Data from StdD_HRD10591_003.txt Node
Date: Fri May 16 15:31:22 EDT 2025
User: Yrep
Spectrometer: HR+D1059
Trigger mode: 1
Integration Time (sec): 1.000000E-1
Scans to average: 1
Electric dark correction enabled: true
Nonlinearity correction enabled: false
Boxcar width: 0
XAxis mode: Wavelengths
Number of Pixels in Spectrum: 2048
>>>>>Begin Spectral Data<<<<<
223.165	-21.12
223.4	-21.12
223.635	-21.12
223.869	-32.12
224.104	-13.12
224.338	-16.12
224.573	-8.12
224.808	-23.12
225.042	-9.12
225.277	-6.12
225.511	-1.12
225.746	-0.12
225.98	5.88
226.215	17.88
226.449	16.88
226.683	22.88
226.918	33.88
227.152	32.88
227.387	29.88
227.621	44.88
227.856	56.88
228.09	51.88
228.324	52.88
228.559	57.88
228.793	61.88
229.027	69.88
229.262	59.88
229.496	64.88
229.73	62.88
229.964	75.88
230.199	73.88
230.433	78.88
230.667	78.88
230.901	79.88
231.136	70.88
231.37	88.88
231.604	92.88
231.838	80.88
232.072	87.88
232.306	75.88
232.541	72.88
232.775	86.88
233.009	87.88
233.243	78.88
233.477	68.88
233.711	77.88
233.945	76.88
234.179	66.88
234.413	81.88
234.647	76.88
234.881	72.88
235.115	82.88
235.349	79.88
235.583	67.88
235.817	78.88
236.051	86.88
236.285	79.88
236.519	66.88
236.753	77.88
236.987	79.88
237.221	83.88
237.455	73.88
237.689	72.88
237.922	80.88
238.156	75.88
238.39	72.88
238.624	77.88
238.858	71.88
239.091	77.88
239.325	81.88
239.559	76.88
239.793	65.88
240.027	83.88
240.26	57.88
240.494	73.88
240.728	67.88
240.961	56.88
241.195	63.88
241.429	76.88
241.662	79.88
241.896	70.88
242.13	69.88
242.363	60.88
242.597	77.88
242.83	79.88
243.064	76.88
243.298	82.88
243.531	95.88
243.765	77.88
243.998	80.88
244.232	79.88
244.465	79.88
244.699	80.88
244.932	80.88
245.166	87.88
245.399	84.88
245.633	81.88
245.866	70.88
246.099	79.88
246.333	79.88
246.566	85.88
246.8	75.88
247.033	79.88
247.266	72.88
247.5	77.88
247.733	77.88
247.966	82.88
248.2	81.88
248.433	77.88
248.666	93.88
248.899	79.88
249.133	75.88
249.366	78.88
249.599	75.88
249.832	80.88
250.066	81.88
250.299	83.88
250.532	71.88
250.765	67.88
250.998	76.88
251.231	82.88
251.465	84.88
251.698	68.88
251.931	77.88
252.164	74.88
252.397	79.88
252.63	73.88
252.863	66.88
253.096	63.88
253.329	84.88
253.562	63.88
253.795	63.88
254.028	71.88
254.261	72.88
254.494	93.88
254.727	83.88
254.96	77.88
255.193	86.88
255.426	76.88
255.659	79.88
255.892	81.88
256.124	77.88
256.357	83.88
256.59	86.88
256.823	72.88
257.056	80.88
257.289	73.88
257.521	67.88
257.754	79.88
257.987	81.88
258.22	71.88
258.452	77.88
258.685	79.88
258.918	84.88
259.151	72.88
259.383	93.88
259.616	85.88
259.849	83.88
260.081	74.88
260.314	77.88
260.547	102.88
260.779	85.88
261.012	83.88
261.244	70.88
261.477	80.88
261.71	73.88
261.942	77.88
262.175	94.88
262.407	93.88
262.64	73.88
262.872	86.88
263.105	82.88
263.337	65.88
263.57	76.88
263.802	74.88
264.035	82.88
264.267	66.88
264.499	87.88
264.732	83.88
264.964	66.88
265.197	76.88
265.429	86.88
265.661	75.88
265.894	85.88
266.126	92.88
266.358	92.88
266.591	72.88
266.823	80.88
267.055	66.88
267.287	68.88
267.52	77.88
267.752	72.88
267.984	72.88
268.216	66.88
268.448	65.88
268.681	77.88
268.913	71.88
269.145	73.88
269.377	81.88
269.609	81.88
269.841	72.88
270.073	78.88
270.306	85.88
270.538	75.88
270.77	86.88
271.002	95.88
271.234	89.88
271.466	81.88
271.698	78.88
271.93	61.88
272.162	88.88
272.394	94.88
272.626	72.88
272.858	93.88
273.09	85.88
273.322	78.88
273.553	88.88
273.785	78.88
274.017	74.88
274.249	76.88
274.481	92.88
274.713	70.88
274.945	86.88
275.176	88.88
275.408	79.88
275.64	84.88
275.872	70.88
276.104	70.88
276.335	79.88
276.567	81.88
276.799	89.88
277.031	77.88
277.262	84.88
277.494	84.88
277.726	77.88
277.957	80.88
278.189	71.88
278.421	81.88
278.652	75.88
278.884	77.88
279.115	84.88
279.347	78.88
279.579	74.88
279.81	72.88
280.042	97.88
280.273	80.88
280.505	90.88
280.736	70.88
280.968	79.88
281.199	71.88
281.431	81.88
281.662	72.88
281.894	88.88
282.125	79.88
282.356	90.88
282.588	83.88
282.819	77.88
283.051	85.88
283.282	86.88
283.513	90.88
283.745	91.88
283.976	78.88
284.207	83.88
284.439	95.88
284.67	85.88
284.901	79.88
285.132	94.88
285.364	83.88
285.595	81.88
285.826	76.88
286.057	69.88
286.288	87.88
286.52	86.88
286.751	81.88
286.982	77.88
287.213	71.88
287.444	79.88
287.675	80.88
287.906	85.88
288.138	85.88
288.369	87.88
288.6	78.88
288.831	75.88
289.062	84.88
289.293	69.88
289.524	78.88
289.755	89.88
289.986	73.88
290.217	72.88
290.448	88.88
290.679	83.88
290.91	90.88
291.141	78.88
291.371	74.88
291.602	78.88
291.833	80.88
292.064	85.88
292.295	91.88
292.526	71.88
292.757	76.88
292.987	85.88
293.218	67.88
293.449	84.88
293.68	69.88
293.91	89.88
294.141	87.88
294.372	84.88
294.603	68.88
294.833	80.88
295.064	85.88
295.295	77.88
295.525	71.88
295.756	82.88
295.987	75.88
296.217	93.88
296.448	89.88
296.679	87.88
296.909	81.88
297.14	81.88
297.37	76.88
297.601	83.88
297.831	90.88
298.062	89.88
298.292	78.88
298.523	80.88
298.753	78.88
298.984	74.88
299.214	78.88
299.445	81.88
299.675	77.88
299.905	92.88
300.136	89.88
300.366	68.88
300.597	81.88
300.827	77.88
301.057	87.88
301.288	82.88
301.518	77.88
301.748	80.88
301.979	105.88
302.209	84.88
302.439	90.88
302.669	73.88
302.9	86.88
303.13	79.88
303.36	86.88
303.59	76.88
303.82	90.88
304.051	79.88
304.281	68.88
304.511	81.88
304.741	86.88
304.971	83.88
305.201	83.88
305.431	84.88
305.661	85.88
305.891	83.88
306.121	80.88
306.352	85.88
306.582	87.88
306.812	71.88
307.042	88.88
307.272	77.88
307.502	71.88
307.731	83.88
307.961	83.88
308.191	64.88
308.421	86.88
308.651	85.88
308.881	84.88
309.111	89.88
309.341	89.88
309.571	79.88
309.8	96.88
310.03	89.88
310.26	75.88
310.49	81.88
310.72	76.88
310.949	74.88
311.179	78.88
311.409	67.88
311.639	100.88
311.868	95.88
312.098	86.88
312.328	88.88
312.557	104.88
312.787	90.88
313.017	77.88
313.246	69.88
313.476	82.88
313.706	77.88
313.935	87.88
314.165	79.88
314.394	84.88
314.624	73.88
314.853	83.88
315.083	72.88
315.312	84.88
315.542	83.88
315.771	71.88
316.001	92.88
316.23	93.88
316.46	100.88
316.689	96.88
316.919	82.88
317.148	80.88
317.377	75.88
317.607	63.88
317.836	81.88
318.065	87.88
318.295	80.88
318.524	73.88
318.753	79.88
318.983	77.88
319.212	72.88
319.441	87.88
319.67	75.88
319.9	97.88
320.129	83.88
320.358	87.88
320.587	85.88
320.816	82.88
321.046	84.88
321.275	78.88
321.504	84.88
321.733	85.88
321.962	76.88
322.191	85.88
322.42	78.88
322.649	71.88
322.878	83.88
323.108	92.88
323.337	86.88
323.566	79.88
323.795	94.88
324.024	102.88
324.253	79.88
324.482	96.88
324.71	80.88
324.939	77.88
325.168	86.88
325.397	76.88
325.626	82.88
325.855	84.88
326.084	96.88
326.313	87.88
326.542	86.88
326.77	68.88
326.999	72.88
327.228	76.88
327.457	80.88
327.686	91.88
327.914	73.88
328.143	85.88
328.372	81.88
328.6	79.88
328.829	68.88
329.058	86.88
329.287	80.88
329.515	90.88
329.744	96.88
329.972	83.88
330.201	92.88
330.43	94.88
330.658	86.88
330.887	69.88
331.115	77.88
331.344	93.88
331.572	78.88
331.801	91.88
332.03	89.88
332.258	78.88
332.486	95.88
332.715	86.88
332.943	81.88
333.172	88.88
333.4	82.88
333.629	69.88
333.857	67.88
334.085	80.88
334.314	99.88
334.542	91.88
334.771	82.88
334.999	75.88
335.227	78.88
335.455	92.88
335.684	89.88
335.912	84.88
336.14	88.88
336.369	94.88
336.597	85.88
336.825	91.88
337.053	80.88
337.281	80.88
337.51	77.88
337.738	88.88
337.966	79.88
338.194	68.88
338.422	79.88
338.65	78.88
338.878	76.88
339.106	80.88
339.334	92.88
339.562	84.88
339.79	88.88
340.018	97.88
340.246	83.88
340.474	80.88
340.702	82.88
340.93	96.88
341.158	88.88
341.386	75.88
341.614	96.88
341.842	79.88
342.07	85.88
342.298	91.88
342.526	79.88
342.754	79.88
342.981	91.88
343.209	76.88
343.437	96.88
343.665	83.88
343.893	84.88
344.12	81.88
344.348	71.88
344.576	79.88
344.804	80.88
345.031	79.88
345.259	70.88
345.487	82.88
345.714	88.88
345.942	73.88
346.17	91.88
346.397	83.88
346.625	76.88
346.853	85.88
347.08	91.88
347.308	85.88
347.535	78.88
347.763	75.88
347.99	87.88
348.218	85.88
348.445	86.88
348.673	71.88
348.9	78.88
349.128	95.88
349.355	77.88
349.583	86.88
349.81	75.88
350.037	72.88
350.265	83.88
350.492	77.88
350.72	88.88
350.947	74.88
351.174	72.88
351.402	82.88
351.629	83.88
351.856	87.88
352.083	76.88
352.311	75.88
352.538	81.88
352.765	79.88
352.992	95.88
353.22	81.88
353.447	82.88
353.674	77.88
353.901	98.88
354.128	105.88
354.355	66.88
354.583	93.88
354.81	82.88
355.037	87.88
355.264	86.88
355.491	94.88
355.718	72.88
355.945	73.88
356.172	80.88
356.399	77.88
356.626	75.88
356.853	77.88
357.08	102.88
357.307	100.88
357.534	74.88
357.761	88.88
357.988	87.88
358.215	85.88
358.441	86.88
358.668	95.88
358.895	87.88
359.122	88.88
359.349	88.88
359.576	81.88
359.802	71.88
360.029	76.88
360.256	83.88
360.483	78.88
360.709	83.88
360.936	81.88
361.163	71.88
361.39	86.88
361.616	81.88
361.843	84.88
362.07	81.88
362.296	88.88
362.523	93.88
362.749	73.88
362.976	77.88
363.203	88.88
363.429	87.88
363.656	90.88
363.882	71.88
364.109	83.88
364.335	77.88
364.562	85.88
364.788	64.88
365.015	66.88
365.241	72.88
365.468	75.88
365.694	79.88
365.92	85.88
366.147	72.88
366.373	80.88
366.599	89.88
366.826	87.88
367.052	84.88
367.278	83.88
367.505	81.88
367.731	87.88
367.957	65.88
368.184	79.88
368.41	84.88
368.636	76.88
368.862	72.88
369.089	82.88
369.315	79.88
369.541	75.88
369.767	70.88
369.993	103.88
370.219	75.88
370.445	75.88
370.672	82.88
370.898	72.88
371.124	84.88
371.35	84.88
371.576	89.88
371.802	83.88
372.028	90.88
372.254	81.88
372.48	69.88
372.706	83.88
372.932	96.88
373.158	90.88
373.384	83.88
373.61	82.88
373.835	88.88
374.061	81.88
374.287	84.88
374.513	75.88
374.739	70.88
374.965	76.88
375.191	83.88
375.416	90.88
375.642	86.88
375.868	86.88
376.094	91.88
376.319	76.88
376.545	70.88
376.771	82.88
376.997	77.88
377.222	97.88
377.448	90.88
377.674	77.88
377.899	83.88
378.125	85.88
378.35	90.88
378.576	87.88
378.802	76.88
379.027	85.88
379.253	90.88
379.478	87.88
379.704	73.88
379.929	92.88
380.155	77.88
380.38	81.88
380.606	74.88
380.831	65.88
381.057	92.88
381.282	95.88
381.507	82.88
381.733	81.88
381.958	75.88
382.184	91.88
382.409	72.88
382.634	78.88
382.86	76.88
383.085	68.88
383.31	93.88
383.535	88.88
383.761	96.88
383.986	79.88
384.211	103.88
384.436	77.88
384.662	88.88
384.887	79.88
385.112	86.88
385.337	95.88
385.562	73.88
385.787	80.88
386.013	79.88
386.238	74.88
386.463	74.88
386.688	92.88
386.913	80.88
387.138	70.88
387.363	73.88
387.588	96.88
387.813	73.88
388.038	86.88
388.263	86.88
388.488	84.88
388.713	71.88
388.938	91.88
389.163	79.88
389.387	87.88
389.612	83.88
389.837	84.88
390.062	84.88
390.287	92.88
390.512	69.88
390.736	94.88
390.961	75.88
391.186	77.88
391.411	77.88
391.636	87.88
391.86	84.88
392.085	84.88
392.31	92.88
392.534	65.88
392.759	88.88
392.984	82.88
393.208	85.88
393.433	93.88
393.658	91.88
393.882	69.88
394.107	87.88
394.331	73.88
394.556	80.88
394.78	86.88
395.005	87.88
395.229	87.88
395.454	87.88
395.678	72.88
395.903	85.88
396.127	84.88
396.352	73.88
396.576	77.88
396.801	78.88
397.025	63.88
397.249	80.88
397.474	77.88
397.698	79.88
397.922	85.88
398.147	89.88
398.371	79.88
398.595	75.88
398.82	76.88
399.044	80.88
399.268	72.88
399.492	81.88
399.717	80.88
399.941	84.88
400.165	85.88
400.389	67.88
400.613	72.88
400.837	77.88
401.062	88.88
401.286	82.88
401.51	80.88
401.734	92.88
401.958	79.88
402.182	76.88
402.406	71.88
402.63	82.88
402.854	78.88
403.078	80.88
403.302	74.88
403.526	95.88
403.75	67.88
403.974	85.88
404.198	83.88
404.422	91.88
404.645	66.88
404.869	93.88
405.093	92.88
405.317	100.88
405.541	84.88
405.765	80.88
405.988	77.88
406.212	73.88
406.436	71.88
406.66	96.88
406.883	90.88
407.107	95.88
407.331	85.88
407.555	87.88
407.778	71.88
408.002	90.88
408.226	78.88
408.449	76.88
408.673	81.88
408.896	86.88
409.12	81.88
409.344	88.88
409.567	77.88
409.791	67.88
410.014	75.88
410.238	80.88
410.461	73.88
410.685	79.88
410.908	89.88
411.132	87.88
411.355	81.88
411.578	94.88
411.802	77.88
412.025	73.88
412.249	84.88
412.472	89.88
412.695	73.88
412.919	77.88
413.142	83.88
413.365	90.88
413.589	84.88
413.812	88.88
414.035	84.88
414.258	81.88
414.482	75.88
414.705	68.88
414.928	77.88
415.151	79.88
415.374	91.88
415.597	96.88
415.821	81.88
416.044	80.88
416.267	86.88
416.49	79.88
416.713	79.88
416.936	80.88
417.159	87.88
417.382	84.88
417.605	61.88
417.828	99.88
418.051	100.88
418.274	64.88
418.497	60.88
418.72	75.88
418.943	87.88
419.166	80.88
419.389	87.88
419.611	72.88
419.834	79.88
420.057	83.88
420.28	84.88
420.503	90.88
420.726	86.88
420.948	94.88
421.171	92.88
421.394	92.88
421.617	74.88
421.839	88.88
422.062	80.88
422.285	76.88
422.507	82.88
422.73	79.88
422.953	75.88
423.175	72.88
423.398	78.88
423.621	87.88
423.843	86.88
424.066	77.88
424.288	79.88
424.511	77.88
424.733	73.88
424.956	73.88
425.178	83.88
425.401	91.88
425.623	89.88
425.846	86.88
426.068	71.88
426.291	94.88
426.513	74.88
426.735	87.88
426.958	77.88
427.18	91.88
427.402	85.88
427.625	87.88
427.847	89.88
428.069	77.88
428.292	73.88
428.514	80.88
428.736	77.88
428.958	75.88
429.181	86.88
429.403	61.88
429.625	71.88
429.847	95.88
430.069	86.88
430.292	80.88
430.514	83.88
430.736	87.88
430.958	79.88
431.18	81.88
431.402	80.88
431.624	75.88
431.846	87.88
432.068	64.88
432.29	83.88
432.512	93.88
432.734	79.88
432.956	76.88
433.178	88.88
433.4	78.88
433.622	88.88
433.844	79.88
434.066	78.88
434.287	70.88
434.509	73.88
434.731	83.88
434.953	84.88
435.175	86.88
435.397	81.88
435.618	83.88
435.84	73.88
436.062	90.88
436.284	85.88
436.505	69.88
436.727	73.88
436.949	93.88
437.17	72.88
437.392	75.88
437.614	78.88
437.835	68.88
438.057	67.88
438.278	71.88
438.5	81.88
438.721	85.88
438.943	86.88
439.165	83.88
439.386	81.88
439.608	91.88
439.829	86.88
440.05	82.88
440.272	77.88
440.493	76.88
440.715	84.88
440.936	73.88
441.158	79.88
441.379	75.88
441.6	93.88
441.822	69.88
442.043	77.88
442.264	76.88
442.486	71.88
442.707	75.88
442.928	91.88
443.149	85.88
443.371	74.88
443.592	92.88
443.813	79.88
444.034	74.88
444.255	85.88
444.476	79.88
444.698	86.88
444.919	89.88
445.14	186.88
445.361	119.88
445.582	88.88
445.803	83.88
446.024	77.88
446.245	80.88
446.466	90.88
446.687	89.88
446.908	81.88
447.129	89.88
447.35	84.88
447.571	89.88
447.792	81.88
448.013	78.88
448.234	82.88
448.455	87.88
448.675	78.88
448.896	91.88
449.117	86.88
449.338	88.88
449.559	94.88
449.779	72.88
450	83.88
450.221	92.88
450.442	99.88
450.662	84.88
450.883	80.88
451.104	77.88
451.324	75.88
451.545	81.88
451.766	91.88
451.986	85.88
452.207	79.88
452.428	91.88
452.648	79.88
452.869	81.88
453.089	79.88
453.31	87.88
453.53	80.88
453.751	82.88
453.971	83.88
454.192	84.88
454.412	75.88
454.633	75.88
454.853	88.88
455.073	73.88
455.294	105.88
455.514	79.88
455.734	75.88
455.955	92.88
456.175	88.88
456.395	79.88
456.616	74.88
456.836	74.88
457.056	85.88
457.276	82.88
457.497	78.88
457.717	91.88
457.937	79.88
458.157	79.88
458.377	80.88
458.598	63.88
458.818	75.88
459.038	81.88
459.258	75.88
459.478	74.88
459.698	84.88
459.918	89.88
460.138	76.88
460.358	96.88
460.578	94.88
460.798	85.88
461.018	85.88
461.238	83.88
461.458	75.88
461.678	73.88
461.898	87.88
462.118	80.88
462.338	67.88
462.558	79.88
462.777	75.88
462.997	77.88
463.217	71.88
463.437	68.88
463.657	69.88
463.876	83.88
464.096	70.88
464.316	80.88
464.536	87.88
464.755	88.88
464.975	86.88
465.195	77.88
465.414	78.88
465.634	80.88
465.854	91.88
466.073	70.88
466.293	79.88
466.512	80.88
466.732	99.88
466.951	80.88
467.171	81.88
467.391	80.88
467.61	84.88
467.829	77.88
468.049	80.88
468.268	92.88
468.488	84.88
468.707	76.88
468.927	92.88
469.146	86.88
469.365	65.88
469.585	70.88
469.804	74.88
470.023	85.88
470.243	71.88
470.462	93.88
470.681	87.88
470.901	87.88
471.12	70.88
471.339	79.88
471.558	81.88
471.777	91.88
471.997	86.88
472.216	92.88
472.435	76.88
472.654	75.88
472.873	80.88
473.092	76.88
473.311	80.88
473.53	79.88
473.749	69.88
473.968	83.88
474.187	87.88
474.406	90.88
474.625	86.88
474.844	97.88
475.063	75.88
475.282	66.88
475.501	91.88
475.72	88.88
475.939	89.88
476.158	78.88
476.377	92.88
476.596	82.88
476.814	78.88
477.033	67.88
477.252	77.88
477.471	77.88
477.69	85.88
477.908	79.88
478.127	105.88
478.346	95.88
478.564	73.88
478.783	78.88
479.002	88.88
479.22	79.88
479.439	66.88
479.658	79.88
479.876	88.88
480.095	61.88
480.313	80.88
480.532	77.88
480.751	79.88
480.969	72.88
481.188	82.88
481.406	68.88
481.624	83.88
481.843	79.88
482.061	79.88
482.28	79.88
482.498	110.88
482.717	77.88
482.935	93.88
483.153	88.88
483.372	81.88
483.59	87.88
483.808	82.88
484.027	89.88
484.245	81.88
484.463	77.88
484.681	84.88
484.9	79.88
485.118	77.88
485.336	71.88
485.554	86.88
485.772	91.88
485.99	73.88
486.209	88.88
486.427	76.88
486.645	81.88
486.863	84.88
487.081	83.88
487.299	83.88
487.517	90.88
487.735	76.88
487.953	66.88
488.171	83.88
488.389	79.88
488.607	84.88
488.825	79.88
489.043	78.88
489.261	85.88
489.479	93.88
489.696	84.88
489.914	71.88
490.132	79.88
490.35	78.88
490.568	87.88
490.786	79.88
491.003	84.88
491.221	86.88
491.439	88.88
491.657	90.88
491.874	89.88
492.092	82.88
492.31	88.88
492.527	87.88
492.745	76.88
492.963	90.88
493.18	83.88
493.398	84.88
493.615	92.88
493.833	80.88
494.05	99.88
494.268	80.88
494.485	99.88
494.703	88.88
494.92	87.88
495.138	77.88
495.355	81.88
495.573	79.88
495.79	82.88
496.008	84.88
496.225	78.88
496.442	81.88
496.66	92.88
496.877	80.88
497.094	93.88
497.312	88.88
497.529	83.88
497.746	89.88
497.963	84.88
498.181	79.88
498.398	77.88
498.615	85.88
498.832	81.88
499.049	75.88
499.267	90.88
499.484	88.88
499.701	68.88
499.918	81.88
500.135	93.88
500.352	77.88
500.569	100.88
500.786	87.88
501.003	85.88
501.22	81.88
501.437	87.88
501.654	76.88
501.871	87.88
502.088	79.88
502.305	87.88
502.522	63.88
502.739	89.88
502.956	86.88
503.172	97.88
503.389	97.88
503.606	85.88
503.823	95.88
504.04	85.88
504.256	76.88
504.473	92.88
504.69	80.88
504.907	80.88
505.123	90.88
505.34	87.88
505.557	78.88
505.773	87.88
505.99	83.88
506.207	76.88
506.423	81.88
506.64	83.88
506.856	91.88
507.073	77.88
507.289	84.88
507.506	87.88
507.722	79.88
507.939	77.88
508.155	75.88
508.372	70.88
508.588	72.88
508.805	81.88
509.021	72.88
509.238	82.88
509.454	77.88
509.67	70.88
509.887	74.88
510.103	79.88
510.319	74.88
510.536	77.88
510.752	78.88
510.968	76.88
511.184	72.88
511.401	70.88
511.617	80.88
511.833	71.88
512.049	77.88
512.265	77.88
512.481	88.88
512.698	86.88
512.914	94.88
513.13	78.88
513.346	90.88
513.562	81.88
513.778	81.88
513.994	93.88
514.21	77.88
514.426	94.88
514.642	84.88
514.858	80.88
515.074	92.88
515.29	76.88
515.506	83.88
515.721	88.88
515.937	78.88
516.153	87.88
516.369	66.88
516.585	69.88
516.801	78.88
517.016	72.88
517.232	73.88
517.448	76.88
517.664	72.88
517.879	64.88
518.095	85.88
518.311	89.88
518.527	86.88
518.742	72.88
518.958	95.88
519.173	79.88
519.389	82.88
519.605	77.88
519.82	64.88
520.036	79.88
