Data from StdD_HRD10591_012.txt Node
Date: Fri May 16 15:31:27 EDT 2025
User: Yrep
Spectrometer: HR+D1059
Trigger mode: 1
Integration Time (sec): 1.000000E-1
Scans to average: 1
Electric dark correction enabled: true
Nonlinearity correction enabled: false
Boxcar width: 0
XAxis mode: Wavelengths
Number of Pixels in Spectrum: 2048
>>>>>Begin Spectral Data<<<<<
223.165	-10.25
223.4	-10.25
223.635	-10.25
223.869	-22.25
224.104	-17.25
224.338	-23.25
224.573	-13.25
224.808	-9.25
225.042	-1.25
225.277	-10.25
225.511	-10.25
225.746	3.75
225.98	13.75
226.215	2.75
226.449	23.75
226.683	27.75
226.918	22.75
227.152	22.75
227.387	46.75
227.621	56.75
227.856	51.75
228.09	48.75
228.324	44.75
228.559	55.75
228.793	64.75
229.027	64.75
229.262	46.75
229.496	58.75
229.73	63.75
229.964	66.75
230.199	71.75
230.433	80.75
230.667	70.75
230.901	96.75
231.136	77.75
231.37	77.75
231.604	77.75
231.838	76.75
232.072	62.75
232.306	81.75
232.541	71.75
232.775	74.75
233.009	64.75
233.243	66.75
233.477	78.75
233.711	81.75
233.945	77.75
234.179	74.75
234.413	88.75
234.647	69.75
234.881	85.75
235.115	93.75
235.349	88.75
235.583	72.75
235.817	78.75
236.051	75.75
236.285	76.75
236.519	64.75
236.753	77.75
236.987	73.75
237.221	69.75
237.455	84.75
237.689	65.75
237.922	79.75
238.156	72.75
238.39	79.75
238.624	85.75
238.858	72.75
239.091	81.75
239.325	81.75
239.559	82.75
239.793	73.75
240.027	69.75
240.26	77.75
240.494	66.75
240.728	69.75
240.961	78.75
241.195	78.75
241.429	99.75
241.662	70.75
241.896	69.75
242.13	63.75
242.363	67.75
242.597	65.75
242.83	74.75
243.064	71.75
243.298	86.75
243.531	89.75
243.765	91.75
243.998	75.75
244.232	66.75
244.465	80.75
244.699	81.75
244.932	86.75
245.166	83.75
245.399	79.75
245.633	75.75
245.866	74.75
246.099	61.75
246.333	76.75
246.566	71.75
246.8	62.75
247.033	71.75
247.266	80.75
247.5	75.75
247.733	72.75
247.966	81.75
248.2	76.75
248.433	91.75
248.666	82.75
248.899	83.75
249.133	72.75
249.366	79.75
249.599	77.75
249.832	63.75
250.066	77.75
250.299	75.75
250.532	71.75
250.765	74.75
250.998	98.75
251.231	81.75
251.465	87.75
251.698	70.75
251.931	75.75
252.164	74.75
252.397	73.75
252.63	85.75
252.863	81.75
253.096	72.75
253.329	97.75
253.562	88.75
253.795	86.75
254.028	92.75
254.261	93.75
254.494	79.75
254.727	92.75
254.96	81.75
255.193	89.75
255.426	82.75
255.659	81.75
255.892	81.75
256.124	65.75
256.357	80.75
256.59	80.75
256.823	85.75
257.056	92.75
257.289	91.75
257.521	77.75
257.754	79.75
257.987	80.75
258.22	77.75
258.452	73.75
258.685	77.75
258.918	89.75
259.151	87.75
259.383	93.75
259.616	96.75
259.849	85.75
260.081	85.75
260.314	68.75
260.547	79.75
260.779	81.75
261.012	82.75
261.244	76.75
261.477	95.75
261.71	87.75
261.942	86.75
262.175	82.75
262.407	75.75
262.64	84.75
262.872	76.75
263.105	73.75
263.337	99.75
263.57	100.75
263.802	91.75
264.035	94.75
264.267	76.75
264.499	67.75
264.732	91.75
264.964	93.75
265.197	98.75
265.429	78.75
265.661	84.75
265.894	77.75
266.126	101.75
266.358	81.75
266.591	83.75
266.823	88.75
267.055	75.75
267.287	80.75
267.52	90.75
267.752	85.75
267.984	76.75
268.216	88.75
268.448	73.75
268.681	78.75
268.913	87.75
269.145	81.75
269.377	88.75
269.609	90.75
269.841	84.75
270.073	83.75
270.306	94.75
270.538	85.75
270.77	74.75
271.002	88.75
271.234	93.75
271.466	87.75
271.698	88.75
271.93	82.75
272.162	95.75
272.394	85.75
272.626	80.75
272.858	73.75
273.09	92.75
273.322	87.75
273.553	94.75
273.785	90.75
274.017	75.75
274.249	73.75
274.481	79.75
274.713	86.75
274.945	72.75
275.176	82.75
275.408	86.75
275.64	98.75
275.872	85.75
276.104	91.75
276.335	91.75
276.567	93.75
276.799	88.75
277.031	64.75
277.262	70.75
277.494	88.75
277.726	91.75
277.957	88.75
278.189	94.75
278.421	71.75
278.652	86.75
278.884	80.75
279.115	81.75
279.347	81.75
279.579	82.75
279.81	75.75
280.042	74.75
280.273	90.75
280.505	87.75
280.736	95.75
280.968	88.75
281.199	73.75
281.431	89.75
281.662	85.75
281.894	80.75
282.125	83.75
282.356	86.75
282.588	81.75
282.819	77.75
283.051	79.75
283.282	81.75
283.513	74.75
283.745	92.75
283.976	71.75
284.207	76.75
284.439	88.75
284.67	85.75
284.901	82.75
285.132	75.75
285.364	90.75
285.595	94.75
285.826	84.75
286.057	95.75
286.288	83.75
286.52	96.75
286.751	75.75
286.982	86.75
287.213	89.75
287.444	98.75
287.675	87.75
287.906	95.75
288.138	90.75
288.369	81.75
288.6	98.75
288.831	85.75
289.062	91.75
289.293	86.75
289.524	92.75
289.755	71.75
289.986	91.75
290.217	82.75
290.448	77.75
290.679	83.75
290.91	63.75
291.141	81.75
291.371	97.75
291.602	80.75
291.833	89.75
292.064	81.75
292.295	88.75
292.526	89.75
292.757	98.75
292.987	68.75
293.218	83.75
293.449	81.75
293.68	86.75
293.91	95.75
294.141	101.75
294.372	94.75
294.603	77.75
294.833	97.75
295.064	90.75
295.295	80.75
295.525	80.75
295.756	76.75
295.987	73.75
296.217	86.75
296.448	81.75
296.679	89.75
296.909	98.75
297.14	92.75
297.37	88.75
297.601	68.75
297.831	87.75
298.062	81.75
298.292	102.75
298.523	89.75
298.753	74.75
298.984	93.75
299.214	85.75
299.445	89.75
299.675	94.75
299.905	87.75
300.136	75.75
300.366	79.75
300.597	87.75
300.827	87.75
301.057	92.75
301.288	98.75
301.518	86.75
301.748	91.75
301.979	101.75
302.209	69.75
302.439	85.75
302.669	88.75
302.9	75.75
303.13	87.75
303.36	73.75
303.59	81.75
303.82	77.75
304.051	91.75
304.281	90.75
304.511	88.75
304.741	85.75
304.971	91.75
305.201	81.75
305.431	97.75
305.661	90.75
305.891	91.75
306.121	77.75
306.352	89.75
306.582	103.75
306.812	81.75
307.042	85.75
307.272	86.75
307.502	71.75
307.731	88.75
307.961	91.75
308.191	88.75
308.421	85.75
308.651	86.75
308.881	73.75
309.111	79.75
309.341	81.75
309.571	76.75
309.8	73.75
310.03	80.75
310.26	73.75
310.49	82.75
310.72	81.75
310.949	90.75
311.179	89.75
311.409	72.75
311.639	95.75
311.868	76.75
312.098	76.75
312.328	98.75
312.557	87.75
312.787	79.75
313.017	82.75
313.246	84.75
313.476	95.75
313.706	89.75
313.935	95.75
314.165	87.75
314.394	103.75
314.624	77.75
314.853	85.75
315.083	75.75
315.312	82.75
315.542	85.75
315.771	83.75
316.001	83.75
316.23	87.75
316.46	81.75
316.689	84.75
316.919	89.75
317.148	84.75
317.377	92.75
317.607	95.75
317.836	87.75
318.065	82.75
318.295	86.75
318.524	88.75
318.753	87.75
318.983	90.75
319.212	85.75
319.441	90.75
319.67	94.75
319.9	77.75
320.129	79.75
320.358	73.75
320.587	79.75
320.816	76.75
321.046	91.75
321.275	81.75
321.504	81.75
321.733	86.75
321.962	75.75
322.191	91.75
322.42	82.75
322.649	98.75
322.878	93.75
323.108	85.75
323.337	82.75
323.566	90.75
323.795	97.75
324.024	89.75
324.253	81.75
324.482	78.75
324.71	87.75
324.939	103.75
325.168	86.75
325.397	77.75
325.626	78.75
325.855	79.75
326.084	87.75
326.313	73.75
326.542	89.75
326.77	90.75
326.999	92.75
327.228	91.75
327.457	94.75
327.686	81.75
327.914	87.75
328.143	90.75
328.372	73.75
328.6	89.75
328.829	81.75
329.058	85.75
329.287	86.75
329.515	86.75
329.744	92.75
329.972	57.75
330.201	71.75
330.43	92.75
330.658	85.75
330.887	77.75
331.115	79.75
331.344	81.75
331.572	81.75
331.801	81.75
332.03	79.75
332.258	73.75
332.486	90.75
332.715	78.75
332.943	90.75
333.172	96.75
333.4	97.75
333.629	92.75
333.857	80.75
334.085	79.75
334.314	83.75
334.542	90.75
334.771	80.75
334.999	82.75
335.227	86.75
335.455	94.75
335.684	94.75
335.912	94.75
336.14	85.75
336.369	69.75
336.597	78.75
336.825	84.75
337.053	87.75
337.281	85.75
337.51	92.75
337.738	92.75
337.966	77.75
338.194	76.75
338.422	88.75
338.65	82.75
338.878	85.75
339.106	85.75
339.334	89.75
339.562	83.75
339.79	73.75
340.018	77.75
340.246	80.75
340.474	89.75
340.702	80.75
340.93	89.75
341.158	91.75
341.386	89.75
341.614	75.75
341.842	82.75
342.07	71.75
342.298	94.75
342.526	91.75
342.754	80.75
342.981	83.75
343.209	78.75
343.437	96.75
343.665	74.75
343.893	77.75
344.12	96.75
344.348	94.75
344.576	69.75
344.804	82.75
345.031	75.75
345.259	75.75
345.487	84.75
345.714	98.75
345.942	85.75
346.17	82.75
346.397	77.75
346.625	87.75
346.853	93.75
347.08	83.75
347.308	81.75
347.535	79.75
347.763	86.75
347.99	85.75
348.218	81.75
348.445	91.75
348.673	81.75
348.9	84.75
349.128	86.75
349.355	91.75
349.583	73.75
349.81	85.75
350.037	80.75
350.265	79.75
350.492	82.75
350.72	71.75
350.947	81.75
351.174	74.75
351.402	74.75
351.629	86.75
351.856	98.75
352.083	87.75
352.311	79.75
352.538	80.75
352.765	85.75
352.992	90.75
353.22	86.75
353.447	94.75
353.674	82.75
353.901	91.75
354.128	90.75
354.355	74.75
354.583	88.75
354.81	87.75
355.037	81.75
355.264	77.75
355.491	88.75
355.718	73.75
355.945	72.75
356.172	90.75
356.399	86.75
356.626	77.75
356.853	87.75
357.08	81.75
357.307	82.75
357.534	67.75
357.761	79.75
357.988	87.75
358.215	83.75
358.441	85.75
358.668	84.75
358.895	75.75
359.122	86.75
359.349	82.75
359.576	82.75
359.802	88.75
360.029	75.75
360.256	89.75
360.483	88.75
360.709	89.75
360.936	81.75
361.163	78.75
361.39	75.75
361.616	81.75
361.843	90.75
362.07	95.75
362.296	92.75
362.523	81.75
362.749	71.75
362.976	69.75
363.203	88.75
363.429	80.75
363.656	76.75
363.882	79.75
364.109	92.75
364.335	87.75
364.562	82.75
364.788	80.75
365.015	102.75
365.241	85.75
365.468	85.75
365.694	71.75
365.92	79.75
366.147	95.75
366.373	78.75
366.599	81.75
366.826	83.75
367.052	110.75
367.278	82.75
367.505	94.75
367.731	98.75
367.957	88.75
368.184	95.75
368.41	79.75
368.636	85.75
368.862	82.75
369.089	75.75
369.315	94.75
369.541	87.75
369.767	80.75
369.993	75.75
370.219	73.75
370.445	74.75
370.672	61.75
370.898	74.75
371.124	79.75
371.35	82.75
371.576	88.75
371.802	75.75
372.028	97.75
372.254	83.75
372.48	80.75
372.706	67.75
372.932	83.75
373.158	87.75
373.384	87.75
373.61	84.75
373.835	89.75
374.061	85.75
374.287	86.75
374.513	91.75
374.739	78.75
374.965	81.75
375.191	88.75
375.416	72.75
375.642	76.75
375.868	66.75
376.094	88.75
376.319	89.75
376.545	79.75
376.771	78.75
376.997	86.75
377.222	67.75
377.448	76.75
377.674	91.75
377.899	87.75
378.125	84.75
378.35	103.75
378.576	88.75
378.802	87.75
379.027	70.75
379.253	63.75
379.478	81.75
379.704	71.75
379.929	86.75
380.155	85.75
380.38	75.75
380.606	98.75
380.831	79.75
381.057	84.75
381.282	84.75
381.507	79.75
381.733	91.75
381.958	87.75
382.184	98.75
382.409	97.75
382.634	85.75
382.86	81.75
383.085	80.75
383.31	71.75
383.535	85.75
383.761	83.75
383.986	82.75
384.211	83.75
384.436	89.75
384.662	82.75
384.887	88.75
385.112	83.75
385.337	82.75
385.562	90.75
385.787	93.75
386.013	73.75
386.238	87.75
386.463	81.75
386.688	86.75
386.913	85.75
387.138	66.75
387.363	84.75
387.588	89.75
387.813	86.75
388.038	93.75
388.263	96.75
388.488	79.75
388.713	75.75
388.938	74.75
389.163	85.75
389.387	74.75
389.612	77.75
389.837	80.75
390.062	85.75
390.287	84.75
390.512	89.75
390.736	71.75
390.961	77.75
391.186	88.75
391.411	85.75
391.636	72.75
391.86	85.75
392.085	84.75
392.31	91.75
392.534	89.75
392.759	85.75
392.984	87.75
393.208	86.75
393.433	88.75
393.658	89.75
393.882	86.75
394.107	85.75
394.331	71.75
394.556	93.75
394.78	89.75
395.005	93.75
395.229	73.75
395.454	81.75
395.678	83.75
395.903	86.75
396.127	84.75
396.352	85.75
396.576	88.75
396.801	85.75
397.025	91.75
397.249	79.75
397.474	97.75
397.698	89.75
397.922	91.75
398.147	82.75
398.371	81.75
398.595	97.75
398.82	72.75
399.044	73.75
399.268	72.75
399.492	87.75
399.717	86.75
399.941	77.75
400.165	71.75
400.389	75.75
400.613	86.75
400.837	71.75
401.062	77.75
401.286	76.75
401.51	87.75
401.734	84.75
401.958	88.75
402.182	83.75
402.406	85.75
402.63	90.75
402.854	72.75
403.078	78.75
403.302	76.75
403.526	71.75
403.75	88.75
403.974	87.75
404.198	97.75
404.422	77.75
404.645	87.75
404.869	81.75
405.093	77.75
405.317	73.75
405.541	79.75
405.765	96.75
405.988	88.75
406.212	89.75
406.436	80.75
406.66	81.75
406.883	88.75
407.107	77.75
407.331	87.75
407.555	81.75
407.778	82.75
408.002	81.75
408.226	86.75
408.449	91.75
408.673	90.75
408.896	87.75
409.12	77.75
409.344	85.75
409.567	75.75
409.791	77.75
410.014	91.75
410.238	91.75
410.461	59.75
410.685	73.75
410.908	78.75
411.132	79.75
411.355	81.75
411.578	91.75
411.802	79.75
412.025	80.75
412.249	79.75
412.472	90.75
412.695	86.75
412.919	67.75
413.142	97.75
413.365	86.75
413.589	85.75
413.812	78.75
414.035	79.75
414.258	91.75
414.482	80.75
414.705	82.75
414.928	82.75
415.151	91.75
415.374	80.75
415.597	76.75
415.821	87.75
416.044	87.75
416.267	80.75
416.49	85.75
416.713	73.75
416.936	74.75
417.159	85.75
417.382	73.75
417.605	73.75
417.828	88.75
418.051	80.75
418.274	70.75
418.497	81.75
418.72	93.75
418.943	94.75
419.166	82.75
419.389	87.75
419.611	84.75
419.834	78.75
420.057	83.75
420.28	85.75
420.503	103.75
420.726	105.75
420.948	93.75
421.171	85.75
421.394	85.75
421.617	77.75
421.839	88.75
422.062	95.75
422.285	91.75
422.507	77.75
422.73	82.75
422.953	77.75
423.175	93.75
423.398	86.75
423.621	84.75
423.843	87.75
424.066	88.75
424.288	82.75
424.511	105.75
424.733	81.75
424.956	98.75
425.178	83.75
425.401	73.75
425.623	76.75
425.846	85.75
426.068	80.75
426.291	84.75
426.513	93.75
426.735	78.75
426.958	80.75
427.18	70.75
427.402	92.75
427.625	95.75
427.847	88.75
428.069	78.75
428.292	77.75
428.514	82.75
428.736	87.75
428.958	67.75
429.181	87.75
429.403	81.75
429.625	78.75
429.847	83.75
430.069	87.75
430.292	84.75
430.514	88.75
430.736	91.75
430.958	89.75
431.18	75.75
431.402	83.75
431.624	89.75
431.846	73.75
432.068	82.75
432.29	94.75
432.512	81.75
432.734	85.75
432.956	80.75
433.178	90.75
433.4	108.75
433.622	85.75
433.844	94.75
434.066	84.75
434.287	74.75
434.509	76.75
434.731	77.75
434.953	76.75
435.175	77.75
435.397	86.75
435.618	69.75
435.84	78.75
436.062	80.75
436.284	81.75
436.505	81.75
436.727	88.75
436.949	74.75
437.17	78.75
437.392	88.75
437.614	77.75
437.835	87.75
438.057	73.75
438.278	75.75
438.5	99.75
438.721	83.75
438.943	103.75
439.165	78.75
439.386	91.75
439.608	102.75
439.829	74.75
440.05	96.75
440.272	85.75
440.493	82.75
440.715	75.75
440.936	89.75
441.158	71.75
441.379	87.75
441.6	94.75
441.822	82.75
442.043	76.75
442.264	76.75
442.486	87.75
442.707	81.75
442.928	81.75
443.149	86.75
443.371	87.75
443.592	81.75
443.813	91.75
444.034	88.75
444.255	68.75
444.476	82.75
444.698	81.75
444.919	85.75
445.14	152.75
445.361	123.75
445.582	84.75
445.803	74.75
446.024	89.75
446.245	90.75
446.466	87.75
446.687	73.75
446.908	84.75
447.129	85.75
447.35	74.75
447.571	91.75
447.792	83.75
448.013	90.75
448.234	82.75
448.455	84.75
448.675	77.75
448.896	86.75
449.117	74.75
449.338	75.75
449.559	80.75
449.779	91.75
450	86.75
450.221	83.75
450.442	82.75
450.662	80.75
450.883	89.75
451.104	95.75
451.324	76.75
451.545	68.75
451.766	81.75
451.986	75.75
452.207	81.75
452.428	68.75
452.648	89.75
452.869	96.75
453.089	83.75
453.31	79.75
453.53	90.75
453.751	84.75
453.971	86.75
454.192	70.75
454.412	83.75
454.633	80.75
454.853	68.75
455.073	80.75
455.294	80.75
455.514	83.75
455.734	78.75
455.955	80.75
456.175	91.75
456.395	74.75
456.616	85.75
456.836	92.75
457.056	70.75
457.276	66.75
457.497	89.75
457.717	97.75
457.937	83.75
458.157	75.75
458.377	78.75
458.598	78.75
458.818	75.75
459.038	80.75
459.258	70.75
459.478	67.75
459.698	87.75
459.918	81.75
460.138	79.75
460.358	85.75
460.578	81.75
460.798	71.75
461.018	88.75
461.238	79.75
461.458	88.75
461.678	89.75
461.898	87.75
462.118	86.75
462.338	83.75
462.558	70.75
462.777	80.75
462.997	94.75
463.217	99.75
463.437	85.75
463.657	85.75
463.876	77.75
464.096	70.75
464.316	82.75
464.536	74.75
464.755	85.75
464.975	87.75
465.195	96.75
465.414	86.75
465.634	81.75
465.854	81.75
466.073	76.75
466.293	81.75
466.512	97.75
466.732	81.75
466.951	76.75
467.171	89.75
467.391	81.75
467.61	87.75
467.829	83.75
468.049	95.75
468.268	101.75
468.488	81.75
468.707	82.75
468.927	83.75
469.146	85.75
469.365	77.75
469.585	76.75
469.804	81.75
470.023	91.75
470.243	90.75
470.462	85.75
470.681	95.75
470.901	85.75
471.12	91.75
471.339	93.75
471.558	92.75
471.777	82.75
471.997	91.75
472.216	94.75
472.435	78.75
472.654	78.75
472.873	77.75
473.092	70.75
473.311	83.75
473.53	82.75
473.749	77.75
473.968	83.75
474.187	89.75
474.406	82.75
474.625	83.75
474.844	91.75
475.063	82.75
475.282	83.75
475.501	75.75
475.72	74.75
475.939	87.75
476.158	84.75
476.377	79.75
476.596	88.75
476.814	91.75
477.033	85.75
477.252	87.75
477.471	74.75
477.69	88.75
477.908	94.75
478.127	99.75
478.346	78.75
478.564	75.75
478.783	85.75
479.002	87.75
479.22	81.75
479.439	73.75
479.658	86.75
479.876	77.75
480.095	79.75
480.313	93.75
480.532	82.75
480.751	81.75
480.969	79.75
481.188	82.75
481.406	93.75
481.624	89.75
481.843	86.75
482.061	68.75
482.28	83.75
482.498	97.75
482.717	89.75
482.935	87.75
483.153	81.75
483.372	91.75
483.59	90.75
483.808	84.75
484.027	95.75
484.245	72.75
484.463	85.75
484.681	89.75
484.9	78.75
485.118	82.75
485.336	80.75
485.554	69.75
485.772	85.75
485.99	80.75
486.209	87.75
486.427	79.75
486.645	77.75
486.863	96.75
487.081	96.75
487.299	86.75
487.517	85.75
487.735	88.75
487.953	84.75
488.171	91.75
488.389	83.75
488.607	77.75
488.825	78.75
489.043	94.75
489.261	80.75
489.479	94.75
489.696	75.75
489.914	75.75
490.132	90.75
490.35	88.75
490.568	72.75
490.786	81.75
491.003	81.75
491.221	80.75
491.439	88.75
491.657	95.75
491.874	79.75
492.092	102.75
492.31	78.75
492.527	87.75
492.745	79.75
492.963	95.75
493.18	89.75
493.398	93.75
493.615	87.75
493.833	101.75
494.05	86.75
494.268	110.75
494.485	98.75
494.703	80.75
494.92	65.75
495.138	87.75
495.355	72.75
495.573	100.75
495.79	79.75
496.008	86.75
496.225	109.75
496.442	87.75
496.66	93.75
496.877	85.75
497.094	95.75
497.312	80.75
497.529	79.75
497.746	88.75
497.963	80.75
498.181	89.75
498.398	82.75
498.615	96.75
498.832	81.75
499.049	89.75
499.267	94.75
499.484	75.75
499.701	78.75
499.918	82.75
500.135	81.75
500.352	82.75
500.569	95.75
500.786	81.75
501.003	79.75
501.22	86.75
501.437	93.75
501.654	94.75
501.871	89.75
502.088	82.75
502.305	79.75
502.522	81.75
502.739	89.75
502.956	105.75
503.172	83.75
503.389	94.75
503.606	73.75
503.823	84.75
504.04	83.75
504.256	87.75
504.473	91.75
504.69	98.75
504.907	84.75
505.123	93.75
505.34	91.75
505.557	94.75
505.773	87.75
505.99	86.75
506.207	83.75
506.423	89.75
506.64	94.75
506.856	80.75
507.073	76.75
507.289	97.75
507.506	75.75
507.722	79.75
507.939	92.75
508.155	107.75
508.372	93.75
508.588	94.75
508.805	80.75
509.021	67.75
509.238	73.75
509.454	95.75
509.67	102.75
509.887	79.75
510.103	86.75
510.319	84.75
510.536	83.75
510.752	84.75
510.968	61.75
511.184	72.75
511.401	87.75
511.617	92.75
511.833	89.75
512.049	78.75
512.265	83.75
512.481	89.75
512.698	86.75
512.914	82.75
513.13	77.75
513.346	86.75
513.562	77.75
513.778	85.75
513.994	93.75
514.21	83.75
514.426	81.75
514.642	95.75
514.858	85.75
515.074	99.75
515.29	77.75
515.506	84.75
515.721	82.75
515.937	67.75
516.153	68.75
516.369	85.75
516.585	81.75
516.801	73.75
517.016	76.75
517.232	94.75
517.448	78.75
517.664	88.75
517.879	96.75
518.095	78.75
518.311	82.75
518.527	91.75
518.742	77.75
518.958	86.75
519.173	79.75
519.389	82.75
519.605	89.75
519.82	86.75
520.036	82.75
