Data from StdD_HRD10591_060.txt Node
Date: Fri May 16 15:31:51 EDT 2025
User: Yrep
Spectrometer: HR+D1059
Trigger mode: 1
Integration Time (sec): 1.000000E-1
Scans to average: 1
Electric dark correction enabled: true
Nonlinearity correction enabled: false
Boxcar width: 0
XAxis mode: Wavelengths
Number of Pixels in Spectrum: 2048
>>>>>Begin Spectral Data<<<<<
223.165	-14.69
223.4	-14.69
223.635	-14.69
223.869	-24.69
224.104	-19.69
224.338	-22.69
224.573	-1.69
224.808	-12.69
225.042	-9.69
225.277	-11.69
225.511	0.31
225.746	13.31
225.98	9.31
226.215	7.31
226.449	28.31
226.683	7.31
226.918	19.31
227.152	32.31
227.387	38.31
227.621	37.31
227.856	57.31
228.09	51.31
228.324	59.31
228.559	64.31
228.793	69.31
229.027	62.31
229.262	66.31
229.496	62.31
229.73	69.31
229.964	75.31
230.199	69.31
230.433	78.31
230.667	83.31
230.901	85.31
231.136	84.31
231.37	75.31
231.604	90.31
231.838	84.31
232.072	79.31
232.306	81.31
232.541	85.31
232.775	91.31
233.009	75.31
233.243	85.31
233.477	85.31
233.711	88.31
233.945	85.31
234.179	95.31
234.413	94.31
234.647	87.31
234.881	70.31
235.115	84.31
235.349	77.31
235.583	64.31
235.817	78.31
236.051	81.31
236.285	81.31
236.519	79.31
236.753	79.31
236.987	87.31
237.221	94.31
237.455	85.31
237.689	72.31
237.922	77.31
238.156	74.31
238.39	82.31
238.624	89.31
238.858	70.31
239.091	79.31
239.325	79.31
239.559	68.31
239.793	77.31
240.027	84.31
240.26	78.31
240.494	77.31
240.728	74.31
240.961	69.31
241.195	70.31
241.429	67.31
241.662	74.31
241.896	71.31
242.13	92.31
242.363	62.31
242.597	79.31
242.83	75.31
243.064	85.31
243.298	70.31
243.531	79.31
243.765	89.31
243.998	76.31
244.232	72.31
244.465	79.31
244.699	86.31
244.932	94.31
245.166	93.31
245.399	87.31
245.633	88.31
245.866	83.31
246.099	72.31
246.333	83.31
246.566	72.31
246.8	78.31
247.033	71.31
247.266	79.31
247.5	67.31
247.733	77.31
247.966	89.31
248.2	77.31
248.433	78.31
248.666	80.31
248.899	82.31
249.133	68.31
249.366	84.31
249.599	77.31
249.832	87.31
250.066	91.31
250.299	81.31
250.532	81.31
250.765	83.31
250.998	94.31
251.231	73.31
251.465	90.31
251.698	75.31
251.931	62.31
252.164	78.31
252.397	78.31
252.63	81.31
252.863	78.31
253.096	81.31
253.329	67.31
253.562	75.31
253.795	67.31
254.028	88.31
254.261	81.31
254.494	88.31
254.727	87.31
254.96	91.31
255.193	78.31
255.426	83.31
255.659	85.31
255.892	100.31
256.124	99.31
256.357	79.31
256.59	82.31
256.823	71.31
257.056	81.31
257.289	81.31
257.521	93.31
257.754	90.31
257.987	78.31
258.22	70.31
258.452	71.31
258.685	77.31
258.918	72.31
259.151	77.31
259.383	79.31
259.616	76.31
259.849	87.31
260.081	82.31
260.314	94.31
260.547	88.31
260.779	87.31
261.012	85.31
261.244	72.31
261.477	73.31
261.71	80.31
261.942	79.31
262.175	81.31
262.407	84.31
262.64	79.31
262.872	84.31
263.105	81.31
263.337	86.31
263.57	83.31
263.802	87.31
264.035	98.31
264.267	83.31
264.499	75.31
264.732	92.31
264.964	82.31
265.197	91.31
265.429	71.31
265.661	91.31
265.894	84.31
266.126	97.31
266.358	89.31
266.591	83.31
266.823	67.31
267.055	87.31
267.287	87.31
267.52	88.31
267.752	90.31
267.984	85.31
268.216	90.31
268.448	79.31
268.681	76.31
268.913	73.31
269.145	82.31
269.377	90.31
269.609	89.31
269.841	86.31
270.073	77.31
270.306	85.31
270.538	96.31
270.77	72.31
271.002	88.31
271.234	85.31
271.466	81.31
271.698	94.31
271.93	84.31
272.162	83.31
272.394	79.31
272.626	88.31
272.858	93.31
273.09	95.31
273.322	83.31
273.553	84.31
273.785	90.31
274.017	79.31
274.249	94.31
274.481	74.31
274.713	86.31
274.945	82.31
275.176	78.31
275.408	85.31
275.64	75.31
275.872	64.31
276.104	91.31
276.335	105.31
276.567	79.31
276.799	89.31
277.031	81.31
277.262	98.31
277.494	87.31
277.726	86.31
277.957	89.31
278.189	86.31
278.421	85.31
278.652	85.31
278.884	86.31
279.115	106.31
279.347	85.31
279.579	87.31
279.81	84.31
280.042	74.31
280.273	79.31
280.505	96.31
280.736	84.31
280.968	74.31
281.199	86.31
281.431	66.31
281.662	92.31
281.894	85.31
282.125	92.31
282.356	92.31
282.588	80.31
282.819	96.31
283.051	80.31
283.282	91.31
283.513	99.31
283.745	94.31
283.976	89.31
284.207	81.31
284.439	83.31
284.67	86.31
284.901	87.31
285.132	81.31
285.364	84.31
285.595	83.31
285.826	90.31
286.057	91.31
286.288	87.31
286.52	89.31
286.751	93.31
286.982	77.31
287.213	78.31
287.444	69.31
287.675	87.31
287.906	79.31
288.138	80.31
288.369	84.31
288.6	77.31
288.831	77.31
289.062	85.31
289.293	80.31
289.524	85.31
289.755	97.31
289.986	84.31
290.217	84.31
290.448	89.31
290.679	90.31
290.91	91.31
291.141	81.31
291.371	80.31
291.602	94.31
291.833	85.31
292.064	93.31
292.295	76.31
292.526	91.31
292.757	83.31
292.987	86.31
293.218	88.31
293.449	75.31
293.68	69.31
293.91	95.31
294.141	89.31
294.372	76.31
294.603	91.31
294.833	83.31
295.064	82.31
295.295	80.31
295.525	92.31
295.756	71.31
295.987	82.31
296.217	92.31
296.448	83.31
296.679	82.31
296.909	84.31
297.14	99.31
297.37	82.31
297.601	79.31
297.831	82.31
298.062	92.31
298.292	81.31
298.523	88.31
298.753	79.31
298.984	77.31
299.214	88.31
299.445	97.31
299.675	90.31
299.905	86.31
300.136	103.31
300.366	89.31
300.597	81.31
300.827	84.31
301.057	77.31
301.288	79.31
301.518	79.31
301.748	83.31
301.979	98.31
302.209	91.31
302.439	77.31
302.669	86.31
302.9	82.31
303.13	89.31
303.36	87.31
303.59	79.31
303.82	78.31
304.051	99.31
304.281	93.31
304.511	83.31
304.741	82.31
304.971	91.31
305.201	94.31
305.431	89.31
305.661	76.31
305.891	82.31
306.121	79.31
306.352	101.31
306.582	88.31
306.812	90.31
307.042	90.31
307.272	83.31
307.502	100.31
307.731	93.31
307.961	98.31
308.191	85.31
308.421	77.31
308.651	90.31
308.881	92.31
309.111	90.31
309.341	90.31
309.571	92.31
309.8	90.31
310.03	83.31
310.26	95.31
310.49	86.31
310.72	71.31
310.949	74.31
311.179	80.31
311.409	78.31
311.639	74.31
311.868	86.31
312.098	83.31
312.328	95.31
312.557	85.31
312.787	78.31
313.017	86.31
313.246	96.31
313.476	84.31
313.706	85.31
313.935	74.31
314.165	89.31
314.394	88.31
314.624	77.31
314.853	83.31
315.083	92.31
315.312	83.31
315.542	98.31
315.771	80.31
316.001	94.31
316.23	93.31
316.46	109.31
316.689	102.31
316.919	91.31
317.148	100.31
317.377	102.31
317.607	92.31
317.836	99.31
318.065	91.31
318.295	93.31
318.524	86.31
318.753	85.31
318.983	80.31
319.212	100.31
319.441	90.31
319.67	95.31
319.9	89.31
320.129	81.31
320.358	81.31
320.587	100.31
320.816	86.31
321.046	93.31
321.275	105.31
321.504	81.31
321.733	86.31
321.962	86.31
322.191	94.31
322.42	85.31
322.649	97.31
322.878	83.31
323.108	77.31
323.337	90.31
323.566	91.31
323.795	89.31
324.024	82.31
324.253	85.31
324.482	89.31
324.71	113.31
324.939	89.31
325.168	93.31
325.397	82.31
325.626	80.31
325.855	85.31
326.084	79.31
326.313	94.31
326.542	82.31
326.77	89.31
326.999	89.31
327.228	69.31
327.457	95.31
327.686	77.31
327.914	91.31
328.143	75.31
328.372	98.31
328.6	96.31
328.829	79.31
329.058	97.31
329.287	83.31
329.515	89.31
329.744	97.31
329.972	85.31
330.201	86.31
330.43	91.31
330.658	81.31
330.887	86.31
331.115	94.31
331.344	86.31
331.572	83.31
331.801	83.31
332.03	89.31
332.258	91.31
332.486	100.31
332.715	105.31
332.943	81.31
333.172	84.31
333.4	99.31
333.629	81.31
333.857	100.31
334.085	99.31
334.314	79.31
334.542	86.31
334.771	81.31
334.999	99.31
335.227	87.31
335.455	82.31
335.684	87.31
335.912	83.31
336.14	93.31
336.369	97.31
336.597	79.31
336.825	100.31
337.053	99.31
337.281	80.31
337.51	82.31
337.738	95.31
337.966	97.31
338.194	89.31
338.422	70.31
338.65	102.31
338.878	83.31
339.106	82.31
339.334	96.31
339.562	75.31
339.79	78.31
340.018	80.31
340.246	85.31
340.474	101.31
340.702	94.31
340.93	82.31
341.158	89.31
341.386	86.31
341.614	71.31
341.842	85.31
342.07	77.31
342.298	98.31
342.526	89.31
342.754	90.31
342.981	94.31
343.209	84.31
343.437	100.31
343.665	80.31
343.893	82.31
344.12	86.31
344.348	90.31
344.576	88.31
344.804	98.31
345.031	68.31
345.259	105.31
345.487	93.31
345.714	82.31
345.942	78.31
346.17	90.31
346.397	74.31
346.625	98.31
346.853	98.31
347.08	93.31
347.308	96.31
347.535	89.31
347.763	95.31
347.99	87.31
348.218	87.31
348.445	82.31
348.673	77.31
348.9	81.31
349.128	71.31
349.355	89.31
349.583	81.31
349.81	87.31
350.037	80.31
350.265	84.31
350.492	93.31
350.72	77.31
350.947	98.31
351.174	102.31
351.402	97.31
351.629	90.31
351.856	91.31
352.083	79.31
352.311	92.31
352.538	73.31
352.765	83.31
352.992	82.31
353.22	89.31
353.447	94.31
353.674	97.31
353.901	79.31
354.128	89.31
354.355	82.31
354.583	87.31
354.81	90.31
355.037	79.31
355.264	86.31
355.491	90.31
355.718	101.31
355.945	87.31
356.172	88.31
356.399	81.31
356.626	103.31
356.853	106.31
357.08	101.31
357.307	77.31
357.534	89.31
357.761	96.31
357.988	83.31
358.215	86.31
358.441	78.31
358.668	88.31
358.895	97.31
359.122	105.31
359.349	93.31
359.576	96.31
359.802	103.31
360.029	81.31
360.256	81.31
360.483	84.31
360.709	81.31
360.936	91.31
361.163	82.31
361.39	84.31
361.616	78.31
361.843	75.31
362.07	83.31
362.296	85.31
362.523	92.31
362.749	75.31
362.976	73.31
363.203	79.31
363.429	75.31
363.656	88.31
363.882	77.31
364.109	86.31
364.335	89.31
364.562	84.31
364.788	85.31
365.015	99.31
365.241	102.31
365.468	79.31
365.694	86.31
365.92	92.31
366.147	75.31
366.373	91.31
366.599	95.31
366.826	90.31
367.052	90.31
367.278	87.31
367.505	94.31
367.731	87.31
367.957	89.31
368.184	85.31
368.41	81.31
368.636	83.31
368.862	84.31
369.089	80.31
369.315	90.31
369.541	81.31
369.767	87.31
369.993	86.31
370.219	90.31
370.445	94.31
370.672	76.31
370.898	80.31
371.124	79.31
371.35	81.31
371.576	90.31
371.802	96.31
372.028	89.31
372.254	86.31
372.48	85.31
372.706	87.31
372.932	87.31
373.158	85.31
373.384	74.31
373.61	86.31
373.835	91.31
374.061	86.31
374.287	87.31
374.513	76.31
374.739	103.31
374.965	86.31
375.191	70.31
375.416	84.31
375.642	70.31
375.868	86.31
376.094	90.31
376.319	94.31
376.545	82.31
376.771	85.31
376.997	89.31
377.222	101.31
377.448	97.31
377.674	93.31
377.899	71.31
378.125	81.31
378.35	79.31
378.576	80.31
378.802	90.31
379.027	88.31
379.253	98.31
379.478	91.31
379.704	93.31
379.929	88.31
380.155	85.31
380.38	95.31
380.606	90.31
380.831	65.31
381.057	87.31
381.282	70.31
381.507	93.31
381.733	73.31
381.958	68.31
382.184	70.31
382.409	75.31
382.634	81.31
382.86	81.31
383.085	86.31
383.31	79.31
383.535	100.31
383.761	100.31
383.986	74.31
384.211	81.31
384.436	85.31
384.662	94.31
384.887	107.31
385.112	79.31
385.337	84.31
385.562	76.31
385.787	80.31
386.013	80.31
386.238	83.31
386.463	78.31
386.688	100.31
386.913	91.31
387.138	98.31
387.363	82.31
387.588	90.31
387.813	90.31
388.038	86.31
388.263	92.31
388.488	90.31
388.713	89.31
388.938	83.31
389.163	89.31
389.387	79.31
389.612	80.31
389.837	85.31
390.062	84.31
390.287	78.31
390.512	78.31
390.736	85.31
390.961	94.31
391.186	98.31
391.411	78.31
391.636	92.31
391.86	96.31
392.085	68.31
392.31	87.31
392.534	85.31
392.759	86.31
392.984	79.31
393.208	93.31
393.433	77.31
393.658	90.31
393.882	87.31
394.107	97.31
394.331	74.31
394.556	78.31
394.78	101.31
395.005	76.31
395.229	81.31
395.454	85.31
395.678	91.31
395.903	89.31
396.127	98.31
396.352	79.31
396.576	69.31
396.801	78.31
397.025	99.31
397.249	95.31
397.474	85.31
397.698	78.31
397.922	97.31
398.147	73.31
398.371	69.31
398.595	72.31
398.82	84.31
399.044	81.31
399.268	90.31
399.492	102.31
399.717	77.31
399.941	86.31
400.165	94.31
400.389	90.31
400.613	85.31
400.837	83.31
401.062	83.31
401.286	106.31
401.51	101.31
401.734	90.31
401.958	90.31
402.182	78.31
402.406	83.31
402.63	68.31
402.854	91.31
403.078	82.31
403.302	83.31
403.526	85.31
403.75	77.31
403.974	78.31
404.198	74.31
404.422	79.31
404.645	71.31
404.869	96.31
405.093	81.31
405.317	93.31
405.541	98.31
405.765	83.31
405.988	73.31
406.212	86.31
406.436	78.31
406.66	79.31
406.883	98.31
407.107	82.31
407.331	94.31
407.555	81.31
407.778	75.31
408.002	95.31
408.226	73.31
408.449	83.31
408.673	80.31
408.896	99.31
409.12	79.31
409.344	96.31
409.567	85.31
409.791	87.31
410.014	75.31
410.238	80.31
410.461	85.31
410.685	87.31
410.908	81.31
411.132	77.31
411.355	84.31
411.578	86.31
411.802	95.31
412.025	93.31
412.249	81.31
412.472	91.31
412.695	89.31
412.919	85.31
413.142	69.31
413.365	105.31
413.589	91.31
413.812	89.31
414.035	77.31
414.258	79.31
414.482	80.31
414.705	88.31
414.928	89.31
415.151	85.31
415.374	93.31
415.597	76.31
415.821	96.31
416.044	78.31
416.267	89.31
416.49	89.31
416.713	81.31
416.936	86.31
417.159	93.31
417.382	85.31
417.605	86.31
417.828	82.31
418.051	83.31
418.274	85.31
418.497	73.31
418.72	94.31
418.943	77.31
419.166	94.31
419.389	89.31
419.611	81.31
419.834	85.31
420.057	98.31
420.28	79.31
420.503	80.31
420.726	87.31
420.948	84.31
421.171	93.31
421.394	87.31
421.617	70.31
421.839	81.31
422.062	82.31
422.285	87.31
422.507	93.31
422.73	79.31
422.953	98.31
423.175	94.31
423.398	93.31
423.621	95.31
423.843	71.31
424.066	79.31
424.288	88.31
424.511	94.31
424.733	81.31
424.956	85.31
425.178	83.31
425.401	91.31
425.623	86.31
425.846	83.31
426.068	102.31
426.291	86.31
426.513	78.31
426.735	83.31
426.958	91.31
427.18	80.31
427.402	84.31
427.625	97.31
427.847	74.31
428.069	88.31
428.292	76.31
428.514	97.31
428.736	89.31
428.958	84.31
429.181	91.31
429.403	75.31
429.625	70.31
429.847	80.31
430.069	82.31
430.292	93.31
430.514	81.31
430.736	85.31
430.958	94.31
431.18	82.31
431.402	93.31
431.624	86.31
431.846	83.31
432.068	80.31
432.29	106.31
432.512	86.31
432.734	76.31
432.956	82.31
433.178	84.31
433.4	96.31
433.622	87.31
433.844	84.31
434.066	80.31
434.287	80.31
434.509	75.31
434.731	90.31
434.953	97.31
435.175	94.31
435.397	79.31
435.618	75.31
435.84	73.31
436.062	102.31
436.284	78.31
436.505	90.31
436.727	82.31
436.949	75.31
437.17	89.31
437.392	77.31
437.614	83.31
437.835	81.31
438.057	71.31
438.278	73.31
438.5	74.31
438.721	86.31
438.943	84.31
439.165	89.31
439.386	77.31
439.608	77.31
439.829	74.31
440.05	83.31
440.272	78.31
440.493	93.31
440.715	86.31
440.936	97.31
441.158	73.31
441.379	77.31
441.6	81.31
441.822	76.31
442.043	73.31
442.264	97.31
442.486	93.31
442.707	77.31
442.928	76.31
443.149	82.31
443.371	82.31
443.592	82.31
443.813	72.31
444.034	90.31
444.255	69.31
444.476	85.31
444.698	74.31
444.919	72.31
445.14	163.31
445.361	121.31
445.582	85.31
445.803	91.31
446.024	92.31
446.245	89.31
446.466	70.31
446.687	85.31
446.908	105.31
447.129	81.31
447.35	93.31
447.571	85.31
447.792	84.31
448.013	78.31
448.234	89.31
448.455	97.31
448.675	95.31
448.896	90.31
449.117	92.31
449.338	100.31
449.559	90.31
449.779	89.31
450	89.31
450.221	86.31
450.442	87.31
450.662	77.31
450.883	79.31
451.104	83.31
451.324	73.31
451.545	77.31
451.766	95.31
451.986	84.31
452.207	89.31
452.428	85.31
452.648	98.31
452.869	98.31
453.089	82.31
453.31	80.31
453.53	84.31
453.751	87.31
453.971	79.31
454.192	86.31
454.412	99.31
454.633	85.31
454.853	88.31
455.073	102.31
455.294	94.31
455.514	85.31
455.734	85.31
455.955	82.31
456.175	81.31
456.395	97.31
456.616	84.31
456.836	86.31
457.056	88.31
457.276	97.31
457.497	87.31
457.717	94.31
457.937	86.31
458.157	89.31
458.377	79.31
458.598	95.31
458.818	83.31
459.038	80.31
459.258	88.31
459.478	72.31
459.698	79.31
459.918	84.31
460.138	75.31
460.358	95.31
460.578	77.31
460.798	63.31
461.018	81.31
461.238	86.31
461.458	75.31
461.678	84.31
461.898	107.31
462.118	95.31
462.338	79.31
462.558	80.31
462.777	79.31
462.997	73.31
463.217	81.31
463.437	93.31
463.657	78.31
463.876	81.31
464.096	69.31
464.316	89.31
464.536	95.31
464.755	88.31
464.975	71.31
465.195	90.31
465.414	79.31
465.634	77.31
465.854	84.31
466.073	99.31
466.293	93.31
466.512	83.31
466.732	85.31
466.951	95.31
467.171	91.31
467.391	82.31
467.61	87.31
467.829	92.31
468.049	98.31
468.268	93.31
468.488	90.31
468.707	95.31
468.927	90.31
469.146	79.31
469.365	80.31
469.585	79.31
469.804	89.31
470.023	88.31
470.243	93.31
470.462	83.31
470.681	92.31
470.901	84.31
471.12	86.31
471.339	96.31
471.558	85.31
471.777	89.31
471.997	95.31
472.216	84.31
472.435	95.31
472.654	86.31
472.873	91.31
473.092	79.31
473.311	95.31
473.53	82.31
473.749	94.31
473.968	82.31
474.187	64.31
474.406	74.31
474.625	75.31
474.844	92.31
475.063	91.31
475.282	81.31
475.501	81.31
475.72	94.31
475.939	96.31
476.158	90.31
476.377	91.31
476.596	101.31
476.814	91.31
477.033	81.31
477.252	74.31
477.471	82.31
477.69	94.31
477.908	94.31
478.127	89.31
478.346	85.31
478.564	84.31
478.783	91.31
479.002	86.31
479.22	89.31
479.439	89.31
479.658	95.31
479.876	92.31
480.095	89.31
480.313	82.31
480.532	79.31
480.751	94.31
480.969	101.31
481.188	81.31
481.406	89.31
481.624	89.31
481.843	91.31
482.061	88.31
482.28	90.31
482.498	103.31
482.717	93.31
482.935	81.31
483.153	84.31
483.372	75.31
483.59	87.31
483.808	85.31
484.027	90.31
484.245	85.31
484.463	83.31
484.681	98.31
484.9	71.31
485.118	69.31
485.336	83.31
485.554	96.31
485.772	101.31
485.99	78.31
486.209	79.31
486.427	80.31
486.645	81.31
486.863	77.31
487.081	69.31
487.299	84.31
487.517	81.31
487.735	90.31
487.953	83.31
488.171	79.31
488.389	77.31
488.607	80.31
488.825	79.31
489.043	84.31
489.261	92.31
489.479	88.31
489.696	88.31
489.914	81.31
490.132	70.31
490.35	93.31
490.568	94.31
490.786	78.31
491.003	86.31
491.221	97.31
491.439	86.31
491.657	94.31
491.874	93.31
492.092	90.31
492.31	94.31
492.527	97.31
492.745	93.31
492.963	100.31
493.18	84.31
493.398	86.31
493.615	73.31
493.833	97.31
494.05	94.31
494.268	83.31
494.485	92.31
494.703	96.31
494.92	95.31
495.138	85.31
495.355	71.31
495.573	92.31
495.79	91.31
496.008	76.31
496.225	98.31
496.442	93.31
496.66	86.31
496.877	95.31
497.094	95.31
497.312	91.31
497.529	78.31
497.746	89.31
497.963	71.31
498.181	90.31
498.398	84.31
498.615	91.31
498.832	87.31
499.049	93.31
499.267	83.31
499.484	78.31
499.701	95.31
499.918	82.31
500.135	85.31
500.352	89.31
500.569	78.31
500.786	83.31
501.003	102.31
501.22	89.31
501.437	89.31
501.654	107.31
501.871	86.31
502.088	96.31
502.305	82.31
502.522	88.31
502.739	98.31
502.956	78.31
503.172	84.31
503.389	90.31
503.606	90.31
503.823	79.31
504.04	83.31
504.256	86.31
504.473	85.31
504.69	88.31
504.907	94.31
505.123	79.31
505.34	89.31
505.557	75.31
505.773	82.31
505.99	90.31
506.207	85.31
506.423	81.31
506.64	85.31
506.856	97.31
507.073	84.31
507.289	93.31
507.506	89.31
507.722	70.31
507.939	83.31
508.155	83.31
508.372	93.31
508.588	94.31
508.805	74.31
509.021	108.31
509.238	90.31
509.454	87.31
509.67	84.31
509.887	89.31
510.103	81.31
510.319	89.31
510.536	84.31
510.752	87.31
510.968	94.31
511.184	71.31
511.401	78.31
511.617	77.31
511.833	91.31
512.049	78.31
512.265	75.31
512.481	85.31
512.698	83.31
512.914	86.31
513.13	83.31
513.346	86.31
513.562	86.31
513.778	68.31
513.994	83.31
514.21	91.31
514.426	92.31
514.642	86.31
514.858	78.31
515.074	86.31
515.29	85.31
515.506	83.31
515.721	78.31
515.937	82.31
516.153	76.31
516.369	78.31
516.585	77.31
516.801	83.31
517.016	84.31
517.232	72.31
517.448	90.31
517.664	77.31
517.879	77.31
518.095	82.31
518.311	103.31
518.527	74.31
518.742	87.31
518.958	86.31
519.173	76.31
519.389	82.31
519.605	93.31
