Data from StdD_HRD10591_082.txt Node
Date: Fri May 16 15:32:02 EDT 2025
User: Yrep
Spectrometer: HR+D1059
Trigger mode: 1
Integration Time (sec): 1.000000E-1
Scans to average: 1
Electric dark correction enabled: true
Nonlinearity correction enabled: false
Boxcar width: 0
XAxis mode: Wavelengths
Number of Pixels in Spectrum: 2048
>>>>>Begin Spectral Data<<<<<
223.165	-8.81
223.4	-8.81
223.635	-8.81
223.869	-23.81
224.104	-24.81
224.338	-20.81
224.573	-7.81
224.808	-13.81
225.042	-6.81
225.277	-5.81
225.511	0.19
225.746	18.19
225.98	4.19
226.215	13.19
226.449	6.19
226.683	11.19
226.918	27.19
227.152	32.19
227.387	38.19
227.621	36.19
227.856	52.19
228.09	38.19
228.324	50.19
228.559	56.19
228.793	56.19
229.027	68.19
229.262	66.19
229.496	60.19
229.73	73.19
229.964	60.19
230.199	57.19
230.433	89.19
230.667	76.19
230.901	62.19
231.136	70.19
231.37	77.19
231.604	78.19
231.838	81.19
232.072	79.19
232.306	72.19
232.541	71.19
232.775	82.19
233.009	71.19
233.243	84.19
233.477	74.19
233.711	82.19
233.945	91.19
234.179	83.19
234.413	96.19
234.647	78.19
234.881	74.19
235.115	83.19
235.349	87.19
235.583	73.19
235.817	66.19
236.051	66.19
236.285	70.19
236.519	69.19
236.753	65.19
236.987	81.19
237.221	73.19
237.455	78.19
237.689	73.19
237.922	76.19
238.156	87.19
238.39	74.19
238.624	65.19
238.858	69.19
239.091	61.19
239.325	60.19
239.559	60.19
239.793	81.19
240.027	78.19
240.26	62.19
240.494	83.19
240.728	69.19
240.961	71.19
241.195	71.19
241.429	66.19
241.662	65.19
241.896	74.19
242.13	71.19
242.363	76.19
242.597	77.19
242.83	80.19
243.064	68.19
243.298	61.19
243.531	76.19
243.765	71.19
243.998	63.19
244.232	64.19
244.465	69.19
244.699	68.19
244.932	71.19
245.166	71.19
245.399	72.19
245.633	77.19
245.866	81.19
246.099	83.19
246.333	57.19
246.566	67.19
246.8	62.19
247.033	53.19
247.266	75.19
247.5	66.19
247.733	69.19
247.966	67.19
248.2	78.19
248.433	61.19
248.666	67.19
248.899	67.19
249.133	84.19
249.366	72.19
249.599	76.19
249.832	80.19
250.066	83.19
250.299	81.19
250.532	91.19
250.765	65.19
250.998	71.19
251.231	77.19
251.465	77.19
251.698	86.19
251.931	78.19
252.164	72.19
252.397	87.19
252.63	81.19
252.863	87.19
253.096	72.19
253.329	82.19
253.562	102.19
253.795	78.19
254.028	71.19
254.261	80.19
254.494	75.19
254.727	78.19
254.96	85.19
255.193	83.19
255.426	84.19
255.659	80.19
255.892	92.19
256.124	74.19
256.357	81.19
256.59	71.19
256.823	72.19
257.056	78.19
257.289	75.19
257.521	83.19
257.754	88.19
257.987	86.19
258.22	76.19
258.452	81.19
258.685	77.19
258.918	76.19
259.151	68.19
259.383	84.19
259.616	80.19
259.849	84.19
260.081	75.19
260.314	85.19
260.547	77.19
260.779	81.19
261.012	98.19
261.244	79.19
261.477	77.19
261.71	85.19
261.942	84.19
262.175	81.19
262.407	84.19
262.64	88.19
262.872	76.19
263.105	82.19
263.337	84.19
263.57	70.19
263.802	83.19
264.035	85.19
264.267	89.19
264.499	70.19
264.732	86.19
264.964	65.19
265.197	94.19
265.429	93.19
265.661	73.19
265.894	80.19
266.126	99.19
266.358	83.19
266.591	83.19
266.823	72.19
267.055	77.19
267.287	81.19
267.52	77.19
267.752	68.19
267.984	75.19
268.216	81.19
268.448	82.19
268.681	85.19
268.913	78.19
269.145	73.19
269.377	79.19
269.609	71.19
269.841	84.19
270.073	72.19
270.306	71.19
270.538	85.19
270.77	79.19
271.002	87.19
271.234	68.19
271.466	85.19
271.698	91.19
271.93	91.19
272.162	79.19
272.394	73.19
272.626	96.19
272.858	75.19
273.09	77.19
273.322	81.19
273.553	87.19
273.785	76.19
274.017	81.19
274.249	84.19
274.481	92.19
274.713	84.19
274.945	79.19
275.176	81.19
275.408	74.19
275.64	73.19
275.872	87.19
276.104	81.19
276.335	85.19
276.567	81.19
276.799	84.19
277.031	79.19
277.262	75.19
277.494	86.19
277.726	87.19
277.957	83.19
278.189	89.19
278.421	84.19
278.652	86.19
278.884	76.19
279.115	83.19
279.347	81.19
279.579	72.19
279.81	70.19
280.042	77.19
280.273	77.19
280.505	83.19
280.736	76.19
280.968	81.19
281.199	76.19
281.431	73.19
281.662	74.19
281.894	76.19
282.125	91.19
282.356	89.19
282.588	85.19
282.819	87.19
283.051	73.19
283.282	89.19
283.513	83.19
283.745	93.19
283.976	86.19
284.207	71.19
284.439	84.19
284.67	75.19
284.901	76.19
285.132	83.19
285.364	88.19
285.595	89.19
285.826	82.19
286.057	93.19
286.288	87.19
286.52	86.19
286.751	80.19
286.982	84.19
287.213	85.19
287.444	81.19
287.675	87.19
287.906	84.19
288.138	68.19
288.369	77.19
288.6	87.19
288.831	81.19
289.062	94.19
289.293	80.19
289.524	92.19
289.755	85.19
289.986	79.19
290.217	79.19
290.448	72.19
290.679	82.19
290.91	72.19
291.141	88.19
291.371	89.19
291.602	76.19
291.833	80.19
292.064	73.19
292.295	71.19
292.526	83.19
292.757	81.19
292.987	69.19
293.218	69.19
293.449	80.19
293.68	94.19
293.91	70.19
294.141	85.19
294.372	87.19
294.603	69.19
294.833	85.19
295.064	94.19
295.295	81.19
295.525	79.19
295.756	84.19
295.987	72.19
296.217	88.19
296.448	82.19
296.679	95.19
296.909	79.19
297.14	76.19
297.37	72.19
297.601	91.19
297.831	77.19
298.062	84.19
298.292	84.19
298.523	84.19
298.753	69.19
298.984	80.19
299.214	91.19
299.445	79.19
299.675	79.19
299.905	86.19
300.136	79.19
300.366	77.19
300.597	73.19
300.827	77.19
301.057	85.19
301.288	89.19
301.518	93.19
301.748	65.19
301.979	95.19
302.209	81.19
302.439	88.19
302.669	78.19
302.9	73.19
303.13	83.19
303.36	75.19
303.59	91.19
303.82	82.19
304.051	73.19
304.281	83.19
304.511	77.19
304.741	87.19
304.971	78.19
305.201	83.19
305.431	73.19
305.661	83.19
305.891	83.19
306.121	87.19
306.352	76.19
306.582	79.19
306.812	80.19
307.042	85.19
307.272	72.19
307.502	94.19
307.731	85.19
307.961	89.19
308.191	80.19
308.421	87.19
308.651	83.19
308.881	76.19
309.111	78.19
309.341	86.19
309.571	92.19
309.8	79.19
310.03	67.19
310.26	65.19
310.49	86.19
310.72	78.19
310.949	74.19
311.179	86.19
311.409	74.19
311.639	93.19
311.868	78.19
312.098	80.19
312.328	105.19
312.557	86.19
312.787	77.19
313.017	89.19
313.246	94.19
313.476	79.19
313.706	76.19
313.935	73.19
314.165	84.19
314.394	78.19
314.624	80.19
314.853	91.19
315.083	95.19
315.312	89.19
315.542	79.19
315.771	75.19
316.001	83.19
316.23	80.19
316.46	83.19
316.689	81.19
316.919	85.19
317.148	85.19
317.377	88.19
317.607	93.19
317.836	88.19
318.065	79.19
318.295	83.19
318.524	80.19
318.753	75.19
318.983	91.19
319.212	95.19
319.441	78.19
319.67	84.19
319.9	85.19
320.129	82.19
320.358	87.19
320.587	88.19
320.816	82.19
321.046	74.19
321.275	72.19
321.504	92.19
321.733	78.19
321.962	77.19
322.191	96.19
322.42	73.19
322.649	77.19
322.878	83.19
323.108	95.19
323.337	87.19
323.566	81.19
323.795	76.19
324.024	73.19
324.253	80.19
324.482	85.19
324.71	72.19
324.939	91.19
325.168	71.19
325.397	86.19
325.626	75.19
325.855	87.19
326.084	75.19
326.313	70.19
326.542	79.19
326.77	87.19
326.999	56.19
327.228	78.19
327.457	75.19
327.686	81.19
327.914	61.19
328.143	89.19
328.372	86.19
328.6	81.19
328.829	72.19
329.058	70.19
329.287	79.19
329.515	80.19
329.744	95.19
329.972	99.19
330.201	78.19
330.43	77.19
330.658	75.19
330.887	78.19
331.115	83.19
331.344	90.19
331.572	82.19
331.801	78.19
332.03	76.19
332.258	91.19
332.486	84.19
332.715	70.19
332.943	77.19
333.172	79.19
333.4	70.19
333.629	83.19
333.857	95.19
334.085	91.19
334.314	96.19
334.542	73.19
334.771	79.19
334.999	93.19
335.227	78.19
335.455	67.19
335.684	92.19
335.912	82.19
336.14	93.19
336.369	81.19
336.597	80.19
336.825	78.19
337.053	88.19
337.281	81.19
337.51	92.19
337.738	85.19
337.966	81.19
338.194	80.19
338.422	76.19
338.65	77.19
338.878	89.19
339.106	71.19
339.334	77.19
339.562	81.19
339.79	84.19
340.018	84.19
340.246	73.19
340.474	88.19
340.702	80.19
340.93	64.19
341.158	83.19
341.386	91.19
341.614	77.19
341.842	77.19
342.07	83.19
342.298	80.19
342.526	88.19
342.754	64.19
342.981	67.19
343.209	87.19
343.437	96.19
343.665	70.19
343.893	94.19
344.12	79.19
344.348	75.19
344.576	76.19
344.804	95.19
345.031	79.19
345.259	82.19
345.487	95.19
345.714	79.19
345.942	84.19
346.17	81.19
346.397	88.19
346.625	65.19
346.853	81.19
347.08	79.19
347.308	95.19
347.535	63.19
347.763	83.19
347.99	72.19
348.218	91.19
348.445	93.19
348.673	73.19
348.9	79.19
349.128	93.19
349.355	87.19
349.583	82.19
349.81	93.19
350.037	83.19
350.265	83.19
350.492	77.19
350.72	75.19
350.947	81.19
351.174	77.19
351.402	85.19
351.629	79.19
351.856	73.19
352.083	78.19
352.311	79.19
352.538	69.19
352.765	81.19
352.992	80.19
353.22	83.19
353.447	73.19
353.674	83.19
353.901	73.19
354.128	76.19
354.355	83.19
354.583	95.19
354.81	73.19
355.037	91.19
355.264	88.19
355.491	80.19
355.718	80.19
355.945	90.19
356.172	86.19
356.399	76.19
356.626	85.19
356.853	75.19
357.08	87.19
357.307	75.19
357.534	80.19
357.761	83.19
357.988	90.19
358.215	80.19
358.441	87.19
358.668	89.19
358.895	79.19
359.122	75.19
359.349	82.19
359.576	84.19
359.802	76.19
360.029	80.19
360.256	84.19
360.483	80.19
360.709	78.19
360.936	96.19
361.163	87.19
361.39	95.19
361.616	79.19
361.843	81.19
362.07	81.19
362.296	77.19
362.523	78.19
362.749	89.19
362.976	67.19
363.203	102.19
363.429	89.19
363.656	78.19
363.882	75.19
364.109	80.19
364.335	73.19
364.562	82.19
364.788	83.19
365.015	80.19
365.241	75.19
365.468	99.19
365.694	71.19
365.92	86.19
366.147	75.19
366.373	86.19
366.599	95.19
366.826	85.19
367.052	79.19
367.278	85.19
367.505	83.19
367.731	87.19
367.957	79.19
368.184	89.19
368.41	84.19
368.636	88.19
368.862	82.19
369.089	82.19
369.315	79.19
369.541	80.19
369.767	81.19
369.993	83.19
370.219	62.19
370.445	69.19
370.672	73.19
370.898	67.19
371.124	88.19
371.35	71.19
371.576	79.19
371.802	81.19
372.028	75.19
372.254	92.19
372.48	77.19
372.706	87.19
372.932	75.19
373.158	68.19
373.384	68.19
373.61	81.19
373.835	69.19
374.061	79.19
374.287	94.19
374.513	84.19
374.739	83.19
374.965	76.19
375.191	75.19
375.416	79.19
375.642	85.19
375.868	69.19
376.094	81.19
376.319	74.19
376.545	90.19
376.771	80.19
376.997	83.19
377.222	85.19
377.448	73.19
377.674	62.19
377.899	84.19
378.125	78.19
378.35	77.19
378.576	82.19
378.802	87.19
379.027	78.19
379.253	77.19
379.478	76.19
379.704	85.19
379.929	83.19
380.155	71.19
380.38	76.19
380.606	80.19
380.831	93.19
381.057	96.19
381.282	84.19
381.507	94.19
381.733	69.19
381.958	63.19
382.184	70.19
382.409	84.19
382.634	72.19
382.86	86.19
383.085	85.19
383.31	86.19
383.535	84.19
383.761	76.19
383.986	77.19
384.211	77.19
384.436	88.19
384.662	69.19
384.887	70.19
385.112	69.19
385.337	85.19
385.562	77.19
385.787	73.19
386.013	78.19
386.238	87.19
386.463	87.19
386.688	89.19
386.913	94.19
387.138	72.19
387.363	73.19
387.588	86.19
387.813	77.19
388.038	76.19
388.263	87.19
388.488	72.19
388.713	79.19
388.938	80.19
389.163	85.19
389.387	60.19
389.612	66.19
389.837	79.19
390.062	81.19
390.287	86.19
390.512	79.19
390.736	70.19
390.961	72.19
391.186	76.19
391.411	86.19
391.636	72.19
391.86	93.19
392.085	81.19
392.31	80.19
392.534	87.19
392.759	91.19
392.984	83.19
393.208	90.19
393.433	81.19
393.658	67.19
393.882	78.19
394.107	75.19
394.331	80.19
394.556	65.19
394.78	79.19
395.005	90.19
395.229	63.19
395.454	80.19
395.678	80.19
395.903	84.19
396.127	77.19
396.352	89.19
396.576	72.19
396.801	88.19
397.025	95.19
397.249	81.19
397.474	79.19
397.698	85.19
397.922	88.19
398.147	77.19
398.371	70.19
398.595	77.19
398.82	71.19
399.044	78.19
399.268	76.19
399.492	63.19
399.717	84.19
399.941	90.19
400.165	68.19
400.389	70.19
400.613	73.19
400.837	74.19
401.062	80.19
401.286	78.19
401.51	67.19
401.734	80.19
401.958	77.19
402.182	76.19
402.406	77.19
402.63	90.19
402.854	78.19
403.078	81.19
403.302	79.19
403.526	62.19
403.75	87.19
403.974	83.19
404.198	85.19
404.422	95.19
404.645	72.19
404.869	72.19
405.093	81.19
405.317	96.19
405.541	83.19
405.765	85.19
405.988	76.19
406.212	68.19
406.436	73.19
406.66	90.19
406.883	75.19
407.107	71.19
407.331	75.19
407.555	84.19
407.778	73.19
408.002	80.19
408.226	75.19
408.449	72.19
408.673	98.19
408.896	77.19
409.12	75.19
409.344	83.19
409.567	78.19
409.791	77.19
410.014	73.19
410.238	81.19
410.461	87.19
410.685	88.19
410.908	75.19
411.132	79.19
411.355	79.19
411.578	85.19
411.802	75.19
412.025	69.19
412.249	80.19
412.472	80.19
412.695	69.19
412.919	88.19
413.142	74.19
413.365	74.19
413.589	64.19
413.812	73.19
414.035	89.19
414.258	79.19
414.482	60.19
414.705	69.19
414.928	73.19
415.151	88.19
415.374	67.19
415.597	87.19
415.821	75.19
416.044	83.19
416.267	75.19
416.49	79.19
416.713	82.19
416.936	87.19
417.159	85.19
417.382	75.19
417.605	77.19
417.828	88.19
418.051	90.19
418.274	69.19
418.497	94.19
418.72	80.19
418.943	65.19
419.166	79.19
419.389	79.19
419.611	78.19
419.834	78.19
420.057	83.19
420.28	87.19
420.503	72.19
420.726	76.19
420.948	79.19
421.171	71.19
421.394	80.19
421.617	82.19
421.839	85.19
422.062	86.19
422.285	74.19
422.507	86.19
422.73	76.19
422.953	81.19
423.175	87.19
423.398	78.19
423.621	71.19
423.843	74.19
424.066	75.19
424.288	80.19
424.511	86.19
424.733	74.19
424.956	72.19
425.178	67.19
425.401	89.19
425.623	78.19
425.846	79.19
426.068	80.19
426.291	81.19
426.513	71.19
426.735	78.19
426.958	75.19
427.18	77.19
427.402	73.19
427.625	72.19
427.847	62.19
428.069	81.19
428.292	82.19
428.514	75.19
428.736	93.19
428.958	80.19
429.181	73.19
429.403	76.19
429.625	84.19
429.847	92.19
430.069	89.19
430.292	83.19
430.514	80.19
430.736	71.19
430.958	78.19
431.18	82.19
431.402	93.19
431.624	76.19
431.846	86.19
432.068	85.19
432.29	96.19
432.512	71.19
432.734	83.19
432.956	80.19
433.178	90.19
433.4	80.19
433.622	85.19
433.844	85.19
434.066	84.19
434.287	67.19
434.509	77.19
434.731	82.19
434.953	89.19
435.175	72.19
435.397	69.19
435.618	83.19
435.84	92.19
436.062	69.19
436.284	78.19
436.505	57.19
436.727	83.19
436.949	80.19
437.17	67.19
437.392	70.19
437.614	80.19
437.835	78.19
438.057	83.19
438.278	60.19
438.5	84.19
438.721	73.19
438.943	72.19
439.165	81.19
439.386	82.19
439.608	86.19
439.829	83.19
440.05	81.19
440.272	84.19
440.493	65.19
440.715	79.19
440.936	78.19
441.158	87.19
441.379	81.19
441.6	76.19
441.822	81.19
442.043	83.19
442.264	94.19
442.486	93.19
442.707	75.19
442.928	76.19
443.149	80.19
443.371	86.19
443.592	75.19
443.813	80.19
444.034	77.19
444.255	88.19
444.476	92.19
444.698	77.19
444.919	86.19
445.14	168.19
445.361	116.19
445.582	85.19
445.803	91.19
446.024	74.19
446.245	79.19
446.466	80.19
446.687	76.19
446.908	65.19
447.129	88.19
447.35	89.19
447.571	92.19
447.792	74.19
448.013	83.19
448.234	79.19
448.455	78.19
448.675	60.19
448.896	76.19
449.117	76.19
449.338	72.19
449.559	85.19
449.779	81.19
450	59.19
450.221	76.19
450.442	81.19
450.662	79.19
450.883	75.19
451.104	77.19
451.324	69.19
451.545	65.19
451.766	84.19
451.986	78.19
452.207	75.19
452.428	82.19
452.648	57.19
452.869	78.19
453.089	75.19
453.31	75.19
453.53	69.19
453.751	83.19
453.971	70.19
454.192	64.19
454.412	64.19
454.633	85.19
454.853	77.19
455.073	76.19
455.294	72.19
455.514	64.19
455.734	80.19
455.955	89.19
456.175	83.19
456.395	80.19
456.616	66.19
456.836	87.19
457.056	83.19
457.276	78.19
457.497	83.19
457.717	94.19
457.937	89.19
458.157	73.19
458.377	83.19
458.598	81.19
458.818	73.19
459.038	68.19
459.258	62.19
459.478	69.19
459.698	86.19
459.918	81.19
460.138	79.19
460.358	85.19
460.578	79.19
460.798	87.19
461.018	81.19
461.238	84.19
461.458	81.19
461.678	72.19
461.898	73.19
462.118	68.19
462.338	77.19
462.558	73.19
462.777	84.19
462.997	67.19
463.217	78.19
463.437	86.19
463.657	72.19
463.876	69.19
464.096	95.19
464.316	80.19
464.536	78.19
464.755	66.19
464.975	70.19
465.195	88.19
465.414	97.19
465.634	79.19
465.854	63.19
466.073	76.19
466.293	90.19
466.512	91.19
466.732	75.19
466.951	63.19
467.171	72.19
467.391	73.19
467.61	86.19
467.829	87.19
468.049	80.19
468.268	71.19
468.488	78.19
468.707	74.19
468.927	85.19
469.146	65.19
469.365	73.19
469.585	78.19
469.804	89.19
470.023	72.19
470.243	80.19
470.462	74.19
470.681	86.19
470.901	69.19
471.12	74.19
471.339	85.19
471.558	84.19
471.777	72.19
471.997	81.19
472.216	82.19
472.435	74.19
472.654	93.19
472.873	87.19
473.092	78.19
473.311	72.19
473.53	79.19
473.749	70.19
473.968	82.19
474.187	75.19
474.406	69.19
474.625	76.19
474.844	77.19
475.063	69.19
475.282	85.19
475.501	87.19
475.72	98.19
475.939	88.19
476.158	77.19
476.377	71.19
476.596	81.19
476.814	81.19
477.033	77.19
477.252	80.19
477.471	65.19
477.69	72.19
477.908	91.19
478.127	85.19
478.346	78.19
478.564	75.19
478.783	77.19
479.002	89.19
479.22	74.19
479.439	78.19
479.658	75.19
479.876	85.19
480.095	77.19
480.313	83.19
480.532	80.19
480.751	87.19
480.969	83.19
481.188	76.19
481.406	72.19
481.624	83.19
481.843	87.19
482.061	73.19
482.28	65.19
482.498	92.19
482.717	76.19
482.935	87.19
483.153	82.19
483.372	93.19
483.59	77.19
483.808	78.19
484.027	89.19
484.245	76.19
484.463	93.19
484.681	89.19
484.9	85.19
485.118	76.19
485.336	71.19
485.554	69.19
485.772	68.19
485.99	76.19
486.209	61.19
486.427	64.19
486.645	77.19
486.863	84.19
487.081	81.19
487.299	82.19
487.517	91.19
487.735	79.19
487.953	67.19
488.171	85.19
488.389	79.19
488.607	73.19
488.825	83.19
489.043	95.19
489.261	86.19
489.479	86.19
489.696	74.19
489.914	80.19
490.132	74.19
490.35	61.19
490.568	69.19
490.786	78.19
491.003	92.19
491.221	85.19
491.439	85.19
491.657	78.19
491.874	83.19
492.092	72.19
492.31	64.19
492.527	85.19
492.745	81.19
492.963	86.19
493.18	87.19
493.398	78.19
493.615	78.19
493.833	72.19
494.05	91.19
494.268	78.19
494.485	82.19
494.703	81.19
494.92	99.19
495.138	93.19
495.355	81.19
495.573	84.19
495.79	76.19
496.008	62.19
496.225	81.19
496.442	89.19
496.66	94.19
496.877	84.19
497.094	79.19
497.312	88.19
497.529	83.19
497.746	83.19
497.963	101.19
498.181	92.19
498.398	85.19
498.615	87.19
498.832	78.19
499.049	80.19
499.267	83.19
499.484	83.19
499.701	90.19
499.918	77.19
500.135	79.19
500.352	78.19
500.569	85.19
500.786	85.19
501.003	79.19
501.22	78.19
501.437	69.19
501.654	75.19
501.871	77.19
502.088	93.19
502.305	93.19
502.522	68.19
502.739	67.19
502.956	93.19
503.172	78.19
503.389	85.19
503.606	75.19
503.823	72.19
504.04	84.19
504.256	89.19
504.473	88.19
504.69	95.19
504.907	74.19
505.123	72.19
505.34	74.19
505.557	102.19
505.773	89.19
505.99	76.19
506.207	87.19
506.423	87.19
506.64	86.19
506.856	85.19
507.073	84.19
507.289	80.19
507.506	69.19
507.722	71.19
507.939	92.19
508.155	83.19
508.372	84.19
508.588	87.19
508.805	81.19
509.021	76.19
509.238	83.19
509.454	88.19
509.67	89.19
509.887	82.19
510.103	80.19
510.319	81.19
510.536	87.19
510.752	76.19
510.968	72.19
511.184	78.19
511.401	61.19
511.617	101.19
511.833	77.19
512.049	72.19
512.265	72.19
512.481	78.19
512.698	102.19
512.914	95.19
513.13	89.19
513.346	88.19
513.562	86.19
513.778	77.19
513.994	75.19
514.21	76.19
514.426	70.19
514.642	80.19
514.858	77.19
515.074	77.19
515.29	77.19
515.506	71.19
515.721	79.19
515.937	72.19
516.153	79.19
516.369	72.19
516.585	95.19
516.801	73.19
517.016	81.19
517.232	88.19
517.448	79.19
517.664	78.19
517.879	78.19
518.095	74.19
518.311	79.19
518.527	86.19
518.742	88.19
518.958	79.19
519.173	82.19
519.389	78.19
519.605	72.19
519.82	69.19
520.036	89.19
520.251	83.19
