Data from StdD_HRD10591_044.txt Node
Date: Fri May 16 15:31:43 EDT 2025
User: Yrep
Spectrometer: HR+D1059
Trigger mode: 1
Integration Time (sec): 1.000000E-1
Scans to average: 1
Electric dark correction enabled: true
Nonlinearity correction enabled: false
Boxcar width: 0
XAxis mode: Wavelengths
Number of Pixels in Spectrum: 2048
>>>>>Begin Spectral Data<<<<<
223.165	-18.06
223.4	-18.06
223.635	-18.06
223.869	-12.06
224.104	-17.06
224.338	-17.06
224.573	-5.06
224.808	-15.06
225.042	-6.06
225.277	-10.06
225.511	9.94
225.746	-5.06
225.98	0.94
226.215	-2.06
226.449	0.94
226.683	27.94
226.918	41.94
227.152	25.94
227.387	49.94
227.621	41.94
227.856	49.94
228.09	45.94
228.324	48.94
228.559	55.94
228.793	58.94
229.027	58.94
229.262	59.94
229.496	78.94
229.73	75.94
229.964	70.94
230.199	70.94
230.433	73.94
230.667	90.94
230.901	87.94
231.136	75.94
231.37	80.94
231.604	92.94
231.838	91.94
232.072	82.94
232.306	82.94
232.541	80.94
232.775	84.94
233.009	85.94
233.243	87.94
233.477	87.94
233.711	84.94
233.945	86.94
234.179	81.94
234.413	77.94
234.647	80.94
234.881	74.94
235.115	92.94
235.349	80.94
235.583	75.94
235.817	65.94
236.051	89.94
236.285	88.94
236.519	80.94
236.753	68.94
236.987	92.94
237.221	100.94
237.455	78.94
237.689	63.94
237.922	81.94
238.156	83.94
238.39	84.94
238.624	82.94
238.858	89.94
239.091	67.94
239.325	88.94
239.559	91.94
239.793	80.94
240.027	81.94
240.26	69.94
240.494	82.94
240.728	74.94
240.961	84.94
241.195	77.94
241.429	77.94
241.662	77.94
241.896	73.94
242.13	66.94
242.363	78.94
242.597	73.94
242.83	80.94
243.064	79.94
243.298	95.94
243.531	74.94
243.765	69.94
243.998	80.94
244.232	83.94
244.465	55.94
244.699	73.94
244.932	79.94
245.166	67.94
245.399	81.94
245.633	85.94
245.866	79.94
246.099	74.94
246.333	66.94
246.566	78.94
246.8	98.94
247.033	77.94
247.266	75.94
247.5	70.94
247.733	75.94
247.966	75.94
248.2	92.94
248.433	79.94
248.666	82.94
248.899	75.94
249.133	86.94
249.366	75.94
249.599	84.94
249.832	76.94
250.066	75.94
250.299	76.94
250.532	89.94
250.765	86.94
250.998	73.94
251.231	74.94
251.465	74.94
251.698	71.94
251.931	90.94
252.164	72.94
252.397	67.94
252.63	84.94
252.863	95.94
253.096	73.94
253.329	82.94
253.562	85.94
253.795	70.94
254.028	83.94
254.261	87.94
254.494	86.94
254.727	80.94
254.96	77.94
255.193	85.94
255.426	69.94
255.659	73.94
255.892	75.94
256.124	74.94
256.357	84.94
256.59	84.94
256.823	77.94
257.056	86.94
257.289	87.94
257.521	81.94
257.754	84.94
257.987	69.94
258.22	75.94
258.452	75.94
258.685	76.94
258.918	85.94
259.151	70.94
259.383	91.94
259.616	86.94
259.849	82.94
260.081	73.94
260.314	92.94
260.547	84.94
260.779	74.94
261.012	80.94
261.244	81.94
261.477	89.94
261.71	77.94
261.942	89.94
262.175	88.94
262.407	81.94
262.64	88.94
262.872	77.94
263.105	77.94
263.337	68.94
263.57	83.94
263.802	85.94
264.035	82.94
264.267	90.94
264.499	80.94
264.732	79.94
264.964	79.94
265.197	79.94
265.429	78.94
265.661	86.94
265.894	83.94
266.126	85.94
266.358	91.94
266.591	70.94
266.823	87.94
267.055	69.94
267.287	81.94
267.52	90.94
267.752	81.94
267.984	79.94
268.216	87.94
268.448	68.94
268.681	73.94
268.913	83.94
269.145	84.94
269.377	82.94
269.609	87.94
269.841	82.94
270.073	82.94
270.306	93.94
270.538	90.94
270.77	76.94
271.002	82.94
271.234	70.94
271.466	77.94
271.698	91.94
271.93	88.94
272.162	98.94
272.394	79.94
272.626	77.94
272.858	90.94
273.09	84.94
273.322	89.94
273.553	88.94
273.785	85.94
274.017	81.94
274.249	85.94
274.481	91.94
274.713	81.94
274.945	72.94
275.176	84.94
275.408	91.94
275.64	95.94
275.872	95.94
276.104	92.94
276.335	83.94
276.567	77.94
276.799	69.94
277.031	86.94
277.262	74.94
277.494	79.94
277.726	81.94
277.957	90.94
278.189	91.94
278.421	78.94
278.652	85.94
278.884	86.94
279.115	80.94
279.347	83.94
279.579	74.94
279.81	75.94
280.042	79.94
280.273	63.94
280.505	82.94
280.736	94.94
280.968	77.94
281.199	68.94
281.431	85.94
281.662	83.94
281.894	91.94
282.125	85.94
282.356	91.94
282.588	91.94
282.819	81.94
283.051	88.94
283.282	86.94
283.513	87.94
283.745	80.94
283.976	80.94
284.207	83.94
284.439	100.94
284.67	98.94
284.901	82.94
285.132	95.94
285.364	84.94
285.595	73.94
285.826	77.94
286.057	94.94
286.288	83.94
286.52	83.94
286.751	78.94
286.982	87.94
287.213	93.94
287.444	99.94
287.675	87.94
287.906	92.94
288.138	87.94
288.369	96.94
288.6	81.94
288.831	89.94
289.062	88.94
289.293	84.94
289.524	80.94
289.755	85.94
289.986	88.94
290.217	79.94
290.448	89.94
290.679	103.94
290.91	92.94
291.141	84.94
291.371	100.94
291.602	88.94
291.833	86.94
292.064	82.94
292.295	83.94
292.526	87.94
292.757	91.94
292.987	74.94
293.218	106.94
293.449	80.94
293.68	89.94
293.91	87.94
294.141	84.94
294.372	81.94
294.603	82.94
294.833	91.94
295.064	87.94
295.295	88.94
295.525	84.94
295.756	86.94
295.987	73.94
296.217	83.94
296.448	68.94
296.679	81.94
296.909	89.94
297.14	87.94
297.37	84.94
297.601	77.94
297.831	83.94
298.062	94.94
298.292	84.94
298.523	93.94
298.753	82.94
298.984	87.94
299.214	87.94
299.445	83.94
299.675	77.94
299.905	88.94
300.136	87.94
300.366	73.94
300.597	87.94
300.827	80.94
301.057	81.94
301.288	74.94
301.518	84.94
301.748	87.94
301.979	87.94
302.209	81.94
302.439	76.94
302.669	80.94
302.9	77.94
303.13	86.94
303.36	78.94
303.59	96.94
303.82	86.94
304.051	83.94
304.281	81.94
304.511	74.94
304.741	92.94
304.971	83.94
305.201	91.94
305.431	77.94
305.661	82.94
305.891	89.94
306.121	96.94
306.352	77.94
306.582	99.94
306.812	88.94
307.042	82.94
307.272	83.94
307.502	81.94
307.731	101.94
307.961	89.94
308.191	69.94
308.421	90.94
308.651	75.94
308.881	81.94
309.111	76.94
309.341	73.94
309.571	95.94
309.8	88.94
310.03	83.94
310.26	83.94
310.49	83.94
310.72	70.94
310.949	79.94
311.179	92.94
311.409	82.94
311.639	76.94
311.868	87.94
312.098	90.94
312.328	80.94
312.557	94.94
312.787	87.94
313.017	89.94
313.246	89.94
313.476	82.94
313.706	73.94
313.935	73.94
314.165	82.94
314.394	82.94
314.624	82.94
314.853	90.94
315.083	77.94
315.312	81.94
315.542	99.94
315.771	79.94
316.001	85.94
316.23	106.94
316.46	79.94
316.689	101.94
316.919	91.94
317.148	87.94
317.377	99.94
317.607	78.94
317.836	94.94
318.065	89.94
318.295	83.94
318.524	77.94
318.753	103.94
318.983	87.94
319.212	84.94
319.441	93.94
319.67	83.94
319.9	93.94
320.129	87.94
320.358	83.94
320.587	91.94
320.816	90.94
321.046	79.94
321.275	92.94
321.504	94.94
321.733	97.94
321.962	90.94
322.191	79.94
322.42	86.94
322.649	91.94
322.878	84.94
323.108	92.94
323.337	93.94
323.566	89.94
323.795	89.94
324.024	75.94
324.253	88.94
324.482	86.94
324.71	87.94
324.939	83.94
325.168	94.94
325.397	98.94
325.626	88.94
325.855	87.94
326.084	90.94
326.313	82.94
326.542	99.94
326.77	84.94
326.999	72.94
327.228	70.94
327.457	92.94
327.686	81.94
327.914	85.94
328.143	77.94
328.372	94.94
328.6	73.94
328.829	91.94
329.058	88.94
329.287	101.94
329.515	83.94
329.744	94.94
329.972	86.94
330.201	87.94
330.43	75.94
330.658	77.94
330.887	65.94
331.115	77.94
331.344	96.94
331.572	88.94
331.801	84.94
332.03	87.94
332.258	74.94
332.486	87.94
332.715	79.94
332.943	88.94
333.172	85.94
333.4	82.94
333.629	86.94
333.857	87.94
334.085	73.94
334.314	88.94
334.542	94.94
334.771	100.94
334.999	83.94
335.227	77.94
335.455	77.94
335.684	84.94
335.912	110.94
336.14	101.94
336.369	91.94
336.597	93.94
336.825	82.94
337.053	65.94
337.281	102.94
337.51	83.94
337.738	87.94
337.966	90.94
338.194	85.94
338.422	86.94
338.65	88.94
338.878	101.94
339.106	87.94
339.334	94.94
339.562	87.94
339.79	92.94
340.018	83.94
340.246	71.94
340.474	85.94
340.702	89.94
340.93	95.94
341.158	68.94
341.386	83.94
341.614	83.94
341.842	92.94
342.07	90.94
342.298	87.94
342.526	85.94
342.754	84.94
342.981	85.94
343.209	78.94
343.437	85.94
343.665	75.94
343.893	90.94
344.12	87.94
344.348	89.94
344.576	92.94
344.804	83.94
345.031	91.94
345.259	89.94
345.487	92.94
345.714	77.94
345.942	77.94
346.17	80.94
346.397	82.94
346.625	80.94
346.853	90.94
347.08	80.94
347.308	86.94
347.535	95.94
347.763	87.94
347.99	91.94
348.218	83.94
348.445	87.94
348.673	87.94
348.9	95.94
349.128	86.94
349.355	79.94
349.583	85.94
349.81	99.94
350.037	89.94
350.265	82.94
350.492	86.94
350.72	85.94
350.947	80.94
351.174	85.94
351.402	90.94
351.629	93.94
351.856	90.94
352.083	82.94
352.311	75.94
352.538	82.94
352.765	75.94
352.992	96.94
353.22	90.94
353.447	97.94
353.674	81.94
353.901	97.94
354.128	90.94
354.355	89.94
354.583	90.94
354.81	80.94
355.037	91.94
355.264	92.94
355.491	87.94
355.718	91.94
355.945	77.94
356.172	75.94
356.399	73.94
356.626	81.94
356.853	71.94
357.08	87.94
357.307	80.94
357.534	81.94
357.761	68.94
357.988	81.94
358.215	87.94
358.441	73.94
358.668	98.94
358.895	95.94
359.122	81.94
359.349	93.94
359.576	93.94
359.802	83.94
360.029	97.94
360.256	94.94
360.483	93.94
360.709	82.94
360.936	89.94
361.163	91.94
361.39	92.94
361.616	84.94
361.843	83.94
362.07	97.94
362.296	75.94
362.523	77.94
362.749	87.94
362.976	102.94
363.203	91.94
363.429	79.94
363.656	81.94
363.882	76.94
364.109	80.94
364.335	87.94
364.562	80.94
364.788	83.94
365.015	89.94
365.241	96.94
365.468	88.94
365.694	74.94
365.92	78.94
366.147	92.94
366.373	96.94
366.599	83.94
366.826	84.94
367.052	93.94
367.278	84.94
367.505	84.94
367.731	88.94
367.957	80.94
368.184	93.94
368.41	75.94
368.636	90.94
368.862	89.94
369.089	83.94
369.315	83.94
369.541	92.94
369.767	82.94
369.993	78.94
370.219	95.94
370.445	78.94
370.672	73.94
370.898	89.94
371.124	92.94
371.35	95.94
371.576	91.94
371.802	90.94
372.028	78.94
372.254	78.94
372.48	89.94
372.706	63.94
372.932	78.94
373.158	82.94
373.384	78.94
373.61	76.94
373.835	84.94
374.061	92.94
374.287	81.94
374.513	96.94
374.739	77.94
374.965	83.94
375.191	93.94
375.416	71.94
375.642	91.94
375.868	91.94
376.094	88.94
376.319	86.94
376.545	90.94
376.771	76.94
376.997	73.94
377.222	85.94
377.448	75.94
377.674	85.94
377.899	86.94
378.125	85.94
378.35	92.94
378.576	91.94
378.802	89.94
379.027	88.94
379.253	93.94
379.478	90.94
379.704	67.94
379.929	85.94
380.155	88.94
380.38	91.94
380.606	104.94
380.831	90.94
381.057	97.94
381.282	80.94
381.507	69.94
381.733	87.94
381.958	88.94
382.184	72.94
382.409	88.94
382.634	92.94
382.86	69.94
383.085	91.94
383.31	78.94
383.535	79.94
383.761	81.94
383.986	103.94
384.211	77.94
384.436	83.94
384.662	83.94
384.887	85.94
385.112	95.94
385.337	86.94
385.562	70.94
385.787	85.94
386.013	67.94
386.238	75.94
386.463	85.94
386.688	116.94
386.913	87.94
387.138	91.94
387.363	83.94
387.588	97.94
387.813	90.94
388.038	92.94
388.263	84.94
388.488	93.94
388.713	86.94
388.938	85.94
389.163	75.94
389.387	76.94
389.612	83.94
389.837	95.94
390.062	84.94
390.287	93.94
390.512	89.94
390.736	79.94
390.961	80.94
391.186	84.94
391.411	85.94
391.636	86.94
391.86	87.94
392.085	79.94
392.31	79.94
392.534	80.94
392.759	78.94
392.984	82.94
393.208	80.94
393.433	87.94
393.658	84.94
393.882	79.94
394.107	91.94
394.331	91.94
394.556	76.94
394.78	95.94
395.005	88.94
395.229	66.94
395.454	88.94
395.678	77.94
395.903	84.94
396.127	88.94
396.352	88.94
396.576	91.94
396.801	97.94
397.025	86.94
397.249	77.94
397.474	84.94
397.698	89.94
397.922	74.94
398.147	81.94
398.371	83.94
398.595	85.94
398.82	83.94
399.044	77.94
399.268	83.94
399.492	71.94
399.717	82.94
399.941	77.94
400.165	93.94
400.389	83.94
400.613	78.94
400.837	89.94
401.062	85.94
401.286	73.94
401.51	78.94
401.734	83.94
401.958	85.94
402.182	83.94
402.406	77.94
402.63	79.94
402.854	99.94
403.078	85.94
403.302	76.94
403.526	78.94
403.75	82.94
403.974	87.94
404.198	86.94
404.422	82.94
404.645	58.94
404.869	76.94
405.093	67.94
405.317	82.94
405.541	86.94
405.765	90.94
405.988	89.94
406.212	91.94
406.436	101.94
406.66	75.94
406.883	85.94
407.107	83.94
407.331	75.94
407.555	78.94
407.778	95.94
408.002	70.94
408.226	76.94
408.449	68.94
408.673	83.94
408.896	82.94
409.12	80.94
409.344	77.94
409.567	78.94
409.791	87.94
410.014	93.94
410.238	78.94
410.461	79.94
410.685	85.94
410.908	81.94
411.132	89.94
411.355	88.94
411.578	89.94
411.802	88.94
412.025	90.94
412.249	78.94
412.472	89.94
412.695	89.94
412.919	92.94
413.142	78.94
413.365	81.94
413.589	87.94
413.812	90.94
414.035	96.94
414.258	88.94
414.482	99.94
414.705	75.94
414.928	96.94
415.151	84.94
415.374	80.94
415.597	88.94
415.821	74.94
416.044	88.94
416.267	84.94
416.49	83.94
416.713	86.94
416.936	85.94
417.159	70.94
417.382	88.94
417.605	78.94
417.828	87.94
418.051	73.94
418.274	81.94
418.497	89.94
418.72	73.94
418.943	83.94
419.166	68.94
419.389	67.94
419.611	81.94
419.834	88.94
420.057	86.94
420.28	74.94
420.503	75.94
420.726	73.94
420.948	96.94
421.171	77.94
421.394	89.94
421.617	87.94
421.839	87.94
422.062	95.94
422.285	87.94
422.507	92.94
422.73	76.94
422.953	69.94
423.175	92.94
423.398	83.94
423.621	83.94
423.843	76.94
424.066	77.94
424.288	84.94
424.511	90.94
424.733	91.94
424.956	87.94
425.178	74.94
425.401	77.94
425.623	103.94
425.846	76.94
426.068	73.94
426.291	83.94
426.513	75.94
426.735	82.94
426.958	87.94
427.18	84.94
427.402	89.94
427.625	77.94
427.847	67.94
428.069	90.94
428.292	87.94
428.514	62.94
428.736	81.94
428.958	83.94
429.181	83.94
429.403	78.94
429.625	91.94
429.847	81.94
430.069	87.94
430.292	95.94
430.514	85.94
430.736	77.94
430.958	79.94
431.18	88.94
431.402	82.94
431.624	91.94
431.846	69.94
432.068	81.94
432.29	84.94
432.512	84.94
432.734	76.94
432.956	79.94
433.178	92.94
433.4	85.94
433.622	77.94
433.844	73.94
434.066	70.94
434.287	82.94
434.509	93.94
434.731	66.94
434.953	81.94
435.175	73.94
435.397	77.94
435.618	88.94
435.84	84.94
436.062	90.94
436.284	84.94
436.505	88.94
436.727	83.94
436.949	90.94
437.17	75.94
437.392	73.94
437.614	77.94
437.835	80.94
438.057	104.94
438.278	91.94
438.5	84.94
438.721	76.94
438.943	82.94
439.165	85.94
439.386	74.94
439.608	85.94
439.829	84.94
440.05	77.94
440.272	83.94
440.493	88.94
440.715	77.94
440.936	79.94
441.158	83.94
441.379	75.94
441.6	74.94
441.822	88.94
442.043	91.94
442.264	74.94
442.486	84.94
442.707	100.94
442.928	86.94
443.149	92.94
443.371	79.94
443.592	80.94
443.813	75.94
444.034	87.94
444.255	88.94
444.476	82.94
444.698	69.94
444.919	91.94
445.14	157.94
445.361	113.94
445.582	88.94
445.803	71.94
446.024	78.94
446.245	80.94
446.466	101.94
446.687	99.94
446.908	91.94
447.129	85.94
447.35	97.94
447.571	82.94
447.792	82.94
448.013	76.94
448.234	92.94
448.455	82.94
448.675	90.94
448.896	75.94
449.117	79.94
449.338	82.94
449.559	75.94
449.779	77.94
450	82.94
450.221	68.94
450.442	88.94
450.662	88.94
450.883	82.94
451.104	91.94
451.324	76.94
451.545	82.94
451.766	73.94
451.986	81.94
452.207	79.94
452.428	86.94
452.648	75.94
452.869	78.94
453.089	87.94
453.31	77.94
453.53	75.94
453.751	83.94
453.971	95.94
454.192	81.94
454.412	89.94
454.633	84.94
454.853	76.94
455.073	69.94
455.294	82.94
455.514	84.94
455.734	75.94
455.955	84.94
456.175	75.94
456.395	89.94
456.616	84.94
456.836	83.94
457.056	89.94
457.276	89.94
457.497	78.94
457.717	75.94
457.937	79.94
458.157	76.94
458.377	79.94
458.598	64.94
458.818	80.94
459.038	78.94
459.258	72.94
459.478	84.94
459.698	83.94
459.918	79.94
460.138	89.94
460.358	87.94
460.578	84.94
460.798	83.94
461.018	68.94
461.238	81.94
461.458	81.94
461.678	65.94
461.898	88.94
462.118	83.94
462.338	81.94
462.558	81.94
462.777	78.94
462.997	63.94
463.217	92.94
463.437	77.94
463.657	91.94
463.876	80.94
464.096	83.94
464.316	75.94
464.536	81.94
464.755	88.94
464.975	88.94
465.195	67.94
465.414	85.94
465.634	91.94
465.854	81.94
466.073	76.94
466.293	75.94
466.512	78.94
466.732	71.94
466.951	83.94
467.171	65.94
467.391	76.94
467.61	75.94
467.829	77.94
468.049	81.94
468.268	97.94
468.488	96.94
468.707	88.94
468.927	85.94
469.146	68.94
469.365	81.94
469.585	80.94
469.804	77.94
470.023	82.94
470.243	95.94
470.462	97.94
470.681	79.94
470.901	85.94
471.12	91.94
471.339	91.94
471.558	89.94
471.777	83.94
471.997	88.94
472.216	80.94
472.435	78.94
472.654	82.94
472.873	69.94
473.092	74.94
473.311	85.94
473.53	90.94
473.749	84.94
473.968	85.94
474.187	79.94
474.406	80.94
474.625	84.94
474.844	81.94
475.063	67.94
475.282	91.94
475.501	88.94
475.72	75.94
475.939	88.94
476.158	77.94
476.377	80.94
476.596	84.94
476.814	73.94
477.033	77.94
477.252	87.94
477.471	77.94
477.69	92.94
477.908	83.94
478.127	79.94
478.346	76.94
478.564	98.94
478.783	79.94
479.002	83.94
479.22	80.94
479.439	90.94
479.658	90.94
479.876	82.94
480.095	76.94
480.313	78.94
480.532	62.94
480.751	81.94
480.969	87.94
481.188	102.94
481.406	75.94
481.624	75.94
481.843	104.94
482.061	71.94
482.28	95.94
482.498	86.94
482.717	84.94
482.935	85.94
483.153	93.94
483.372	83.94
483.59	81.94
483.808	78.94
484.027	90.94
484.245	81.94
484.463	69.94
484.681	79.94
484.9	85.94
485.118	88.94
485.336	83.94
485.554	88.94
485.772	79.94
485.99	88.94
486.209	73.94
486.427	75.94
486.645	79.94
486.863	92.94
487.081	73.94
487.299	82.94
487.517	80.94
487.735	63.94
487.953	83.94
488.171	94.94
488.389	82.94
488.607	89.94
488.825	78.94
489.043	75.94
489.261	99.94
489.479	99.94
489.696	93.94
489.914	95.94
490.132	100.94
490.35	79.94
490.568	83.94
490.786	92.94
491.003	84.94
491.221	87.94
491.439	91.94
491.657	90.94
491.874	85.94
492.092	82.94
492.31	72.94
492.527	82.94
492.745	77.94
492.963	90.94
493.18	87.94
493.398	97.94
493.615	80.94
493.833	89.94
494.05	110.94
494.268	71.94
494.485	94.94
494.703	85.94
494.92	91.94
495.138	75.94
495.355	97.94
495.573	83.94
495.79	89.94
496.008	79.94
496.225	87.94
496.442	75.94
496.66	77.94
496.877	81.94
497.094	100.94
497.312	95.94
497.529	83.94
497.746	76.94
497.963	83.94
498.181	82.94
498.398	100.94
498.615	85.94
498.832	91.94
499.049	74.94
499.267	91.94
499.484	83.94
499.701	85.94
499.918	84.94
500.135	83.94
500.352	81.94
500.569	87.94
500.786	84.94
501.003	94.94
501.22	92.94
501.437	87.94
501.654	79.94
501.871	78.94
502.088	90.94
502.305	84.94
502.522	67.94
502.739	95.94
502.956	92.94
503.172	73.94
503.389	92.94
503.606	93.94
503.823	98.94
504.04	88.94
504.256	84.94
504.473	77.94
504.69	81.94
504.907	99.94
505.123	81.94
505.34	95.94
505.557	81.94
505.773	93.94
505.99	84.94
506.207	82.94
506.423	91.94
506.64	81.94
506.856	75.94
507.073	88.94
507.289	81.94
507.506	95.94
507.722	100.94
507.939	77.94
508.155	94.94
508.372	98.94
508.588	83.94
508.805	83.94
509.021	100.94
509.238	96.94
509.454	68.94
509.67	76.94
509.887	90.94
510.103	88.94
510.319	88.94
510.536	82.94
510.752	68.94
510.968	83.94
511.184	91.94
511.401	75.94
511.617	90.94
511.833	82.94
512.049	84.94
512.265	63.94
512.481	76.94
512.698	99.94
512.914	87.94
513.13	82.94
513.346	71.94
513.562	77.94
513.778	84.94
513.994	75.94
514.21	94.94
514.426	88.94
514.642	79.94
514.858	79.94
515.074	84.94
515.29	80.94
515.506	95.94
515.721	68.94
515.937	80.94
516.153	92.94
516.369	83.94
516.585	103.94
516.801	82.94
517.016	89.94
517.232	79.94
517.448	84.94
517.664	88.94
517.879	81.94
518.095	83.94
518.311	80.94
518.527	83.94
518.742	79.94
518.958	75.94
519.173	76.94
519.389	71.94
519.605	80.94
519.82	94.94
