Data from StdD_HRD10591_011.txt Node
Date: Fri May 16 15:31:26 EDT 2025
User: Yrep
Spectrometer: HR+D1059
Trigger mode: 1
Integration Time (sec): 1.000000E-1
Scans to average: 1
Electric dark correction enabled: true
Nonlinearity correction enabled: false
Boxcar width: 0
XAxis mode: Wavelengths
Number of Pixels in Spectrum: 2048
>>>>>Begin Spectral Data<<<<<
223.165	-20
223.4	-20
223.635	-20
223.869	-19
224.104	-14
224.338	-9
224.573	-28
224.808	-15
225.042	1
225.277	-17
225.511	6
225.746	-3
225.98	9
226.215	5
226.449	20
226.683	26
226.918	32
227.152	26
227.387	29
227.621	52
227.856	25
228.09	45
228.324	48
228.559	65
228.793	70
229.027	58
229.262	66
229.496	55
229.73	83
229.964	70
230.199	74
230.433	65
230.667	70
230.901	74
231.136	85
231.37	74
231.604	81
231.838	79
232.072	67
232.306	72
232.541	80
232.775	71
233.009	78
233.243	93
233.477	74
233.711	76
233.945	88
234.179	91
234.413	74
234.647	82
234.881	91
235.115	70
235.349	77
235.583	72
235.817	68
236.051	86
236.285	67
236.519	82
236.753	87
236.987	79
237.221	77
237.455	80
237.689	73
237.922	88
238.156	76
238.39	83
238.624	79
238.858	74
239.091	61
239.325	69
239.559	72
239.793	82
240.027	97
240.26	75
240.494	79
240.728	73
240.961	83
241.195	72
241.429	76
241.662	60
241.896	66
242.13	87
242.363	80
242.597	73
242.83	79
243.064	77
243.298	71
243.531	80
243.765	93
243.998	86
244.232	70
244.465	76
244.699	81
244.932	72
245.166	76
245.399	68
245.633	74
245.866	70
246.099	72
246.333	77
246.566	69
246.8	74
247.033	74
247.266	78
247.5	78
247.733	61
247.966	85
248.2	80
248.433	73
248.666	72
248.899	70
249.133	76
249.366	68
249.599	69
249.832	79
250.066	82
250.299	78
250.532	77
250.765	61
250.998	68
251.231	59
251.465	76
251.698	66
251.931	74
252.164	81
252.397	68
252.63	89
252.863	72
253.096	62
253.329	66
253.562	72
253.795	83
254.028	78
254.261	80
254.494	59
254.727	78
254.96	73
255.193	76
255.426	71
255.659	70
255.892	78
256.124	73
256.357	69
256.59	78
256.823	67
257.056	82
257.289	84
257.521	66
257.754	79
257.987	70
258.22	75
258.452	79
258.685	80
258.918	77
259.151	84
259.383	73
259.616	79
259.849	82
260.081	64
260.314	74
260.547	66
260.779	82
261.012	73
261.244	85
261.477	81
261.71	79
261.942	85
262.175	78
262.407	75
262.64	72
262.872	76
263.105	78
263.337	76
263.57	83
263.802	73
264.035	74
264.267	77
264.499	68
264.732	74
264.964	80
265.197	86
265.429	77
265.661	82
265.894	87
266.126	76
266.358	81
266.591	84
266.823	76
267.055	77
267.287	76
267.52	73
267.752	92
267.984	86
268.216	87
268.448	89
268.681	86
268.913	89
269.145	82
269.377	86
269.609	71
269.841	53
270.073	91
270.306	90
270.538	87
270.77	74
271.002	92
271.234	70
271.466	81
271.698	86
271.93	87
272.162	74
272.394	86
272.626	76
272.858	76
273.09	73
273.322	76
273.553	78
273.785	71
274.017	82
274.249	83
274.481	72
274.713	76
274.945	82
275.176	84
275.408	88
275.64	66
275.872	88
276.104	75
276.335	76
276.567	81
276.799	103
277.031	65
277.262	68
277.494	75
277.726	80
277.957	78
278.189	79
278.421	75
278.652	65
278.884	76
279.115	70
279.347	63
279.579	72
279.81	61
280.042	87
280.273	68
280.505	65
280.736	90
280.968	78
281.199	73
281.431	80
281.662	91
281.894	72
282.125	65
282.356	89
282.588	62
282.819	85
283.051	80
283.282	73
283.513	84
283.745	70
283.976	63
284.207	84
284.439	89
284.67	71
284.901	75
285.132	76
285.364	77
285.595	74
285.826	74
286.057	85
286.288	58
286.52	80
286.751	73
286.982	85
287.213	84
287.444	91
287.675	78
287.906	73
288.138	80
288.369	75
288.6	80
288.831	73
289.062	102
289.293	86
289.524	80
289.755	70
289.986	79
290.217	79
290.448	94
290.679	81
290.91	76
291.141	80
291.371	92
291.602	80
291.833	89
292.064	76
292.295	87
292.526	64
292.757	78
292.987	86
293.218	70
293.449	74
293.68	84
293.91	74
294.141	90
294.372	85
294.603	66
294.833	81
295.064	88
295.295	76
295.525	96
295.756	93
295.987	85
296.217	87
296.448	87
296.679	75
296.909	85
297.14	85
297.37	70
297.601	85
297.831	88
298.062	74
298.292	70
298.523	75
298.753	86
298.984	79
299.214	84
299.445	94
299.675	80
299.905	77
300.136	86
300.366	66
300.597	89
300.827	77
301.057	80
301.288	79
301.518	88
301.748	80
301.979	68
302.209	76
302.439	74
302.669	90
302.9	77
303.13	87
303.36	90
303.59	77
303.82	85
304.051	78
304.281	84
304.511	90
304.741	83
304.971	88
305.201	78
305.431	83
305.661	69
305.891	76
306.121	73
306.352	62
306.582	76
306.812	87
307.042	86
307.272	84
307.502	90
307.731	89
307.961	86
308.191	82
308.421	80
308.651	80
308.881	77
309.111	83
309.341	85
309.571	86
309.8	77
310.03	76
310.26	91
310.49	87
310.72	92
310.949	77
311.179	76
311.409	88
311.639	83
311.868	92
312.098	84
312.328	78
312.557	87
312.787	89
313.017	71
313.246	74
313.476	75
313.706	94
313.935	72
314.165	88
314.394	79
314.624	81
314.853	80
315.083	76
315.312	91
315.542	96
315.771	91
316.001	61
316.23	74
316.46	88
316.689	93
316.919	76
317.148	80
317.377	80
317.607	96
317.836	104
318.065	72
318.295	88
318.524	77
318.753	80
318.983	73
319.212	78
319.441	94
319.67	93
319.9	73
320.129	80
320.358	70
320.587	82
320.816	67
321.046	77
321.275	74
321.504	76
321.733	79
321.962	75
322.191	85
322.42	64
322.649	81
322.878	72
323.108	78
323.337	77
323.566	80
323.795	103
324.024	75
324.253	88
324.482	78
324.71	78
324.939	71
325.168	96
325.397	87
325.626	73
325.855	84
326.084	80
326.313	85
326.542	74
326.77	87
326.999	77
327.228	64
327.457	94
327.686	94
327.914	76
328.143	91
328.372	85
328.6	88
328.829	78
329.058	74
329.287	87
329.515	76
329.744	80
329.972	74
330.201	85
330.43	88
330.658	98
330.887	81
331.115	100
331.344	88
331.572	75
331.801	87
332.03	82
332.258	92
332.486	73
332.715	65
332.943	84
333.172	72
333.4	94
333.629	77
333.857	64
334.085	88
334.314	82
334.542	72
334.771	83
334.999	88
335.227	61
335.455	72
335.684	84
335.912	78
336.14	81
336.369	81
336.597	81
336.825	81
337.053	85
337.281	72
337.51	79
337.738	85
337.966	73
338.194	81
338.422	76
338.65	77
338.878	79
339.106	87
339.334	82
339.562	82
339.79	78
340.018	84
340.246	84
340.474	90
340.702	84
340.93	79
341.158	85
341.386	86
341.614	87
341.842	83
342.07	93
342.298	73
342.526	88
342.754	77
342.981	81
343.209	69
343.437	89
343.665	88
343.893	84
344.12	81
344.348	75
344.576	70
344.804	77
345.031	78
345.259	75
345.487	80
345.714	78
345.942	67
346.17	70
346.397	71
346.625	73
346.853	81
347.08	65
347.308	102
347.535	82
347.763	77
347.99	70
348.218	75
348.445	76
348.673	74
348.9	86
349.128	75
349.355	72
349.583	84
349.81	78
350.037	84
350.265	89
350.492	76
350.72	84
350.947	97
351.174	74
351.402	77
351.629	87
351.856	89
352.083	78
352.311	94
352.538	73
352.765	88
352.992	80
353.22	85
353.447	82
353.674	77
353.901	72
354.128	79
354.355	72
354.583	64
354.81	78
355.037	85
355.264	80
355.491	83
355.718	76
355.945	76
356.172	78
356.399	73
356.626	77
356.853	85
357.08	77
357.307	76
357.534	89
357.761	65
357.988	82
358.215	84
358.441	69
358.668	85
358.895	81
359.122	84
359.349	78
359.576	101
359.802	89
360.029	78
360.256	70
360.483	85
360.709	65
360.936	85
361.163	84
361.39	82
361.616	72
361.843	72
362.07	79
362.296	87
362.523	79
362.749	85
362.976	84
363.203	90
363.429	93
363.656	92
363.882	72
364.109	89
364.335	72
364.562	85
364.788	85
365.015	86
365.241	79
365.468	86
365.694	73
365.92	92
366.147	78
366.373	80
366.599	86
366.826	61
367.052	87
367.278	93
367.505	86
367.731	93
367.957	78
368.184	69
368.41	75
368.636	78
368.862	80
369.089	76
369.315	63
369.541	78
369.767	76
369.993	78
370.219	86
370.445	76
370.672	88
370.898	82
371.124	80
371.35	80
371.576	85
371.802	79
372.028	70
372.254	77
372.48	80
372.706	75
372.932	86
373.158	77
373.384	81
373.61	83
373.835	81
374.061	77
374.287	78
374.513	97
374.739	88
374.965	83
375.191	76
375.416	84
375.642	74
375.868	75
376.094	66
376.319	85
376.545	88
376.771	81
376.997	82
377.222	86
377.448	77
377.674	83
377.899	78
378.125	80
378.35	87
378.576	82
378.802	84
379.027	80
379.253	74
379.478	70
379.704	66
379.929	78
380.155	85
380.38	82
380.606	84
380.831	91
381.057	82
381.282	74
381.507	87
381.733	68
381.958	71
382.184	89
382.409	76
382.634	79
382.86	69
383.085	81
383.31	76
383.535	70
383.761	63
383.986	79
384.211	87
384.436	76
384.662	84
384.887	65
385.112	72
385.337	84
385.562	97
385.787	66
386.013	79
386.238	92
386.463	91
386.688	89
386.913	88
387.138	77
387.363	96
387.588	80
387.813	75
388.038	74
388.263	81
388.488	71
388.713	82
388.938	85
389.163	80
389.387	60
389.612	79
389.837	84
390.062	70
390.287	77
390.512	79
390.736	64
390.961	74
391.186	76
391.411	78
391.636	72
391.86	71
392.085	89
392.31	85
392.534	80
392.759	78
392.984	81
393.208	83
393.433	77
393.658	77
393.882	76
394.107	77
394.331	86
394.556	89
394.78	94
395.005	84
395.229	66
395.454	80
395.678	80
395.903	81
396.127	72
396.352	81
396.576	83
396.801	76
397.025	89
397.249	72
397.474	105
397.698	70
397.922	73
398.147	82
398.371	78
398.595	86
398.82	102
399.044	90
399.268	78
399.492	79
399.717	89
399.941	85
400.165	86
400.389	77
400.613	70
400.837	94
401.062	80
401.286	74
401.51	77
401.734	81
401.958	97
402.182	89
402.406	90
402.63	75
402.854	85
403.078	84
403.302	90
403.526	66
403.75	85
403.974	87
404.198	71
404.422	73
404.645	70
404.869	72
405.093	97
405.317	81
405.541	86
405.765	79
405.988	73
406.212	85
406.436	86
406.66	86
406.883	67
407.107	88
407.331	84
407.555	73
407.778	77
408.002	84
408.226	63
408.449	75
408.673	88
408.896	77
409.12	80
409.344	75
409.567	76
409.791	82
410.014	87
410.238	86
410.461	90
410.685	82
410.908	81
411.132	83
411.355	78
411.578	92
411.802	80
412.025	72
412.249	80
412.472	76
412.695	73
412.919	83
413.142	77
413.365	84
413.589	78
413.812	84
414.035	94
414.258	75
414.482	83
414.705	85
414.928	80
415.151	90
415.374	85
415.597	73
415.821	85
416.044	85
416.267	77
416.49	81
416.713	92
416.936	76
417.159	76
417.382	85
417.605	88
417.828	77
418.051	74
418.274	91
418.497	80
418.72	80
418.943	84
419.166	92
419.389	73
419.611	73
419.834	75
420.057	76
420.28	74
420.503	67
420.726	84
420.948	75
421.171	93
421.394	84
421.617	83
421.839	72
422.062	81
422.285	75
422.507	85
422.73	74
422.953	79
423.175	77
423.398	76
423.621	70
423.843	77
424.066	89
424.288	81
424.511	79
424.733	98
424.956	81
425.178	88
425.401	93
425.623	92
425.846	81
426.068	75
426.291	79
426.513	79
426.735	68
426.958	81
427.18	74
427.402	79
427.625	81
427.847	70
428.069	70
428.292	84
428.514	79
428.736	77
428.958	77
429.181	67
429.403	97
429.625	66
429.847	91
430.069	81
430.292	73
430.514	71
430.736	66
430.958	90
431.18	81
431.402	86
431.624	76
431.846	66
432.068	84
432.29	81
432.512	77
432.734	81
432.956	76
433.178	78
433.4	90
433.622	87
433.844	84
434.066	91
434.287	82
434.509	74
434.731	88
434.953	89
435.175	88
435.397	93
435.618	74
435.84	82
436.062	88
436.284	90
436.505	66
436.727	75
436.949	77
437.17	86
437.392	84
437.614	88
437.835	85
438.057	86
438.278	71
438.5	85
438.721	89
438.943	77
439.165	84
439.386	86
439.608	86
439.829	73
440.05	79
440.272	88
440.493	75
440.715	80
440.936	83
441.158	81
441.379	71
441.6	83
441.822	80
442.043	93
442.264	85
442.486	73
442.707	87
442.928	91
443.149	78
443.371	90
443.592	100
443.813	73
444.034	74
444.255	81
444.476	67
444.698	81
444.919	81
445.14	145
445.361	116
445.582	90
445.803	87
446.024	80
446.245	79
446.466	96
446.687	85
446.908	84
447.129	81
447.35	84
447.571	75
447.792	86
448.013	85
448.234	89
448.455	84
448.675	77
448.896	82
449.117	76
449.338	80
449.559	85
449.779	71
450	76
450.221	73
450.442	71
450.662	101
450.883	74
451.104	84
451.324	77
451.545	64
451.766	77
451.986	82
452.207	85
452.428	85
452.648	82
452.869	73
453.089	72
453.31	85
453.53	88
453.751	91
453.971	81
454.192	75
454.412	67
454.633	80
454.853	86
455.073	78
455.294	81
455.514	87
455.734	78
455.955	81
456.175	80
456.395	79
456.616	87
456.836	80
457.056	88
457.276	75
457.497	86
457.717	81
457.937	79
458.157	80
458.377	87
458.598	74
458.818	73
459.038	79
459.258	78
459.478	69
459.698	79
459.918	65
460.138	70
460.358	82
460.578	84
460.798	78
461.018	87
461.238	85
461.458	73
461.678	94
461.898	82
462.118	84
462.338	75
462.558	81
462.777	84
462.997	71
463.217	78
463.437	84
463.657	88
463.876	78
464.096	81
464.316	107
464.536	90
464.755	81
464.975	79
465.195	69
465.414	77
465.634	61
465.854	84
466.073	83
466.293	79
466.512	78
466.732	92
466.951	90
467.171	100
467.391	90
467.61	78
467.829	89
468.049	85
468.268	85
468.488	72
468.707	76
468.927	64
469.146	108
469.365	73
469.585	90
469.804	80
470.023	80
470.243	86
470.462	97
470.681	93
470.901	83
471.12	80
471.339	78
471.558	74
471.777	80
471.997	76
472.216	75
472.435	79
472.654	76
472.873	78
473.092	80
473.311	98
473.53	78
473.749	72
473.968	81
474.187	83
474.406	96
474.625	93
474.844	71
475.063	87
475.282	77
475.501	77
475.72	87
475.939	81
476.158	86
476.377	72
476.596	78
476.814	73
477.033	95
477.252	76
477.471	78
477.69	96
477.908	80
478.127	80
478.346	85
478.564	84
478.783	73
479.002	60
479.22	75
479.439	90
479.658	80
479.876	68
480.095	90
480.313	70
480.532	87
480.751	85
480.969	78
481.188	75
481.406	91
481.624	81
481.843	87
482.061	97
482.28	85
482.498	78
482.717	102
482.935	82
483.153	89
483.372	87
483.59	80
483.808	80
484.027	92
484.245	75
484.463	90
484.681	71
484.9	83
485.118	87
485.336	78
485.554	88
485.772	87
485.99	94
486.209	92
486.427	75
486.645	76
486.863	62
487.081	70
487.299	88
487.517	85
487.735	90
487.953	93
488.171	80
488.389	90
488.607	62
488.825	85
489.043	85
489.261	80
489.479	80
489.696	75
489.914	74
490.132	91
490.35	98
490.568	71
490.786	93
491.003	88
491.221	91
491.439	93
491.657	89
491.874	86
492.092	81
492.31	88
492.527	76
492.745	92
492.963	89
493.18	92
493.398	90
493.615	97
493.833	91
494.05	87
494.268	95
494.485	97
494.703	76
494.92	83
495.138	87
495.355	87
495.573	90
495.79	102
496.008	78
496.225	88
496.442	89
496.66	83
496.877	79
497.094	91
497.312	94
497.529	78
497.746	77
497.963	87
498.181	100
498.398	60
498.615	87
498.832	88
499.049	84
499.267	70
499.484	84
499.701	87
499.918	96
500.135	84
500.352	79
500.569	76
500.786	92
501.003	90
501.22	81
501.437	90
501.654	108
501.871	86
502.088	84
502.305	86
502.522	92
502.739	85
502.956	86
503.172	70
503.389	81
503.606	83
503.823	77
504.04	90
504.256	88
504.473	73
504.69	85
504.907	104
505.123	85
505.34	96
505.557	93
505.773	76
505.99	80
506.207	76
506.423	95
506.64	83
506.856	76
507.073	77
507.289	82
507.506	82
507.722	77
507.939	86
508.155	89
508.372	78
508.588	85
508.805	86
509.021	84
509.238	76
509.454	81
509.67	73
509.887	69
510.103	87
510.319	77
510.536	77
510.752	70
510.968	79
511.184	77
511.401	90
511.617	75
511.833	84
512.049	73
512.265	71
512.481	73
512.698	80
512.914	70
513.13	81
513.346	76
513.562	63
513.778	85
513.994	81
514.21	85
514.426	88
514.642	99
514.858	81
515.074	82
515.29	81
515.506	91
515.721	86
515.937	83
516.153	72
516.369	80
516.585	78
516.801	77
517.016	76
517.232	82
517.448	71
517.664	85
517.879	79
518.095	87
518.311	90
518.527	88
518.742	83
518.958	92
519.173	83
519.389	72
519.605	71
519.82	70
520.036	85
520.251	77
520.467	97
520.682	85
520.898	64
521.113	84
521.329	80
521.544	86
521.76	70
521.975	91
522.19	98
522.406	66
522.621	90
522.836	94
523.052	78
523.267	85
523.482	88
523.698	78
523.913	83
524.128	103
524.343	84
524.559	90
524.774	98
524.989	93
525.204	81
525.419	81
525.634	78
525.849	82
526.064	88
526.28	92
526.495	72
526.71	96
526.925	79
527.14	70
527.355	85
527.57	82
527.785	90
527.999	81
528.214	92
528.429	89
528.644	73
528.859	76
529.074	64
529.289	82
529.503	85
529.718	78
529.933	85
530.148	89
530.363	84
530.577	88
530.792	82
531.007	90
531.221	80
531.436	77
531.651	83
531.865	70
532.08	83
532.295	75
532.509	80
532.724	75
532.938	70
533.153	77
533.367	73
533.582	86
533.796	102
534.011	78
534.225	82
534.44	87
534.654	93
534.868	79
535.083	88
535.297	92
535.511	74
535.726	71
535.94	80
536.154	77
536.369	79
536.583	76
536.797	68
537.011	91
537.225	86
537.44	71
537.654	77
537.868	74
538.082	87
538.296	84
538.51	82
538.724	74
538.938	70
539.153	71
539.367	76
539.581	88
539.795	73
540.009	86
540.222	72
540.436	84
540.65	76
540.864	92
541.078	85
541.292	85
541.506	91
541.72	78
541.934	81
542.147	96
542.361	93
542.575	80
542.789	76
543.002	78
543.216	88
543.43	80
543.644	89
543.857	83
544.071	88
544.285	73
544.498	82
544.712	90
544.925	80
545.139	84
545.352	80
545.566	91
545.779	81
545.993	84
546.206	92
546.42	91
546.633	87
546.847	95
547.06	81
547.274	71
547.487	92
547.7	84
547.914	84
548.127	90
548.34	89
548.554	95
548.767	81
548.98	88
549.193	81
549.407	92
549.62	88
549.833	111
550.046	89
550.259	76
550.473	85
550.686	81
550.899	84
551.112	92
551.325	101
551.538	78
551.751	83
551.964	72
552.177	90
552.39	102
552.603	79
552.816	89
553.029	85
553.242	93
553.455	85
553.667	90
553.88	81
554.093	79
554.306	100
554.519	92
554.732	80
554.944	90
555.157	96
555.37	90
555.583	92
555.795	79
556.008	82
556.221	84
556.433	89
556.646	95
556.859	79
557.071	86
557.284	93
557.496	88
557.709	85
557.921	74
558.134	86
558.346	100
558.559	82
558.771	75
558.984	105
559.196	89
559.409	72
559.621	90
559.833	79
560.046	92
560.258	86
560.47	95
560.683	84
560.895	89
561.107	77
561.32	85
561.532	84
561.744	108
561.956	89
562.168	96
562.381	77
562.593	71
562.805	89
563.017	80
563.229	89
563.441	90
563.653	72
563.865	91
564.077	88
564.289	97
564.501	86
564.713	97
564.925	74
565.137	80
565.349	93
565.561	64
565.773	85
565.985	91
566.197	85
566.408	85
566.62	85
566.832	76
567.044	76
567.255	91
567.467	89
567.679	80
567.891	88
568.102	90
568.314	80
568.526	94
568.737	80
568.949	84
569.161	82
569.372	78
569.584	96
569.795	84
570.007	89
570.218	74
570.43	78
570.641	86
570.853	94
571.064	85
571.276	76
571.487	75
571.698	72
571.91	76
572.121	76
572.333	73
572.544	74
572.755	78
572.966	85
573.178	84
573.389	82
573.6	75
573.811	90
574.023	94
574.234	80
574.445	83
574.656	73
574.867	80
575.078	81
575.289	89
575.501	92
575.712	78
575.923	77
576.134	78
576.345	75
576.556	73
576.767	72
576.978	75
577.188	81
577.399	89
577.61	76
577.821	93
578.032	87
578.243	76
578.454	88
578.665	65
578.875	76
579.086	80
579.297	81
579.508	90
579.718	74
579.929	80
580.14	74
580.35	92
580.561	90
580.772	84
580.982	88
581.193	81
581.403	82
581.614	79
581.825	75
582.035	84
582.246	76
582.456	80
582.667	89
582.877	75
583.087	76
583.298	72
583.508	98
583.719	92
583.929	86
584.139	70
584.35	88
584.56	86
584.77	84
584.981	79
585.191	87
585.401	77
585.611	82
585.821	86
586.032	75
586.242	84
586.452	78
586.662	85
586.872	88
587.082	89
587.292	83
587.502	69
587.713	78
587.923	64
588.133	81
588.343	102
588.553	74
588.762	85
588.972	106
589.182	80
589.392	85
589.602	80
589.812	86
590.022	78
590.232	62
590.441	74
590.651	81
