Data from StdD_HRD10591_084.txt Node
Date: Fri May 16 15:32:03 EDT 2025
User: Yrep
Spectrometer: HR+D1059
Trigger mode: 1
Integration Time (sec): 1.000000E-1
Scans to average: 1
Electric dark correction enabled: true
Nonlinearity correction enabled: false
Boxcar width: 0
XAxis mode: Wavelengths
Number of Pixels in Spectrum: 2048
>>>>>Begin Spectral Data<<<<<
223.165	-20.12
223.4	-20.12
223.635	-20.12
223.869	-6.12
224.104	-10.12
224.338	-18.12
224.573	-37.12
224.808	-10.12
225.042	-7.12
225.277	-9.12
225.511	1.88
225.746	-6.12
225.98	2.88
226.215	22.88
226.449	22.88
226.683	16.88
226.918	31.88
227.152	24.88
227.387	27.88
227.621	39.88
227.856	47.88
228.09	48.88
228.324	33.88
228.559	45.88
228.793	44.88
229.027	46.88
229.262	64.88
229.496	65.88
229.73	67.88
229.964	70.88
230.199	79.88
230.433	77.88
230.667	67.88
230.901	71.88
231.136	74.88
231.37	69.88
231.604	68.88
231.838	70.88
232.072	60.88
232.306	76.88
232.541	76.88
232.775	76.88
233.009	82.88
233.243	58.88
233.477	66.88
233.711	75.88
233.945	80.88
234.179	56.88
234.413	82.88
234.647	75.88
234.881	78.88
235.115	76.88
235.349	54.88
235.583	67.88
235.817	66.88
236.051	60.88
236.285	62.88
236.519	77.88
236.753	60.88
236.987	70.88
237.221	78.88
237.455	69.88
237.689	80.88
237.922	83.88
238.156	85.88
238.39	78.88
238.624	77.88
238.858	64.88
239.091	74.88
239.325	62.88
239.559	56.88
239.793	65.88
240.027	91.88
240.26	66.88
240.494	65.88
240.728	75.88
240.961	61.88
241.195	76.88
241.429	90.88
241.662	73.88
241.896	74.88
242.13	80.88
242.363	82.88
242.597	70.88
242.83	82.88
243.064	71.88
243.298	62.88
243.531	71.88
243.765	70.88
243.998	83.88
244.232	76.88
244.465	64.88
244.699	69.88
244.932	73.88
245.166	63.88
245.399	78.88
245.633	73.88
245.866	88.88
246.099	61.88
246.333	77.88
246.566	73.88
246.8	71.88
247.033	74.88
247.266	77.88
247.5	71.88
247.733	64.88
247.966	75.88
248.2	84.88
248.433	74.88
248.666	64.88
248.899	79.88
249.133	70.88
249.366	69.88
249.599	67.88
249.832	68.88
250.066	75.88
250.299	92.88
250.532	85.88
250.765	59.88
250.998	75.88
251.231	78.88
251.465	73.88
251.698	93.88
251.931	77.88
252.164	76.88
252.397	73.88
252.63	68.88
252.863	70.88
253.096	73.88
253.329	63.88
253.562	76.88
253.795	70.88
254.028	84.88
254.261	78.88
254.494	67.88
254.727	79.88
254.96	70.88
255.193	74.88
255.426	83.88
255.659	71.88
255.892	63.88
256.124	83.88
256.357	65.88
256.59	80.88
256.823	74.88
257.056	75.88
257.289	84.88
257.521	74.88
257.754	75.88
257.987	68.88
258.22	78.88
258.452	80.88
258.685	73.88
258.918	81.88
259.151	81.88
259.383	73.88
259.616	83.88
259.849	81.88
260.081	82.88
260.314	75.88
260.547	66.88
260.779	82.88
261.012	84.88
261.244	73.88
261.477	75.88
261.71	75.88
261.942	68.88
262.175	73.88
262.407	77.88
262.64	81.88
262.872	84.88
263.105	66.88
263.337	65.88
263.57	70.88
263.802	80.88
264.035	72.88
264.267	72.88
264.499	68.88
264.732	88.88
264.964	76.88
265.197	81.88
265.429	86.88
265.661	75.88
265.894	82.88
266.126	79.88
266.358	70.88
266.591	80.88
266.823	85.88
267.055	66.88
267.287	54.88
267.52	71.88
267.752	82.88
267.984	75.88
268.216	80.88
268.448	82.88
268.681	84.88
268.913	78.88
269.145	83.88
269.377	76.88
269.609	82.88
269.841	74.88
270.073	66.88
270.306	90.88
270.538	79.88
270.77	92.88
271.002	72.88
271.234	84.88
271.466	76.88
271.698	68.88
271.93	72.88
272.162	84.88
272.394	79.88
272.626	73.88
272.858	75.88
273.09	84.88
273.322	84.88
273.553	68.88
273.785	94.88
274.017	81.88
274.249	76.88
274.481	78.88
274.713	90.88
274.945	84.88
275.176	73.88
275.408	83.88
275.64	73.88
275.872	70.88
276.104	81.88
276.335	72.88
276.567	88.88
276.799	86.88
277.031	72.88
277.262	99.88
277.494	78.88
277.726	79.88
277.957	73.88
278.189	74.88
278.421	90.88
278.652	87.88
278.884	61.88
279.115	76.88
279.347	81.88
279.579	63.88
279.81	76.88
280.042	83.88
280.273	73.88
280.505	83.88
280.736	75.88
280.968	71.88
281.199	75.88
281.431	89.88
281.662	84.88
281.894	81.88
282.125	76.88
282.356	78.88
282.588	81.88
282.819	73.88
283.051	79.88
283.282	83.88
283.513	68.88
283.745	66.88
283.976	75.88
284.207	92.88
284.439	83.88
284.67	77.88
284.901	85.88
285.132	75.88
285.364	73.88
285.595	81.88
285.826	83.88
286.057	86.88
286.288	82.88
286.52	70.88
286.751	76.88
286.982	54.88
287.213	80.88
287.444	76.88
287.675	83.88
287.906	76.88
288.138	82.88
288.369	84.88
288.6	82.88
288.831	75.88
289.062	81.88
289.293	69.88
289.524	72.88
289.755	79.88
289.986	85.88
290.217	77.88
290.448	70.88
290.679	85.88
290.91	90.88
291.141	65.88
291.371	84.88
291.602	91.88
291.833	74.88
292.064	80.88
292.295	80.88
292.526	72.88
292.757	84.88
292.987	91.88
293.218	85.88
293.449	87.88
293.68	84.88
293.91	87.88
294.141	91.88
294.372	78.88
294.603	92.88
294.833	72.88
295.064	78.88
295.295	63.88
295.525	84.88
295.756	76.88
295.987	75.88
296.217	83.88
296.448	86.88
296.679	70.88
296.909	76.88
297.14	88.88
297.37	84.88
297.601	74.88
297.831	65.88
298.062	83.88
298.292	89.88
298.523	91.88
298.753	92.88
298.984	77.88
299.214	77.88
299.445	89.88
299.675	83.88
299.905	87.88
300.136	76.88
300.366	85.88
300.597	79.88
300.827	77.88
301.057	76.88
301.288	75.88
301.518	89.88
301.748	78.88
301.979	92.88
302.209	81.88
302.439	85.88
302.669	74.88
302.9	80.88
303.13	76.88
303.36	83.88
303.59	81.88
303.82	80.88
304.051	74.88
304.281	97.88
304.511	87.88
304.741	66.88
304.971	86.88
305.201	88.88
305.431	89.88
305.661	75.88
305.891	75.88
306.121	85.88
306.352	89.88
306.582	85.88
306.812	75.88
307.042	74.88
307.272	81.88
307.502	77.88
307.731	87.88
307.961	90.88
308.191	83.88
308.421	77.88
308.651	78.88
308.881	74.88
309.111	77.88
309.341	61.88
309.571	82.88
309.8	81.88
310.03	87.88
310.26	76.88
310.49	71.88
310.72	78.88
310.949	75.88
311.179	68.88
311.409	77.88
311.639	71.88
311.868	81.88
312.098	84.88
312.328	74.88
312.557	86.88
312.787	80.88
313.017	82.88
313.246	90.88
313.476	84.88
313.706	82.88
313.935	89.88
314.165	97.88
314.394	88.88
314.624	93.88
314.853	73.88
315.083	68.88
315.312	72.88
315.542	99.88
315.771	92.88
316.001	79.88
316.23	70.88
316.46	77.88
316.689	76.88
316.919	93.88
317.148	69.88
317.377	85.88
317.607	80.88
317.836	82.88
318.065	80.88
318.295	83.88
318.524	88.88
318.753	76.88
318.983	78.88
319.212	82.88
319.441	87.88
319.67	93.88
319.9	77.88
320.129	77.88
320.358	90.88
320.587	84.88
320.816	77.88
321.046	75.88
321.275	85.88
321.504	80.88
321.733	77.88
321.962	92.88
322.191	79.88
322.42	84.88
322.649	88.88
322.878	72.88
323.108	82.88
323.337	76.88
323.566	85.88
323.795	67.88
324.024	75.88
324.253	77.88
324.482	94.88
324.71	79.88
324.939	80.88
325.168	86.88
325.397	74.88
325.626	80.88
325.855	73.88
326.084	81.88
326.313	87.88
326.542	80.88
326.77	73.88
326.999	71.88
327.228	73.88
327.457	84.88
327.686	76.88
327.914	75.88
328.143	88.88
328.372	71.88
328.6	81.88
328.829	97.88
329.058	82.88
329.287	80.88
329.515	61.88
329.744	80.88
329.972	84.88
330.201	74.88
330.43	85.88
330.658	80.88
330.887	73.88
331.115	86.88
331.344	70.88
331.572	76.88
331.801	85.88
332.03	82.88
332.258	75.88
332.486	88.88
332.715	86.88
332.943	84.88
333.172	84.88
333.4	84.88
333.629	89.88
333.857	67.88
334.085	85.88
334.314	79.88
334.542	89.88
334.771	87.88
334.999	75.88
335.227	85.88
335.455	69.88
335.684	77.88
335.912	70.88
336.14	97.88
336.369	94.88
336.597	80.88
336.825	82.88
337.053	92.88
337.281	88.88
337.51	85.88
337.738	92.88
337.966	69.88
338.194	82.88
338.422	86.88
338.65	89.88
338.878	104.88
339.106	80.88
339.334	86.88
339.562	70.88
339.79	76.88
340.018	84.88
340.246	85.88
340.474	87.88
340.702	90.88
340.93	79.88
341.158	88.88
341.386	84.88
341.614	80.88
341.842	76.88
342.07	68.88
342.298	83.88
342.526	76.88
342.754	82.88
342.981	80.88
343.209	81.88
343.437	89.88
343.665	76.88
343.893	84.88
344.12	77.88
344.348	84.88
344.576	61.88
344.804	76.88
345.031	91.88
345.259	69.88
345.487	84.88
345.714	78.88
345.942	85.88
346.17	81.88
346.397	86.88
346.625	74.88
346.853	87.88
347.08	82.88
347.308	96.88
347.535	74.88
347.763	80.88
347.99	76.88
348.218	80.88
348.445	74.88
348.673	73.88
348.9	89.88
349.128	79.88
349.355	68.88
349.583	81.88
349.81	81.88
350.037	85.88
350.265	73.88
350.492	83.88
350.72	72.88
350.947	77.88
351.174	76.88
351.402	81.88
351.629	80.88
351.856	84.88
352.083	76.88
352.311	70.88
352.538	79.88
352.765	90.88
352.992	98.88
353.22	86.88
353.447	77.88
353.674	89.88
353.901	96.88
354.128	84.88
354.355	88.88
354.583	80.88
354.81	85.88
355.037	86.88
355.264	88.88
355.491	88.88
355.718	92.88
355.945	74.88
356.172	74.88
356.399	75.88
356.626	70.88
356.853	76.88
357.08	77.88
357.307	71.88
357.534	83.88
357.761	87.88
357.988	78.88
358.215	85.88
358.441	74.88
358.668	85.88
358.895	92.88
359.122	85.88
359.349	77.88
359.576	74.88
359.802	77.88
360.029	85.88
360.256	77.88
360.483	80.88
360.709	79.88
360.936	83.88
361.163	81.88
361.39	76.88
361.616	87.88
361.843	81.88
362.07	82.88
362.296	74.88
362.523	66.88
362.749	82.88
362.976	85.88
363.203	89.88
363.429	66.88
363.656	74.88
363.882	85.88
364.109	83.88
364.335	85.88
364.562	81.88
364.788	82.88
365.015	76.88
365.241	85.88
365.468	78.88
365.694	81.88
365.92	83.88
366.147	77.88
366.373	89.88
366.599	74.88
366.826	85.88
367.052	72.88
367.278	77.88
367.505	80.88
367.731	87.88
367.957	71.88
368.184	73.88
368.41	85.88
368.636	73.88
368.862	69.88
369.089	83.88
369.315	80.88
369.541	74.88
369.767	69.88
369.993	77.88
370.219	73.88
370.445	87.88
370.672	73.88
370.898	77.88
371.124	81.88
371.35	77.88
371.576	85.88
371.802	72.88
372.028	66.88
372.254	76.88
372.48	63.88
372.706	78.88
372.932	84.88
373.158	83.88
373.384	81.88
373.61	86.88
373.835	78.88
374.061	83.88
374.287	72.88
374.513	85.88
374.739	78.88
374.965	94.88
375.191	67.88
375.416	68.88
375.642	81.88
375.868	77.88
376.094	68.88
376.319	72.88
376.545	66.88
376.771	72.88
376.997	84.88
377.222	88.88
377.448	78.88
377.674	76.88
377.899	100.88
378.125	72.88
378.35	74.88
378.576	88.88
378.802	82.88
379.027	86.88
379.253	89.88
379.478	93.88
379.704	87.88
379.929	81.88
380.155	68.88
380.38	88.88
380.606	69.88
380.831	83.88
381.057	87.88
381.282	76.88
381.507	88.88
381.733	89.88
381.958	76.88
382.184	94.88
382.409	81.88
382.634	77.88
382.86	79.88
383.085	77.88
383.31	93.88
383.535	90.88
383.761	77.88
383.986	91.88
384.211	76.88
384.436	68.88
384.662	77.88
384.887	66.88
385.112	83.88
385.337	91.88
385.562	78.88
385.787	88.88
386.013	76.88
386.238	76.88
386.463	76.88
386.688	78.88
386.913	81.88
387.138	77.88
387.363	78.88
387.588	83.88
387.813	74.88
388.038	74.88
388.263	77.88
388.488	58.88
388.713	83.88
388.938	76.88
389.163	76.88
389.387	80.88
389.612	89.88
389.837	92.88
390.062	70.88
390.287	64.88
390.512	87.88
390.736	77.88
390.961	68.88
391.186	73.88
391.411	93.88
391.636	70.88
391.86	76.88
392.085	92.88
392.31	62.88
392.534	89.88
392.759	68.88
392.984	72.88
393.208	89.88
393.433	78.88
393.658	88.88
393.882	79.88
394.107	72.88
394.331	77.88
394.556	90.88
394.78	83.88
395.005	80.88
395.229	69.88
395.454	89.88
395.678	75.88
395.903	78.88
396.127	75.88
396.352	72.88
396.576	77.88
396.801	77.88
397.025	74.88
397.249	80.88
397.474	74.88
397.698	77.88
397.922	67.88
398.147	84.88
398.371	80.88
398.595	78.88
398.82	78.88
399.044	86.88
399.268	82.88
399.492	85.88
399.717	79.88
399.941	88.88
400.165	70.88
400.389	68.88
400.613	76.88
400.837	75.88
401.062	85.88
401.286	78.88
401.51	94.88
401.734	72.88
401.958	73.88
402.182	78.88
402.406	87.88
402.63	82.88
402.854	72.88
403.078	92.88
403.302	75.88
403.526	86.88
403.75	68.88
403.974	61.88
404.198	71.88
404.422	59.88
404.645	79.88
404.869	92.88
405.093	76.88
405.317	68.88
405.541	75.88
405.765	76.88
405.988	69.88
406.212	77.88
406.436	76.88
406.66	76.88
406.883	93.88
407.107	81.88
407.331	67.88
407.555	74.88
407.778	72.88
408.002	74.88
408.226	70.88
408.449	78.88
408.673	61.88
408.896	70.88
409.12	67.88
409.344	81.88
409.567	60.88
409.791	72.88
410.014	80.88
410.238	65.88
410.461	69.88
410.685	77.88
410.908	80.88
411.132	72.88
411.355	73.88
411.578	76.88
411.802	82.88
412.025	72.88
412.249	75.88
412.472	80.88
412.695	86.88
412.919	64.88
413.142	80.88
413.365	84.88
413.589	83.88
413.812	79.88
414.035	80.88
414.258	80.88
414.482	88.88
414.705	85.88
414.928	73.88
415.151	85.88
415.374	83.88
415.597	77.88
415.821	74.88
416.044	69.88
416.267	77.88
416.49	89.88
416.713	69.88
416.936	75.88
417.159	76.88
417.382	79.88
417.605	84.88
417.828	78.88
418.051	59.88
418.274	77.88
418.497	78.88
418.72	77.88
418.943	81.88
419.166	83.88
419.389	67.88
419.611	74.88
419.834	85.88
420.057	78.88
420.28	78.88
420.503	89.88
420.726	75.88
420.948	94.88
421.171	89.88
421.394	85.88
421.617	90.88
421.839	87.88
422.062	74.88
422.285	84.88
422.507	84.88
422.73	85.88
422.953	78.88
423.175	80.88
423.398	91.88
423.621	61.88
423.843	89.88
424.066	71.88
424.288	76.88
424.511	79.88
424.733	73.88
424.956	73.88
425.178	84.88
425.401	78.88
425.623	79.88
425.846	90.88
426.068	81.88
426.291	76.88
426.513	70.88
426.735	74.88
426.958	84.88
427.18	74.88
427.402	73.88
427.625	70.88
427.847	81.88
428.069	64.88
428.292	79.88
428.514	90.88
428.736	92.88
428.958	62.88
429.181	90.88
429.403	74.88
429.625	76.88
429.847	73.88
430.069	70.88
430.292	85.88
430.514	81.88
430.736	78.88
430.958	85.88
431.18	69.88
431.402	76.88
431.624	78.88
431.846	65.88
432.068	76.88
432.29	71.88
432.512	68.88
432.734	82.88
432.956	68.88
433.178	76.88
433.4	76.88
433.622	82.88
433.844	83.88
434.066	82.88
434.287	82.88
434.509	85.88
434.731	83.88
434.953	75.88
435.175	80.88
435.397	71.88
435.618	90.88
435.84	79.88
436.062	88.88
436.284	84.88
436.505	67.88
436.727	72.88
436.949	81.88
437.17	78.88
437.392	74.88
437.614	78.88
437.835	83.88
438.057	72.88
438.278	78.88
438.5	70.88
438.721	77.88
438.943	83.88
439.165	78.88
439.386	86.88
439.608	74.88
439.829	87.88
440.05	77.88
440.272	76.88
440.493	81.88
440.715	80.88
440.936	80.88
441.158	89.88
441.379	63.88
441.6	77.88
441.822	98.88
442.043	91.88
442.264	80.88
442.486	83.88
442.707	66.88
442.928	77.88
443.149	65.88
443.371	80.88
443.592	72.88
443.813	92.88
444.034	74.88
444.255	88.88
444.476	76.88
444.698	83.88
444.919	68.88
445.14	175.88
445.361	127.88
445.582	81.88
445.803	66.88
446.024	66.88
446.245	67.88
446.466	85.88
446.687	73.88
446.908	74.88
447.129	91.88
447.35	87.88
447.571	90.88
447.792	73.88
448.013	66.88
448.234	69.88
448.455	68.88
448.675	69.88
448.896	77.88
449.117	81.88
449.338	76.88
449.559	81.88
449.779	84.88
450	86.88
450.221	78.88
450.442	85.88
450.662	76.88
450.883	72.88
451.104	78.88
451.324	81.88
451.545	70.88
451.766	66.88
451.986	72.88
452.207	74.88
452.428	76.88
452.648	85.88
452.869	86.88
453.089	88.88
453.31	73.88
453.53	71.88
453.751	63.88
453.971	82.88
454.192	84.88
454.412	70.88
454.633	82.88
454.853	83.88
455.073	80.88
455.294	77.88
455.514	99.88
455.734	78.88
455.955	77.88
456.175	69.88
456.395	90.88
456.616	73.88
456.836	66.88
457.056	57.88
457.276	78.88
457.497	78.88
457.717	91.88
457.937	74.88
458.157	84.88
458.377	88.88
458.598	81.88
458.818	67.88
459.038	83.88
459.258	79.88
459.478	68.88
459.698	64.88
459.918	79.88
460.138	66.88
460.358	78.88
460.578	88.88
460.798	76.88
461.018	65.88
461.238	64.88
461.458	68.88
461.678	76.88
461.898	67.88
462.118	82.88
462.338	76.88
462.558	80.88
462.777	91.88
462.997	78.88
463.217	84.88
463.437	75.88
463.657	83.88
463.876	69.88
464.096	72.88
464.316	89.88
464.536	67.88
464.755	86.88
464.975	80.88
465.195	75.88
465.414	71.88
465.634	71.88
465.854	87.88
466.073	62.88
466.293	76.88
466.512	73.88
466.732	80.88
466.951	74.88
467.171	69.88
467.391	67.88
467.61	80.88
467.829	93.88
468.049	81.88
468.268	72.88
468.488	81.88
468.707	81.88
468.927	68.88
469.146	76.88
469.365	78.88
469.585	93.88
469.804	88.88
470.023	87.88
470.243	76.88
470.462	69.88
470.681	70.88
470.901	99.88
471.12	77.88
471.339	64.88
471.558	80.88
471.777	84.88
471.997	69.88
472.216	91.88
472.435	74.88
472.654	74.88
472.873	78.88
473.092	82.88
473.311	78.88
473.53	77.88
473.749	82.88
473.968	84.88
474.187	77.88
474.406	84.88
474.625	86.88
474.844	59.88
475.063	68.88
475.282	71.88
475.501	88.88
475.72	81.88
475.939	82.88
476.158	85.88
476.377	86.88
476.596	81.88
476.814	100.88
477.033	76.88
477.252	84.88
477.471	58.88
477.69	96.88
477.908	71.88
478.127	80.88
478.346	74.88
478.564	81.88
478.783	96.88
479.002	80.88
479.22	77.88
479.439	80.88
479.658	77.88
479.876	78.88
480.095	70.88
480.313	116.88
480.532	81.88
480.751	69.88
480.969	79.88
481.188	81.88
481.406	69.88
481.624	65.88
481.843	62.88
482.061	71.88
482.28	78.88
482.498	91.88
482.717	84.88
482.935	75.88
483.153	71.88
483.372	77.88
483.59	84.88
483.808	87.88
484.027	78.88
484.245	74.88
484.463	62.88
484.681	75.88
484.9	72.88
485.118	89.88
485.336	77.88
485.554	73.88
485.772	86.88
485.99	74.88
486.209	80.88
486.427	73.88
486.645	65.88
486.863	78.88
487.081	68.88
487.299	54.88
487.517	78.88
487.735	70.88
487.953	80.88
488.171	77.88
488.389	69.88
488.607	87.88
488.825	74.88
489.043	77.88
489.261	89.88
489.479	72.88
489.696	74.88
489.914	76.88
490.132	80.88
490.35	77.88
490.568	80.88
490.786	72.88
491.003	94.88
491.221	69.88
491.439	73.88
491.657	78.88
491.874	89.88
492.092	81.88
492.31	83.88
492.527	76.88
492.745	82.88
492.963	92.88
493.18	82.88
493.398	70.88
493.615	84.88
493.833	71.88
494.05	88.88
494.268	93.88
494.485	58.88
494.703	81.88
494.92	93.88
495.138	77.88
495.355	83.88
495.573	90.88
495.79	89.88
496.008	99.88
496.225	76.88
496.442	83.88
496.66	78.88
496.877	97.88
497.094	82.88
497.312	82.88
497.529	97.88
497.746	87.88
497.963	76.88
498.181	79.88
498.398	70.88
498.615	84.88
498.832	86.88
499.049	83.88
499.267	83.88
499.484	92.88
499.701	83.88
499.918	75.88
500.135	82.88
500.352	56.88
500.569	84.88
500.786	85.88
501.003	81.88
501.22	77.88
501.437	72.88
501.654	89.88
501.871	91.88
502.088	79.88
502.305	84.88
502.522	79.88
502.739	88.88
502.956	70.88
503.172	82.88
503.389	71.88
503.606	80.88
503.823	86.88
504.04	81.88
504.256	83.88
504.473	83.88
504.69	93.88
504.907	90.88
505.123	84.88
505.34	80.88
505.557	67.88
505.773	89.88
505.99	83.88
506.207	74.88
506.423	68.88
506.64	89.88
506.856	76.88
507.073	88.88
507.289	83.88
507.506	77.88
507.722	101.88
507.939	90.88
508.155	89.88
508.372	86.88
508.588	89.88
508.805	88.88
509.021	78.88
509.238	78.88
509.454	72.88
509.67	86.88
509.887	84.88
510.103	85.88
510.319	78.88
510.536	73.88
510.752	61.88
510.968	79.88
511.184	66.88
511.401	74.88
511.617	82.88
511.833	75.88
512.049	77.88
512.265	67.88
512.481	83.88
512.698	81.88
512.914	77.88
513.13	78.88
513.346	67.88
513.562	77.88
513.778	81.88
513.994	72.88
514.21	83.88
514.426	92.88
514.642	81.88
514.858	76.88
515.074	78.88
515.29	88.88
515.506	71.88
515.721	87.88
515.937	65.88
516.153	75.88
516.369	79.88
516.585	81.88
516.801	82.88
517.016	87.88
517.232	91.88
517.448	74.88
517.664	92.88
517.879	80.88
518.095	72.88
518.311	89.88
518.527	71.88
518.742	54.88
518.958	87.88
519.173	80.88
519.389	94.88
519.605	74.88
519.82	72.88
520.036	91.88
520.251	82.88
