Data from StdD_HRD10591_031.txt Node
Date: Fri May 16 15:31:36 EDT 2025
User: Yrep
Spectrometer: HR+D1059
Trigger mode: 1
Integration Time (sec): 1.000000E-1
Scans to average: 1
Electric dark correction enabled: true
Nonlinearity correction enabled: false
Boxcar width: 0
XAxis mode: Wavelengths
Number of Pixels in Spectrum: 2048
>>>>>Begin Spectral Data<<<<<
223.165	-16.56
223.4	-16.56
223.635	-16.56
223.869	-23.56
224.104	-18.56
224.338	-4.56
224.573	-22.56
224.808	-20.56
225.042	-16.56
225.277	3.44
225.511	0.44
225.746	1.44
225.98	-2.56
226.215	21.44
226.449	16.44
226.683	21.44
226.918	21.44
227.152	39.44
227.387	37.44
227.621	43.44
227.856	44.44
228.09	49.44
228.324	50.44
228.559	52.44
228.793	40.44
229.027	58.44
229.262	60.44
229.496	54.44
229.73	78.44
229.964	60.44
230.199	67.44
230.433	75.44
230.667	73.44
230.901	77.44
231.136	70.44
231.37	77.44
231.604	86.44
231.838	76.44
232.072	68.44
232.306	83.44
232.541	83.44
232.775	96.44
233.009	81.44
233.243	72.44
233.477	91.44
233.711	64.44
233.945	88.44
234.179	87.44
234.413	85.44
234.647	80.44
234.881	79.44
235.115	58.44
235.349	77.44
235.583	83.44
235.817	74.44
236.051	87.44
236.285	75.44
236.519	79.44
236.753	69.44
236.987	68.44
237.221	83.44
237.455	71.44
237.689	68.44
237.922	78.44
238.156	66.44
238.39	61.44
238.624	87.44
238.858	79.44
239.091	76.44
239.325	78.44
239.559	71.44
239.793	77.44
240.027	65.44
240.26	77.44
240.494	86.44
240.728	73.44
240.961	71.44
241.195	64.44
241.429	87.44
241.662	73.44
241.896	92.44
242.13	64.44
242.363	71.44
242.597	66.44
242.83	73.44
243.064	72.44
243.298	70.44
243.531	73.44
243.765	77.44
243.998	79.44
244.232	85.44
244.465	81.44
244.699	82.44
244.932	64.44
245.166	91.44
245.399	90.44
245.633	64.44
245.866	80.44
246.099	69.44
246.333	74.44
246.566	64.44
246.8	78.44
247.033	74.44
247.266	60.44
247.5	78.44
247.733	84.44
247.966	87.44
248.2	82.44
248.433	80.44
248.666	69.44
248.899	87.44
249.133	76.44
249.366	83.44
249.599	77.44
249.832	77.44
250.066	83.44
250.299	73.44
250.532	83.44
250.765	63.44
250.998	75.44
251.231	81.44
251.465	78.44
251.698	87.44
251.931	69.44
252.164	87.44
252.397	64.44
252.63	75.44
252.863	62.44
253.096	71.44
253.329	75.44
253.562	73.44
253.795	72.44
254.028	69.44
254.261	82.44
254.494	80.44
254.727	92.44
254.96	71.44
255.193	78.44
255.426	76.44
255.659	72.44
255.892	73.44
256.124	67.44
256.357	64.44
256.59	69.44
256.823	70.44
257.056	76.44
257.289	79.44
257.521	87.44
257.754	80.44
257.987	73.44
258.22	84.44
258.452	71.44
258.685	85.44
258.918	78.44
259.151	85.44
259.383	64.44
259.616	79.44
259.849	77.44
260.081	73.44
260.314	73.44
260.547	64.44
260.779	84.44
261.012	70.44
261.244	79.44
261.477	69.44
261.71	77.44
261.942	80.44
262.175	78.44
262.407	66.44
262.64	86.44
262.872	87.44
263.105	75.44
263.337	91.44
263.57	85.44
263.802	76.44
264.035	70.44
264.267	85.44
264.499	62.44
264.732	62.44
264.964	67.44
265.197	70.44
265.429	70.44
265.661	81.44
265.894	75.44
266.126	75.44
266.358	86.44
266.591	85.44
266.823	90.44
267.055	79.44
267.287	62.44
267.52	75.44
267.752	83.44
267.984	71.44
268.216	80.44
268.448	85.44
268.681	77.44
268.913	76.44
269.145	79.44
269.377	93.44
269.609	97.44
269.841	86.44
270.073	81.44
270.306	77.44
270.538	88.44
270.77	70.44
271.002	62.44
271.234	83.44
271.466	86.44
271.698	80.44
271.93	76.44
272.162	75.44
272.394	90.44
272.626	79.44
272.858	82.44
273.09	78.44
273.322	84.44
273.553	71.44
273.785	74.44
274.017	71.44
274.249	72.44
274.481	71.44
274.713	63.44
274.945	72.44
275.176	92.44
275.408	88.44
275.64	89.44
275.872	79.44
276.104	78.44
276.335	83.44
276.567	65.44
276.799	88.44
277.031	84.44
277.262	88.44
277.494	93.44
277.726	80.44
277.957	94.44
278.189	83.44
278.421	75.44
278.652	71.44
278.884	84.44
279.115	88.44
279.347	64.44
279.579	85.44
279.81	78.44
280.042	82.44
280.273	69.44
280.505	85.44
280.736	85.44
280.968	82.44
281.199	75.44
281.431	81.44
281.662	78.44
281.894	85.44
282.125	77.44
282.356	83.44
282.588	80.44
282.819	86.44
283.051	79.44
283.282	95.44
283.513	77.44
283.745	84.44
283.976	84.44
284.207	90.44
284.439	90.44
284.67	85.44
284.901	68.44
285.132	94.44
285.364	86.44
285.595	62.44
285.826	76.44
286.057	91.44
286.288	72.44
286.52	70.44
286.751	88.44
286.982	85.44
287.213	78.44
287.444	87.44
287.675	77.44
287.906	88.44
288.138	73.44
288.369	71.44
288.6	64.44
288.831	96.44
289.062	85.44
289.293	86.44
289.524	87.44
289.755	81.44
289.986	85.44
290.217	88.44
290.448	79.44
290.679	81.44
290.91	83.44
291.141	95.44
291.371	70.44
291.602	82.44
291.833	86.44
292.064	79.44
292.295	83.44
292.526	78.44
292.757	88.44
292.987	87.44
293.218	87.44
293.449	98.44
293.68	82.44
293.91	86.44
294.141	91.44
294.372	80.44
294.603	73.44
294.833	76.44
295.064	81.44
295.295	77.44
295.525	72.44
295.756	83.44
295.987	91.44
296.217	83.44
296.448	77.44
296.679	86.44
296.909	76.44
297.14	87.44
297.37	87.44
297.601	84.44
297.831	75.44
298.062	83.44
298.292	83.44
298.523	83.44
298.753	79.44
298.984	84.44
299.214	89.44
299.445	84.44
299.675	73.44
299.905	77.44
300.136	80.44
300.366	63.44
300.597	77.44
300.827	87.44
301.057	87.44
301.288	81.44
301.518	75.44
301.748	89.44
301.979	95.44
302.209	87.44
302.439	89.44
302.669	78.44
302.9	87.44
303.13	73.44
303.36	71.44
303.59	72.44
303.82	76.44
304.051	89.44
304.281	75.44
304.511	102.44
304.741	94.44
304.971	69.44
305.201	73.44
305.431	80.44
305.661	83.44
305.891	78.44
306.121	75.44
306.352	76.44
306.582	80.44
306.812	76.44
307.042	92.44
307.272	87.44
307.502	83.44
307.731	82.44
307.961	65.44
308.191	83.44
308.421	84.44
308.651	93.44
308.881	84.44
309.111	76.44
309.341	65.44
309.571	91.44
309.8	78.44
310.03	69.44
310.26	93.44
310.49	83.44
310.72	88.44
310.949	92.44
311.179	94.44
311.409	77.44
311.639	79.44
311.868	65.44
312.098	84.44
312.328	80.44
312.557	66.44
312.787	81.44
313.017	87.44
313.246	78.44
313.476	74.44
313.706	82.44
313.935	73.44
314.165	69.44
314.394	72.44
314.624	89.44
314.853	82.44
315.083	72.44
315.312	77.44
315.542	88.44
315.771	85.44
316.001	80.44
316.23	69.44
316.46	72.44
316.689	85.44
316.919	81.44
317.148	79.44
317.377	77.44
317.607	92.44
317.836	91.44
318.065	88.44
318.295	77.44
318.524	78.44
318.753	78.44
318.983	80.44
319.212	80.44
319.441	76.44
319.67	79.44
319.9	83.44
320.129	89.44
320.358	80.44
320.587	80.44
320.816	71.44
321.046	76.44
321.275	94.44
321.504	73.44
321.733	69.44
321.962	77.44
322.191	84.44
322.42	73.44
322.649	83.44
322.878	66.44
323.108	86.44
323.337	85.44
323.566	81.44
323.795	70.44
324.024	88.44
324.253	70.44
324.482	81.44
324.71	78.44
324.939	88.44
325.168	88.44
325.397	87.44
325.626	91.44
325.855	72.44
326.084	77.44
326.313	71.44
326.542	79.44
326.77	78.44
326.999	84.44
327.228	74.44
327.457	92.44
327.686	95.44
327.914	70.44
328.143	77.44
328.372	83.44
328.6	69.44
328.829	86.44
329.058	77.44
329.287	70.44
329.515	69.44
329.744	96.44
329.972	64.44
330.201	72.44
330.43	81.44
330.658	79.44
330.887	89.44
331.115	79.44
331.344	83.44
331.572	80.44
331.801	75.44
332.03	86.44
332.258	74.44
332.486	79.44
332.715	72.44
332.943	87.44
333.172	74.44
333.4	88.44
333.629	82.44
333.857	87.44
334.085	73.44
334.314	91.44
334.542	92.44
334.771	79.44
334.999	85.44
335.227	90.44
335.455	76.44
335.684	86.44
335.912	79.44
336.14	87.44
336.369	83.44
336.597	84.44
336.825	71.44
337.053	76.44
337.281	83.44
337.51	75.44
337.738	87.44
337.966	77.44
338.194	69.44
338.422	79.44
338.65	88.44
338.878	83.44
339.106	75.44
339.334	77.44
339.562	83.44
339.79	80.44
340.018	86.44
340.246	71.44
340.474	84.44
340.702	79.44
340.93	81.44
341.158	85.44
341.386	80.44
341.614	88.44
341.842	92.44
342.07	95.44
342.298	82.44
342.526	85.44
342.754	79.44
342.981	61.44
343.209	87.44
343.437	80.44
343.665	75.44
343.893	97.44
344.12	89.44
344.348	89.44
344.576	71.44
344.804	79.44
345.031	76.44
345.259	83.44
345.487	79.44
345.714	73.44
345.942	71.44
346.17	76.44
346.397	87.44
346.625	80.44
346.853	82.44
347.08	63.44
347.308	79.44
347.535	93.44
347.763	69.44
347.99	73.44
348.218	78.44
348.445	84.44
348.673	82.44
348.9	90.44
349.128	81.44
349.355	95.44
349.583	92.44
349.81	80.44
350.037	73.44
350.265	79.44
350.492	81.44
350.72	78.44
350.947	84.44
351.174	92.44
351.402	82.44
351.629	80.44
351.856	89.44
352.083	76.44
352.311	69.44
352.538	80.44
352.765	76.44
352.992	84.44
353.22	67.44
353.447	67.44
353.674	74.44
353.901	83.44
354.128	61.44
354.355	74.44
354.583	79.44
354.81	75.44
355.037	85.44
355.264	83.44
355.491	78.44
355.718	78.44
355.945	78.44
356.172	80.44
356.399	99.44
356.626	65.44
356.853	79.44
357.08	76.44
357.307	69.44
357.534	79.44
357.761	80.44
357.988	66.44
358.215	77.44
358.441	81.44
358.668	94.44
358.895	66.44
359.122	79.44
359.349	80.44
359.576	75.44
359.802	94.44
360.029	83.44
360.256	94.44
360.483	89.44
360.709	69.44
360.936	76.44
361.163	88.44
361.39	73.44
361.616	73.44
361.843	72.44
362.07	80.44
362.296	64.44
362.523	86.44
362.749	90.44
362.976	79.44
363.203	89.44
363.429	75.44
363.656	94.44
363.882	87.44
364.109	74.44
364.335	77.44
364.562	79.44
364.788	82.44
365.015	75.44
365.241	85.44
365.468	79.44
365.694	79.44
365.92	73.44
366.147	81.44
366.373	74.44
366.599	76.44
366.826	92.44
367.052	78.44
367.278	74.44
367.505	79.44
367.731	85.44
367.957	85.44
368.184	79.44
368.41	65.44
368.636	85.44
368.862	84.44
369.089	83.44
369.315	85.44
369.541	76.44
369.767	90.44
369.993	86.44
370.219	70.44
370.445	83.44
370.672	85.44
370.898	76.44
371.124	74.44
371.35	79.44
371.576	65.44
371.802	85.44
372.028	90.44
372.254	80.44
372.48	67.44
372.706	83.44
372.932	89.44
373.158	83.44
373.384	69.44
373.61	75.44
373.835	77.44
374.061	79.44
374.287	90.44
374.513	86.44
374.739	82.44
374.965	77.44
375.191	87.44
375.416	89.44
375.642	87.44
375.868	77.44
376.094	91.44
376.319	95.44
376.545	65.44
376.771	94.44
376.997	82.44
377.222	76.44
377.448	69.44
377.674	73.44
377.899	82.44
378.125	87.44
378.35	93.44
378.576	84.44
378.802	81.44
379.027	74.44
379.253	83.44
379.478	79.44
379.704	79.44
379.929	71.44
380.155	81.44
380.38	72.44
380.606	71.44
380.831	78.44
381.057	88.44
381.282	78.44
381.507	77.44
381.733	91.44
381.958	79.44
382.184	80.44
382.409	85.44
382.634	81.44
382.86	78.44
383.085	78.44
383.31	67.44
383.535	87.44
383.761	97.44
383.986	76.44
384.211	83.44
384.436	87.44
384.662	79.44
384.887	77.44
385.112	78.44
385.337	87.44
385.562	76.44
385.787	89.44
386.013	87.44
386.238	85.44
386.463	86.44
386.688	101.44
386.913	82.44
387.138	91.44
387.363	70.44
387.588	86.44
387.813	84.44
388.038	90.44
388.263	82.44
388.488	89.44
388.713	72.44
388.938	68.44
389.163	101.44
389.387	74.44
389.612	83.44
389.837	88.44
390.062	79.44
390.287	85.44
390.512	85.44
390.736	63.44
390.961	90.44
391.186	63.44
391.411	69.44
391.636	77.44
391.86	79.44
392.085	74.44
392.31	75.44
392.534	67.44
392.759	92.44
392.984	73.44
393.208	86.44
393.433	77.44
393.658	67.44
393.882	83.44
394.107	87.44
394.331	85.44
394.556	63.44
394.78	96.44
395.005	82.44
395.229	93.44
395.454	76.44
395.678	83.44
395.903	77.44
396.127	86.44
396.352	79.44
396.576	85.44
396.801	74.44
397.025	78.44
397.249	83.44
397.474	74.44
397.698	74.44
397.922	79.44
398.147	57.44
398.371	75.44
398.595	91.44
398.82	82.44
399.044	70.44
399.268	72.44
399.492	88.44
399.717	90.44
399.941	75.44
400.165	80.44
400.389	80.44
400.613	85.44
400.837	88.44
401.062	67.44
401.286	63.44
401.51	83.44
401.734	90.44
401.958	78.44
402.182	76.44
402.406	85.44
402.63	79.44
402.854	79.44
403.078	80.44
403.302	89.44
403.526	72.44
403.75	75.44
403.974	71.44
404.198	83.44
404.422	84.44
404.645	90.44
404.869	79.44
405.093	88.44
405.317	83.44
405.541	81.44
405.765	80.44
405.988	72.44
406.212	82.44
406.436	80.44
406.66	67.44
406.883	73.44
407.107	80.44
407.331	86.44
407.555	70.44
407.778	92.44
408.002	76.44
408.226	70.44
408.449	79.44
408.673	81.44
408.896	87.44
409.12	65.44
409.344	84.44
409.567	77.44
409.791	83.44
410.014	98.44
410.238	93.44
410.461	72.44
410.685	77.44
410.908	93.44
411.132	84.44
411.355	70.44
411.578	72.44
411.802	76.44
412.025	88.44
412.249	78.44
412.472	80.44
412.695	79.44
412.919	87.44
413.142	70.44
413.365	83.44
413.589	77.44
413.812	75.44
414.035	71.44
414.258	77.44
414.482	69.44
414.705	87.44
414.928	93.44
415.151	82.44
415.374	81.44
415.597	74.44
415.821	69.44
416.044	70.44
416.267	77.44
416.49	73.44
416.713	76.44
416.936	65.44
417.159	85.44
417.382	85.44
417.605	78.44
417.828	64.44
418.051	80.44
418.274	99.44
418.497	84.44
418.72	84.44
418.943	98.44
419.166	65.44
419.389	85.44
419.611	74.44
419.834	60.44
420.057	64.44
420.28	78.44
420.503	78.44
420.726	91.44
420.948	63.44
421.171	77.44
421.394	71.44
421.617	77.44
421.839	71.44
422.062	81.44
422.285	78.44
422.507	84.44
422.73	81.44
422.953	87.44
423.175	60.44
423.398	67.44
423.621	75.44
423.843	87.44
424.066	80.44
424.288	69.44
424.511	75.44
424.733	85.44
424.956	95.44
425.178	87.44
425.401	76.44
425.623	72.44
425.846	76.44
426.068	91.44
426.291	85.44
426.513	78.44
426.735	87.44
426.958	92.44
427.18	65.44
427.402	81.44
427.625	84.44
427.847	76.44
428.069	76.44
428.292	85.44
428.514	77.44
428.736	85.44
428.958	75.44
429.181	87.44
429.403	92.44
429.625	82.44
429.847	81.44
430.069	87.44
430.292	80.44
430.514	85.44
430.736	76.44
430.958	71.44
431.18	77.44
431.402	85.44
431.624	81.44
431.846	79.44
432.068	84.44
432.29	71.44
432.512	79.44
432.734	82.44
432.956	79.44
433.178	80.44
433.4	72.44
433.622	89.44
433.844	82.44
434.066	83.44
434.287	76.44
434.509	78.44
434.731	82.44
434.953	78.44
435.175	76.44
435.397	72.44
435.618	78.44
435.84	71.44
436.062	73.44
436.284	72.44
436.505	92.44
436.727	85.44
436.949	91.44
437.17	71.44
437.392	87.44
437.614	75.44
437.835	92.44
438.057	79.44
438.278	72.44
438.5	78.44
438.721	84.44
438.943	77.44
439.165	87.44
439.386	76.44
439.608	55.44
439.829	67.44
440.05	73.44
440.272	76.44
440.493	84.44
440.715	80.44
440.936	79.44
441.158	74.44
441.379	71.44
441.6	63.44
441.822	86.44
442.043	91.44
442.264	73.44
442.486	65.44
442.707	77.44
442.928	86.44
443.149	66.44
443.371	85.44
443.592	75.44
443.813	76.44
444.034	65.44
444.255	87.44
444.476	91.44
444.698	88.44
444.919	72.44
445.14	146.44
445.361	106.44
445.582	82.44
445.803	76.44
446.024	87.44
446.245	72.44
446.466	74.44
446.687	77.44
446.908	73.44
447.129	77.44
447.35	82.44
447.571	83.44
447.792	78.44
448.013	80.44
448.234	92.44
448.455	75.44
448.675	79.44
448.896	79.44
449.117	74.44
449.338	83.44
449.559	86.44
449.779	66.44
450	72.44
450.221	76.44
450.442	88.44
450.662	80.44
450.883	89.44
451.104	91.44
451.324	73.44
451.545	63.44
451.766	75.44
451.986	63.44
452.207	74.44
452.428	75.44
452.648	87.44
452.869	86.44
453.089	72.44
453.31	84.44
453.53	82.44
453.751	70.44
453.971	64.44
454.192	83.44
454.412	82.44
454.633	77.44
454.853	79.44
455.073	63.44
455.294	76.44
455.514	69.44
455.734	78.44
455.955	89.44
456.175	61.44
456.395	72.44
456.616	78.44
456.836	86.44
457.056	76.44
457.276	81.44
457.497	74.44
457.717	79.44
457.937	64.44
458.157	85.44
458.377	85.44
458.598	78.44
458.818	63.44
459.038	73.44
459.258	85.44
459.478	65.44
459.698	80.44
459.918	63.44
460.138	65.44
460.358	84.44
460.578	83.44
460.798	70.44
461.018	87.44
461.238	73.44
461.458	85.44
461.678	74.44
461.898	88.44
462.118	80.44
462.338	71.44
462.558	76.44
462.777	80.44
462.997	74.44
463.217	76.44
463.437	78.44
463.657	99.44
463.876	69.44
464.096	79.44
464.316	72.44
464.536	62.44
464.755	77.44
464.975	81.44
465.195	76.44
465.414	86.44
465.634	67.44
465.854	71.44
466.073	82.44
466.293	72.44
466.512	88.44
466.732	80.44
466.951	80.44
467.171	72.44
467.391	79.44
467.61	91.44
467.829	79.44
468.049	83.44
468.268	88.44
468.488	76.44
468.707	93.44
468.927	79.44
469.146	77.44
469.365	78.44
469.585	96.44
469.804	94.44
470.023	75.44
470.243	81.44
470.462	70.44
470.681	82.44
470.901	85.44
471.12	77.44
471.339	80.44
471.558	86.44
471.777	88.44
471.997	71.44
472.216	79.44
472.435	86.44
472.654	76.44
472.873	74.44
473.092	75.44
473.311	86.44
473.53	83.44
473.749	80.44
473.968	92.44
474.187	83.44
474.406	76.44
474.625	74.44
474.844	71.44
475.063	70.44
475.282	89.44
475.501	80.44
475.72	81.44
475.939	72.44
476.158	79.44
476.377	85.44
476.596	76.44
476.814	83.44
477.033	77.44
477.252	67.44
477.471	76.44
477.69	81.44
477.908	71.44
478.127	71.44
478.346	83.44
478.564	79.44
478.783	85.44
479.002	69.44
479.22	76.44
479.439	82.44
479.658	82.44
479.876	72.44
480.095	63.44
480.313	65.44
480.532	79.44
480.751	87.44
480.969	71.44
481.188	92.44
481.406	87.44
481.624	75.44
481.843	80.44
482.061	58.44
482.28	71.44
482.498	89.44
482.717	77.44
482.935	72.44
483.153	68.44
483.372	78.44
483.59	78.44
483.808	75.44
484.027	78.44
484.245	73.44
484.463	69.44
484.681	86.44
484.9	93.44
485.118	78.44
485.336	87.44
485.554	75.44
485.772	83.44
485.99	74.44
486.209	71.44
486.427	78.44
486.645	76.44
486.863	84.44
487.081	73.44
487.299	72.44
487.517	81.44
487.735	81.44
487.953	80.44
488.171	77.44
488.389	78.44
488.607	86.44
488.825	85.44
489.043	86.44
489.261	89.44
489.479	72.44
489.696	72.44
489.914	100.44
490.132	73.44
490.35	64.44
490.568	76.44
490.786	70.44
491.003	103.44
491.221	90.44
491.439	83.44
491.657	80.44
491.874	83.44
492.092	85.44
492.31	90.44
492.527	85.44
492.745	79.44
492.963	86.44
493.18	87.44
493.398	74.44
493.615	87.44
493.833	81.44
494.05	83.44
494.268	86.44
494.485	76.44
494.703	81.44
494.92	92.44
495.138	80.44
495.355	75.44
495.573	65.44
495.79	87.44
496.008	76.44
496.225	82.44
496.442	82.44
496.66	92.44
496.877	77.44
497.094	84.44
497.312	83.44
497.529	77.44
497.746	88.44
497.963	73.44
498.181	89.44
498.398	86.44
498.615	75.44
498.832	76.44
499.049	71.44
499.267	81.44
499.484	85.44
499.701	88.44
499.918	88.44
500.135	81.44
500.352	76.44
500.569	75.44
500.786	79.44
501.003	86.44
501.22	87.44
501.437	77.44
501.654	71.44
501.871	77.44
502.088	81.44
502.305	91.44
502.522	78.44
502.739	73.44
502.956	68.44
503.172	80.44
503.389	70.44
503.606	72.44
503.823	80.44
504.04	80.44
504.256	86.44
504.473	78.44
504.69	76.44
504.907	89.44
505.123	67.44
505.34	75.44
505.557	85.44
505.773	90.44
505.99	77.44
506.207	81.44
506.423	80.44
506.64	91.44
506.856	83.44
507.073	73.44
507.289	73.44
507.506	88.44
507.722	67.44
507.939	71.44
508.155	86.44
508.372	98.44
508.588	79.44
508.805	79.44
509.021	80.44
509.238	67.44
509.454	73.44
509.67	73.44
509.887	77.44
510.103	83.44
510.319	80.44
510.536	91.44
510.752	76.44
510.968	86.44
511.184	79.44
511.401	83.44
511.617	87.44
511.833	74.44
512.049	70.44
512.265	83.44
512.481	73.44
512.698	75.44
512.914	75.44
513.13	81.44
513.346	83.44
513.562	92.44
513.778	81.44
513.994	82.44
514.21	99.44
514.426	82.44
514.642	69.44
514.858	73.44
515.074	88.44
515.29	65.44
515.506	68.44
515.721	71.44
515.937	75.44
516.153	86.44
516.369	75.44
516.585	92.44
516.801	76.44
517.016	84.44
517.232	63.44
517.448	78.44
517.664	75.44
517.879	93.44
518.095	92.44
518.311	85.44
518.527	68.44
518.742	69.44
518.958	78.44
519.173	92.44
519.389	81.44
519.605	84.44
519.82	87.44
520.036	82.44
520.251	79.44
