Data from StdD_HRD10591_078.txt Node
Date: Fri May 16 15:32:00 EDT 2025
User: Yrep
Spectrometer: HR+D1059
Trigger mode: 1
Integration Time (sec): 1.000000E-1
Scans to average: 1
Electric dark correction enabled: true
Nonlinearity correction enabled: false
Boxcar width: 0
XAxis mode: Wavelengths
Number of Pixels in Spectrum: 2048
>>>>>Begin Spectral Data<<<<<
223.165	-27.56
223.4	-27.56
223.635	-27.56
223.869	-8.56
224.104	-23.56
224.338	-18.56
224.573	-2.56
224.808	-14.56
225.042	-16.56
225.277	3.44
225.511	-13.56
225.746	18.44
225.98	-6.56
226.215	15.44
226.449	20.44
226.683	5.44
226.918	37.44
227.152	31.44
227.387	34.44
227.621	45.44
227.856	40.44
228.09	51.44
228.324	51.44
228.559	67.44
228.793	56.44
229.027	60.44
229.262	68.44
229.496	69.44
229.73	51.44
229.964	66.44
230.199	74.44
230.433	70.44
230.667	73.44
230.901	77.44
231.136	74.44
231.37	84.44
231.604	76.44
231.838	79.44
232.072	81.44
232.306	71.44
232.541	82.44
232.775	76.44
233.009	81.44
233.243	82.44
233.477	79.44
233.711	80.44
233.945	72.44
234.179	83.44
234.413	87.44
234.647	79.44
234.881	77.44
235.115	76.44
235.349	74.44
235.583	91.44
235.817	79.44
236.051	85.44
236.285	71.44
236.519	97.44
236.753	87.44
236.987	83.44
237.221	72.44
237.455	85.44
237.689	73.44
237.922	95.44
238.156	84.44
238.39	77.44
238.624	86.44
238.858	75.44
239.091	80.44
239.325	81.44
239.559	82.44
239.793	76.44
240.027	79.44
240.26	66.44
240.494	78.44
240.728	63.44
240.961	71.44
241.195	75.44
241.429	74.44
241.662	83.44
241.896	78.44
242.13	88.44
242.363	85.44
242.597	68.44
242.83	72.44
243.064	69.44
243.298	84.44
243.531	80.44
243.765	73.44
243.998	82.44
244.232	70.44
244.465	83.44
244.699	68.44
244.932	77.44
245.166	90.44
245.399	69.44
245.633	76.44
245.866	61.44
246.099	77.44
246.333	80.44
246.566	75.44
246.8	75.44
247.033	67.44
247.266	60.44
247.5	89.44
247.733	79.44
247.966	76.44
248.2	73.44
248.433	85.44
248.666	72.44
248.899	84.44
249.133	73.44
249.366	76.44
249.599	84.44
249.832	85.44
250.066	74.44
250.299	81.44
250.532	76.44
250.765	69.44
250.998	82.44
251.231	88.44
251.465	70.44
251.698	80.44
251.931	101.44
252.164	81.44
252.397	74.44
252.63	79.44
252.863	74.44
253.096	77.44
253.329	75.44
253.562	89.44
253.795	63.44
254.028	89.44
254.261	74.44
254.494	63.44
254.727	75.44
254.96	86.44
255.193	80.44
255.426	80.44
255.659	90.44
255.892	94.44
256.124	87.44
256.357	90.44
256.59	77.44
256.823	79.44
257.056	79.44
257.289	83.44
257.521	101.44
257.754	82.44
257.987	76.44
258.22	93.44
258.452	69.44
258.685	71.44
258.918	75.44
259.151	77.44
259.383	78.44
259.616	81.44
259.849	86.44
260.081	94.44
260.314	91.44
260.547	71.44
260.779	83.44
261.012	91.44
261.244	69.44
261.477	89.44
261.71	80.44
261.942	61.44
262.175	85.44
262.407	79.44
262.64	87.44
262.872	85.44
263.105	74.44
263.337	68.44
263.57	90.44
263.802	88.44
264.035	81.44
264.267	73.44
264.499	91.44
264.732	95.44
264.964	76.44
265.197	81.44
265.429	80.44
265.661	76.44
265.894	87.44
266.126	89.44
266.358	79.44
266.591	68.44
266.823	70.44
267.055	79.44
267.287	74.44
267.52	76.44
267.752	81.44
267.984	67.44
268.216	83.44
268.448	81.44
268.681	91.44
268.913	77.44
269.145	80.44
269.377	84.44
269.609	75.44
269.841	88.44
270.073	81.44
270.306	84.44
270.538	91.44
270.77	79.44
271.002	84.44
271.234	75.44
271.466	90.44
271.698	83.44
271.93	87.44
272.162	94.44
272.394	84.44
272.626	77.44
272.858	79.44
273.09	73.44
273.322	83.44
273.553	93.44
273.785	69.44
274.017	74.44
274.249	82.44
274.481	95.44
274.713	92.44
274.945	87.44
275.176	101.44
275.408	85.44
275.64	76.44
275.872	92.44
276.104	85.44
276.335	75.44
276.567	85.44
276.799	92.44
277.031	81.44
277.262	73.44
277.494	76.44
277.726	75.44
277.957	85.44
278.189	88.44
278.421	74.44
278.652	89.44
278.884	76.44
279.115	86.44
279.347	98.44
279.579	82.44
279.81	82.44
280.042	72.44
280.273	91.44
280.505	77.44
280.736	88.44
280.968	94.44
281.199	91.44
281.431	75.44
281.662	81.44
281.894	83.44
282.125	83.44
282.356	94.44
282.588	87.44
282.819	93.44
283.051	73.44
283.282	81.44
283.513	76.44
283.745	88.44
283.976	77.44
284.207	88.44
284.439	95.44
284.67	95.44
284.901	79.44
285.132	93.44
285.364	77.44
285.595	83.44
285.826	76.44
286.057	93.44
286.288	88.44
286.52	88.44
286.751	87.44
286.982	82.44
287.213	74.44
287.444	81.44
287.675	92.44
287.906	89.44
288.138	73.44
288.369	76.44
288.6	74.44
288.831	88.44
289.062	94.44
289.293	87.44
289.524	70.44
289.755	74.44
289.986	65.44
290.217	75.44
290.448	80.44
290.679	85.44
290.91	101.44
291.141	97.44
291.371	86.44
291.602	95.44
291.833	81.44
292.064	96.44
292.295	89.44
292.526	71.44
292.757	93.44
292.987	73.44
293.218	99.44
293.449	91.44
293.68	88.44
293.91	78.44
294.141	92.44
294.372	79.44
294.603	92.44
294.833	89.44
295.064	97.44
295.295	85.44
295.525	96.44
295.756	83.44
295.987	85.44
296.217	76.44
296.448	71.44
296.679	106.44
296.909	83.44
297.14	87.44
297.37	88.44
297.601	97.44
297.831	89.44
298.062	85.44
298.292	82.44
298.523	81.44
298.753	91.44
298.984	97.44
299.214	94.44
299.445	79.44
299.675	64.44
299.905	102.44
300.136	83.44
300.366	91.44
300.597	103.44
300.827	89.44
301.057	79.44
301.288	82.44
301.518	87.44
301.748	81.44
301.979	102.44
302.209	95.44
302.439	88.44
302.669	89.44
302.9	91.44
303.13	90.44
303.36	84.44
303.59	87.44
303.82	89.44
304.051	88.44
304.281	77.44
304.511	84.44
304.741	91.44
304.971	89.44
305.201	68.44
305.431	96.44
305.661	91.44
305.891	97.44
306.121	76.44
306.352	90.44
306.582	90.44
306.812	69.44
307.042	91.44
307.272	95.44
307.502	83.44
307.731	92.44
307.961	86.44
308.191	92.44
308.421	77.44
308.651	80.44
308.881	101.44
309.111	81.44
309.341	89.44
309.571	82.44
309.8	83.44
310.03	74.44
310.26	76.44
310.49	79.44
310.72	70.44
310.949	74.44
311.179	82.44
311.409	73.44
311.639	81.44
311.868	88.44
312.098	99.44
312.328	87.44
312.557	99.44
312.787	87.44
313.017	92.44
313.246	94.44
313.476	84.44
313.706	82.44
313.935	85.44
314.165	75.44
314.394	96.44
314.624	91.44
314.853	94.44
315.083	94.44
315.312	103.44
315.542	81.44
315.771	87.44
316.001	81.44
316.23	77.44
316.46	91.44
316.689	85.44
316.919	80.44
317.148	87.44
317.377	83.44
317.607	90.44
317.836	70.44
318.065	82.44
318.295	84.44
318.524	83.44
318.753	73.44
318.983	78.44
319.212	93.44
319.441	98.44
319.67	95.44
319.9	72.44
320.129	91.44
320.358	78.44
320.587	72.44
320.816	98.44
321.046	77.44
321.275	78.44
321.504	81.44
321.733	81.44
321.962	92.44
322.191	98.44
322.42	112.44
322.649	91.44
322.878	75.44
323.108	84.44
323.337	86.44
323.566	87.44
323.795	92.44
324.024	85.44
324.253	91.44
324.482	94.44
324.71	71.44
324.939	81.44
325.168	80.44
325.397	81.44
325.626	89.44
325.855	87.44
326.084	92.44
326.313	88.44
326.542	95.44
326.77	89.44
326.999	73.44
327.228	80.44
327.457	87.44
327.686	96.44
327.914	91.44
328.143	85.44
328.372	79.44
328.6	86.44
328.829	85.44
329.058	99.44
329.287	100.44
329.515	84.44
329.744	91.44
329.972	97.44
330.201	77.44
330.43	78.44
330.658	87.44
330.887	74.44
331.115	95.44
331.344	91.44
331.572	81.44
331.801	81.44
332.03	97.44
332.258	88.44
332.486	84.44
332.715	99.44
332.943	68.44
333.172	87.44
333.4	78.44
333.629	96.44
333.857	87.44
334.085	93.44
334.314	79.44
334.542	80.44
334.771	90.44
334.999	85.44
335.227	71.44
335.455	84.44
335.684	78.44
335.912	91.44
336.14	79.44
336.369	85.44
336.597	100.44
336.825	87.44
337.053	78.44
337.281	87.44
337.51	81.44
337.738	83.44
337.966	75.44
338.194	88.44
338.422	76.44
338.65	87.44
338.878	81.44
339.106	70.44
339.334	85.44
339.562	83.44
339.79	91.44
340.018	69.44
340.246	97.44
340.474	98.44
340.702	83.44
340.93	84.44
341.158	87.44
341.386	88.44
341.614	72.44
341.842	77.44
342.07	91.44
342.298	72.44
342.526	89.44
342.754	86.44
342.981	101.44
343.209	90.44
343.437	95.44
343.665	87.44
343.893	98.44
344.12	79.44
344.348	86.44
344.576	92.44
344.804	83.44
345.031	95.44
345.259	83.44
345.487	77.44
345.714	80.44
345.942	79.44
346.17	84.44
346.397	88.44
346.625	91.44
346.853	85.44
347.08	85.44
347.308	92.44
347.535	82.44
347.763	85.44
347.99	87.44
348.218	75.44
348.445	84.44
348.673	87.44
348.9	75.44
349.128	88.44
349.355	92.44
349.583	80.44
349.81	68.44
350.037	86.44
350.265	79.44
350.492	91.44
350.72	72.44
350.947	90.44
351.174	87.44
351.402	85.44
351.629	79.44
351.856	88.44
352.083	85.44
352.311	77.44
352.538	77.44
352.765	80.44
352.992	78.44
353.22	85.44
353.447	88.44
353.674	91.44
353.901	81.44
354.128	92.44
354.355	94.44
354.583	79.44
354.81	81.44
355.037	72.44
355.264	84.44
355.491	81.44
355.718	77.44
355.945	110.44
356.172	93.44
356.399	77.44
356.626	90.44
356.853	81.44
357.08	75.44
357.307	83.44
357.534	91.44
357.761	84.44
357.988	98.44
358.215	93.44
358.441	72.44
358.668	77.44
358.895	74.44
359.122	82.44
359.349	100.44
359.576	88.44
359.802	88.44
360.029	89.44
360.256	91.44
360.483	78.44
360.709	86.44
360.936	85.44
361.163	88.44
361.39	93.44
361.616	79.44
361.843	75.44
362.07	87.44
362.296	81.44
362.523	75.44
362.749	97.44
362.976	87.44
363.203	84.44
363.429	77.44
363.656	97.44
363.882	92.44
364.109	69.44
364.335	84.44
364.562	81.44
364.788	83.44
365.015	84.44
365.241	92.44
365.468	88.44
365.694	81.44
365.92	79.44
366.147	88.44
366.373	75.44
366.599	93.44
366.826	90.44
367.052	84.44
367.278	77.44
367.505	92.44
367.731	92.44
367.957	78.44
368.184	89.44
368.41	77.44
368.636	87.44
368.862	96.44
369.089	81.44
369.315	75.44
369.541	69.44
369.767	70.44
369.993	81.44
370.219	89.44
370.445	69.44
370.672	87.44
370.898	81.44
371.124	75.44
371.35	63.44
371.576	81.44
371.802	82.44
372.028	102.44
372.254	87.44
372.48	98.44
372.706	93.44
372.932	77.44
373.158	76.44
373.384	90.44
373.61	110.44
373.835	90.44
374.061	90.44
374.287	98.44
374.513	98.44
374.739	84.44
374.965	69.44
375.191	78.44
375.416	82.44
375.642	79.44
375.868	76.44
376.094	90.44
376.319	85.44
376.545	77.44
376.771	77.44
376.997	92.44
377.222	82.44
377.448	80.44
377.674	76.44
377.899	92.44
378.125	85.44
378.35	75.44
378.576	88.44
378.802	79.44
379.027	95.44
379.253	78.44
379.478	86.44
379.704	93.44
379.929	96.44
380.155	96.44
380.38	92.44
380.606	83.44
380.831	79.44
381.057	87.44
381.282	89.44
381.507	74.44
381.733	88.44
381.958	75.44
382.184	65.44
382.409	79.44
382.634	89.44
382.86	82.44
383.085	94.44
383.31	78.44
383.535	75.44
383.761	71.44
383.986	79.44
384.211	91.44
384.436	92.44
384.662	80.44
384.887	76.44
385.112	85.44
385.337	76.44
385.562	76.44
385.787	78.44
386.013	79.44
386.238	88.44
386.463	69.44
386.688	85.44
386.913	85.44
387.138	82.44
387.363	76.44
387.588	90.44
387.813	79.44
388.038	92.44
388.263	85.44
388.488	70.44
388.713	92.44
388.938	92.44
389.163	96.44
389.387	92.44
389.612	83.44
389.837	77.44
390.062	80.44
390.287	83.44
390.512	77.44
390.736	84.44
390.961	92.44
391.186	82.44
391.411	82.44
391.636	91.44
391.86	85.44
392.085	75.44
392.31	80.44
392.534	83.44
392.759	93.44
392.984	91.44
393.208	75.44
393.433	84.44
393.658	89.44
393.882	85.44
394.107	90.44
394.331	93.44
394.556	88.44
394.78	94.44
395.005	81.44
395.229	83.44
395.454	97.44
395.678	77.44
395.903	83.44
396.127	78.44
396.352	80.44
396.576	78.44
396.801	93.44
397.025	80.44
397.249	84.44
397.474	104.44
397.698	63.44
397.922	90.44
398.147	91.44
398.371	84.44
398.595	89.44
398.82	85.44
399.044	84.44
399.268	78.44
399.492	88.44
399.717	87.44
399.941	86.44
400.165	85.44
400.389	79.44
400.613	89.44
400.837	91.44
401.062	85.44
401.286	88.44
401.51	86.44
401.734	89.44
401.958	81.44
402.182	78.44
402.406	77.44
402.63	83.44
402.854	74.44
403.078	100.44
403.302	87.44
403.526	69.44
403.75	88.44
403.974	95.44
404.198	69.44
404.422	87.44
404.645	93.44
404.869	79.44
405.093	83.44
405.317	84.44
405.541	103.44
405.765	85.44
405.988	76.44
406.212	72.44
406.436	79.44
406.66	96.44
406.883	94.44
407.107	88.44
407.331	88.44
407.555	79.44
407.778	84.44
408.002	97.44
408.226	84.44
408.449	76.44
408.673	81.44
408.896	87.44
409.12	87.44
409.344	70.44
409.567	77.44
409.791	96.44
410.014	93.44
410.238	84.44
410.461	88.44
410.685	93.44
410.908	79.44
411.132	87.44
411.355	88.44
411.578	83.44
411.802	89.44
412.025	85.44
412.249	77.44
412.472	76.44
412.695	89.44
412.919	72.44
413.142	88.44
413.365	76.44
413.589	82.44
413.812	92.44
414.035	89.44
414.258	84.44
414.482	67.44
414.705	72.44
414.928	79.44
415.151	88.44
415.374	91.44
415.597	79.44
415.821	69.44
416.044	81.44
416.267	92.44
416.49	86.44
416.713	92.44
416.936	82.44
417.159	77.44
417.382	92.44
417.605	82.44
417.828	76.44
418.051	84.44
418.274	96.44
418.497	68.44
418.72	83.44
418.943	96.44
419.166	99.44
419.389	85.44
419.611	79.44
419.834	92.44
420.057	91.44
420.28	85.44
420.503	79.44
420.726	85.44
420.948	89.44
421.171	91.44
421.394	77.44
421.617	91.44
421.839	77.44
422.062	72.44
422.285	89.44
422.507	82.44
422.73	83.44
422.953	80.44
423.175	85.44
423.398	76.44
423.621	94.44
423.843	81.44
424.066	94.44
424.288	87.44
424.511	82.44
424.733	77.44
424.956	92.44
425.178	91.44
425.401	64.44
425.623	80.44
425.846	82.44
426.068	83.44
426.291	96.44
426.513	85.44
426.735	83.44
426.958	79.44
427.18	93.44
427.402	94.44
427.625	71.44
427.847	78.44
428.069	81.44
428.292	79.44
428.514	97.44
428.736	97.44
428.958	96.44
429.181	82.44
429.403	75.44
429.625	83.44
429.847	72.44
430.069	79.44
430.292	75.44
430.514	91.44
430.736	87.44
430.958	80.44
431.18	85.44
431.402	87.44
431.624	71.44
431.846	78.44
432.068	68.44
432.29	90.44
432.512	83.44
432.734	95.44
432.956	89.44
433.178	81.44
433.4	88.44
433.622	82.44
433.844	94.44
434.066	87.44
434.287	92.44
434.509	82.44
434.731	89.44
434.953	89.44
435.175	85.44
435.397	77.44
435.618	75.44
435.84	94.44
436.062	87.44
436.284	69.44
436.505	75.44
436.727	82.44
436.949	81.44
437.17	92.44
437.392	73.44
437.614	76.44
437.835	72.44
438.057	88.44
438.278	74.44
438.5	77.44
438.721	82.44
438.943	76.44
439.165	76.44
439.386	82.44
439.608	81.44
439.829	92.44
440.05	71.44
440.272	77.44
440.493	87.44
440.715	79.44
440.936	88.44
441.158	88.44
441.379	83.44
441.6	88.44
441.822	77.44
442.043	99.44
442.264	84.44
442.486	92.44
442.707	87.44
442.928	87.44
443.149	84.44
443.371	81.44
443.592	77.44
443.813	87.44
444.034	98.44
444.255	91.44
444.476	82.44
444.698	80.44
444.919	70.44
445.14	162.44
445.361	115.44
445.582	91.44
445.803	92.44
446.024	84.44
446.245	77.44
446.466	80.44
446.687	82.44
446.908	78.44
447.129	71.44
447.35	70.44
447.571	84.44
447.792	94.44
448.013	89.44
448.234	81.44
448.455	89.44
448.675	94.44
448.896	78.44
449.117	87.44
449.338	79.44
449.559	106.44
449.779	98.44
450	84.44
450.221	84.44
450.442	84.44
450.662	93.44
450.883	69.44
451.104	79.44
451.324	87.44
451.545	83.44
451.766	90.44
451.986	93.44
452.207	85.44
452.428	93.44
452.648	82.44
452.869	95.44
453.089	76.44
453.31	69.44
453.53	85.44
453.751	82.44
453.971	91.44
454.192	83.44
454.412	73.44
454.633	63.44
454.853	80.44
455.073	75.44
455.294	94.44
455.514	85.44
455.734	88.44
455.955	90.44
456.175	79.44
456.395	80.44
456.616	93.44
456.836	89.44
457.056	75.44
457.276	81.44
457.497	72.44
457.717	83.44
457.937	85.44
458.157	95.44
458.377	74.44
458.598	73.44
458.818	84.44
459.038	85.44
459.258	72.44
459.478	80.44
459.698	85.44
459.918	82.44
460.138	70.44
460.358	92.44
460.578	82.44
460.798	97.44
461.018	76.44
461.238	87.44
461.458	80.44
461.678	95.44
461.898	93.44
462.118	94.44
462.338	86.44
462.558	86.44
462.777	75.44
462.997	91.44
463.217	87.44
463.437	71.44
463.657	79.44
463.876	85.44
464.096	86.44
464.316	87.44
464.536	79.44
464.755	91.44
464.975	87.44
465.195	73.44
465.414	88.44
465.634	105.44
465.854	72.44
466.073	83.44
466.293	90.44
466.512	87.44
466.732	99.44
466.951	94.44
467.171	85.44
467.391	83.44
467.61	97.44
467.829	67.44
468.049	85.44
468.268	98.44
468.488	88.44
468.707	81.44
468.927	91.44
469.146	89.44
469.365	92.44
469.585	89.44
469.804	75.44
470.023	78.44
470.243	85.44
470.462	73.44
470.681	84.44
470.901	85.44
471.12	97.44
471.339	83.44
471.558	79.44
471.777	93.44
471.997	70.44
472.216	91.44
472.435	81.44
472.654	77.44
472.873	83.44
473.092	88.44
473.311	83.44
473.53	81.44
473.749	101.44
473.968	94.44
474.187	90.44
474.406	73.44
474.625	99.44
474.844	93.44
475.063	91.44
475.282	77.44
475.501	76.44
475.72	95.44
475.939	81.44
476.158	97.44
476.377	88.44
476.596	90.44
476.814	84.44
477.033	83.44
477.252	82.44
477.471	92.44
477.69	82.44
477.908	103.44
478.127	96.44
478.346	77.44
478.564	74.44
478.783	89.44
479.002	73.44
479.22	83.44
479.439	95.44
479.658	98.44
479.876	87.44
480.095	84.44
480.313	88.44
480.532	79.44
480.751	75.44
480.969	76.44
481.188	88.44
481.406	75.44
481.624	85.44
481.843	88.44
482.061	95.44
482.28	96.44
482.498	68.44
482.717	74.44
482.935	79.44
483.153	76.44
483.372	91.44
483.59	91.44
483.808	90.44
484.027	85.44
484.245	83.44
484.463	87.44
484.681	94.44
484.9	79.44
485.118	79.44
485.336	79.44
485.554	85.44
485.772	78.44
485.99	89.44
486.209	72.44
486.427	69.44
486.645	79.44
486.863	74.44
487.081	81.44
487.299	84.44
487.517	82.44
487.735	87.44
487.953	83.44
488.171	94.44
488.389	87.44
488.607	100.44
488.825	93.44
489.043	73.44
489.261	84.44
489.479	87.44
489.696	67.44
489.914	90.44
490.132	87.44
490.35	69.44
490.568	84.44
490.786	81.44
491.003	92.44
491.221	81.44
491.439	83.44
491.657	87.44
491.874	92.44
492.092	98.44
492.31	96.44
492.527	94.44
492.745	87.44
492.963	84.44
493.18	94.44
493.398	85.44
493.615	82.44
493.833	82.44
494.05	89.44
494.268	96.44
494.485	77.44
494.703	73.44
494.92	80.44
495.138	84.44
495.355	88.44
495.573	94.44
495.79	73.44
496.008	87.44
496.225	92.44
496.442	90.44
496.66	89.44
496.877	92.44
497.094	100.44
497.312	81.44
497.529	84.44
497.746	100.44
497.963	69.44
498.181	85.44
498.398	88.44
498.615	81.44
498.832	83.44
499.049	88.44
499.267	83.44
499.484	85.44
499.701	87.44
499.918	84.44
500.135	74.44
500.352	94.44
500.569	91.44
500.786	86.44
501.003	84.44
501.22	84.44
501.437	89.44
501.654	69.44
501.871	72.44
502.088	82.44
502.305	74.44
502.522	95.44
502.739	95.44
502.956	92.44
503.172	90.44
503.389	85.44
503.606	89.44
503.823	91.44
504.04	82.44
504.256	86.44
504.473	86.44
504.69	84.44
504.907	87.44
505.123	82.44
505.34	87.44
505.557	72.44
505.773	79.44
505.99	93.44
506.207	71.44
506.423	92.44
506.64	90.44
506.856	99.44
507.073	85.44
507.289	89.44
507.506	73.44
507.722	99.44
507.939	82.44
508.155	98.44
508.372	92.44
508.588	96.44
508.805	99.44
509.021	95.44
509.238	77.44
509.454	84.44
509.67	77.44
509.887	84.44
510.103	90.44
510.319	90.44
510.536	91.44
510.752	89.44
510.968	90.44
511.184	69.44
511.401	86.44
511.617	79.44
511.833	74.44
512.049	101.44
512.265	86.44
512.481	89.44
512.698	89.44
512.914	85.44
513.13	87.44
513.346	72.44
513.562	89.44
513.778	82.44
513.994	76.44
514.21	95.44
514.426	83.44
514.642	96.44
514.858	80.44
515.074	95.44
515.29	85.44
515.506	98.44
515.721	77.44
515.937	87.44
516.153	84.44
516.369	82.44
516.585	78.44
516.801	68.44
517.016	86.44
517.232	77.44
517.448	62.44
517.664	77.44
517.879	87.44
518.095	87.44
518.311	84.44
518.527	77.44
518.742	77.44
518.958	86.44
519.173	85.44
519.389	82.44
519.605	87.44
519.82	87.44
520.036	80.44
