Data from StdD_HRD10591_091.txt Node
Date: Fri May 16 15:32:06 EDT 2025
User: Yrep
Spectrometer: HR+D1059
Trigger mode: 1
Integration Time (sec): 1.000000E-1
Scans to average: 1
Electric dark correction enabled: true
Nonlinearity correction enabled: false
Boxcar width: 0
XAxis mode: Wavelengths
Number of Pixels in Spectrum: 2048
>>>>>Begin Spectral Data<<<<<
223.165	-20.38
223.4	-20.38
223.635	-20.38
223.869	-31.38
224.104	-25.38
224.338	-9.38
224.573	-5.38
224.808	-16.38
225.042	-2.38
225.277	4.62
225.511	6.62
225.746	15.62
225.98	-3.38
226.215	18.62
226.449	10.62
226.683	13.62
226.918	19.62
227.152	24.62
227.387	44.62
227.621	40.62
227.856	41.62
228.09	46.62
228.324	57.62
228.559	52.62
228.793	47.62
229.027	41.62
229.262	59.62
229.496	80.62
229.73	71.62
229.964	75.62
230.199	83.62
230.433	76.62
230.667	66.62
230.901	84.62
231.136	75.62
231.37	65.62
231.604	74.62
231.838	79.62
232.072	68.62
232.306	90.62
232.541	79.62
232.775	86.62
233.009	78.62
233.243	75.62
233.477	93.62
233.711	79.62
233.945	89.62
234.179	85.62
234.413	86.62
234.647	85.62
234.881	78.62
235.115	59.62
235.349	79.62
235.583	80.62
235.817	82.62
236.051	77.62
236.285	69.62
236.519	84.62
236.753	82.62
236.987	62.62
237.221	75.62
237.455	64.62
237.689	80.62
237.922	86.62
238.156	85.62
238.39	79.62
238.624	86.62
238.858	83.62
239.091	80.62
239.325	81.62
239.559	78.62
239.793	82.62
240.027	94.62
240.26	72.62
240.494	71.62
240.728	78.62
240.961	90.62
241.195	69.62
241.429	73.62
241.662	77.62
241.896	70.62
242.13	84.62
242.363	65.62
242.597	92.62
242.83	76.62
243.064	81.62
243.298	76.62
243.531	69.62
243.765	82.62
243.998	78.62
244.232	80.62
244.465	68.62
244.699	87.62
244.932	87.62
245.166	91.62
245.399	84.62
245.633	58.62
245.866	70.62
246.099	67.62
246.333	65.62
246.566	78.62
246.8	77.62
247.033	74.62
247.266	66.62
247.5	88.62
247.733	80.62
247.966	78.62
248.2	86.62
248.433	84.62
248.666	73.62
248.899	79.62
249.133	69.62
249.366	89.62
249.599	76.62
249.832	74.62
250.066	86.62
250.299	92.62
250.532	84.62
250.765	86.62
250.998	80.62
251.231	82.62
251.465	81.62
251.698	73.62
251.931	71.62
252.164	87.62
252.397	69.62
252.63	77.62
252.863	79.62
253.096	76.62
253.329	84.62
253.562	90.62
253.795	89.62
254.028	74.62
254.261	86.62
254.494	90.62
254.727	80.62
254.96	73.62
255.193	74.62
255.426	74.62
255.659	96.62
255.892	64.62
256.124	74.62
256.357	78.62
256.59	89.62
256.823	82.62
257.056	87.62
257.289	93.62
257.521	87.62
257.754	71.62
257.987	77.62
258.22	76.62
258.452	65.62
258.685	78.62
258.918	87.62
259.151	72.62
259.383	80.62
259.616	89.62
259.849	64.62
260.081	90.62
260.314	77.62
260.547	88.62
260.779	81.62
261.012	93.62
261.244	80.62
261.477	71.62
261.71	94.62
261.942	69.62
262.175	81.62
262.407	85.62
262.64	75.62
262.872	83.62
263.105	95.62
263.337	76.62
263.57	78.62
263.802	88.62
264.035	80.62
264.267	74.62
264.499	81.62
264.732	72.62
264.964	78.62
265.197	84.62
265.429	69.62
265.661	87.62
265.894	84.62
266.126	80.62
266.358	75.62
266.591	77.62
266.823	76.62
267.055	77.62
267.287	89.62
267.52	79.62
267.752	87.62
267.984	88.62
268.216	87.62
268.448	78.62
268.681	78.62
268.913	79.62
269.145	75.62
269.377	89.62
269.609	91.62
269.841	84.62
270.073	85.62
270.306	90.62
270.538	83.62
270.77	82.62
271.002	80.62
271.234	81.62
271.466	85.62
271.698	92.62
271.93	85.62
272.162	84.62
272.394	75.62
272.626	80.62
272.858	69.62
273.09	86.62
273.322	96.62
273.553	84.62
273.785	76.62
274.017	91.62
274.249	82.62
274.481	82.62
274.713	96.62
274.945	82.62
275.176	76.62
275.408	77.62
275.64	87.62
275.872	80.62
276.104	80.62
276.335	88.62
276.567	88.62
276.799	84.62
277.031	70.62
277.262	77.62
277.494	89.62
277.726	80.62
277.957	90.62
278.189	78.62
278.421	87.62
278.652	77.62
278.884	74.62
279.115	88.62
279.347	86.62
279.579	82.62
279.81	85.62
280.042	81.62
280.273	91.62
280.505	81.62
280.736	78.62
280.968	81.62
281.199	68.62
281.431	67.62
281.662	78.62
281.894	82.62
282.125	84.62
282.356	64.62
282.588	79.62
282.819	82.62
283.051	71.62
283.282	81.62
283.513	112.62
283.745	82.62
283.976	76.62
284.207	88.62
284.439	95.62
284.67	84.62
284.901	82.62
285.132	71.62
285.364	67.62
285.595	81.62
285.826	91.62
286.057	70.62
286.288	86.62
286.52	88.62
286.751	81.62
286.982	86.62
287.213	85.62
287.444	79.62
287.675	80.62
287.906	80.62
288.138	86.62
288.369	77.62
288.6	90.62
288.831	73.62
289.062	80.62
289.293	80.62
289.524	94.62
289.755	84.62
289.986	84.62
290.217	78.62
290.448	96.62
290.679	82.62
290.91	83.62
291.141	84.62
291.371	87.62
291.602	80.62
291.833	90.62
292.064	88.62
292.295	96.62
292.526	81.62
292.757	78.62
292.987	96.62
293.218	86.62
293.449	79.62
293.68	76.62
293.91	80.62
294.141	78.62
294.372	84.62
294.603	81.62
294.833	93.62
295.064	80.62
295.295	77.62
295.525	76.62
295.756	84.62
295.987	93.62
296.217	82.62
296.448	87.62
296.679	80.62
296.909	72.62
297.14	76.62
297.37	86.62
297.601	76.62
297.831	93.62
298.062	81.62
298.292	82.62
298.523	86.62
298.753	86.62
298.984	82.62
299.214	72.62
299.445	81.62
299.675	73.62
299.905	86.62
300.136	84.62
300.366	90.62
300.597	83.62
300.827	82.62
301.057	95.62
301.288	78.62
301.518	84.62
301.748	62.62
301.979	94.62
302.209	81.62
302.439	86.62
302.669	100.62
302.9	92.62
303.13	80.62
303.36	67.62
303.59	80.62
303.82	81.62
304.051	85.62
304.281	89.62
304.511	88.62
304.741	89.62
304.971	72.62
305.201	83.62
305.431	100.62
305.661	81.62
305.891	80.62
306.121	89.62
306.352	86.62
306.582	87.62
306.812	73.62
307.042	92.62
307.272	86.62
307.502	80.62
307.731	80.62
307.961	82.62
308.191	87.62
308.421	68.62
308.651	92.62
308.881	87.62
309.111	90.62
309.341	82.62
309.571	76.62
309.8	88.62
310.03	79.62
310.26	80.62
310.49	84.62
310.72	86.62
310.949	95.62
311.179	80.62
311.409	84.62
311.639	70.62
311.868	89.62
312.098	88.62
312.328	85.62
312.557	81.62
312.787	79.62
313.017	92.62
313.246	91.62
313.476	92.62
313.706	80.62
313.935	82.62
314.165	68.62
314.394	79.62
314.624	70.62
314.853	93.62
315.083	83.62
315.312	76.62
315.542	81.62
315.771	92.62
316.001	76.62
316.23	78.62
316.46	74.62
316.689	81.62
316.919	73.62
317.148	84.62
317.377	96.62
317.607	97.62
317.836	75.62
318.065	88.62
318.295	81.62
318.524	75.62
318.753	77.62
318.983	95.62
319.212	72.62
319.441	84.62
319.67	84.62
319.9	86.62
320.129	93.62
320.358	76.62
320.587	66.62
320.816	74.62
321.046	79.62
321.275	82.62
321.504	84.62
321.733	101.62
321.962	80.62
322.191	74.62
322.42	85.62
322.649	74.62
322.878	81.62
323.108	71.62
323.337	75.62
323.566	81.62
323.795	80.62
324.024	81.62
324.253	85.62
324.482	78.62
324.71	88.62
324.939	72.62
325.168	70.62
325.397	85.62
325.626	89.62
325.855	84.62
326.084	79.62
326.313	81.62
326.542	84.62
326.77	84.62
326.999	88.62
327.228	92.62
327.457	88.62
327.686	82.62
327.914	74.62
328.143	73.62
328.372	80.62
328.6	78.62
328.829	86.62
329.058	89.62
329.287	84.62
329.515	82.62
329.744	91.62
329.972	82.62
330.201	81.62
330.43	86.62
330.658	79.62
330.887	72.62
331.115	84.62
331.344	84.62
331.572	81.62
331.801	95.62
332.03	76.62
332.258	65.62
332.486	80.62
332.715	72.62
332.943	89.62
333.172	88.62
333.4	76.62
333.629	86.62
333.857	90.62
334.085	71.62
334.314	73.62
334.542	73.62
334.771	74.62
334.999	88.62
335.227	69.62
335.455	74.62
335.684	92.62
335.912	83.62
336.14	72.62
336.369	82.62
336.597	92.62
336.825	82.62
337.053	96.62
337.281	96.62
337.51	84.62
337.738	76.62
337.966	92.62
338.194	85.62
338.422	75.62
338.65	76.62
338.878	95.62
339.106	73.62
339.334	79.62
339.562	97.62
339.79	97.62
340.018	74.62
340.246	72.62
340.474	74.62
340.702	61.62
340.93	84.62
341.158	78.62
341.386	84.62
341.614	90.62
341.842	88.62
342.07	91.62
342.298	69.62
342.526	98.62
342.754	88.62
342.981	77.62
343.209	87.62
343.437	97.62
343.665	82.62
343.893	95.62
344.12	86.62
344.348	92.62
344.576	62.62
344.804	77.62
345.031	83.62
345.259	77.62
345.487	76.62
345.714	74.62
345.942	80.62
346.17	78.62
346.397	70.62
346.625	72.62
346.853	84.62
347.08	70.62
347.308	70.62
347.535	77.62
347.763	84.62
347.99	96.62
348.218	89.62
348.445	72.62
348.673	70.62
348.9	84.62
349.128	87.62
349.355	78.62
349.583	74.62
349.81	75.62
350.037	88.62
350.265	88.62
350.492	88.62
350.72	78.62
350.947	83.62
351.174	82.62
351.402	81.62
351.629	75.62
351.856	80.62
352.083	76.62
352.311	95.62
352.538	85.62
352.765	81.62
352.992	92.62
353.22	68.62
353.447	84.62
353.674	81.62
353.901	100.62
354.128	78.62
354.355	98.62
354.583	87.62
354.81	80.62
355.037	93.62
355.264	73.62
355.491	77.62
355.718	75.62
355.945	81.62
356.172	78.62
356.399	69.62
356.626	82.62
356.853	83.62
357.08	71.62
357.307	74.62
357.534	81.62
357.761	84.62
357.988	89.62
358.215	92.62
358.441	70.62
358.668	88.62
358.895	80.62
359.122	79.62
359.349	89.62
359.576	92.62
359.802	76.62
360.029	81.62
360.256	86.62
360.483	76.62
360.709	73.62
360.936	84.62
361.163	95.62
361.39	79.62
361.616	80.62
361.843	65.62
362.07	92.62
362.296	89.62
362.523	58.62
362.749	83.62
362.976	90.62
363.203	96.62
363.429	89.62
363.656	81.62
363.882	66.62
364.109	87.62
364.335	80.62
364.562	71.62
364.788	82.62
365.015	90.62
365.241	86.62
365.468	81.62
365.694	91.62
365.92	93.62
366.147	86.62
366.373	86.62
366.599	70.62
366.826	89.62
367.052	81.62
367.278	74.62
367.505	76.62
367.731	85.62
367.957	78.62
368.184	86.62
368.41	68.62
368.636	82.62
368.862	93.62
369.089	79.62
369.315	72.62
369.541	80.62
369.767	86.62
369.993	93.62
370.219	93.62
370.445	72.62
370.672	72.62
370.898	90.62
371.124	86.62
371.35	76.62
371.576	77.62
371.802	80.62
372.028	77.62
372.254	87.62
372.48	77.62
372.706	76.62
372.932	78.62
373.158	75.62
373.384	90.62
373.61	62.62
373.835	75.62
374.061	70.62
374.287	84.62
374.513	90.62
374.739	78.62
374.965	76.62
375.191	77.62
375.416	82.62
375.642	90.62
375.868	85.62
376.094	67.62
376.319	73.62
376.545	79.62
376.771	72.62
376.997	93.62
377.222	89.62
377.448	63.62
377.674	86.62
377.899	78.62
378.125	79.62
378.35	83.62
378.576	79.62
378.802	82.62
379.027	93.62
379.253	70.62
379.478	70.62
379.704	76.62
379.929	84.62
380.155	92.62
380.38	93.62
380.606	70.62
380.831	84.62
381.057	90.62
381.282	80.62
381.507	65.62
381.733	85.62
381.958	90.62
382.184	74.62
382.409	67.62
382.634	82.62
382.86	78.62
383.085	85.62
383.31	87.62
383.535	101.62
383.761	73.62
383.986	100.62
384.211	79.62
384.436	77.62
384.662	96.62
384.887	88.62
385.112	73.62
385.337	88.62
385.562	81.62
385.787	86.62
386.013	102.62
386.238	82.62
386.463	83.62
386.688	104.62
386.913	92.62
387.138	77.62
387.363	72.62
387.588	95.62
387.813	76.62
388.038	81.62
388.263	82.62
388.488	86.62
388.713	80.62
388.938	69.62
389.163	72.62
389.387	79.62
389.612	100.62
389.837	91.62
390.062	72.62
390.287	95.62
390.512	70.62
390.736	87.62
390.961	70.62
391.186	75.62
391.411	88.62
391.636	75.62
391.86	90.62
392.085	76.62
392.31	96.62
392.534	84.62
392.759	79.62
392.984	58.62
393.208	80.62
393.433	78.62
393.658	78.62
393.882	80.62
394.107	80.62
394.331	89.62
394.556	89.62
394.78	84.62
395.005	70.62
395.229	71.62
395.454	80.62
395.678	71.62
395.903	85.62
396.127	84.62
396.352	80.62
396.576	69.62
396.801	75.62
397.025	89.62
397.249	82.62
397.474	86.62
397.698	82.62
397.922	82.62
398.147	73.62
398.371	74.62
398.595	92.62
398.82	84.62
399.044	68.62
399.268	83.62
399.492	80.62
399.717	101.62
399.941	83.62
400.165	81.62
400.389	72.62
400.613	87.62
400.837	75.62
401.062	76.62
401.286	84.62
401.51	82.62
401.734	80.62
401.958	82.62
402.182	75.62
402.406	80.62
402.63	69.62
402.854	82.62
403.078	94.62
403.302	86.62
403.526	75.62
403.75	84.62
403.974	70.62
404.198	57.62
404.422	71.62
404.645	77.62
404.869	86.62
405.093	75.62
405.317	96.62
405.541	82.62
405.765	91.62
405.988	86.62
406.212	95.62
406.436	75.62
406.66	90.62
406.883	102.62
407.107	78.62
407.331	83.62
407.555	82.62
407.778	88.62
408.002	74.62
408.226	92.62
408.449	73.62
408.673	89.62
408.896	72.62
409.12	74.62
409.344	95.62
409.567	74.62
409.791	78.62
410.014	82.62
410.238	86.62
410.461	72.62
410.685	58.62
410.908	72.62
411.132	72.62
411.355	79.62
411.578	93.62
411.802	81.62
412.025	79.62
412.249	80.62
412.472	85.62
412.695	66.62
412.919	75.62
413.142	72.62
413.365	80.62
413.589	81.62
413.812	86.62
414.035	78.62
414.258	73.62
414.482	72.62
414.705	88.62
414.928	72.62
415.151	92.62
415.374	92.62
415.597	78.62
415.821	87.62
416.044	96.62
416.267	70.62
416.49	76.62
416.713	86.62
416.936	86.62
417.159	93.62
417.382	81.62
417.605	73.62
417.828	66.62
418.051	92.62
418.274	96.62
418.497	90.62
418.72	80.62
418.943	88.62
419.166	76.62
419.389	92.62
419.611	68.62
419.834	87.62
420.057	89.62
420.28	93.62
420.503	76.62
420.726	84.62
420.948	78.62
421.171	85.62
421.394	69.62
421.617	82.62
421.839	92.62
422.062	85.62
422.285	85.62
422.507	80.62
422.73	93.62
422.953	76.62
423.175	79.62
423.398	70.62
423.621	93.62
423.843	87.62
424.066	84.62
424.288	84.62
424.511	66.62
424.733	88.62
424.956	84.62
425.178	81.62
425.401	87.62
425.623	85.62
425.846	80.62
426.068	82.62
426.291	79.62
426.513	91.62
426.735	97.62
426.958	90.62
427.18	93.62
427.402	83.62
427.625	76.62
427.847	85.62
428.069	87.62
428.292	82.62
428.514	80.62
428.736	91.62
428.958	90.62
429.181	75.62
429.403	74.62
429.625	84.62
429.847	78.62
430.069	89.62
430.292	88.62
430.514	72.62
430.736	81.62
430.958	78.62
431.18	81.62
431.402	81.62
431.624	72.62
431.846	88.62
432.068	90.62
432.29	78.62
432.512	74.62
432.734	80.62
432.956	98.62
433.178	90.62
433.4	92.62
433.622	92.62
433.844	81.62
434.066	81.62
434.287	80.62
434.509	85.62
434.731	93.62
434.953	95.62
435.175	64.62
435.397	79.62
435.618	86.62
435.84	99.62
436.062	90.62
436.284	87.62
436.505	87.62
436.727	85.62
436.949	93.62
437.17	76.62
437.392	91.62
437.614	96.62
437.835	89.62
438.057	89.62
438.278	81.62
438.5	90.62
438.721	76.62
438.943	92.62
439.165	89.62
439.386	77.62
439.608	94.62
439.829	85.62
440.05	76.62
440.272	83.62
440.493	72.62
440.715	94.62
440.936	86.62
441.158	92.62
441.379	78.62
441.6	70.62
441.822	82.62
442.043	88.62
442.264	78.62
442.486	79.62
442.707	79.62
442.928	93.62
443.149	89.62
443.371	89.62
443.592	73.62
443.813	89.62
444.034	67.62
444.255	82.62
444.476	71.62
444.698	70.62
444.919	82.62
445.14	160.62
445.361	120.62
445.582	91.62
445.803	80.62
446.024	84.62
446.245	86.62
446.466	84.62
446.687	87.62
446.908	85.62
447.129	77.62
447.35	92.62
447.571	84.62
447.792	84.62
448.013	80.62
448.234	78.62
448.455	92.62
448.675	80.62
448.896	79.62
449.117	86.62
449.338	93.62
449.559	80.62
449.779	88.62
450	85.62
450.221	81.62
450.442	80.62
450.662	72.62
450.883	86.62
451.104	86.62
451.324	83.62
451.545	90.62
451.766	81.62
451.986	89.62
452.207	82.62
452.428	88.62
452.648	86.62
452.869	85.62
453.089	80.62
453.31	76.62
453.53	80.62
453.751	87.62
453.971	102.62
454.192	89.62
454.412	76.62
454.633	79.62
454.853	64.62
455.073	83.62
455.294	75.62
455.514	89.62
455.734	75.62
455.955	97.62
456.175	76.62
456.395	89.62
456.616	78.62
456.836	93.62
457.056	87.62
457.276	89.62
457.497	84.62
457.717	77.62
457.937	60.62
458.157	80.62
458.377	74.62
458.598	84.62
458.818	92.62
459.038	72.62
459.258	93.62
459.478	76.62
459.698	92.62
459.918	81.62
460.138	77.62
460.358	68.62
460.578	81.62
460.798	76.62
461.018	80.62
461.238	88.62
461.458	84.62
461.678	82.62
461.898	81.62
462.118	93.62
462.338	86.62
462.558	90.62
462.777	83.62
462.997	91.62
463.217	75.62
463.437	80.62
463.657	81.62
463.876	79.62
464.096	85.62
464.316	92.62
464.536	81.62
464.755	73.62
464.975	74.62
465.195	87.62
465.414	82.62
465.634	77.62
465.854	80.62
466.073	95.62
466.293	69.62
466.512	80.62
466.732	68.62
466.951	89.62
467.171	93.62
467.391	88.62
467.61	106.62
467.829	98.62
468.049	84.62
468.268	82.62
468.488	79.62
468.707	82.62
468.927	94.62
469.146	71.62
469.365	68.62
469.585	84.62
469.804	84.62
470.023	70.62
470.243	93.62
470.462	90.62
470.681	90.62
470.901	90.62
471.12	78.62
471.339	82.62
471.558	74.62
471.777	79.62
471.997	77.62
472.216	85.62
472.435	77.62
472.654	72.62
472.873	93.62
473.092	81.62
473.311	74.62
473.53	88.62
473.749	91.62
473.968	90.62
474.187	95.62
474.406	82.62
474.625	95.62
474.844	68.62
475.063	76.62
475.282	74.62
475.501	77.62
475.72	90.62
475.939	78.62
476.158	75.62
476.377	86.62
476.596	76.62
476.814	79.62
477.033	72.62
477.252	94.62
477.471	88.62
477.69	82.62
477.908	85.62
478.127	93.62
478.346	86.62
478.564	89.62
478.783	84.62
479.002	88.62
479.22	83.62
479.439	91.62
479.658	77.62
479.876	91.62
480.095	85.62
480.313	85.62
480.532	73.62
480.751	88.62
480.969	87.62
481.188	89.62
481.406	88.62
481.624	87.62
481.843	85.62
482.061	88.62
482.28	90.62
482.498	79.62
482.717	93.62
482.935	72.62
483.153	76.62
483.372	91.62
483.59	89.62
483.808	81.62
484.027	68.62
484.245	90.62
484.463	80.62
484.681	85.62
484.9	78.62
485.118	90.62
485.336	95.62
485.554	89.62
485.772	92.62
485.99	83.62
486.209	69.62
486.427	86.62
486.645	76.62
486.863	88.62
487.081	89.62
487.299	82.62
487.517	83.62
487.735	86.62
487.953	97.62
488.171	80.62
488.389	73.62
488.607	88.62
488.825	93.62
489.043	90.62
489.261	90.62
489.479	78.62
489.696	102.62
489.914	88.62
490.132	90.62
490.35	86.62
490.568	72.62
490.786	72.62
491.003	82.62
491.221	99.62
491.439	78.62
491.657	79.62
491.874	96.62
492.092	89.62
492.31	83.62
492.527	88.62
492.745	80.62
492.963	89.62
493.18	81.62
493.398	84.62
493.615	73.62
493.833	74.62
494.05	86.62
494.268	85.62
494.485	90.62
494.703	79.62
494.92	69.62
495.138	81.62
495.355	93.62
495.573	78.62
495.79	92.62
496.008	84.62
496.225	89.62
496.442	81.62
496.66	84.62
496.877	89.62
497.094	86.62
497.312	80.62
497.529	75.62
497.746	89.62
497.963	85.62
498.181	95.62
498.398	94.62
498.615	72.62
498.832	80.62
499.049	96.62
499.267	84.62
499.484	90.62
499.701	108.62
499.918	84.62
500.135	90.62
500.352	83.62
500.569	94.62
500.786	84.62
501.003	88.62
501.22	77.62
501.437	87.62
501.654	88.62
501.871	73.62
502.088	95.62
502.305	74.62
502.522	88.62
502.739	88.62
502.956	81.62
503.172	76.62
503.389	70.62
503.606	72.62
503.823	80.62
504.04	89.62
504.256	79.62
504.473	76.62
504.69	62.62
504.907	97.62
505.123	80.62
505.34	85.62
505.557	80.62
505.773	78.62
505.99	89.62
506.207	80.62
506.423	90.62
506.64	65.62
506.856	85.62
507.073	90.62
507.289	95.62
507.506	83.62
507.722	80.62
507.939	83.62
508.155	69.62
508.372	79.62
508.588	79.62
508.805	89.62
509.021	88.62
509.238	68.62
509.454	84.62
509.67	73.62
509.887	90.62
510.103	73.62
510.319	73.62
510.536	73.62
510.752	87.62
510.968	85.62
511.184	92.62
511.401	88.62
511.617	80.62
511.833	74.62
512.049	90.62
512.265	78.62
512.481	88.62
512.698	90.62
512.914	94.62
513.13	81.62
513.346	80.62
513.562	72.62
513.778	82.62
513.994	84.62
514.21	78.62
514.426	76.62
514.642	65.62
514.858	82.62
515.074	78.62
515.29	80.62
515.506	101.62
515.721	67.62
515.937	72.62
516.153	87.62
516.369	87.62
516.585	87.62
516.801	76.62
517.016	77.62
517.232	79.62
517.448	80.62
517.664	82.62
517.879	91.62
518.095	87.62
518.311	88.62
518.527	67.62
518.742	94.62
518.958	80.62
519.173	87.62
519.389	91.62
519.605	80.62
519.82	76.62
520.036	81.62
