Data from StdD_HRD10591_098.txt Node
Date: Fri May 16 15:32:10 EDT 2025
User: Yrep
Spectrometer: HR+D1059
Trigger mode: 1
Integration Time (sec): 1.000000E-1
Scans to average: 1
Electric dark correction enabled: true
Nonlinearity correction enabled: false
Boxcar width: 0
XAxis mode: Wavelengths
Number of Pixels in Spectrum: 2048
>>>>>Begin Spectral Data<<<<<
223.165	-20.06
223.4	-20.06
223.635	-20.06
223.869	-31.06
224.104	-17.06
224.338	-16.06
224.573	-5.06
224.808	-17.06
225.042	0.94
225.277	7.94
225.511	2.94
225.746	11.94
225.98	5.94
226.215	3.94
226.449	8.94
226.683	14.94
226.918	13.94
227.152	34.94
227.387	30.94
227.621	36.94
227.856	51.94
228.09	54.94
228.324	48.94
228.559	44.94
228.793	68.94
229.027	70.94
229.262	45.94
229.496	74.94
229.73	73.94
229.964	79.94
230.199	62.94
230.433	70.94
230.667	58.94
230.901	60.94
231.136	77.94
231.37	79.94
231.604	86.94
231.838	79.94
232.072	86.94
232.306	85.94
232.541	75.94
232.775	78.94
233.009	78.94
233.243	86.94
233.477	74.94
233.711	74.94
233.945	74.94
234.179	75.94
234.413	68.94
234.647	75.94
234.881	74.94
235.115	72.94
235.349	67.94
235.583	86.94
235.817	70.94
236.051	83.94
236.285	78.94
236.519	72.94
236.753	85.94
236.987	95.94
237.221	66.94
237.455	79.94
237.689	63.94
237.922	92.94
238.156	82.94
238.39	61.94
238.624	86.94
238.858	82.94
239.091	83.94
239.325	59.94
239.559	72.94
239.793	67.94
240.027	70.94
240.26	63.94
240.494	80.94
240.728	81.94
240.961	85.94
241.195	76.94
241.429	76.94
241.662	64.94
241.896	77.94
242.13	55.94
242.363	76.94
242.597	76.94
242.83	78.94
243.064	72.94
243.298	63.94
243.531	75.94
243.765	73.94
243.998	72.94
244.232	72.94
244.465	51.94
244.699	86.94
244.932	74.94
245.166	67.94
245.399	79.94
245.633	91.94
245.866	82.94
246.099	71.94
246.333	78.94
246.566	61.94
246.8	75.94
247.033	76.94
247.266	69.94
247.5	78.94
247.733	75.94
247.966	79.94
248.2	62.94
248.433	64.94
248.666	76.94
248.899	82.94
249.133	79.94
249.366	75.94
249.599	79.94
249.832	91.94
250.066	74.94
250.299	79.94
250.532	52.94
250.765	75.94
250.998	75.94
251.231	71.94
251.465	75.94
251.698	77.94
251.931	79.94
252.164	87.94
252.397	74.94
252.63	85.94
252.863	74.94
253.096	75.94
253.329	81.94
253.562	76.94
253.795	79.94
254.028	73.94
254.261	62.94
254.494	86.94
254.727	77.94
254.96	76.94
255.193	77.94
255.426	77.94
255.659	87.94
255.892	80.94
256.124	89.94
256.357	71.94
256.59	71.94
256.823	74.94
257.056	72.94
257.289	71.94
257.521	82.94
257.754	79.94
257.987	82.94
258.22	80.94
258.452	93.94
258.685	58.94
258.918	62.94
259.151	67.94
259.383	86.94
259.616	80.94
259.849	82.94
260.081	75.94
260.314	84.94
260.547	99.94
260.779	62.94
261.012	76.94
261.244	78.94
261.477	83.94
261.71	70.94
261.942	76.94
262.175	75.94
262.407	71.94
262.64	76.94
262.872	70.94
263.105	80.94
263.337	70.94
263.57	78.94
263.802	70.94
264.035	87.94
264.267	105.94
264.499	64.94
264.732	64.94
264.964	95.94
265.197	94.94
265.429	80.94
265.661	55.94
265.894	88.94
266.126	89.94
266.358	78.94
266.591	77.94
266.823	82.94
267.055	82.94
267.287	81.94
267.52	75.94
267.752	74.94
267.984	83.94
268.216	79.94
268.448	87.94
268.681	88.94
268.913	70.94
269.145	80.94
269.377	79.94
269.609	85.94
269.841	68.94
270.073	89.94
270.306	84.94
270.538	74.94
270.77	83.94
271.002	80.94
271.234	70.94
271.466	75.94
271.698	80.94
271.93	96.94
272.162	82.94
272.394	68.94
272.626	69.94
272.858	78.94
273.09	76.94
273.322	71.94
273.553	74.94
273.785	84.94
274.017	101.94
274.249	76.94
274.481	86.94
274.713	87.94
274.945	87.94
275.176	86.94
275.408	74.94
275.64	98.94
275.872	94.94
276.104	77.94
276.335	82.94
276.567	79.94
276.799	82.94
277.031	88.94
277.262	67.94
277.494	78.94
277.726	94.94
277.957	83.94
278.189	70.94
278.421	63.94
278.652	82.94
278.884	71.94
279.115	88.94
279.347	72.94
279.579	81.94
279.81	79.94
280.042	73.94
280.273	72.94
280.505	73.94
280.736	87.94
280.968	78.94
281.199	79.94
281.431	73.94
281.662	79.94
281.894	74.94
282.125	87.94
282.356	84.94
282.588	86.94
282.819	79.94
283.051	68.94
283.282	80.94
283.513	78.94
283.745	73.94
283.976	67.94
284.207	88.94
284.439	82.94
284.67	100.94
284.901	80.94
285.132	79.94
285.364	82.94
285.595	86.94
285.826	81.94
286.057	80.94
286.288	85.94
286.52	86.94
286.751	74.94
286.982	96.94
287.213	83.94
287.444	77.94
287.675	92.94
287.906	93.94
288.138	93.94
288.369	86.94
288.6	71.94
288.831	80.94
289.062	85.94
289.293	87.94
289.524	70.94
289.755	71.94
289.986	63.94
290.217	78.94
290.448	71.94
290.679	78.94
290.91	79.94
291.141	80.94
291.371	81.94
291.602	79.94
291.833	104.94
292.064	70.94
292.295	84.94
292.526	88.94
292.757	77.94
292.987	63.94
293.218	76.94
293.449	73.94
293.68	75.94
293.91	86.94
294.141	84.94
294.372	87.94
294.603	82.94
294.833	77.94
295.064	80.94
295.295	74.94
295.525	69.94
295.756	92.94
295.987	78.94
296.217	72.94
296.448	86.94
296.679	92.94
296.909	69.94
297.14	85.94
297.37	85.94
297.601	71.94
297.831	82.94
298.062	79.94
298.292	73.94
298.523	78.94
298.753	86.94
298.984	77.94
299.214	82.94
299.445	84.94
299.675	89.94
299.905	90.94
300.136	85.94
300.366	80.94
300.597	87.94
300.827	88.94
301.057	74.94
301.288	89.94
301.518	96.94
301.748	79.94
301.979	91.94
302.209	91.94
302.439	85.94
302.669	87.94
302.9	93.94
303.13	91.94
303.36	99.94
303.59	79.94
303.82	81.94
304.051	84.94
304.281	91.94
304.511	78.94
304.741	74.94
304.971	83.94
305.201	93.94
305.431	88.94
305.661	84.94
305.891	76.94
306.121	86.94
306.352	74.94
306.582	76.94
306.812	79.94
307.042	78.94
307.272	90.94
307.502	63.94
307.731	85.94
307.961	83.94
308.191	84.94
308.421	89.94
308.651	86.94
308.881	83.94
309.111	72.94
309.341	83.94
309.571	88.94
309.8	81.94
310.03	99.94
310.26	66.94
310.49	88.94
310.72	74.94
310.949	70.94
311.179	83.94
311.409	76.94
311.639	85.94
311.868	92.94
312.098	94.94
312.328	81.94
312.557	76.94
312.787	69.94
313.017	81.94
313.246	93.94
313.476	74.94
313.706	83.94
313.935	81.94
314.165	85.94
314.394	76.94
314.624	82.94
314.853	86.94
315.083	99.94
315.312	78.94
315.542	79.94
315.771	85.94
316.001	72.94
316.23	73.94
316.46	83.94
316.689	85.94
316.919	84.94
317.148	80.94
317.377	72.94
317.607	78.94
317.836	87.94
318.065	68.94
318.295	73.94
318.524	83.94
318.753	75.94
318.983	83.94
319.212	79.94
319.441	77.94
319.67	76.94
319.9	86.94
320.129	83.94
320.358	83.94
320.587	80.94
320.816	72.94
321.046	70.94
321.275	90.94
321.504	98.94
321.733	91.94
321.962	68.94
322.191	93.94
322.42	104.94
322.649	78.94
322.878	76.94
323.108	84.94
323.337	93.94
323.566	84.94
323.795	88.94
324.024	83.94
324.253	79.94
324.482	67.94
324.71	85.94
324.939	87.94
325.168	86.94
325.397	88.94
325.626	78.94
325.855	84.94
326.084	84.94
326.313	68.94
326.542	80.94
326.77	83.94
326.999	90.94
327.228	67.94
327.457	90.94
327.686	76.94
327.914	72.94
328.143	90.94
328.372	92.94
328.6	82.94
328.829	78.94
329.058	78.94
329.287	85.94
329.515	72.94
329.744	77.94
329.972	77.94
330.201	82.94
330.43	76.94
330.658	81.94
330.887	80.94
331.115	82.94
331.344	78.94
331.572	76.94
331.801	89.94
332.03	85.94
332.258	76.94
332.486	69.94
332.715	73.94
332.943	90.94
333.172	80.94
333.4	87.94
333.629	83.94
333.857	94.94
334.085	84.94
334.314	83.94
334.542	76.94
334.771	82.94
334.999	82.94
335.227	83.94
335.455	95.94
335.684	80.94
335.912	73.94
336.14	83.94
336.369	72.94
336.597	94.94
336.825	78.94
337.053	91.94
337.281	78.94
337.51	87.94
337.738	81.94
337.966	78.94
338.194	88.94
338.422	85.94
338.65	90.94
338.878	67.94
339.106	64.94
339.334	77.94
339.562	87.94
339.79	88.94
340.018	74.94
340.246	88.94
340.474	74.94
340.702	79.94
340.93	82.94
341.158	78.94
341.386	73.94
341.614	82.94
341.842	84.94
342.07	75.94
342.298	70.94
342.526	74.94
342.754	86.94
342.981	83.94
343.209	83.94
343.437	100.94
343.665	74.94
343.893	92.94
344.12	93.94
344.348	74.94
344.576	76.94
344.804	96.94
345.031	82.94
345.259	78.94
345.487	90.94
345.714	86.94
345.942	82.94
346.17	85.94
346.397	73.94
346.625	95.94
346.853	70.94
347.08	87.94
347.308	89.94
347.535	83.94
347.763	64.94
347.99	86.94
348.218	71.94
348.445	90.94
348.673	70.94
348.9	82.94
349.128	66.94
349.355	76.94
349.583	85.94
349.81	74.94
350.037	87.94
350.265	83.94
350.492	75.94
350.72	82.94
350.947	81.94
351.174	83.94
351.402	84.94
351.629	91.94
351.856	84.94
352.083	84.94
352.311	80.94
352.538	80.94
352.765	91.94
352.992	72.94
353.22	74.94
353.447	73.94
353.674	87.94
353.901	92.94
354.128	79.94
354.355	80.94
354.583	68.94
354.81	84.94
355.037	91.94
355.264	77.94
355.491	77.94
355.718	85.94
355.945	78.94
356.172	93.94
356.399	82.94
356.626	90.94
356.853	89.94
357.08	72.94
357.307	83.94
357.534	71.94
357.761	90.94
357.988	82.94
358.215	79.94
358.441	72.94
358.668	92.94
358.895	90.94
359.122	89.94
359.349	83.94
359.576	83.94
359.802	73.94
360.029	75.94
360.256	78.94
360.483	83.94
360.709	80.94
360.936	76.94
361.163	74.94
361.39	78.94
361.616	82.94
361.843	70.94
362.07	104.94
362.296	95.94
362.523	78.94
362.749	81.94
362.976	89.94
363.203	82.94
363.429	78.94
363.656	74.94
363.882	85.94
364.109	86.94
364.335	100.94
364.562	93.94
364.788	88.94
365.015	74.94
365.241	70.94
365.468	81.94
365.694	80.94
365.92	70.94
366.147	82.94
366.373	87.94
366.599	70.94
366.826	83.94
367.052	76.94
367.278	68.94
367.505	77.94
367.731	84.94
367.957	90.94
368.184	79.94
368.41	78.94
368.636	84.94
368.862	74.94
369.089	78.94
369.315	68.94
369.541	78.94
369.767	81.94
369.993	77.94
370.219	73.94
370.445	79.94
370.672	69.94
370.898	79.94
371.124	84.94
371.35	87.94
371.576	82.94
371.802	91.94
372.028	84.94
372.254	89.94
372.48	92.94
372.706	73.94
372.932	92.94
373.158	77.94
373.384	81.94
373.61	83.94
373.835	71.94
374.061	99.94
374.287	80.94
374.513	85.94
374.739	80.94
374.965	74.94
375.191	83.94
375.416	78.94
375.642	87.94
375.868	94.94
376.094	81.94
376.319	80.94
376.545	93.94
376.771	74.94
376.997	87.94
377.222	68.94
377.448	80.94
377.674	78.94
377.899	81.94
378.125	74.94
378.35	74.94
378.576	74.94
378.802	71.94
379.027	87.94
379.253	106.94
379.478	74.94
379.704	90.94
379.929	82.94
380.155	80.94
380.38	84.94
380.606	79.94
380.831	82.94
381.057	76.94
381.282	77.94
381.507	83.94
381.733	76.94
381.958	80.94
382.184	72.94
382.409	78.94
382.634	85.94
382.86	76.94
383.085	89.94
383.31	64.94
383.535	76.94
383.761	73.94
383.986	80.94
384.211	69.94
384.436	93.94
384.662	73.94
384.887	73.94
385.112	93.94
385.337	78.94
385.562	59.94
385.787	69.94
386.013	76.94
386.238	78.94
386.463	78.94
386.688	95.94
386.913	75.94
387.138	78.94
387.363	91.94
387.588	73.94
387.813	82.94
388.038	72.94
388.263	84.94
388.488	70.94
388.713	87.94
388.938	71.94
389.163	87.94
389.387	93.94
389.612	94.94
389.837	70.94
390.062	74.94
390.287	73.94
390.512	75.94
390.736	91.94
390.961	72.94
391.186	89.94
391.411	72.94
391.636	70.94
391.86	78.94
392.085	77.94
392.31	71.94
392.534	74.94
392.759	76.94
392.984	86.94
393.208	94.94
393.433	61.94
393.658	71.94
393.882	71.94
394.107	71.94
394.331	83.94
394.556	78.94
394.78	73.94
395.005	82.94
395.229	70.94
395.454	82.94
395.678	63.94
395.903	76.94
396.127	82.94
396.352	63.94
396.576	90.94
396.801	76.94
397.025	79.94
397.249	78.94
397.474	96.94
397.698	93.94
397.922	69.94
398.147	72.94
398.371	73.94
398.595	84.94
398.82	64.94
399.044	80.94
399.268	75.94
399.492	90.94
399.717	71.94
399.941	87.94
400.165	90.94
400.389	77.94
400.613	72.94
400.837	90.94
401.062	93.94
401.286	83.94
401.51	81.94
401.734	76.94
401.958	78.94
402.182	75.94
402.406	74.94
402.63	73.94
402.854	87.94
403.078	77.94
403.302	63.94
403.526	71.94
403.75	71.94
403.974	73.94
404.198	73.94
404.422	79.94
404.645	86.94
404.869	92.94
405.093	73.94
405.317	86.94
405.541	75.94
405.765	76.94
405.988	88.94
406.212	74.94
406.436	69.94
406.66	74.94
406.883	78.94
407.107	74.94
407.331	78.94
407.555	75.94
407.778	72.94
408.002	100.94
408.226	91.94
408.449	76.94
408.673	68.94
408.896	80.94
409.12	74.94
409.344	71.94
409.567	84.94
409.791	77.94
410.014	74.94
410.238	78.94
410.461	86.94
410.685	75.94
410.908	81.94
411.132	83.94
411.355	62.94
411.578	64.94
411.802	76.94
412.025	85.94
412.249	90.94
412.472	82.94
412.695	79.94
412.919	87.94
413.142	74.94
413.365	78.94
413.589	87.94
413.812	75.94
414.035	84.94
414.258	86.94
414.482	80.94
414.705	64.94
414.928	86.94
415.151	78.94
415.374	83.94
415.597	74.94
415.821	78.94
416.044	78.94
416.267	77.94
416.49	77.94
416.713	78.94
416.936	74.94
417.159	72.94
417.382	73.94
417.605	80.94
417.828	75.94
418.051	83.94
418.274	84.94
418.497	75.94
418.72	77.94
418.943	93.94
419.166	77.94
419.389	69.94
419.611	86.94
419.834	80.94
420.057	81.94
420.28	82.94
420.503	88.94
420.726	76.94
420.948	93.94
421.171	83.94
421.394	78.94
421.617	70.94
421.839	76.94
422.062	63.94
422.285	76.94
422.507	78.94
422.73	77.94
422.953	72.94
423.175	78.94
423.398	65.94
423.621	80.94
423.843	70.94
424.066	74.94
424.288	86.94
424.511	72.94
424.733	86.94
424.956	64.94
425.178	71.94
425.401	79.94
425.623	93.94
425.846	83.94
426.068	81.94
426.291	58.94
426.513	75.94
426.735	74.94
426.958	87.94
427.18	82.94
427.402	61.94
427.625	86.94
427.847	70.94
428.069	73.94
428.292	91.94
428.514	70.94
428.736	75.94
428.958	84.94
429.181	99.94
429.403	77.94
429.625	94.94
429.847	79.94
430.069	80.94
430.292	73.94
430.514	78.94
430.736	92.94
430.958	74.94
431.18	75.94
431.402	71.94
431.624	87.94
431.846	68.94
432.068	79.94
432.29	91.94
432.512	88.94
432.734	67.94
432.956	88.94
433.178	85.94
433.4	79.94
433.622	83.94
433.844	84.94
434.066	64.94
434.287	82.94
434.509	74.94
434.731	81.94
434.953	79.94
435.175	73.94
435.397	76.94
435.618	75.94
435.84	74.94
436.062	80.94
436.284	76.94
436.505	73.94
436.727	79.94
436.949	83.94
437.17	65.94
437.392	72.94
437.614	82.94
437.835	83.94
438.057	78.94
438.278	86.94
438.5	78.94
438.721	78.94
438.943	84.94
439.165	93.94
439.386	74.94
439.608	68.94
439.829	71.94
440.05	78.94
440.272	83.94
440.493	66.94
440.715	88.94
440.936	79.94
441.158	83.94
441.379	90.94
441.6	86.94
441.822	77.94
442.043	91.94
442.264	72.94
442.486	90.94
442.707	93.94
442.928	77.94
443.149	88.94
443.371	83.94
443.592	77.94
443.813	70.94
444.034	83.94
444.255	90.94
444.476	85.94
444.698	80.94
444.919	72.94
445.14	147.94
445.361	115.94
445.582	86.94
445.803	79.94
446.024	68.94
446.245	86.94
446.466	78.94
446.687	80.94
446.908	79.94
447.129	78.94
447.35	86.94
447.571	90.94
447.792	76.94
448.013	78.94
448.234	78.94
448.455	84.94
448.675	77.94
448.896	87.94
449.117	81.94
449.338	78.94
449.559	75.94
449.779	81.94
450	79.94
450.221	78.94
450.442	70.94
450.662	78.94
450.883	79.94
451.104	78.94
451.324	79.94
451.545	82.94
451.766	70.94
451.986	94.94
452.207	102.94
452.428	91.94
452.648	78.94
452.869	80.94
453.089	83.94
453.31	71.94
453.53	85.94
453.751	85.94
453.971	73.94
454.192	71.94
454.412	85.94
454.633	88.94
454.853	93.94
455.073	77.94
455.294	69.94
455.514	87.94
455.734	71.94
455.955	87.94
456.175	84.94
456.395	83.94
456.616	68.94
456.836	72.94
457.056	71.94
457.276	77.94
457.497	78.94
457.717	78.94
457.937	70.94
458.157	70.94
458.377	69.94
458.598	67.94
458.818	82.94
459.038	77.94
459.258	85.94
459.478	77.94
459.698	69.94
459.918	78.94
460.138	85.94
460.358	90.94
460.578	77.94
460.798	87.94
461.018	75.94
461.238	82.94
461.458	72.94
461.678	83.94
461.898	85.94
462.118	65.94
462.338	86.94
462.558	80.94
462.777	86.94
462.997	80.94
463.217	74.94
463.437	87.94
463.657	77.94
463.876	87.94
464.096	84.94
464.316	70.94
464.536	79.94
464.755	77.94
464.975	76.94
465.195	73.94
465.414	72.94
465.634	74.94
465.854	75.94
466.073	85.94
466.293	84.94
466.512	74.94
466.732	71.94
466.951	81.94
467.171	75.94
467.391	77.94
467.61	77.94
467.829	74.94
468.049	79.94
468.268	92.94
468.488	87.94
468.707	87.94
468.927	74.94
469.146	76.94
469.365	87.94
469.585	92.94
469.804	84.94
470.023	80.94
470.243	82.94
470.462	73.94
470.681	75.94
470.901	91.94
471.12	83.94
471.339	86.94
471.558	95.94
471.777	89.94
471.997	87.94
472.216	77.94
472.435	66.94
472.654	76.94
472.873	84.94
473.092	87.94
473.311	87.94
473.53	73.94
473.749	82.94
473.968	71.94
474.187	81.94
474.406	70.94
474.625	71.94
474.844	79.94
475.063	78.94
475.282	74.94
475.501	89.94
475.72	68.94
475.939	88.94
476.158	100.94
476.377	72.94
476.596	62.94
476.814	70.94
477.033	87.94
477.252	82.94
477.471	70.94
477.69	79.94
477.908	64.94
478.127	96.94
478.346	78.94
478.564	88.94
478.783	66.94
479.002	85.94
479.22	76.94
479.439	88.94
479.658	79.94
479.876	99.94
480.095	84.94
480.313	73.94
480.532	78.94
480.751	75.94
480.969	89.94
481.188	78.94
481.406	84.94
481.624	82.94
481.843	78.94
482.061	73.94
482.28	79.94
482.498	74.94
482.717	57.94
482.935	78.94
483.153	74.94
483.372	88.94
483.59	70.94
483.808	68.94
484.027	98.94
484.245	90.94
484.463	69.94
484.681	74.94
484.9	73.94
485.118	89.94
485.336	79.94
485.554	86.94
485.772	82.94
485.99	74.94
486.209	77.94
486.427	84.94
486.645	74.94
486.863	86.94
487.081	85.94
487.299	94.94
487.517	59.94
487.735	61.94
487.953	90.94
488.171	94.94
488.389	75.94
488.607	73.94
488.825	71.94
489.043	71.94
489.261	98.94
489.479	82.94
489.696	82.94
489.914	67.94
490.132	90.94
490.35	88.94
490.568	83.94
490.786	92.94
491.003	70.94
491.221	85.94
491.439	80.94
491.657	90.94
491.874	83.94
492.092	82.94
492.31	83.94
492.527	89.94
492.745	77.94
492.963	78.94
493.18	95.94
493.398	84.94
493.615	92.94
493.833	76.94
494.05	70.94
494.268	64.94
494.485	82.94
494.703	95.94
494.92	76.94
495.138	86.94
495.355	82.94
495.573	74.94
495.79	79.94
496.008	85.94
496.225	82.94
496.442	99.94
496.66	98.94
496.877	78.94
497.094	78.94
497.312	84.94
497.529	70.94
497.746	95.94
497.963	82.94
498.181	77.94
498.398	82.94
498.615	94.94
498.832	77.94
499.049	76.94
499.267	90.94
499.484	73.94
499.701	94.94
499.918	73.94
500.135	87.94
500.352	86.94
500.569	82.94
500.786	77.94
501.003	76.94
501.22	99.94
501.437	86.94
501.654	69.94
501.871	86.94
502.088	80.94
502.305	67.94
502.522	83.94
502.739	82.94
502.956	74.94
503.172	75.94
503.389	71.94
503.606	90.94
503.823	76.94
504.04	82.94
504.256	88.94
504.473	76.94
504.69	93.94
504.907	88.94
505.123	80.94
505.34	81.94
505.557	93.94
505.773	85.94
505.99	83.94
506.207	85.94
506.423	86.94
506.64	76.94
506.856	98.94
507.073	85.94
507.289	82.94
507.506	82.94
507.722	84.94
507.939	80.94
508.155	78.94
508.372	72.94
508.588	85.94
508.805	87.94
509.021	82.94
509.238	65.94
509.454	79.94
509.67	78.94
509.887	66.94
510.103	66.94
510.319	88.94
510.536	92.94
510.752	75.94
510.968	84.94
511.184	87.94
511.401	71.94
511.617	68.94
511.833	79.94
512.049	76.94
512.265	77.94
512.481	76.94
512.698	78.94
512.914	79.94
513.13	87.94
513.346	68.94
513.562	87.94
513.778	73.94
513.994	66.94
514.21	64.94
514.426	82.94
514.642	90.94
514.858	84.94
515.074	76.94
515.29	78.94
515.506	97.94
515.721	80.94
515.937	77.94
516.153	79.94
516.369	83.94
516.585	74.94
516.801	78.94
517.016	86.94
517.232	75.94
517.448	60.94
517.664	70.94
517.879	76.94
518.095	89.94
518.311	89.94
518.527	77.94
518.742	87.94
518.958	74.94
519.173	91.94
519.389	85.94
519.605	77.94
519.82	83.94
520.036	94.94
520.251	85.94
