Data from StdD_HRD10591_094.txt Node
Date: Fri May 16 15:32:08 EDT 2025
User: Yrep
Spectrometer: HR+D1059
Trigger mode: 1
Integration Time (sec): 1.000000E-1
Scans to average: 1
Electric dark correction enabled: true
Nonlinearity correction enabled: false
Boxcar width: 0
XAxis mode: Wavelengths
Number of Pixels in Spectrum: 2048
>>>>>Begin Spectral Data<<<<<
223.165	-19.06
223.4	-19.06
223.635	-19.06
223.869	-31.06
224.104	-20.06
224.338	-15.06
224.573	-21.06
224.808	-7.06
225.042	-8.06
225.277	-13.06
225.511	0.94
225.746	3.94
225.98	5.94
226.215	7.94
226.449	31.94
226.683	20.94
226.918	29.94
227.152	32.94
227.387	38.94
227.621	26.94
227.856	35.94
228.09	51.94
228.324	63.94
228.559	56.94
228.793	66.94
229.027	63.94
229.262	60.94
229.496	75.94
229.73	63.94
229.964	77.94
230.199	79.94
230.433	72.94
230.667	76.94
230.901	74.94
231.136	65.94
231.37	85.94
231.604	74.94
231.838	76.94
232.072	90.94
232.306	78.94
232.541	65.94
232.775	69.94
233.009	75.94
233.243	75.94
233.477	74.94
233.711	76.94
233.945	84.94
234.179	78.94
234.413	83.94
234.647	82.94
234.881	81.94
235.115	86.94
235.349	83.94
235.583	86.94
235.817	78.94
236.051	73.94
236.285	83.94
236.519	75.94
236.753	84.94
236.987	69.94
237.221	76.94
237.455	71.94
237.689	78.94
237.922	61.94
238.156	87.94
238.39	76.94
238.624	79.94
238.858	61.94
239.091	69.94
239.325	63.94
239.559	73.94
239.793	70.94
240.027	88.94
240.26	63.94
240.494	63.94
240.728	72.94
240.961	81.94
241.195	86.94
241.429	62.94
241.662	65.94
241.896	64.94
242.13	70.94
242.363	78.94
242.597	70.94
242.83	60.94
243.064	65.94
243.298	79.94
243.531	94.94
243.765	76.94
243.998	83.94
244.232	77.94
244.465	85.94
244.699	72.94
244.932	75.94
245.166	85.94
245.399	81.94
245.633	82.94
245.866	74.94
246.099	80.94
246.333	67.94
246.566	88.94
246.8	78.94
247.033	75.94
247.266	74.94
247.5	85.94
247.733	70.94
247.966	79.94
248.2	68.94
248.433	60.94
248.666	60.94
248.899	73.94
249.133	73.94
249.366	83.94
249.599	80.94
249.832	67.94
250.066	65.94
250.299	79.94
250.532	83.94
250.765	76.94
250.998	82.94
251.231	83.94
251.465	65.94
251.698	73.94
251.931	78.94
252.164	74.94
252.397	72.94
252.63	79.94
252.863	73.94
253.096	61.94
253.329	95.94
253.562	73.94
253.795	70.94
254.028	69.94
254.261	74.94
254.494	87.94
254.727	73.94
254.96	68.94
255.193	75.94
255.426	71.94
255.659	79.94
255.892	92.94
256.124	74.94
256.357	64.94
256.59	85.94
256.823	75.94
257.056	87.94
257.289	78.94
257.521	73.94
257.754	84.94
257.987	73.94
258.22	65.94
258.452	64.94
258.685	79.94
258.918	88.94
259.151	57.94
259.383	84.94
259.616	83.94
259.849	85.94
260.081	86.94
260.314	65.94
260.547	71.94
260.779	78.94
261.012	74.94
261.244	83.94
261.477	72.94
261.71	76.94
261.942	80.94
262.175	65.94
262.407	81.94
262.64	85.94
262.872	77.94
263.105	79.94
263.337	91.94
263.57	91.94
263.802	78.94
264.035	77.94
264.267	87.94
264.499	65.94
264.732	77.94
264.964	87.94
265.197	88.94
265.429	71.94
265.661	93.94
265.894	87.94
266.126	79.94
266.358	80.94
266.591	76.94
266.823	81.94
267.055	80.94
267.287	75.94
267.52	74.94
267.752	80.94
267.984	76.94
268.216	70.94
268.448	86.94
268.681	70.94
268.913	75.94
269.145	75.94
269.377	88.94
269.609	85.94
269.841	79.94
270.073	67.94
270.306	84.94
270.538	90.94
270.77	83.94
271.002	81.94
271.234	79.94
271.466	84.94
271.698	82.94
271.93	79.94
272.162	93.94
272.394	85.94
272.626	79.94
272.858	80.94
273.09	91.94
273.322	74.94
273.553	73.94
273.785	87.94
274.017	65.94
274.249	98.94
274.481	85.94
274.713	63.94
274.945	85.94
275.176	86.94
275.408	78.94
275.64	89.94
275.872	86.94
276.104	84.94
276.335	80.94
276.567	94.94
276.799	88.94
277.031	75.94
277.262	75.94
277.494	81.94
277.726	75.94
277.957	77.94
278.189	72.94
278.421	70.94
278.652	89.94
278.884	78.94
279.115	88.94
279.347	81.94
279.579	93.94
279.81	88.94
280.042	91.94
280.273	75.94
280.505	71.94
280.736	73.94
280.968	84.94
281.199	80.94
281.431	79.94
281.662	70.94
281.894	82.94
282.125	69.94
282.356	83.94
282.588	83.94
282.819	75.94
283.051	73.94
283.282	80.94
283.513	88.94
283.745	69.94
283.976	81.94
284.207	76.94
284.439	90.94
284.67	71.94
284.901	78.94
285.132	80.94
285.364	85.94
285.595	75.94
285.826	85.94
286.057	91.94
286.288	77.94
286.52	80.94
286.751	82.94
286.982	75.94
287.213	82.94
287.444	65.94
287.675	86.94
287.906	77.94
288.138	80.94
288.369	71.94
288.6	76.94
288.831	84.94
289.062	85.94
289.293	79.94
289.524	80.94
289.755	77.94
289.986	81.94
290.217	90.94
290.448	68.94
290.679	66.94
290.91	86.94
291.141	72.94
291.371	63.94
291.602	73.94
291.833	73.94
292.064	78.94
292.295	83.94
292.526	75.94
292.757	86.94
292.987	89.94
293.218	75.94
293.449	71.94
293.68	82.94
293.91	96.94
294.141	85.94
294.372	72.94
294.603	85.94
294.833	79.94
295.064	81.94
295.295	79.94
295.525	80.94
295.756	79.94
295.987	91.94
296.217	74.94
296.448	65.94
296.679	93.94
296.909	74.94
297.14	73.94
297.37	79.94
297.601	72.94
297.831	87.94
298.062	99.94
298.292	81.94
298.523	91.94
298.753	87.94
298.984	82.94
299.214	87.94
299.445	78.94
299.675	76.94
299.905	94.94
300.136	72.94
300.366	85.94
300.597	93.94
300.827	77.94
301.057	89.94
301.288	88.94
301.518	80.94
301.748	79.94
301.979	77.94
302.209	86.94
302.439	79.94
302.669	94.94
302.9	75.94
303.13	84.94
303.36	76.94
303.59	81.94
303.82	81.94
304.051	93.94
304.281	93.94
304.511	70.94
304.741	77.94
304.971	99.94
305.201	84.94
305.431	101.94
305.661	71.94
305.891	68.94
306.121	84.94
306.352	77.94
306.582	75.94
306.812	77.94
307.042	58.94
307.272	86.94
307.502	80.94
307.731	71.94
307.961	69.94
308.191	78.94
308.421	87.94
308.651	84.94
308.881	77.94
309.111	56.94
309.341	79.94
309.571	92.94
309.8	77.94
310.03	81.94
310.26	99.94
310.49	101.94
310.72	87.94
310.949	75.94
311.179	87.94
311.409	75.94
311.639	76.94
311.868	83.94
312.098	81.94
312.328	77.94
312.557	82.94
312.787	83.94
313.017	79.94
313.246	79.94
313.476	83.94
313.706	83.94
313.935	82.94
314.165	75.94
314.394	84.94
314.624	85.94
314.853	84.94
315.083	84.94
315.312	83.94
315.542	84.94
315.771	74.94
316.001	83.94
316.23	99.94
316.46	79.94
316.689	74.94
316.919	95.94
317.148	78.94
317.377	89.94
317.607	85.94
317.836	85.94
318.065	82.94
318.295	75.94
318.524	87.94
318.753	72.94
318.983	77.94
319.212	76.94
319.441	83.94
319.67	85.94
319.9	89.94
320.129	88.94
320.358	73.94
320.587	85.94
320.816	85.94
321.046	78.94
321.275	85.94
321.504	85.94
321.733	89.94
321.962	85.94
322.191	71.94
322.42	79.94
322.649	76.94
322.878	91.94
323.108	78.94
323.337	79.94
323.566	79.94
323.795	82.94
324.024	87.94
324.253	89.94
324.482	93.94
324.71	81.94
324.939	80.94
325.168	85.94
325.397	90.94
325.626	85.94
325.855	72.94
326.084	84.94
326.313	83.94
326.542	83.94
326.77	70.94
326.999	97.94
327.228	71.94
327.457	75.94
327.686	74.94
327.914	78.94
328.143	78.94
328.372	76.94
328.6	90.94
328.829	73.94
329.058	83.94
329.287	78.94
329.515	64.94
329.744	88.94
329.972	73.94
330.201	85.94
330.43	83.94
330.658	81.94
330.887	77.94
331.115	92.94
331.344	84.94
331.572	81.94
331.801	84.94
332.03	73.94
332.258	68.94
332.486	81.94
332.715	72.94
332.943	86.94
333.172	81.94
333.4	75.94
333.629	87.94
333.857	75.94
334.085	69.94
334.314	73.94
334.542	92.94
334.771	73.94
334.999	70.94
335.227	83.94
335.455	88.94
335.684	84.94
335.912	75.94
336.14	78.94
336.369	78.94
336.597	79.94
336.825	91.94
337.053	78.94
337.281	85.94
337.51	79.94
337.738	71.94
337.966	88.94
338.194	78.94
338.422	71.94
338.65	79.94
338.878	82.94
339.106	73.94
339.334	74.94
339.562	68.94
339.79	83.94
340.018	81.94
340.246	95.94
340.474	68.94
340.702	85.94
340.93	81.94
341.158	68.94
341.386	71.94
341.614	84.94
341.842	75.94
342.07	73.94
342.298	89.94
342.526	84.94
342.754	74.94
342.981	84.94
343.209	92.94
343.437	98.94
343.665	82.94
343.893	70.94
344.12	83.94
344.348	88.94
344.576	76.94
344.804	76.94
345.031	80.94
345.259	82.94
345.487	73.94
345.714	87.94
345.942	78.94
346.17	90.94
346.397	73.94
346.625	71.94
346.853	83.94
347.08	75.94
347.308	78.94
347.535	100.94
347.763	83.94
347.99	88.94
348.218	92.94
348.445	77.94
348.673	75.94
348.9	80.94
349.128	74.94
349.355	82.94
349.583	77.94
349.81	86.94
350.037	70.94
350.265	75.94
350.492	85.94
350.72	78.94
350.947	84.94
351.174	83.94
351.402	81.94
351.629	74.94
351.856	71.94
352.083	79.94
352.311	90.94
352.538	92.94
352.765	78.94
352.992	84.94
353.22	95.94
353.447	104.94
353.674	90.94
353.901	77.94
354.128	95.94
354.355	63.94
354.583	73.94
354.81	85.94
355.037	84.94
355.264	79.94
355.491	83.94
355.718	84.94
355.945	82.94
356.172	83.94
356.399	75.94
356.626	72.94
356.853	83.94
357.08	87.94
357.307	83.94
357.534	71.94
357.761	75.94
357.988	80.94
358.215	75.94
358.441	67.94
358.668	75.94
358.895	83.94
359.122	102.94
359.349	76.94
359.576	71.94
359.802	92.94
360.029	79.94
360.256	81.94
360.483	80.94
360.709	76.94
360.936	87.94
361.163	70.94
361.39	74.94
361.616	78.94
361.843	80.94
362.07	92.94
362.296	76.94
362.523	85.94
362.749	72.94
362.976	75.94
363.203	88.94
363.429	81.94
363.656	73.94
363.882	75.94
364.109	69.94
364.335	83.94
364.562	79.94
364.788	83.94
365.015	92.94
365.241	79.94
365.468	76.94
365.694	71.94
365.92	72.94
366.147	84.94
366.373	83.94
366.599	60.94
366.826	88.94
367.052	79.94
367.278	90.94
367.505	80.94
367.731	79.94
367.957	82.94
368.184	87.94
368.41	89.94
368.636	80.94
368.862	78.94
369.089	78.94
369.315	60.94
369.541	75.94
369.767	79.94
369.993	96.94
370.219	83.94
370.445	79.94
370.672	84.94
370.898	77.94
371.124	71.94
371.35	69.94
371.576	95.94
371.802	63.94
372.028	83.94
372.254	81.94
372.48	69.94
372.706	81.94
372.932	94.94
373.158	73.94
373.384	77.94
373.61	71.94
373.835	77.94
374.061	77.94
374.287	80.94
374.513	87.94
374.739	83.94
374.965	90.94
375.191	77.94
375.416	67.94
375.642	84.94
375.868	90.94
376.094	66.94
376.319	80.94
376.545	65.94
376.771	79.94
376.997	91.94
377.222	88.94
377.448	75.94
377.674	74.94
377.899	78.94
378.125	85.94
378.35	83.94
378.576	75.94
378.802	65.94
379.027	81.94
379.253	76.94
379.478	70.94
379.704	83.94
379.929	75.94
380.155	72.94
380.38	75.94
380.606	75.94
380.831	76.94
381.057	83.94
381.282	78.94
381.507	90.94
381.733	81.94
381.958	75.94
382.184	80.94
382.409	84.94
382.634	89.94
382.86	69.94
383.085	66.94
383.31	77.94
383.535	91.94
383.761	81.94
383.986	87.94
384.211	78.94
384.436	77.94
384.662	75.94
384.887	79.94
385.112	90.94
385.337	89.94
385.562	90.94
385.787	82.94
386.013	89.94
386.238	73.94
386.463	81.94
386.688	85.94
386.913	71.94
387.138	89.94
387.363	75.94
387.588	77.94
387.813	71.94
388.038	83.94
388.263	90.94
388.488	79.94
388.713	73.94
388.938	66.94
389.163	81.94
389.387	80.94
389.612	69.94
389.837	71.94
390.062	88.94
390.287	77.94
390.512	69.94
390.736	91.94
390.961	88.94
391.186	79.94
391.411	80.94
391.636	89.94
391.86	88.94
392.085	72.94
392.31	92.94
392.534	75.94
392.759	84.94
392.984	77.94
393.208	73.94
393.433	81.94
393.658	93.94
393.882	76.94
394.107	80.94
394.331	78.94
394.556	63.94
394.78	68.94
395.005	63.94
395.229	72.94
395.454	87.94
395.678	78.94
395.903	75.94
396.127	85.94
396.352	79.94
396.576	83.94
396.801	69.94
397.025	77.94
397.249	74.94
397.474	73.94
397.698	93.94
397.922	78.94
398.147	68.94
398.371	77.94
398.595	95.94
398.82	74.94
399.044	71.94
399.268	83.94
399.492	76.94
399.717	89.94
399.941	99.94
400.165	81.94
400.389	92.94
400.613	79.94
400.837	91.94
401.062	74.94
401.286	74.94
401.51	85.94
401.734	85.94
401.958	83.94
402.182	89.94
402.406	88.94
402.63	84.94
402.854	84.94
403.078	78.94
403.302	73.94
403.526	79.94
403.75	85.94
403.974	86.94
404.198	70.94
404.422	77.94
404.645	71.94
404.869	75.94
405.093	73.94
405.317	90.94
405.541	83.94
405.765	81.94
405.988	71.94
406.212	75.94
406.436	91.94
406.66	81.94
406.883	68.94
407.107	75.94
407.331	74.94
407.555	76.94
407.778	77.94
408.002	80.94
408.226	83.94
408.449	92.94
408.673	69.94
408.896	83.94
409.12	81.94
409.344	71.94
409.567	71.94
409.791	78.94
410.014	70.94
410.238	77.94
410.461	87.94
410.685	75.94
410.908	77.94
411.132	98.94
411.355	70.94
411.578	80.94
411.802	81.94
412.025	86.94
412.249	70.94
412.472	84.94
412.695	87.94
412.919	75.94
413.142	77.94
413.365	77.94
413.589	80.94
413.812	79.94
414.035	85.94
414.258	78.94
414.482	71.94
414.705	84.94
414.928	88.94
415.151	80.94
415.374	84.94
415.597	76.94
415.821	80.94
416.044	77.94
416.267	84.94
416.49	71.94
416.713	79.94
416.936	89.94
417.159	83.94
417.382	92.94
417.605	88.94
417.828	86.94
418.051	77.94
418.274	87.94
418.497	83.94
418.72	88.94
418.943	73.94
419.166	76.94
419.389	91.94
419.611	88.94
419.834	79.94
420.057	75.94
420.28	65.94
420.503	71.94
420.726	75.94
420.948	77.94
421.171	66.94
421.394	88.94
421.617	80.94
421.839	81.94
422.062	81.94
422.285	84.94
422.507	105.94
422.73	91.94
422.953	89.94
423.175	76.94
423.398	81.94
423.621	82.94
423.843	87.94
424.066	68.94
424.288	76.94
424.511	75.94
424.733	75.94
424.956	84.94
425.178	77.94
425.401	79.94
425.623	85.94
425.846	79.94
426.068	77.94
426.291	80.94
426.513	87.94
426.735	81.94
426.958	58.94
427.18	67.94
427.402	84.94
427.625	88.94
427.847	79.94
428.069	93.94
428.292	76.94
428.514	81.94
428.736	78.94
428.958	73.94
429.181	97.94
429.403	83.94
429.625	79.94
429.847	80.94
430.069	100.94
430.292	84.94
430.514	74.94
430.736	71.94
430.958	78.94
431.18	80.94
431.402	78.94
431.624	84.94
431.846	80.94
432.068	78.94
432.29	75.94
432.512	89.94
432.734	78.94
432.956	84.94
433.178	73.94
433.4	75.94
433.622	78.94
433.844	88.94
434.066	90.94
434.287	99.94
434.509	71.94
434.731	64.94
434.953	94.94
435.175	76.94
435.397	81.94
435.618	83.94
435.84	75.94
436.062	68.94
436.284	87.94
436.505	81.94
436.727	84.94
436.949	89.94
437.17	85.94
437.392	73.94
437.614	83.94
437.835	73.94
438.057	87.94
438.278	80.94
438.5	75.94
438.721	72.94
438.943	87.94
439.165	77.94
439.386	90.94
439.608	87.94
439.829	92.94
440.05	93.94
440.272	74.94
440.493	77.94
440.715	68.94
440.936	72.94
441.158	94.94
441.379	79.94
441.6	85.94
441.822	77.94
442.043	83.94
442.264	87.94
442.486	65.94
442.707	71.94
442.928	92.94
443.149	67.94
443.371	81.94
443.592	94.94
443.813	77.94
444.034	78.94
444.255	81.94
444.476	89.94
444.698	62.94
444.919	79.94
445.14	152.94
445.361	125.94
445.582	94.94
445.803	75.94
446.024	77.94
446.245	81.94
446.466	77.94
446.687	84.94
446.908	83.94
447.129	73.94
447.35	87.94
447.571	83.94
447.792	71.94
448.013	87.94
448.234	92.94
448.455	77.94
448.675	92.94
448.896	58.94
449.117	87.94
449.338	82.94
449.559	90.94
449.779	86.94
450	71.94
450.221	68.94
450.442	77.94
450.662	78.94
450.883	88.94
451.104	88.94
451.324	83.94
451.545	72.94
451.766	72.94
451.986	81.94
452.207	88.94
452.428	82.94
452.648	85.94
452.869	75.94
453.089	78.94
453.31	75.94
453.53	72.94
453.751	70.94
453.971	89.94
454.192	78.94
454.412	71.94
454.633	84.94
454.853	85.94
455.073	90.94
455.294	87.94
455.514	85.94
455.734	73.94
455.955	83.94
456.175	85.94
456.395	69.94
456.616	68.94
456.836	84.94
457.056	91.94
457.276	76.94
457.497	86.94
457.717	89.94
457.937	81.94
458.157	85.94
458.377	71.94
458.598	67.94
458.818	65.94
459.038	77.94
459.258	99.94
459.478	91.94
459.698	85.94
459.918	94.94
460.138	79.94
460.358	84.94
460.578	89.94
460.798	67.94
461.018	78.94
461.238	85.94
461.458	81.94
461.678	79.94
461.898	83.94
462.118	77.94
462.338	85.94
462.558	77.94
462.777	76.94
462.997	79.94
463.217	86.94
463.437	76.94
463.657	79.94
463.876	69.94
464.096	76.94
464.316	84.94
464.536	77.94
464.755	77.94
464.975	92.94
465.195	82.94
465.414	85.94
465.634	71.94
465.854	78.94
466.073	82.94
466.293	74.94
466.512	79.94
466.732	81.94
466.951	77.94
467.171	81.94
467.391	71.94
467.61	85.94
467.829	95.94
468.049	86.94
468.268	89.94
468.488	68.94
468.707	74.94
468.927	78.94
469.146	78.94
469.365	90.94
469.585	75.94
469.804	73.94
470.023	63.94
470.243	80.94
470.462	82.94
470.681	85.94
470.901	81.94
471.12	70.94
471.339	81.94
471.558	87.94
471.777	75.94
471.997	75.94
472.216	76.94
472.435	69.94
472.654	75.94
472.873	76.94
473.092	79.94
473.311	88.94
473.53	91.94
473.749	81.94
473.968	88.94
474.187	94.94
474.406	75.94
474.625	88.94
474.844	99.94
475.063	83.94
475.282	87.94
475.501	77.94
475.72	79.94
475.939	83.94
476.158	84.94
476.377	83.94
476.596	72.94
476.814	87.94
477.033	80.94
477.252	82.94
477.471	89.94
477.69	79.94
477.908	80.94
478.127	95.94
478.346	83.94
478.564	73.94
478.783	101.94
479.002	92.94
479.22	59.94
479.439	85.94
479.658	70.94
479.876	79.94
480.095	84.94
480.313	86.94
480.532	87.94
480.751	90.94
480.969	84.94
481.188	74.94
481.406	83.94
481.624	97.94
481.843	73.94
482.061	78.94
482.28	78.94
482.498	63.94
482.717	69.94
482.935	71.94
483.153	78.94
483.372	88.94
483.59	79.94
483.808	66.94
484.027	73.94
484.245	83.94
484.463	75.94
484.681	91.94
484.9	92.94
485.118	91.94
485.336	82.94
485.554	79.94
485.772	81.94
485.99	74.94
486.209	78.94
486.427	83.94
486.645	89.94
486.863	74.94
487.081	77.94
487.299	75.94
487.517	78.94
487.735	56.94
487.953	82.94
488.171	83.94
488.389	79.94
488.607	81.94
488.825	72.94
489.043	78.94
489.261	89.94
489.479	85.94
489.696	78.94
489.914	88.94
490.132	85.94
490.35	87.94
490.568	94.94
490.786	90.94
491.003	72.94
491.221	86.94
491.439	92.94
491.657	92.94
491.874	99.94
492.092	87.94
492.31	91.94
492.527	86.94
492.745	94.94
492.963	87.94
493.18	94.94
493.398	99.94
493.615	84.94
493.833	78.94
494.05	79.94
494.268	101.94
494.485	101.94
494.703	78.94
494.92	75.94
495.138	73.94
495.355	83.94
495.573	85.94
495.79	72.94
496.008	79.94
496.225	69.94
496.442	88.94
496.66	75.94
496.877	81.94
497.094	81.94
497.312	79.94
497.529	75.94
497.746	87.94
497.963	93.94
498.181	95.94
498.398	99.94
498.615	76.94
498.832	76.94
499.049	87.94
499.267	69.94
499.484	79.94
499.701	87.94
499.918	87.94
500.135	81.94
500.352	64.94
500.569	81.94
500.786	73.94
501.003	104.94
501.22	81.94
501.437	92.94
501.654	73.94
501.871	85.94
502.088	78.94
502.305	87.94
502.522	77.94
502.739	75.94
502.956	80.94
503.172	71.94
503.389	84.94
503.606	93.94
503.823	77.94
504.04	72.94
504.256	94.94
504.473	81.94
504.69	100.94
504.907	104.94
505.123	78.94
505.34	76.94
505.557	75.94
505.773	77.94
505.99	90.94
506.207	83.94
506.423	76.94
506.64	86.94
506.856	80.94
507.073	95.94
507.289	84.94
507.506	73.94
507.722	79.94
507.939	89.94
508.155	92.94
508.372	84.94
508.588	84.94
508.805	85.94
509.021	70.94
509.238	90.94
509.454	76.94
509.67	86.94
509.887	86.94
510.103	89.94
510.319	93.94
510.536	75.94
510.752	76.94
510.968	73.94
511.184	77.94
511.401	76.94
511.617	73.94
511.833	72.94
512.049	64.94
512.265	94.94
512.481	71.94
512.698	76.94
512.914	86.94
513.13	92.94
513.346	82.94
513.562	81.94
513.778	81.94
513.994	90.94
514.21	75.94
514.426	97.94
514.642	84.94
514.858	83.94
515.074	95.94
515.29	74.94
515.506	79.94
515.721	79.94
515.937	80.94
516.153	81.94
516.369	76.94
516.585	79.94
516.801	71.94
517.016	88.94
517.232	71.94
517.448	75.94
517.664	84.94
517.879	86.94
518.095	90.94
518.311	84.94
518.527	84.94
518.742	90.94
518.958	65.94
519.173	89.94
519.389	72.94
519.605	80.94
519.82	59.94
520.036	81.94
520.251	92.94
