Data from StdD_HRD10591_029.txt Node
Date: Fri May 16 15:31:35 EDT 2025
User: Yrep
Spectrometer: HR+D1059
Trigger mode: 1
Integration Time (sec): 1.000000E-1
Scans to average: 1
Electric dark correction enabled: true
Nonlinearity correction enabled: false
Boxcar width: 0
XAxis mode: Wavelengths
Number of Pixels in Spectrum: 2048
>>>>>Begin Spectral Data<<<<<
223.165	-11.56
223.4	-11.56
223.635	-11.56
223.869	-32.56
224.104	-17.56
224.338	-14.56
224.573	-13.56
224.808	-3.56
225.042	0.44
225.277	-5.56
225.511	-5.56
225.746	-4.56
225.98	8.44
226.215	10.44
226.449	16.44
226.683	13.44
226.918	21.44
227.152	38.44
227.387	43.44
227.621	50.44
227.856	49.44
228.09	48.44
228.324	46.44
228.559	64.44
228.793	57.44
229.027	63.44
229.262	60.44
229.496	72.44
229.73	67.44
229.964	56.44
230.199	84.44
230.433	82.44
230.667	79.44
230.901	70.44
231.136	66.44
231.37	88.44
231.604	80.44
231.838	77.44
232.072	71.44
232.306	78.44
232.541	79.44
232.775	84.44
233.009	86.44
233.243	78.44
233.477	88.44
233.711	84.44
233.945	67.44
234.179	82.44
234.413	77.44
234.647	78.44
234.881	81.44
235.115	69.44
235.349	83.44
235.583	71.44
235.817	66.44
236.051	86.44
236.285	77.44
236.519	92.44
236.753	80.44
236.987	72.44
237.221	80.44
237.455	85.44
237.689	83.44
237.922	78.44
238.156	84.44
238.39	83.44
238.624	69.44
238.858	67.44
239.091	80.44
239.325	58.44
239.559	76.44
239.793	64.44
240.027	85.44
240.26	55.44
240.494	71.44
240.728	72.44
240.961	70.44
241.195	81.44
241.429	76.44
241.662	82.44
241.896	80.44
242.13	86.44
242.363	95.44
242.597	77.44
242.83	82.44
243.064	69.44
243.298	74.44
243.531	80.44
243.765	56.44
243.998	81.44
244.232	93.44
244.465	82.44
244.699	78.44
244.932	68.44
245.166	76.44
245.399	88.44
245.633	80.44
245.866	74.44
246.099	74.44
246.333	79.44
246.566	84.44
246.8	72.44
247.033	75.44
247.266	80.44
247.5	85.44
247.733	83.44
247.966	80.44
248.2	58.44
248.433	77.44
248.666	74.44
248.899	87.44
249.133	84.44
249.366	73.44
249.599	87.44
249.832	74.44
250.066	70.44
250.299	75.44
250.532	79.44
250.765	78.44
250.998	76.44
251.231	79.44
251.465	84.44
251.698	70.44
251.931	66.44
252.164	70.44
252.397	81.44
252.63	72.44
252.863	73.44
253.096	82.44
253.329	85.44
253.562	88.44
253.795	85.44
254.028	93.44
254.261	90.44
254.494	83.44
254.727	80.44
254.96	72.44
255.193	85.44
255.426	78.44
255.659	85.44
255.892	72.44
256.124	89.44
256.357	80.44
256.59	80.44
256.823	69.44
257.056	88.44
257.289	84.44
257.521	86.44
257.754	64.44
257.987	76.44
258.22	80.44
258.452	77.44
258.685	88.44
258.918	96.44
259.151	91.44
259.383	94.44
259.616	64.44
259.849	84.44
260.081	77.44
260.314	85.44
260.547	91.44
260.779	75.44
261.012	85.44
261.244	84.44
261.477	89.44
261.71	96.44
261.942	75.44
262.175	85.44
262.407	76.44
262.64	88.44
262.872	90.44
263.105	101.44
263.337	92.44
263.57	69.44
263.802	98.44
264.035	74.44
264.267	81.44
264.499	85.44
264.732	80.44
264.964	76.44
265.197	75.44
265.429	71.44
265.661	74.44
265.894	82.44
266.126	92.44
266.358	82.44
266.591	75.44
266.823	66.44
267.055	77.44
267.287	78.44
267.52	60.44
267.752	70.44
267.984	73.44
268.216	77.44
268.448	76.44
268.681	92.44
268.913	78.44
269.145	83.44
269.377	87.44
269.609	84.44
269.841	81.44
270.073	83.44
270.306	80.44
270.538	72.44
270.77	85.44
271.002	77.44
271.234	88.44
271.466	86.44
271.698	81.44
271.93	86.44
272.162	100.44
272.394	92.44
272.626	82.44
272.858	93.44
273.09	82.44
273.322	82.44
273.553	77.44
273.785	92.44
274.017	76.44
274.249	86.44
274.481	82.44
274.713	81.44
274.945	89.44
275.176	76.44
275.408	86.44
275.64	92.44
275.872	81.44
276.104	73.44
276.335	89.44
276.567	78.44
276.799	86.44
277.031	87.44
277.262	76.44
277.494	72.44
277.726	82.44
277.957	90.44
278.189	86.44
278.421	83.44
278.652	89.44
278.884	75.44
279.115	88.44
279.347	93.44
279.579	91.44
279.81	93.44
280.042	82.44
280.273	84.44
280.505	86.44
280.736	77.44
280.968	90.44
281.199	87.44
281.431	73.44
281.662	87.44
281.894	86.44
282.125	82.44
282.356	83.44
282.588	77.44
282.819	92.44
283.051	72.44
283.282	84.44
283.513	80.44
283.745	83.44
283.976	86.44
284.207	84.44
284.439	77.44
284.67	79.44
284.901	104.44
285.132	78.44
285.364	86.44
285.595	105.44
285.826	85.44
286.057	95.44
286.288	80.44
286.52	91.44
286.751	90.44
286.982	80.44
287.213	80.44
287.444	78.44
287.675	87.44
287.906	87.44
288.138	83.44
288.369	84.44
288.6	92.44
288.831	107.44
289.062	90.44
289.293	81.44
289.524	85.44
289.755	85.44
289.986	80.44
290.217	78.44
290.448	89.44
290.679	85.44
290.91	96.44
291.141	73.44
291.371	75.44
291.602	80.44
291.833	85.44
292.064	87.44
292.295	93.44
292.526	78.44
292.757	95.44
292.987	102.44
293.218	85.44
293.449	85.44
293.68	68.44
293.91	68.44
294.141	84.44
294.372	85.44
294.603	87.44
294.833	87.44
295.064	88.44
295.295	85.44
295.525	63.44
295.756	78.44
295.987	85.44
296.217	73.44
296.448	93.44
296.679	77.44
296.909	84.44
297.14	91.44
297.37	72.44
297.601	83.44
297.831	82.44
298.062	94.44
298.292	74.44
298.523	92.44
298.753	70.44
298.984	82.44
299.214	82.44
299.445	73.44
299.675	68.44
299.905	78.44
300.136	92.44
300.366	97.44
300.597	89.44
300.827	91.44
301.057	95.44
301.288	95.44
301.518	95.44
301.748	77.44
301.979	104.44
302.209	83.44
302.439	89.44
302.669	83.44
302.9	74.44
303.13	76.44
303.36	81.44
303.59	100.44
303.82	70.44
304.051	85.44
304.281	92.44
304.511	82.44
304.741	97.44
304.971	104.44
305.201	76.44
305.431	68.44
305.661	96.44
305.891	88.44
306.121	78.44
306.352	84.44
306.582	93.44
306.812	84.44
307.042	104.44
307.272	83.44
307.502	88.44
307.731	86.44
307.961	86.44
308.191	86.44
308.421	77.44
308.651	85.44
308.881	79.44
309.111	91.44
309.341	82.44
309.571	90.44
309.8	82.44
310.03	76.44
310.26	77.44
310.49	104.44
310.72	92.44
310.949	72.44
311.179	91.44
311.409	96.44
311.639	84.44
311.868	79.44
312.098	71.44
312.328	87.44
312.557	87.44
312.787	89.44
313.017	84.44
313.246	89.44
313.476	102.44
313.706	92.44
313.935	85.44
314.165	83.44
314.394	77.44
314.624	79.44
314.853	90.44
315.083	79.44
315.312	86.44
315.542	83.44
315.771	84.44
316.001	78.44
316.23	90.44
316.46	94.44
316.689	85.44
316.919	86.44
317.148	94.44
317.377	84.44
317.607	86.44
317.836	78.44
318.065	77.44
318.295	65.44
318.524	86.44
318.753	91.44
318.983	76.44
319.212	93.44
319.441	90.44
319.67	86.44
319.9	90.44
320.129	84.44
320.358	85.44
320.587	73.44
320.816	79.44
321.046	80.44
321.275	104.44
321.504	81.44
321.733	84.44
321.962	96.44
322.191	85.44
322.42	78.44
322.649	92.44
322.878	99.44
323.108	66.44
323.337	96.44
323.566	82.44
323.795	85.44
324.024	86.44
324.253	84.44
324.482	95.44
324.71	84.44
324.939	91.44
325.168	81.44
325.397	81.44
325.626	80.44
325.855	79.44
326.084	80.44
326.313	85.44
326.542	76.44
326.77	89.44
326.999	84.44
327.228	72.44
327.457	84.44
327.686	79.44
327.914	80.44
328.143	81.44
328.372	79.44
328.6	89.44
328.829	79.44
329.058	81.44
329.287	85.44
329.515	93.44
329.744	82.44
329.972	94.44
330.201	85.44
330.43	94.44
330.658	80.44
330.887	86.44
331.115	74.44
331.344	79.44
331.572	79.44
331.801	97.44
332.03	88.44
332.258	74.44
332.486	80.44
332.715	74.44
332.943	85.44
333.172	87.44
333.4	77.44
333.629	84.44
333.857	90.44
334.085	83.44
334.314	88.44
334.542	80.44
334.771	73.44
334.999	85.44
335.227	87.44
335.455	81.44
335.684	98.44
335.912	100.44
336.14	94.44
336.369	85.44
336.597	80.44
336.825	86.44
337.053	91.44
337.281	81.44
337.51	82.44
337.738	86.44
337.966	95.44
338.194	79.44
338.422	86.44
338.65	68.44
338.878	81.44
339.106	80.44
339.334	92.44
339.562	95.44
339.79	86.44
340.018	68.44
340.246	78.44
340.474	89.44
340.702	86.44
340.93	83.44
341.158	72.44
341.386	86.44
341.614	87.44
341.842	97.44
342.07	85.44
342.298	76.44
342.526	70.44
342.754	79.44
342.981	84.44
343.209	95.44
343.437	100.44
343.665	82.44
343.893	76.44
344.12	95.44
344.348	96.44
344.576	87.44
344.804	86.44
345.031	92.44
345.259	97.44
345.487	89.44
345.714	86.44
345.942	93.44
346.17	86.44
346.397	79.44
346.625	71.44
346.853	81.44
347.08	84.44
347.308	87.44
347.535	73.44
347.763	72.44
347.99	85.44
348.218	88.44
348.445	84.44
348.673	84.44
348.9	78.44
349.128	92.44
349.355	87.44
349.583	86.44
349.81	81.44
350.037	88.44
350.265	89.44
350.492	80.44
350.72	73.44
350.947	76.44
351.174	88.44
351.402	70.44
351.629	92.44
351.856	92.44
352.083	95.44
352.311	72.44
352.538	80.44
352.765	86.44
352.992	91.44
353.22	93.44
353.447	79.44
353.674	77.44
353.901	66.44
354.128	84.44
354.355	84.44
354.583	79.44
354.81	76.44
355.037	79.44
355.264	71.44
355.491	73.44
355.718	94.44
355.945	81.44
356.172	78.44
356.399	85.44
356.626	79.44
356.853	94.44
357.08	80.44
357.307	86.44
357.534	80.44
357.761	83.44
357.988	96.44
358.215	87.44
358.441	86.44
358.668	77.44
358.895	82.44
359.122	77.44
359.349	78.44
359.576	82.44
359.802	84.44
360.029	76.44
360.256	101.44
360.483	77.44
360.709	92.44
360.936	90.44
361.163	71.44
361.39	82.44
361.616	80.44
361.843	90.44
362.07	81.44
362.296	85.44
362.523	88.44
362.749	80.44
362.976	75.44
363.203	86.44
363.429	80.44
363.656	81.44
363.882	65.44
364.109	100.44
364.335	81.44
364.562	76.44
364.788	81.44
365.015	71.44
365.241	80.44
365.468	76.44
365.694	81.44
365.92	83.44
366.147	98.44
366.373	84.44
366.599	82.44
366.826	82.44
367.052	86.44
367.278	82.44
367.505	91.44
367.731	82.44
367.957	78.44
368.184	81.44
368.41	88.44
368.636	76.44
368.862	86.44
369.089	85.44
369.315	88.44
369.541	94.44
369.767	89.44
369.993	73.44
370.219	78.44
370.445	88.44
370.672	74.44
370.898	76.44
371.124	84.44
371.35	80.44
371.576	71.44
371.802	87.44
372.028	81.44
372.254	91.44
372.48	90.44
372.706	80.44
372.932	86.44
373.158	84.44
373.384	80.44
373.61	81.44
373.835	90.44
374.061	84.44
374.287	91.44
374.513	90.44
374.739	76.44
374.965	89.44
375.191	73.44
375.416	79.44
375.642	74.44
375.868	75.44
376.094	84.44
376.319	88.44
376.545	81.44
376.771	80.44
376.997	85.44
377.222	86.44
377.448	84.44
377.674	75.44
377.899	76.44
378.125	75.44
378.35	84.44
378.576	77.44
378.802	78.44
379.027	85.44
379.253	88.44
379.478	86.44
379.704	85.44
379.929	76.44
380.155	83.44
380.38	92.44
380.606	73.44
380.831	94.44
381.057	89.44
381.282	85.44
381.507	74.44
381.733	87.44
381.958	87.44
382.184	80.44
382.409	94.44
382.634	112.44
382.86	86.44
383.085	81.44
383.31	91.44
383.535	78.44
383.761	82.44
383.986	82.44
384.211	84.44
384.436	87.44
384.662	89.44
384.887	92.44
385.112	78.44
385.337	78.44
385.562	82.44
385.787	86.44
386.013	84.44
386.238	86.44
386.463	81.44
386.688	102.44
386.913	87.44
387.138	78.44
387.363	79.44
387.588	86.44
387.813	102.44
388.038	84.44
388.263	91.44
388.488	84.44
388.713	80.44
388.938	90.44
389.163	76.44
389.387	78.44
389.612	82.44
389.837	74.44
390.062	72.44
390.287	66.44
390.512	69.44
390.736	89.44
390.961	76.44
391.186	84.44
391.411	82.44
391.636	90.44
391.86	91.44
392.085	104.44
392.31	85.44
392.534	80.44
392.759	96.44
392.984	82.44
393.208	92.44
393.433	91.44
393.658	100.44
393.882	79.44
394.107	80.44
394.331	76.44
394.556	66.44
394.78	93.44
395.005	69.44
395.229	83.44
395.454	64.44
395.678	88.44
395.903	92.44
396.127	76.44
396.352	84.44
396.576	79.44
396.801	97.44
397.025	79.44
397.249	94.44
397.474	83.44
397.698	66.44
397.922	70.44
398.147	63.44
398.371	87.44
398.595	95.44
398.82	69.44
399.044	80.44
399.268	87.44
399.492	82.44
399.717	92.44
399.941	97.44
400.165	77.44
400.389	87.44
400.613	79.44
400.837	93.44
401.062	79.44
401.286	72.44
401.51	81.44
401.734	84.44
401.958	82.44
402.182	76.44
402.406	68.44
402.63	79.44
402.854	80.44
403.078	90.44
403.302	69.44
403.526	80.44
403.75	84.44
403.974	79.44
404.198	89.44
404.422	73.44
404.645	80.44
404.869	84.44
405.093	64.44
405.317	83.44
405.541	68.44
405.765	87.44
405.988	87.44
406.212	97.44
406.436	76.44
406.66	80.44
406.883	86.44
407.107	88.44
407.331	78.44
407.555	80.44
407.778	78.44
408.002	85.44
408.226	101.44
408.449	82.44
408.673	87.44
408.896	82.44
409.12	81.44
409.344	71.44
409.567	69.44
409.791	81.44
410.014	80.44
410.238	97.44
410.461	81.44
410.685	88.44
410.908	74.44
411.132	79.44
411.355	93.44
411.578	85.44
411.802	79.44
412.025	72.44
412.249	90.44
412.472	90.44
412.695	77.44
412.919	84.44
413.142	78.44
413.365	81.44
413.589	85.44
413.812	82.44
414.035	84.44
414.258	81.44
414.482	106.44
414.705	86.44
414.928	86.44
415.151	87.44
415.374	78.44
415.597	73.44
415.821	79.44
416.044	97.44
416.267	76.44
416.49	86.44
416.713	90.44
416.936	89.44
417.159	81.44
417.382	78.44
417.605	74.44
417.828	86.44
418.051	96.44
418.274	89.44
418.497	79.44
418.72	94.44
418.943	92.44
419.166	83.44
419.389	76.44
419.611	88.44
419.834	77.44
420.057	106.44
420.28	90.44
420.503	76.44
420.726	68.44
420.948	88.44
421.171	85.44
421.394	77.44
421.617	74.44
421.839	93.44
422.062	84.44
422.285	92.44
422.507	86.44
422.73	80.44
422.953	95.44
423.175	78.44
423.398	92.44
423.621	86.44
423.843	78.44
424.066	87.44
424.288	92.44
424.511	85.44
424.733	78.44
424.956	84.44
425.178	77.44
425.401	75.44
425.623	74.44
425.846	85.44
426.068	72.44
426.291	97.44
426.513	75.44
426.735	80.44
426.958	88.44
427.18	72.44
427.402	87.44
427.625	76.44
427.847	88.44
428.069	65.44
428.292	73.44
428.514	88.44
428.736	81.44
428.958	96.44
429.181	70.44
429.403	83.44
429.625	83.44
429.847	83.44
430.069	93.44
430.292	85.44
430.514	65.44
430.736	93.44
430.958	79.44
431.18	88.44
431.402	81.44
431.624	64.44
431.846	77.44
432.068	80.44
432.29	93.44
432.512	80.44
432.734	89.44
432.956	89.44
433.178	85.44
433.4	84.44
433.622	85.44
433.844	77.44
434.066	84.44
434.287	80.44
434.509	81.44
434.731	89.44
434.953	80.44
435.175	76.44
435.397	80.44
435.618	81.44
435.84	69.44
436.062	86.44
436.284	89.44
436.505	76.44
436.727	82.44
436.949	79.44
437.17	86.44
437.392	86.44
437.614	91.44
437.835	74.44
438.057	89.44
438.278	81.44
438.5	78.44
438.721	86.44
438.943	83.44
439.165	80.44
439.386	78.44
439.608	78.44
439.829	77.44
440.05	82.44
440.272	86.44
440.493	90.44
440.715	77.44
440.936	105.44
441.158	79.44
441.379	93.44
441.6	86.44
441.822	76.44
442.043	78.44
442.264	82.44
442.486	81.44
442.707	76.44
442.928	87.44
443.149	76.44
443.371	81.44
443.592	77.44
443.813	87.44
444.034	70.44
444.255	82.44
444.476	75.44
444.698	95.44
444.919	74.44
445.14	162.44
445.361	116.44
445.582	97.44
445.803	85.44
446.024	87.44
446.245	80.44
446.466	79.44
446.687	73.44
446.908	92.44
447.129	88.44
447.35	69.44
447.571	72.44
447.792	81.44
448.013	72.44
448.234	70.44
448.455	75.44
448.675	88.44
448.896	88.44
449.117	94.44
449.338	82.44
449.559	88.44
449.779	73.44
450	79.44
450.221	71.44
450.442	80.44
450.662	81.44
450.883	82.44
451.104	75.44
451.324	78.44
451.545	89.44
451.766	98.44
451.986	75.44
452.207	84.44
452.428	83.44
452.648	78.44
452.869	74.44
453.089	91.44
453.31	84.44
453.53	83.44
453.751	82.44
453.971	80.44
454.192	71.44
454.412	67.44
454.633	80.44
454.853	80.44
455.073	70.44
455.294	71.44
455.514	79.44
455.734	80.44
455.955	72.44
456.175	77.44
456.395	71.44
456.616	83.44
456.836	80.44
457.056	82.44
457.276	80.44
457.497	73.44
457.717	84.44
457.937	66.44
458.157	96.44
458.377	79.44
458.598	81.44
458.818	83.44
459.038	76.44
459.258	86.44
459.478	79.44
459.698	64.44
459.918	80.44
460.138	84.44
460.358	84.44
460.578	81.44
460.798	66.44
461.018	84.44
461.238	74.44
461.458	84.44
461.678	80.44
461.898	91.44
462.118	88.44
462.338	80.44
462.558	89.44
462.777	90.44
462.997	64.44
463.217	74.44
463.437	70.44
463.657	87.44
463.876	89.44
464.096	78.44
464.316	71.44
464.536	84.44
464.755	89.44
464.975	93.44
465.195	84.44
465.414	72.44
465.634	79.44
465.854	86.44
466.073	73.44
466.293	92.44
466.512	75.44
466.732	69.44
466.951	87.44
467.171	87.44
467.391	73.44
467.61	80.44
467.829	88.44
468.049	80.44
468.268	80.44
468.488	80.44
468.707	74.44
468.927	88.44
469.146	73.44
469.365	70.44
469.585	79.44
469.804	77.44
470.023	96.44
470.243	86.44
470.462	82.44
470.681	82.44
470.901	77.44
471.12	82.44
471.339	86.44
471.558	87.44
471.777	85.44
471.997	86.44
472.216	100.44
472.435	77.44
472.654	80.44
472.873	77.44
473.092	86.44
473.311	86.44
473.53	88.44
473.749	74.44
473.968	67.44
474.187	82.44
474.406	76.44
474.625	74.44
474.844	89.44
475.063	86.44
475.282	81.44
475.501	84.44
475.72	90.44
475.939	91.44
476.158	84.44
476.377	70.44
476.596	79.44
476.814	84.44
477.033	84.44
477.252	72.44
477.471	100.44
477.69	84.44
477.908	76.44
478.127	81.44
478.346	75.44
478.564	88.44
478.783	70.44
479.002	89.44
479.22	80.44
479.439	89.44
479.658	89.44
479.876	63.44
480.095	80.44
480.313	74.44
480.532	86.44
480.751	84.44
480.969	89.44
481.188	81.44
481.406	82.44
481.624	90.44
481.843	75.44
482.061	74.44
482.28	80.44
482.498	77.44
482.717	78.44
482.935	85.44
483.153	78.44
483.372	77.44
483.59	67.44
483.808	71.44
484.027	87.44
484.245	84.44
484.463	89.44
484.681	79.44
484.9	84.44
485.118	80.44
485.336	88.44
485.554	77.44
485.772	80.44
485.99	90.44
486.209	77.44
486.427	75.44
486.645	76.44
486.863	92.44
487.081	88.44
487.299	90.44
487.517	78.44
487.735	94.44
487.953	73.44
488.171	84.44
488.389	78.44
488.607	80.44
488.825	84.44
489.043	78.44
489.261	82.44
489.479	63.44
489.696	93.44
489.914	73.44
490.132	84.44
490.35	84.44
490.568	83.44
490.786	82.44
491.003	81.44
491.221	91.44
491.439	89.44
491.657	62.44
491.874	88.44
492.092	72.44
492.31	94.44
492.527	88.44
492.745	94.44
492.963	87.44
493.18	76.44
493.398	94.44
493.615	79.44
493.833	104.44
494.05	89.44
494.268	86.44
494.485	88.44
494.703	99.44
494.92	90.44
495.138	88.44
495.355	90.44
495.573	90.44
495.79	85.44
496.008	69.44
496.225	85.44
496.442	82.44
496.66	91.44
496.877	89.44
497.094	86.44
497.312	76.44
497.529	89.44
497.746	97.44
497.963	85.44
498.181	91.44
498.398	74.44
498.615	83.44
498.832	82.44
499.049	80.44
499.267	99.44
499.484	66.44
499.701	82.44
499.918	76.44
500.135	76.44
500.352	80.44
500.569	90.44
500.786	86.44
501.003	83.44
501.22	76.44
501.437	84.44
501.654	73.44
501.871	81.44
502.088	79.44
502.305	76.44
502.522	84.44
502.739	87.44
502.956	71.44
503.172	95.44
503.389	70.44
503.606	86.44
503.823	90.44
504.04	87.44
504.256	84.44
504.473	72.44
504.69	80.44
504.907	97.44
505.123	80.44
505.34	76.44
505.557	84.44
505.773	84.44
505.99	81.44
506.207	85.44
506.423	91.44
506.64	89.44
506.856	86.44
507.073	93.44
507.289	89.44
507.506	74.44
507.722	86.44
507.939	85.44
508.155	78.44
508.372	95.44
508.588	65.44
508.805	78.44
509.021	78.44
509.238	86.44
509.454	80.44
509.67	84.44
509.887	91.44
510.103	76.44
510.319	70.44
510.536	94.44
510.752	79.44
510.968	85.44
511.184	78.44
511.401	80.44
511.617	85.44
511.833	81.44
512.049	81.44
512.265	83.44
512.481	86.44
512.698	77.44
512.914	88.44
513.13	87.44
513.346	73.44
513.562	88.44
513.778	81.44
513.994	81.44
514.21	67.44
514.426	75.44
514.642	91.44
514.858	69.44
515.074	77.44
515.29	89.44
515.506	80.44
515.721	74.44
515.937	86.44
516.153	92.44
516.369	82.44
516.585	76.44
516.801	79.44
517.016	92.44
517.232	80.44
517.448	95.44
517.664	88.44
517.879	91.44
518.095	86.44
518.311	89.44
518.527	87.44
518.742	74.44
518.958	75.44
519.173	75.44
519.389	85.44
519.605	84.44
519.82	75.44
520.036	70.44
