Data from StdD_HRD10591_065.txt Node
Date: Fri May 16 15:31:53 EDT 2025
User: Yrep
Spectrometer: HR+D1059
Trigger mode: 1
Integration Time (sec): 1.000000E-1
Scans to average: 1
Electric dark correction enabled: true
Nonlinearity correction enabled: false
Boxcar width: 0
XAxis mode: Wavelengths
Number of Pixels in Spectrum: 2048
>>>>>Begin Spectral Data<<<<<
223.165	-19.69
223.4	-19.69
223.635	-19.69
223.869	-21.69
224.104	-25.69
224.338	-15.69
224.573	-15.69
224.808	-15.69
225.042	-9.69
225.277	1.31
225.511	-8.69
225.746	9.31
225.98	8.31
226.215	11.31
226.449	21.31
226.683	17.31
226.918	18.31
227.152	45.31
227.387	29.31
227.621	43.31
227.856	43.31
228.09	45.31
228.324	47.31
228.559	68.31
228.793	59.31
229.027	54.31
229.262	60.31
229.496	58.31
229.73	73.31
229.964	79.31
230.199	83.31
230.433	71.31
230.667	67.31
230.901	71.31
231.136	78.31
231.37	79.31
231.604	72.31
231.838	83.31
232.072	71.31
232.306	80.31
232.541	73.31
232.775	85.31
233.009	72.31
233.243	76.31
233.477	86.31
233.711	80.31
233.945	75.31
234.179	75.31
234.413	74.31
234.647	74.31
234.881	78.31
235.115	77.31
235.349	93.31
235.583	74.31
235.817	75.31
236.051	71.31
236.285	80.31
236.519	76.31
236.753	77.31
236.987	76.31
237.221	83.31
237.455	73.31
237.689	69.31
237.922	71.31
238.156	65.31
238.39	70.31
238.624	70.31
238.858	82.31
239.091	73.31
239.325	80.31
239.559	70.31
239.793	89.31
240.027	68.31
240.26	78.31
240.494	62.31
240.728	91.31
240.961	70.31
241.195	71.31
241.429	76.31
241.662	78.31
241.896	79.31
242.13	76.31
242.363	85.31
242.597	85.31
242.83	65.31
243.064	60.31
243.298	81.31
243.531	83.31
243.765	93.31
243.998	86.31
244.232	87.31
244.465	90.31
244.699	61.31
244.932	64.31
245.166	69.31
245.399	75.31
245.633	90.31
245.866	82.31
246.099	69.31
246.333	79.31
246.566	89.31
246.8	79.31
247.033	65.31
247.266	68.31
247.5	66.31
247.733	59.31
247.966	75.31
248.2	62.31
248.433	87.31
248.666	67.31
248.899	79.31
249.133	67.31
249.366	81.31
249.599	85.31
249.832	80.31
250.066	72.31
250.299	71.31
250.532	87.31
250.765	90.31
250.998	67.31
251.231	78.31
251.465	71.31
251.698	63.31
251.931	63.31
252.164	80.31
252.397	79.31
252.63	87.31
252.863	60.31
253.096	74.31
253.329	69.31
253.562	73.31
253.795	84.31
254.028	90.31
254.261	96.31
254.494	80.31
254.727	69.31
254.96	87.31
255.193	76.31
255.426	85.31
255.659	57.31
255.892	72.31
256.124	70.31
256.357	79.31
256.59	91.31
256.823	78.31
257.056	81.31
257.289	70.31
257.521	71.31
257.754	86.31
257.987	78.31
258.22	81.31
258.452	90.31
258.685	71.31
258.918	78.31
259.151	89.31
259.383	88.31
259.616	81.31
259.849	89.31
260.081	81.31
260.314	89.31
260.547	86.31
260.779	73.31
261.012	76.31
261.244	75.31
261.477	78.31
261.71	73.31
261.942	69.31
262.175	76.31
262.407	82.31
262.64	71.31
262.872	65.31
263.105	75.31
263.337	72.31
263.57	78.31
263.802	77.31
264.035	66.31
264.267	74.31
264.499	86.31
264.732	79.31
264.964	79.31
265.197	92.31
265.429	75.31
265.661	93.31
265.894	75.31
266.126	81.31
266.358	81.31
266.591	93.31
266.823	79.31
267.055	79.31
267.287	83.31
267.52	89.31
267.752	75.31
267.984	71.31
268.216	85.31
268.448	73.31
268.681	103.31
268.913	80.31
269.145	96.31
269.377	77.31
269.609	87.31
269.841	79.31
270.073	82.31
270.306	79.31
270.538	79.31
270.77	85.31
271.002	94.31
271.234	68.31
271.466	75.31
271.698	79.31
271.93	75.31
272.162	70.31
272.394	93.31
272.626	88.31
272.858	85.31
273.09	95.31
273.322	78.31
273.553	83.31
273.785	87.31
274.017	77.31
274.249	83.31
274.481	73.31
274.713	71.31
274.945	76.31
275.176	78.31
275.408	71.31
275.64	69.31
275.872	94.31
276.104	71.31
276.335	92.31
276.567	86.31
276.799	72.31
277.031	85.31
277.262	91.31
277.494	69.31
277.726	77.31
277.957	69.31
278.189	74.31
278.421	78.31
278.652	93.31
278.884	75.31
279.115	79.31
279.347	83.31
279.579	83.31
279.81	80.31
280.042	99.31
280.273	93.31
280.505	83.31
280.736	76.31
280.968	82.31
281.199	86.31
281.431	91.31
281.662	103.31
281.894	87.31
282.125	92.31
282.356	79.31
282.588	86.31
282.819	91.31
283.051	90.31
283.282	83.31
283.513	82.31
283.745	86.31
283.976	86.31
284.207	83.31
284.439	89.31
284.67	84.31
284.901	85.31
285.132	87.31
285.364	62.31
285.595	84.31
285.826	75.31
286.057	84.31
286.288	83.31
286.52	80.31
286.751	63.31
286.982	92.31
287.213	85.31
287.444	89.31
287.675	79.31
287.906	89.31
288.138	81.31
288.369	88.31
288.6	78.31
288.831	82.31
289.062	88.31
289.293	84.31
289.524	78.31
289.755	75.31
289.986	72.31
290.217	83.31
290.448	76.31
290.679	89.31
290.91	70.31
291.141	82.31
291.371	79.31
291.602	84.31
291.833	79.31
292.064	78.31
292.295	86.31
292.526	77.31
292.757	71.31
292.987	85.31
293.218	85.31
293.449	79.31
293.68	88.31
293.91	79.31
294.141	74.31
294.372	79.31
294.603	91.31
294.833	88.31
295.064	71.31
295.295	87.31
295.525	94.31
295.756	90.31
295.987	86.31
296.217	88.31
296.448	75.31
296.679	83.31
296.909	89.31
297.14	84.31
297.37	100.31
297.601	83.31
297.831	76.31
298.062	81.31
298.292	80.31
298.523	86.31
298.753	75.31
298.984	86.31
299.214	73.31
299.445	79.31
299.675	80.31
299.905	80.31
300.136	84.31
300.366	76.31
300.597	66.31
300.827	96.31
301.057	89.31
301.288	73.31
301.518	79.31
301.748	84.31
301.979	105.31
302.209	91.31
302.439	71.31
302.669	73.31
302.9	82.31
303.13	73.31
303.36	85.31
303.59	84.31
303.82	80.31
304.051	78.31
304.281	84.31
304.511	88.31
304.741	78.31
304.971	83.31
305.201	85.31
305.431	80.31
305.661	82.31
305.891	87.31
306.121	83.31
306.352	84.31
306.582	79.31
306.812	80.31
307.042	91.31
307.272	74.31
307.502	93.31
307.731	79.31
307.961	77.31
308.191	81.31
308.421	88.31
308.651	81.31
308.881	91.31
309.111	92.31
309.341	88.31
309.571	85.31
309.8	81.31
310.03	99.31
310.26	89.31
310.49	79.31
310.72	74.31
310.949	84.31
311.179	87.31
311.409	97.31
311.639	82.31
311.868	90.31
312.098	81.31
312.328	76.31
312.557	96.31
312.787	79.31
313.017	91.31
313.246	77.31
313.476	69.31
313.706	81.31
313.935	80.31
314.165	79.31
314.394	80.31
314.624	89.31
314.853	89.31
315.083	73.31
315.312	79.31
315.542	88.31
315.771	77.31
316.001	99.31
316.23	80.31
316.46	91.31
316.689	86.31
316.919	89.31
317.148	73.31
317.377	76.31
317.607	85.31
317.836	86.31
318.065	93.31
318.295	80.31
318.524	89.31
318.753	92.31
318.983	80.31
319.212	88.31
319.441	79.31
319.67	86.31
319.9	87.31
320.129	85.31
320.358	92.31
320.587	90.31
320.816	92.31
321.046	72.31
321.275	70.31
321.504	86.31
321.733	86.31
321.962	77.31
322.191	75.31
322.42	74.31
322.649	74.31
322.878	85.31
323.108	80.31
323.337	77.31
323.566	72.31
323.795	91.31
324.024	96.31
324.253	84.31
324.482	85.31
324.71	91.31
324.939	90.31
325.168	69.31
325.397	61.31
325.626	85.31
325.855	73.31
326.084	73.31
326.313	65.31
326.542	97.31
326.77	87.31
326.999	81.31
327.228	71.31
327.457	73.31
327.686	89.31
327.914	105.31
328.143	92.31
328.372	83.31
328.6	75.31
328.829	91.31
329.058	81.31
329.287	77.31
329.515	59.31
329.744	77.31
329.972	71.31
330.201	77.31
330.43	85.31
330.658	97.31
330.887	75.31
331.115	77.31
331.344	95.31
331.572	89.31
331.801	77.31
332.03	89.31
332.258	106.31
332.486	81.31
332.715	90.31
332.943	81.31
333.172	79.31
333.4	82.31
333.629	79.31
333.857	89.31
334.085	81.31
334.314	69.31
334.542	96.31
334.771	91.31
334.999	77.31
335.227	93.31
335.455	74.31
335.684	84.31
335.912	79.31
336.14	84.31
336.369	83.31
336.597	80.31
336.825	90.31
337.053	75.31
337.281	84.31
337.51	82.31
337.738	80.31
337.966	80.31
338.194	89.31
338.422	84.31
338.65	80.31
338.878	72.31
339.106	81.31
339.334	89.31
339.562	77.31
339.79	78.31
340.018	94.31
340.246	84.31
340.474	88.31
340.702	87.31
340.93	78.31
341.158	95.31
341.386	89.31
341.614	79.31
341.842	68.31
342.07	79.31
342.298	83.31
342.526	91.31
342.754	98.31
342.981	81.31
343.209	83.31
343.437	103.31
343.665	91.31
343.893	75.31
344.12	78.31
344.348	77.31
344.576	74.31
344.804	74.31
345.031	79.31
345.259	79.31
345.487	84.31
345.714	83.31
345.942	91.31
346.17	83.31
346.397	81.31
346.625	81.31
346.853	80.31
347.08	84.31
347.308	93.31
347.535	92.31
347.763	82.31
347.99	89.31
348.218	87.31
348.445	66.31
348.673	76.31
348.9	94.31
349.128	90.31
349.355	87.31
349.583	72.31
349.81	75.31
350.037	81.31
350.265	90.31
350.492	75.31
350.72	81.31
350.947	83.31
351.174	84.31
351.402	77.31
351.629	79.31
351.856	83.31
352.083	75.31
352.311	78.31
352.538	78.31
352.765	90.31
352.992	69.31
353.22	79.31
353.447	80.31
353.674	91.31
353.901	83.31
354.128	80.31
354.355	71.31
354.583	81.31
354.81	68.31
355.037	74.31
355.264	67.31
355.491	73.31
355.718	66.31
355.945	79.31
356.172	69.31
356.399	99.31
356.626	87.31
356.853	89.31
357.08	88.31
357.307	70.31
357.534	97.31
357.761	92.31
357.988	79.31
358.215	83.31
358.441	78.31
358.668	83.31
358.895	90.31
359.122	90.31
359.349	80.31
359.576	88.31
359.802	83.31
360.029	88.31
360.256	85.31
360.483	84.31
360.709	92.31
360.936	81.31
361.163	75.31
361.39	75.31
361.616	89.31
361.843	78.31
362.07	85.31
362.296	79.31
362.523	99.31
362.749	87.31
362.976	75.31
363.203	93.31
363.429	77.31
363.656	70.31
363.882	81.31
364.109	74.31
364.335	78.31
364.562	68.31
364.788	83.31
365.015	88.31
365.241	85.31
365.468	92.31
365.694	87.31
365.92	73.31
366.147	78.31
366.373	90.31
366.599	98.31
366.826	80.31
367.052	73.31
367.278	80.31
367.505	91.31
367.731	79.31
367.957	73.31
368.184	77.31
368.41	78.31
368.636	79.31
368.862	79.31
369.089	77.31
369.315	78.31
369.541	92.31
369.767	86.31
369.993	76.31
370.219	81.31
370.445	72.31
370.672	80.31
370.898	77.31
371.124	88.31
371.35	77.31
371.576	72.31
371.802	78.31
372.028	66.31
372.254	88.31
372.48	75.31
372.706	77.31
372.932	76.31
373.158	82.31
373.384	91.31
373.61	73.31
373.835	90.31
374.061	76.31
374.287	83.31
374.513	80.31
374.739	71.31
374.965	73.31
375.191	80.31
375.416	89.31
375.642	72.31
375.868	71.31
376.094	75.31
376.319	71.31
376.545	86.31
376.771	74.31
376.997	78.31
377.222	79.31
377.448	79.31
377.674	83.31
377.899	72.31
378.125	83.31
378.35	81.31
378.576	81.31
378.802	76.31
379.027	83.31
379.253	86.31
379.478	87.31
379.704	92.31
379.929	71.31
380.155	74.31
380.38	77.31
380.606	90.31
380.831	86.31
381.057	87.31
381.282	87.31
381.507	85.31
381.733	81.31
381.958	90.31
382.184	87.31
382.409	79.31
382.634	78.31
382.86	73.31
383.085	89.31
383.31	79.31
383.535	87.31
383.761	81.31
383.986	73.31
384.211	83.31
384.436	86.31
384.662	90.31
384.887	86.31
385.112	86.31
385.337	82.31
385.562	80.31
385.787	91.31
386.013	96.31
386.238	79.31
386.463	77.31
386.688	79.31
386.913	73.31
387.138	69.31
387.363	64.31
387.588	84.31
387.813	79.31
388.038	78.31
388.263	78.31
388.488	83.31
388.713	87.31
388.938	76.31
389.163	85.31
389.387	66.31
389.612	79.31
389.837	77.31
390.062	68.31
390.287	87.31
390.512	96.31
390.736	80.31
390.961	65.31
391.186	74.31
391.411	72.31
391.636	84.31
391.86	78.31
392.085	73.31
392.31	57.31
392.534	70.31
392.759	74.31
392.984	81.31
393.208	83.31
393.433	80.31
393.658	66.31
393.882	90.31
394.107	81.31
394.331	77.31
394.556	87.31
394.78	77.31
395.005	76.31
395.229	70.31
395.454	77.31
395.678	83.31
395.903	83.31
396.127	79.31
396.352	81.31
396.576	87.31
396.801	81.31
397.025	83.31
397.249	81.31
397.474	87.31
397.698	84.31
397.922	79.31
398.147	75.31
398.371	75.31
398.595	78.31
398.82	94.31
399.044	95.31
399.268	81.31
399.492	70.31
399.717	79.31
399.941	73.31
400.165	75.31
400.389	81.31
400.613	99.31
400.837	92.31
401.062	65.31
401.286	87.31
401.51	87.31
401.734	78.31
401.958	71.31
402.182	73.31
402.406	89.31
402.63	87.31
402.854	86.31
403.078	88.31
403.302	76.31
403.526	83.31
403.75	83.31
403.974	84.31
404.198	83.31
404.422	83.31
404.645	81.31
404.869	84.31
405.093	86.31
405.317	83.31
405.541	85.31
405.765	78.31
405.988	71.31
406.212	76.31
406.436	71.31
406.66	85.31
406.883	84.31
407.107	79.31
407.331	66.31
407.555	86.31
407.778	71.31
408.002	61.31
408.226	75.31
408.449	73.31
408.673	72.31
408.896	71.31
409.12	79.31
409.344	79.31
409.567	75.31
409.791	79.31
410.014	91.31
410.238	86.31
410.461	77.31
410.685	83.31
410.908	85.31
411.132	92.31
411.355	85.31
411.578	92.31
411.802	89.31
412.025	80.31
412.249	76.31
412.472	81.31
412.695	71.31
412.919	84.31
413.142	65.31
413.365	87.31
413.589	78.31
413.812	73.31
414.035	61.31
414.258	77.31
414.482	83.31
414.705	75.31
414.928	79.31
415.151	80.31
415.374	73.31
415.597	80.31
415.821	83.31
416.044	82.31
416.267	86.31
416.49	81.31
416.713	78.31
416.936	93.31
417.159	69.31
417.382	76.31
417.605	96.31
417.828	79.31
418.051	91.31
418.274	91.31
418.497	88.31
418.72	85.31
418.943	89.31
419.166	81.31
419.389	84.31
419.611	99.31
419.834	89.31
420.057	76.31
420.28	86.31
420.503	80.31
420.726	67.31
420.948	71.31
421.171	90.31
421.394	90.31
421.617	79.31
421.839	87.31
422.062	57.31
422.285	70.31
422.507	81.31
422.73	89.31
422.953	87.31
423.175	72.31
423.398	84.31
423.621	80.31
423.843	72.31
424.066	78.31
424.288	79.31
424.511	88.31
424.733	80.31
424.956	85.31
425.178	86.31
425.401	77.31
425.623	74.31
425.846	86.31
426.068	72.31
426.291	96.31
426.513	83.31
426.735	74.31
426.958	81.31
427.18	77.31
427.402	83.31
427.625	69.31
427.847	77.31
428.069	69.31
428.292	87.31
428.514	79.31
428.736	80.31
428.958	85.31
429.181	93.31
429.403	84.31
429.625	91.31
429.847	86.31
430.069	69.31
430.292	84.31
430.514	72.31
430.736	93.31
430.958	77.31
431.18	80.31
431.402	83.31
431.624	83.31
431.846	76.31
432.068	88.31
432.29	88.31
432.512	79.31
432.734	69.31
432.956	89.31
433.178	88.31
433.4	87.31
433.622	82.31
433.844	75.31
434.066	59.31
434.287	75.31
434.509	83.31
434.731	75.31
434.953	70.31
435.175	81.31
435.397	72.31
435.618	77.31
435.84	71.31
436.062	63.31
436.284	81.31
436.505	82.31
436.727	84.31
436.949	70.31
437.17	81.31
437.392	73.31
437.614	68.31
437.835	79.31
438.057	73.31
438.278	85.31
438.5	87.31
438.721	89.31
438.943	73.31
439.165	80.31
439.386	77.31
439.608	79.31
439.829	92.31
440.05	79.31
440.272	83.31
440.493	80.31
440.715	77.31
440.936	81.31
441.158	90.31
441.379	79.31
441.6	71.31
441.822	81.31
442.043	77.31
442.264	78.31
442.486	77.31
442.707	72.31
442.928	76.31
443.149	82.31
443.371	79.31
443.592	89.31
443.813	65.31
444.034	73.31
444.255	73.31
444.476	93.31
444.698	75.31
444.919	75.31
445.14	152.31
445.361	122.31
445.582	78.31
445.803	76.31
446.024	85.31
446.245	79.31
446.466	69.31
446.687	77.31
446.908	91.31
447.129	77.31
447.35	76.31
447.571	73.31
447.792	81.31
448.013	78.31
448.234	88.31
448.455	87.31
448.675	74.31
448.896	75.31
449.117	92.31
449.338	81.31
449.559	82.31
449.779	73.31
450	81.31
450.221	84.31
450.442	63.31
450.662	75.31
450.883	79.31
451.104	84.31
451.324	68.31
451.545	81.31
451.766	74.31
451.986	60.31
452.207	79.31
452.428	81.31
452.648	87.31
452.869	87.31
453.089	95.31
453.31	71.31
453.53	74.31
453.751	80.31
453.971	74.31
454.192	89.31
454.412	65.31
454.633	86.31
454.853	87.31
455.073	71.31
455.294	83.31
455.514	95.31
455.734	72.31
455.955	83.31
456.175	80.31
456.395	83.31
456.616	93.31
456.836	82.31
457.056	85.31
457.276	83.31
457.497	72.31
457.717	81.31
457.937	81.31
458.157	88.31
458.377	90.31
458.598	68.31
458.818	91.31
459.038	92.31
459.258	83.31
459.478	73.31
459.698	85.31
459.918	77.31
460.138	62.31
460.358	90.31
460.578	77.31
460.798	88.31
461.018	77.31
461.238	79.31
461.458	69.31
461.678	76.31
461.898	91.31
462.118	83.31
462.338	75.31
462.558	80.31
462.777	76.31
462.997	78.31
463.217	81.31
463.437	89.31
463.657	73.31
463.876	64.31
464.096	72.31
464.316	72.31
464.536	90.31
464.755	92.31
464.975	79.31
465.195	85.31
465.414	78.31
465.634	70.31
465.854	79.31
466.073	76.31
466.293	94.31
466.512	73.31
466.732	80.31
466.951	81.31
467.171	86.31
467.391	75.31
467.61	91.31
467.829	79.31
468.049	82.31
468.268	96.31
468.488	78.31
468.707	76.31
468.927	87.31
469.146	78.31
469.365	85.31
469.585	79.31
469.804	95.31
470.023	71.31
470.243	83.31
470.462	80.31
470.681	77.31
470.901	74.31
471.12	88.31
471.339	80.31
471.558	66.31
471.777	67.31
471.997	83.31
472.216	79.31
472.435	75.31
472.654	87.31
472.873	99.31
473.092	77.31
473.311	69.31
473.53	77.31
473.749	81.31
473.968	90.31
474.187	87.31
474.406	84.31
474.625	92.31
474.844	82.31
475.063	76.31
475.282	77.31
475.501	73.31
475.72	95.31
475.939	72.31
476.158	85.31
476.377	87.31
476.596	74.31
476.814	86.31
477.033	81.31
477.252	67.31
477.471	85.31
477.69	79.31
477.908	87.31
478.127	87.31
478.346	84.31
478.564	87.31
478.783	88.31
479.002	81.31
479.22	70.31
479.439	85.31
479.658	82.31
479.876	85.31
480.095	83.31
480.313	79.31
480.532	86.31
480.751	95.31
480.969	88.31
481.188	84.31
481.406	85.31
481.624	80.31
481.843	81.31
482.061	70.31
482.28	87.31
482.498	90.31
482.717	77.31
482.935	86.31
483.153	71.31
483.372	83.31
483.59	83.31
483.808	84.31
484.027	85.31
484.245	75.31
484.463	69.31
484.681	88.31
484.9	83.31
485.118	97.31
485.336	89.31
485.554	84.31
485.772	75.31
485.99	72.31
486.209	96.31
486.427	74.31
486.645	80.31
486.863	78.31
487.081	88.31
487.299	64.31
487.517	84.31
487.735	71.31
487.953	108.31
488.171	76.31
488.389	73.31
488.607	87.31
488.825	84.31
489.043	76.31
489.261	81.31
489.479	83.31
489.696	74.31
489.914	81.31
490.132	94.31
490.35	80.31
490.568	75.31
490.786	86.31
491.003	80.31
491.221	82.31
491.439	75.31
491.657	95.31
491.874	97.31
492.092	79.31
492.31	89.31
492.527	72.31
492.745	72.31
492.963	103.31
493.18	88.31
493.398	87.31
493.615	82.31
493.833	61.31
494.05	87.31
494.268	80.31
494.485	92.31
494.703	84.31
494.92	80.31
495.138	89.31
495.355	77.31
495.573	86.31
495.79	79.31
496.008	95.31
496.225	69.31
496.442	91.31
496.66	97.31
496.877	78.31
497.094	77.31
497.312	73.31
497.529	92.31
497.746	75.31
497.963	73.31
498.181	89.31
498.398	74.31
498.615	84.31
498.832	88.31
499.049	91.31
499.267	80.31
499.484	93.31
499.701	82.31
499.918	101.31
500.135	81.31
500.352	73.31
500.569	86.31
500.786	83.31
501.003	72.31
501.22	84.31
501.437	80.31
501.654	79.31
501.871	88.31
502.088	68.31
502.305	88.31
502.522	89.31
502.739	77.31
502.956	78.31
503.172	73.31
503.389	86.31
503.606	80.31
503.823	80.31
504.04	90.31
504.256	86.31
504.473	78.31
504.69	74.31
504.907	86.31
505.123	88.31
505.34	83.31
505.557	87.31
505.773	76.31
505.99	86.31
506.207	87.31
506.423	75.31
506.64	79.31
506.856	86.31
507.073	88.31
507.289	74.31
507.506	72.31
507.722	83.31
507.939	79.31
508.155	81.31
508.372	93.31
508.588	89.31
508.805	87.31
509.021	69.31
509.238	86.31
509.454	80.31
509.67	92.31
509.887	71.31
510.103	66.31
510.319	86.31
510.536	79.31
510.752	80.31
510.968	87.31
511.184	84.31
511.401	75.31
511.617	83.31
511.833	85.31
512.049	83.31
512.265	88.31
512.481	82.31
512.698	73.31
512.914	76.31
513.13	80.31
513.346	65.31
513.562	84.31
513.778	94.31
513.994	75.31
514.21	79.31
514.426	86.31
514.642	90.31
514.858	76.31
515.074	68.31
515.29	72.31
515.506	81.31
515.721	80.31
515.937	77.31
516.153	86.31
516.369	86.31
516.585	74.31
516.801	93.31
517.016	85.31
517.232	80.31
517.448	88.31
517.664	78.31
517.879	77.31
518.095	80.31
518.311	75.31
518.527	80.31
518.742	71.31
518.958	92.31
519.173	85.31
519.389	70.31
519.605	87.31
519.82	63.31
520.036	60.31
520.251	86.31
