Data from StdD_HRD10591_026.txt Node
Date: Fri May 16 15:31:34 EDT 2025
User: Yrep
Spectrometer: HR+D1059
Trigger mode: 1
Integration Time (sec): 1.000000E-1
Scans to average: 1
Electric dark correction enabled: true
Nonlinearity correction enabled: false
Boxcar width: 0
XAxis mode: Wavelengths
Number of Pixels in Spectrum: 2048
>>>>>Begin Spectral Data<<<<<
223.165	-16.62
223.4	-16.62
223.635	-16.62
223.869	-16.62
224.104	-23.62
224.338	-1.62
224.573	-11.62
224.808	-22.62
225.042	-18.62
225.277	-4.62
225.511	0.38
225.746	-0.62
225.98	9.38
226.215	21.38
226.449	10.38
226.683	16.38
226.918	19.38
227.152	39.38
227.387	43.38
227.621	36.38
227.856	48.38
228.09	45.38
228.324	48.38
228.559	54.38
228.793	50.38
229.027	71.38
229.262	77.38
229.496	75.38
229.73	73.38
229.964	88.38
230.199	93.38
230.433	81.38
230.667	85.38
230.901	79.38
231.136	75.38
231.37	76.38
231.604	69.38
231.838	82.38
232.072	75.38
232.306	86.38
232.541	78.38
232.775	85.38
233.009	80.38
233.243	75.38
233.477	90.38
233.711	82.38
233.945	80.38
234.179	101.38
234.413	81.38
234.647	67.38
234.881	79.38
235.115	79.38
235.349	80.38
235.583	83.38
235.817	83.38
236.051	95.38
236.285	70.38
236.519	99.38
236.753	72.38
236.987	76.38
237.221	64.38
237.455	75.38
237.689	77.38
237.922	77.38
238.156	86.38
238.39	68.38
238.624	81.38
238.858	65.38
239.091	83.38
239.325	85.38
239.559	72.38
239.793	80.38
240.027	81.38
240.26	82.38
240.494	87.38
240.728	80.38
240.961	63.38
241.195	75.38
241.429	86.38
241.662	69.38
241.896	66.38
242.13	81.38
242.363	96.38
242.597	81.38
242.83	87.38
243.064	84.38
243.298	83.38
243.531	81.38
243.765	64.38
243.998	95.38
244.232	82.38
244.465	78.38
244.699	76.38
244.932	81.38
245.166	75.38
245.399	69.38
245.633	88.38
245.866	81.38
246.099	71.38
246.333	90.38
246.566	80.38
246.8	85.38
247.033	93.38
247.266	101.38
247.5	75.38
247.733	73.38
247.966	82.38
248.2	67.38
248.433	85.38
248.666	81.38
248.899	77.38
249.133	83.38
249.366	78.38
249.599	77.38
249.832	85.38
250.066	84.38
250.299	70.38
250.532	78.38
250.765	79.38
250.998	88.38
251.231	84.38
251.465	79.38
251.698	82.38
251.931	96.38
252.164	86.38
252.397	72.38
252.63	75.38
252.863	83.38
253.096	83.38
253.329	89.38
253.562	91.38
253.795	105.38
254.028	89.38
254.261	83.38
254.494	81.38
254.727	83.38
254.96	80.38
255.193	79.38
255.426	75.38
255.659	77.38
255.892	70.38
256.124	84.38
256.357	89.38
256.59	95.38
256.823	81.38
257.056	82.38
257.289	87.38
257.521	81.38
257.754	78.38
257.987	92.38
258.22	84.38
258.452	89.38
258.685	78.38
258.918	86.38
259.151	70.38
259.383	82.38
259.616	90.38
259.849	85.38
260.081	98.38
260.314	86.38
260.547	76.38
260.779	83.38
261.012	91.38
261.244	89.38
261.477	87.38
261.71	79.38
261.942	95.38
262.175	89.38
262.407	80.38
262.64	79.38
262.872	89.38
263.105	82.38
263.337	86.38
263.57	83.38
263.802	91.38
264.035	89.38
264.267	60.38
264.499	85.38
264.732	87.38
264.964	78.38
265.197	73.38
265.429	76.38
265.661	89.38
265.894	79.38
266.126	98.38
266.358	79.38
266.591	76.38
266.823	80.38
267.055	82.38
267.287	83.38
267.52	74.38
267.752	79.38
267.984	87.38
268.216	83.38
268.448	62.38
268.681	77.38
268.913	73.38
269.145	78.38
269.377	79.38
269.609	76.38
269.841	82.38
270.073	75.38
270.306	85.38
270.538	81.38
270.77	97.38
271.002	80.38
271.234	91.38
271.466	87.38
271.698	86.38
271.93	93.38
272.162	92.38
272.394	80.38
272.626	77.38
272.858	93.38
273.09	82.38
273.322	82.38
273.553	76.38
273.785	78.38
274.017	71.38
274.249	87.38
274.481	88.38
274.713	85.38
274.945	89.38
275.176	84.38
275.408	90.38
275.64	77.38
275.872	95.38
276.104	85.38
276.335	85.38
276.567	75.38
276.799	87.38
277.031	74.38
277.262	73.38
277.494	79.38
277.726	85.38
277.957	75.38
278.189	87.38
278.421	87.38
278.652	74.38
278.884	92.38
279.115	94.38
279.347	83.38
279.579	80.38
279.81	88.38
280.042	76.38
280.273	82.38
280.505	85.38
280.736	88.38
280.968	82.38
281.199	81.38
281.431	94.38
281.662	97.38
281.894	80.38
282.125	83.38
282.356	91.38
282.588	69.38
282.819	83.38
283.051	83.38
283.282	79.38
283.513	80.38
283.745	97.38
283.976	86.38
284.207	80.38
284.439	84.38
284.67	82.38
284.901	72.38
285.132	84.38
285.364	94.38
285.595	89.38
285.826	85.38
286.057	88.38
286.288	93.38
286.52	80.38
286.751	100.38
286.982	95.38
287.213	90.38
287.444	87.38
287.675	85.38
287.906	76.38
288.138	87.38
288.369	83.38
288.6	87.38
288.831	90.38
289.062	86.38
289.293	86.38
289.524	78.38
289.755	82.38
289.986	76.38
290.217	93.38
290.448	92.38
290.679	93.38
290.91	88.38
291.141	87.38
291.371	83.38
291.602	81.38
291.833	79.38
292.064	79.38
292.295	88.38
292.526	93.38
292.757	84.38
292.987	95.38
293.218	82.38
293.449	89.38
293.68	91.38
293.91	85.38
294.141	73.38
294.372	79.38
294.603	81.38
294.833	69.38
295.064	101.38
295.295	90.38
295.525	78.38
295.756	95.38
295.987	85.38
296.217	81.38
296.448	83.38
296.679	83.38
296.909	93.38
297.14	89.38
297.37	78.38
297.601	79.38
297.831	91.38
298.062	68.38
298.292	77.38
298.523	89.38
298.753	90.38
298.984	87.38
299.214	87.38
299.445	88.38
299.675	74.38
299.905	99.38
300.136	90.38
300.366	95.38
300.597	83.38
300.827	84.38
301.057	99.38
301.288	80.38
301.518	94.38
301.748	83.38
301.979	87.38
302.209	83.38
302.439	77.38
302.669	90.38
302.9	101.38
303.13	100.38
303.36	77.38
303.59	79.38
303.82	89.38
304.051	88.38
304.281	93.38
304.511	88.38
304.741	89.38
304.971	90.38
305.201	83.38
305.431	101.38
305.661	84.38
305.891	85.38
306.121	84.38
306.352	84.38
306.582	73.38
306.812	97.38
307.042	83.38
307.272	97.38
307.502	82.38
307.731	87.38
307.961	87.38
308.191	75.38
308.421	96.38
308.651	75.38
308.881	70.38
309.111	77.38
309.341	85.38
309.571	74.38
309.8	85.38
310.03	87.38
310.26	98.38
310.49	66.38
310.72	77.38
310.949	82.38
311.179	75.38
311.409	87.38
311.639	83.38
311.868	78.38
312.098	84.38
312.328	90.38
312.557	98.38
312.787	100.38
313.017	85.38
313.246	89.38
313.476	73.38
313.706	81.38
313.935	93.38
314.165	89.38
314.394	84.38
314.624	80.38
314.853	76.38
315.083	89.38
315.312	82.38
315.542	94.38
315.771	75.38
316.001	84.38
316.23	89.38
316.46	75.38
316.689	79.38
316.919	95.38
317.148	75.38
317.377	82.38
317.607	93.38
317.836	81.38
318.065	81.38
318.295	94.38
318.524	85.38
318.753	80.38
318.983	83.38
319.212	80.38
319.441	95.38
319.67	90.38
319.9	92.38
320.129	87.38
320.358	59.38
320.587	79.38
320.816	81.38
321.046	92.38
321.275	99.38
321.504	76.38
321.733	79.38
321.962	89.38
322.191	89.38
322.42	83.38
322.649	93.38
322.878	81.38
323.108	92.38
323.337	84.38
323.566	81.38
323.795	81.38
324.024	84.38
324.253	74.38
324.482	77.38
324.71	99.38
324.939	92.38
325.168	83.38
325.397	96.38
325.626	81.38
325.855	86.38
326.084	79.38
326.313	91.38
326.542	88.38
326.77	87.38
326.999	77.38
327.228	82.38
327.457	80.38
327.686	85.38
327.914	86.38
328.143	84.38
328.372	76.38
328.6	73.38
328.829	88.38
329.058	87.38
329.287	86.38
329.515	93.38
329.744	80.38
329.972	93.38
330.201	80.38
330.43	77.38
330.658	91.38
330.887	85.38
331.115	67.38
331.344	80.38
331.572	82.38
331.801	73.38
332.03	77.38
332.258	98.38
332.486	85.38
332.715	75.38
332.943	79.38
333.172	84.38
333.4	89.38
333.629	98.38
333.857	79.38
334.085	85.38
334.314	80.38
334.542	87.38
334.771	83.38
334.999	85.38
335.227	81.38
335.455	88.38
335.684	98.38
335.912	97.38
336.14	83.38
336.369	93.38
336.597	77.38
336.825	74.38
337.053	93.38
337.281	115.38
337.51	98.38
337.738	100.38
337.966	80.38
338.194	79.38
338.422	76.38
338.65	84.38
338.878	101.38
339.106	75.38
339.334	87.38
339.562	91.38
339.79	80.38
340.018	95.38
340.246	73.38
340.474	87.38
340.702	84.38
340.93	107.38
341.158	84.38
341.386	77.38
341.614	82.38
341.842	92.38
342.07	71.38
342.298	82.38
342.526	80.38
342.754	94.38
342.981	83.38
343.209	75.38
343.437	88.38
343.665	82.38
343.893	100.38
344.12	99.38
344.348	93.38
344.576	91.38
344.804	87.38
345.031	93.38
345.259	90.38
345.487	96.38
345.714	75.38
345.942	91.38
346.17	88.38
346.397	89.38
346.625	81.38
346.853	78.38
347.08	82.38
347.308	93.38
347.535	90.38
347.763	79.38
347.99	88.38
348.218	91.38
348.445	75.38
348.673	83.38
348.9	95.38
349.128	76.38
349.355	81.38
349.583	91.38
349.81	99.38
350.037	87.38
350.265	96.38
350.492	87.38
350.72	92.38
350.947	83.38
351.174	87.38
351.402	82.38
351.629	81.38
351.856	104.38
352.083	81.38
352.311	91.38
352.538	79.38
352.765	85.38
352.992	99.38
353.22	93.38
353.447	77.38
353.674	87.38
353.901	73.38
354.128	98.38
354.355	87.38
354.583	73.38
354.81	73.38
355.037	87.38
355.264	82.38
355.491	91.38
355.718	91.38
355.945	81.38
356.172	75.38
356.399	96.38
356.626	98.38
356.853	71.38
357.08	99.38
357.307	85.38
357.534	88.38
357.761	95.38
357.988	84.38
358.215	101.38
358.441	94.38
358.668	94.38
358.895	92.38
359.122	76.38
359.349	87.38
359.576	90.38
359.802	78.38
360.029	91.38
360.256	77.38
360.483	88.38
360.709	88.38
360.936	88.38
361.163	87.38
361.39	76.38
361.616	81.38
361.843	105.38
362.07	100.38
362.296	89.38
362.523	101.38
362.749	84.38
362.976	73.38
363.203	84.38
363.429	94.38
363.656	71.38
363.882	66.38
364.109	83.38
364.335	93.38
364.562	86.38
364.788	85.38
365.015	77.38
365.241	79.38
365.468	98.38
365.694	94.38
365.92	92.38
366.147	92.38
366.373	80.38
366.599	77.38
366.826	86.38
367.052	90.38
367.278	89.38
367.505	103.38
367.731	97.38
367.957	103.38
368.184	86.38
368.41	91.38
368.636	93.38
368.862	85.38
369.089	85.38
369.315	102.38
369.541	85.38
369.767	90.38
369.993	86.38
370.219	83.38
370.445	67.38
370.672	67.38
370.898	78.38
371.124	78.38
371.35	81.38
371.576	87.38
371.802	83.38
372.028	87.38
372.254	69.38
372.48	75.38
372.706	87.38
372.932	84.38
373.158	80.38
373.384	105.38
373.61	96.38
373.835	91.38
374.061	95.38
374.287	90.38
374.513	87.38
374.739	93.38
374.965	95.38
375.191	76.38
375.416	79.38
375.642	90.38
375.868	85.38
376.094	87.38
376.319	77.38
376.545	72.38
376.771	86.38
376.997	95.38
377.222	83.38
377.448	88.38
377.674	66.38
377.899	85.38
378.125	78.38
378.35	68.38
378.576	86.38
378.802	76.38
379.027	77.38
379.253	79.38
379.478	90.38
379.704	98.38
379.929	88.38
380.155	88.38
380.38	89.38
380.606	95.38
380.831	87.38
381.057	87.38
381.282	81.38
381.507	98.38
381.733	97.38
381.958	85.38
382.184	81.38
382.409	91.38
382.634	96.38
382.86	88.38
383.085	83.38
383.31	93.38
383.535	95.38
383.761	95.38
383.986	101.38
384.211	83.38
384.436	85.38
384.662	94.38
384.887	80.38
385.112	76.38
385.337	93.38
385.562	87.38
385.787	95.38
386.013	99.38
386.238	75.38
386.463	91.38
386.688	106.38
386.913	88.38
387.138	100.38
387.363	77.38
387.588	85.38
387.813	84.38
388.038	90.38
388.263	82.38
388.488	88.38
388.713	90.38
388.938	87.38
389.163	87.38
389.387	91.38
389.612	78.38
389.837	90.38
390.062	99.38
390.287	90.38
390.512	92.38
390.736	97.38
390.961	94.38
391.186	91.38
391.411	94.38
391.636	89.38
391.86	88.38
392.085	90.38
392.31	83.38
392.534	94.38
392.759	73.38
392.984	92.38
393.208	82.38
393.433	80.38
393.658	95.38
393.882	77.38
394.107	91.38
394.331	75.38
394.556	84.38
394.78	99.38
395.005	91.38
395.229	86.38
395.454	90.38
395.678	82.38
395.903	80.38
396.127	96.38
396.352	88.38
396.576	86.38
396.801	82.38
397.025	86.38
397.249	85.38
397.474	78.38
397.698	96.38
397.922	81.38
398.147	83.38
398.371	59.38
398.595	92.38
398.82	84.38
399.044	80.38
399.268	89.38
399.492	85.38
399.717	100.38
399.941	84.38
400.165	93.38
400.389	89.38
400.613	81.38
400.837	75.38
401.062	77.38
401.286	79.38
401.51	83.38
401.734	95.38
401.958	89.38
402.182	88.38
402.406	88.38
402.63	71.38
402.854	97.38
403.078	88.38
403.302	81.38
403.526	93.38
403.75	77.38
403.974	78.38
404.198	84.38
404.422	85.38
404.645	79.38
404.869	81.38
405.093	87.38
405.317	79.38
405.541	74.38
405.765	76.38
405.988	88.38
406.212	90.38
406.436	99.38
406.66	77.38
406.883	77.38
407.107	80.38
407.331	85.38
407.555	89.38
407.778	83.38
408.002	77.38
408.226	90.38
408.449	83.38
408.673	90.38
408.896	76.38
409.12	76.38
409.344	92.38
409.567	80.38
409.791	87.38
410.014	70.38
410.238	74.38
410.461	82.38
410.685	83.38
410.908	87.38
411.132	83.38
411.355	92.38
411.578	85.38
411.802	88.38
412.025	84.38
412.249	83.38
412.472	96.38
412.695	84.38
412.919	84.38
413.142	72.38
413.365	95.38
413.589	77.38
413.812	87.38
414.035	83.38
414.258	97.38
414.482	68.38
414.705	91.38
414.928	82.38
415.151	92.38
415.374	88.38
415.597	101.38
415.821	79.38
416.044	94.38
416.267	75.38
416.49	83.38
416.713	81.38
416.936	89.38
417.159	81.38
417.382	75.38
417.605	104.38
417.828	92.38
418.051	90.38
418.274	80.38
418.497	88.38
418.72	92.38
418.943	92.38
419.166	92.38
419.389	90.38
419.611	91.38
419.834	74.38
420.057	79.38
420.28	86.38
420.503	81.38
420.726	79.38
420.948	78.38
421.171	80.38
421.394	85.38
421.617	77.38
421.839	76.38
422.062	103.38
422.285	89.38
422.507	80.38
422.73	76.38
422.953	92.38
423.175	83.38
423.398	88.38
423.621	101.38
423.843	83.38
424.066	81.38
424.288	77.38
424.511	98.38
424.733	87.38
424.956	100.38
425.178	82.38
425.401	94.38
425.623	87.38
425.846	91.38
426.068	81.38
426.291	79.38
426.513	78.38
426.735	77.38
426.958	76.38
427.18	78.38
427.402	85.38
427.625	99.38
427.847	87.38
428.069	79.38
428.292	93.38
428.514	80.38
428.736	91.38
428.958	84.38
429.181	95.38
429.403	90.38
429.625	91.38
429.847	75.38
430.069	83.38
430.292	92.38
430.514	83.38
430.736	78.38
430.958	62.38
431.18	81.38
431.402	73.38
431.624	96.38
431.846	82.38
432.068	75.38
432.29	77.38
432.512	93.38
432.734	77.38
432.956	96.38
433.178	93.38
433.4	90.38
433.622	90.38
433.844	72.38
434.066	78.38
434.287	83.38
434.509	78.38
434.731	79.38
434.953	92.38
435.175	79.38
435.397	90.38
435.618	93.38
435.84	86.38
436.062	73.38
436.284	97.38
436.505	80.38
436.727	81.38
436.949	85.38
437.17	88.38
437.392	87.38
437.614	89.38
437.835	96.38
438.057	84.38
438.278	78.38
438.5	79.38
438.721	89.38
438.943	84.38
439.165	82.38
439.386	88.38
439.608	87.38
439.829	89.38
440.05	70.38
440.272	90.38
440.493	71.38
440.715	69.38
440.936	83.38
441.158	97.38
441.379	78.38
441.6	78.38
441.822	89.38
442.043	89.38
442.264	76.38
442.486	81.38
442.707	74.38
442.928	92.38
443.149	88.38
443.371	87.38
443.592	82.38
443.813	79.38
444.034	97.38
444.255	91.38
444.476	87.38
444.698	92.38
444.919	87.38
445.14	162.38
445.361	129.38
445.582	85.38
445.803	82.38
446.024	80.38
446.245	84.38
446.466	81.38
446.687	73.38
446.908	99.38
447.129	66.38
447.35	90.38
447.571	81.38
447.792	76.38
448.013	87.38
448.234	79.38
448.455	88.38
448.675	83.38
448.896	81.38
449.117	86.38
449.338	84.38
449.559	94.38
449.779	90.38
450	81.38
450.221	85.38
450.442	88.38
450.662	77.38
450.883	80.38
451.104	88.38
451.324	86.38
451.545	94.38
451.766	86.38
451.986	81.38
452.207	85.38
452.428	81.38
452.648	83.38
452.869	75.38
453.089	82.38
453.31	94.38
453.53	100.38
453.751	86.38
453.971	104.38
454.192	83.38
454.412	86.38
454.633	79.38
454.853	83.38
455.073	70.38
455.294	79.38
455.514	91.38
455.734	81.38
455.955	87.38
456.175	69.38
456.395	79.38
456.616	83.38
456.836	84.38
457.056	82.38
457.276	69.38
457.497	86.38
457.717	92.38
457.937	90.38
458.157	84.38
458.377	92.38
458.598	70.38
458.818	92.38
459.038	81.38
459.258	77.38
459.478	88.38
459.698	83.38
459.918	78.38
460.138	89.38
460.358	83.38
460.578	92.38
460.798	84.38
461.018	82.38
461.238	95.38
461.458	95.38
461.678	89.38
461.898	96.38
462.118	92.38
462.338	89.38
462.558	79.38
462.777	88.38
462.997	79.38
463.217	77.38
463.437	88.38
463.657	95.38
463.876	96.38
464.096	86.38
464.316	76.38
464.536	88.38
464.755	84.38
464.975	93.38
465.195	79.38
465.414	85.38
465.634	85.38
465.854	90.38
466.073	104.38
466.293	82.38
466.512	77.38
466.732	95.38
466.951	76.38
467.171	81.38
467.391	92.38
467.61	89.38
467.829	77.38
468.049	93.38
468.268	90.38
468.488	83.38
468.707	82.38
468.927	85.38
469.146	75.38
469.365	81.38
469.585	93.38
469.804	91.38
470.023	85.38
470.243	80.38
470.462	79.38
470.681	78.38
470.901	79.38
471.12	94.38
471.339	91.38
471.558	81.38
471.777	88.38
471.997	94.38
472.216	101.38
472.435	73.38
472.654	79.38
472.873	98.38
473.092	91.38
473.311	87.38
473.53	104.38
473.749	98.38
473.968	85.38
474.187	85.38
474.406	75.38
474.625	79.38
474.844	89.38
475.063	89.38
475.282	92.38
475.501	87.38
475.72	100.38
475.939	87.38
476.158	83.38
476.377	87.38
476.596	90.38
476.814	84.38
477.033	86.38
477.252	67.38
477.471	82.38
477.69	89.38
477.908	90.38
478.127	85.38
478.346	84.38
478.564	93.38
478.783	97.38
479.002	85.38
479.22	97.38
479.439	87.38
479.658	91.38
479.876	89.38
480.095	103.38
480.313	88.38
480.532	80.38
480.751	79.38
480.969	88.38
481.188	79.38
481.406	97.38
481.624	89.38
481.843	91.38
482.061	84.38
482.28	83.38
482.498	82.38
482.717	81.38
482.935	105.38
483.153	89.38
483.372	87.38
483.59	84.38
483.808	77.38
484.027	80.38
484.245	85.38
484.463	96.38
484.681	81.38
484.9	96.38
485.118	85.38
485.336	79.38
485.554	83.38
485.772	75.38
485.99	91.38
486.209	83.38
486.427	74.38
486.645	80.38
486.863	88.38
487.081	75.38
487.299	95.38
487.517	92.38
487.735	103.38
487.953	108.38
488.171	90.38
488.389	71.38
488.607	89.38
488.825	80.38
489.043	75.38
489.261	90.38
489.479	95.38
489.696	84.38
489.914	96.38
490.132	84.38
490.35	88.38
490.568	95.38
490.786	88.38
491.003	81.38
491.221	88.38
491.439	85.38
491.657	92.38
491.874	99.38
492.092	93.38
492.31	95.38
492.527	93.38
492.745	95.38
492.963	89.38
493.18	93.38
493.398	93.38
493.615	99.38
493.833	81.38
494.05	100.38
494.268	78.38
494.485	82.38
494.703	85.38
494.92	82.38
495.138	106.38
495.355	88.38
495.573	94.38
495.79	96.38
496.008	95.38
496.225	96.38
496.442	90.38
496.66	91.38
496.877	85.38
497.094	89.38
497.312	89.38
497.529	96.38
497.746	98.38
497.963	90.38
498.181	84.38
498.398	75.38
498.615	88.38
498.832	91.38
499.049	98.38
499.267	83.38
499.484	77.38
499.701	99.38
499.918	81.38
500.135	99.38
500.352	75.38
500.569	84.38
500.786	84.38
501.003	81.38
501.22	73.38
501.437	91.38
501.654	88.38
501.871	82.38
502.088	93.38
502.305	84.38
502.522	92.38
502.739	98.38
502.956	83.38
503.172	80.38
503.389	65.38
503.606	81.38
503.823	105.38
504.04	98.38
504.256	93.38
504.473	86.38
504.69	91.38
504.907	81.38
505.123	73.38
505.34	81.38
505.557	88.38
505.773	85.38
505.99	64.38
506.207	89.38
506.423	87.38
506.64	87.38
506.856	85.38
507.073	83.38
507.289	86.38
507.506	97.38
507.722	79.38
507.939	89.38
508.155	105.38
508.372	89.38
508.588	89.38
508.805	77.38
509.021	83.38
509.238	85.38
509.454	96.38
509.67	84.38
509.887	66.38
510.103	79.38
510.319	93.38
510.536	94.38
510.752	82.38
510.968	91.38
511.184	75.38
511.401	98.38
511.617	79.38
511.833	87.38
512.049	83.38
512.265	98.38
512.481	93.38
512.698	75.38
512.914	77.38
513.13	83.38
513.346	82.38
513.562	96.38
513.778	97.38
513.994	104.38
514.21	89.38
514.426	105.38
514.642	87.38
514.858	90.38
515.074	73.38
515.29	92.38
515.506	82.38
515.721	83.38
515.937	81.38
516.153	71.38
516.369	73.38
516.585	74.38
516.801	88.38
517.016	85.38
517.232	84.38
517.448	90.38
517.664	90.38
517.879	86.38
518.095	80.38
518.311	86.38
518.527	87.38
518.742	80.38
518.958	78.38
519.173	91.38
519.389	91.38
519.605	87.38
