Data from StdD_HRD10591_088.txt Node
Date: Fri May 16 15:32:05 EDT 2025
User: Yrep
Spectrometer: HR+D1059
Trigger mode: 1
Integration Time (sec): 1.000000E-1
Scans to average: 1
Electric dark correction enabled: true
Nonlinearity correction enabled: false
Boxcar width: 0
XAxis mode: Wavelengths
Number of Pixels in Spectrum: 2048
>>>>>Begin Spectral Data<<<<<
223.165	-21.75
223.4	-21.75
223.635	-21.75
223.869	-11.75
224.104	-26.75
224.338	-9.75
224.573	-16.75
224.808	-16.75
225.042	-26.75
225.277	-6.75
225.511	-6.75
225.746	10.25
225.98	9.25
226.215	11.25
226.449	14.25
226.683	31.25
226.918	33.25
227.152	34.25
227.387	37.25
227.621	35.25
227.856	45.25
228.09	48.25
228.324	58.25
228.559	67.25
228.793	77.25
229.027	67.25
229.262	65.25
229.496	81.25
229.73	76.25
229.964	75.25
230.199	82.25
230.433	79.25
230.667	78.25
230.901	71.25
231.136	75.25
231.37	92.25
231.604	95.25
231.838	86.25
232.072	84.25
232.306	79.25
232.541	82.25
232.775	92.25
233.009	77.25
233.243	79.25
233.477	83.25
233.711	93.25
233.945	91.25
234.179	89.25
234.413	92.25
234.647	94.25
234.881	72.25
235.115	81.25
235.349	87.25
235.583	87.25
235.817	82.25
236.051	76.25
236.285	83.25
236.519	78.25
236.753	87.25
236.987	64.25
237.221	85.25
237.455	83.25
237.689	93.25
237.922	82.25
238.156	83.25
238.39	80.25
238.624	74.25
238.858	76.25
239.091	84.25
239.325	87.25
239.559	81.25
239.793	79.25
240.027	84.25
240.26	75.25
240.494	89.25
240.728	71.25
240.961	93.25
241.195	74.25
241.429	66.25
241.662	74.25
241.896	72.25
242.13	79.25
242.363	77.25
242.597	89.25
242.83	85.25
243.064	88.25
243.298	69.25
243.531	77.25
243.765	76.25
243.998	85.25
244.232	85.25
244.465	81.25
244.699	72.25
244.932	74.25
245.166	80.25
245.399	72.25
245.633	76.25
245.866	93.25
246.099	91.25
246.333	72.25
246.566	84.25
246.8	75.25
247.033	81.25
247.266	81.25
247.5	82.25
247.733	96.25
247.966	83.25
248.2	83.25
248.433	71.25
248.666	87.25
248.899	81.25
249.133	77.25
249.366	84.25
249.599	70.25
249.832	83.25
250.066	68.25
250.299	83.25
250.532	71.25
250.765	82.25
250.998	69.25
251.231	73.25
251.465	72.25
251.698	80.25
251.931	90.25
252.164	83.25
252.397	79.25
252.63	85.25
252.863	79.25
253.096	85.25
253.329	74.25
253.562	98.25
253.795	84.25
254.028	89.25
254.261	91.25
254.494	83.25
254.727	68.25
254.96	85.25
255.193	79.25
255.426	67.25
255.659	77.25
255.892	85.25
256.124	88.25
256.357	86.25
256.59	87.25
256.823	96.25
257.056	89.25
257.289	77.25
257.521	77.25
257.754	76.25
257.987	79.25
258.22	94.25
258.452	81.25
258.685	77.25
258.918	93.25
259.151	83.25
259.383	84.25
259.616	87.25
259.849	82.25
260.081	93.25
260.314	97.25
260.547	86.25
260.779	89.25
261.012	77.25
261.244	77.25
261.477	81.25
261.71	66.25
261.942	87.25
262.175	96.25
262.407	80.25
262.64	81.25
262.872	79.25
263.105	67.25
263.337	97.25
263.57	90.25
263.802	75.25
264.035	105.25
264.267	85.25
264.499	83.25
264.732	84.25
264.964	75.25
265.197	79.25
265.429	75.25
265.661	88.25
265.894	77.25
266.126	96.25
266.358	84.25
266.591	85.25
266.823	75.25
267.055	91.25
267.287	94.25
267.52	74.25
267.752	91.25
267.984	86.25
268.216	85.25
268.448	77.25
268.681	81.25
268.913	77.25
269.145	90.25
269.377	102.25
269.609	76.25
269.841	83.25
270.073	83.25
270.306	93.25
270.538	91.25
270.77	81.25
271.002	81.25
271.234	86.25
271.466	85.25
271.698	100.25
271.93	82.25
272.162	79.25
272.394	83.25
272.626	90.25
272.858	78.25
273.09	84.25
273.322	98.25
273.553	73.25
273.785	85.25
274.017	89.25
274.249	89.25
274.481	90.25
274.713	89.25
274.945	83.25
275.176	96.25
275.408	100.25
275.64	95.25
275.872	88.25
276.104	92.25
276.335	72.25
276.567	80.25
276.799	89.25
277.031	83.25
277.262	85.25
277.494	100.25
277.726	91.25
277.957	83.25
278.189	85.25
278.421	79.25
278.652	85.25
278.884	79.25
279.115	86.25
279.347	96.25
279.579	81.25
279.81	85.25
280.042	82.25
280.273	89.25
280.505	89.25
280.736	94.25
280.968	105.25
281.199	85.25
281.431	92.25
281.662	79.25
281.894	88.25
282.125	93.25
282.356	70.25
282.588	96.25
282.819	84.25
283.051	84.25
283.282	98.25
283.513	93.25
283.745	94.25
283.976	81.25
284.207	96.25
284.439	86.25
284.67	91.25
284.901	91.25
285.132	78.25
285.364	96.25
285.595	94.25
285.826	94.25
286.057	80.25
286.288	75.25
286.52	94.25
286.751	82.25
286.982	78.25
287.213	84.25
287.444	100.25
287.675	102.25
287.906	93.25
288.138	75.25
288.369	90.25
288.6	79.25
288.831	95.25
289.062	89.25
289.293	93.25
289.524	85.25
289.755	89.25
289.986	86.25
290.217	81.25
290.448	85.25
290.679	91.25
290.91	98.25
291.141	85.25
291.371	72.25
291.602	74.25
291.833	78.25
292.064	80.25
292.295	99.25
292.526	79.25
292.757	79.25
292.987	87.25
293.218	77.25
293.449	89.25
293.68	90.25
293.91	82.25
294.141	97.25
294.372	91.25
294.603	83.25
294.833	86.25
295.064	93.25
295.295	87.25
295.525	97.25
295.756	78.25
295.987	91.25
296.217	80.25
296.448	87.25
296.679	70.25
296.909	92.25
297.14	83.25
297.37	92.25
297.601	77.25
297.831	76.25
298.062	77.25
298.292	109.25
298.523	88.25
298.753	89.25
298.984	94.25
299.214	86.25
299.445	77.25
299.675	86.25
299.905	88.25
300.136	93.25
300.366	98.25
300.597	92.25
300.827	85.25
301.057	84.25
301.288	101.25
301.518	89.25
301.748	76.25
301.979	111.25
302.209	82.25
302.439	77.25
302.669	94.25
302.9	86.25
303.13	86.25
303.36	82.25
303.59	78.25
303.82	98.25
304.051	92.25
304.281	90.25
304.511	100.25
304.741	87.25
304.971	80.25
305.201	86.25
305.431	86.25
305.661	89.25
305.891	86.25
306.121	84.25
306.352	91.25
306.582	88.25
306.812	85.25
307.042	78.25
307.272	84.25
307.502	99.25
307.731	86.25
307.961	96.25
308.191	82.25
308.421	78.25
308.651	82.25
308.881	92.25
309.111	71.25
309.341	92.25
309.571	84.25
309.8	84.25
310.03	90.25
310.26	88.25
310.49	96.25
310.72	99.25
310.949	88.25
311.179	86.25
311.409	100.25
311.639	101.25
311.868	97.25
312.098	77.25
312.328	91.25
312.557	81.25
312.787	78.25
313.017	82.25
313.246	77.25
313.476	79.25
313.706	76.25
313.935	86.25
314.165	85.25
314.394	103.25
314.624	92.25
314.853	94.25
315.083	95.25
315.312	90.25
315.542	83.25
315.771	95.25
316.001	89.25
316.23	87.25
316.46	79.25
316.689	95.25
316.919	97.25
317.148	76.25
317.377	90.25
317.607	89.25
317.836	74.25
318.065	97.25
318.295	82.25
318.524	80.25
318.753	92.25
318.983	89.25
319.212	91.25
319.441	92.25
319.67	83.25
319.9	88.25
320.129	85.25
320.358	78.25
320.587	72.25
320.816	89.25
321.046	105.25
321.275	92.25
321.504	82.25
321.733	84.25
321.962	86.25
322.191	97.25
322.42	93.25
322.649	90.25
322.878	83.25
323.108	94.25
323.337	87.25
323.566	84.25
323.795	85.25
324.024	98.25
324.253	63.25
324.482	97.25
324.71	87.25
324.939	82.25
325.168	93.25
325.397	83.25
325.626	75.25
325.855	75.25
326.084	86.25
326.313	89.25
326.542	95.25
326.77	89.25
326.999	90.25
327.228	91.25
327.457	83.25
327.686	87.25
327.914	98.25
328.143	93.25
328.372	93.25
328.6	94.25
328.829	101.25
329.058	81.25
329.287	85.25
329.515	98.25
329.744	101.25
329.972	90.25
330.201	87.25
330.43	92.25
330.658	85.25
330.887	75.25
331.115	90.25
331.344	89.25
331.572	82.25
331.801	80.25
332.03	92.25
332.258	105.25
332.486	82.25
332.715	87.25
332.943	95.25
333.172	82.25
333.4	90.25
333.629	79.25
333.857	95.25
334.085	97.25
334.314	83.25
334.542	80.25
334.771	81.25
334.999	98.25
335.227	91.25
335.455	78.25
335.684	75.25
335.912	93.25
336.14	90.25
336.369	89.25
336.597	83.25
336.825	91.25
337.053	82.25
337.281	85.25
337.51	81.25
337.738	82.25
337.966	81.25
338.194	90.25
338.422	89.25
338.65	90.25
338.878	100.25
339.106	94.25
339.334	84.25
339.562	80.25
339.79	85.25
340.018	86.25
340.246	78.25
340.474	88.25
340.702	89.25
340.93	103.25
341.158	94.25
341.386	84.25
341.614	87.25
341.842	93.25
342.07	89.25
342.298	107.25
342.526	87.25
342.754	85.25
342.981	95.25
343.209	92.25
343.437	91.25
343.665	94.25
343.893	78.25
344.12	87.25
344.348	101.25
344.576	87.25
344.804	89.25
345.031	85.25
345.259	85.25
345.487	97.25
345.714	85.25
345.942	84.25
346.17	86.25
346.397	81.25
346.625	102.25
346.853	95.25
347.08	80.25
347.308	85.25
347.535	88.25
347.763	85.25
347.99	109.25
348.218	93.25
348.445	83.25
348.673	94.25
348.9	96.25
349.128	78.25
349.355	80.25
349.583	73.25
349.81	79.25
350.037	82.25
350.265	92.25
350.492	70.25
350.72	95.25
350.947	98.25
351.174	78.25
351.402	84.25
351.629	86.25
351.856	74.25
352.083	88.25
352.311	94.25
352.538	80.25
352.765	86.25
352.992	89.25
353.22	86.25
353.447	89.25
353.674	91.25
353.901	89.25
354.128	82.25
354.355	81.25
354.583	86.25
354.81	99.25
355.037	110.25
355.264	96.25
355.491	98.25
355.718	87.25
355.945	77.25
356.172	83.25
356.399	89.25
356.626	73.25
356.853	93.25
357.08	88.25
357.307	85.25
357.534	86.25
357.761	89.25
357.988	92.25
358.215	93.25
358.441	78.25
358.668	96.25
358.895	91.25
359.122	95.25
359.349	95.25
359.576	83.25
359.802	81.25
360.029	90.25
360.256	79.25
360.483	89.25
360.709	81.25
360.936	89.25
361.163	99.25
361.39	81.25
361.616	90.25
361.843	81.25
362.07	90.25
362.296	74.25
362.523	90.25
362.749	103.25
362.976	91.25
363.203	89.25
363.429	98.25
363.656	85.25
363.882	68.25
364.109	84.25
364.335	78.25
364.562	75.25
364.788	88.25
365.015	95.25
365.241	88.25
365.468	97.25
365.694	81.25
365.92	94.25
366.147	73.25
366.373	81.25
366.599	85.25
366.826	85.25
367.052	83.25
367.278	78.25
367.505	88.25
367.731	98.25
367.957	100.25
368.184	89.25
368.41	106.25
368.636	89.25
368.862	71.25
369.089	91.25
369.315	93.25
369.541	97.25
369.767	103.25
369.993	73.25
370.219	81.25
370.445	89.25
370.672	94.25
370.898	101.25
371.124	89.25
371.35	98.25
371.576	100.25
371.802	82.25
372.028	84.25
372.254	75.25
372.48	95.25
372.706	96.25
372.932	97.25
373.158	102.25
373.384	89.25
373.61	91.25
373.835	97.25
374.061	82.25
374.287	99.25
374.513	83.25
374.739	90.25
374.965	88.25
375.191	73.25
375.416	85.25
375.642	93.25
375.868	83.25
376.094	96.25
376.319	81.25
376.545	87.25
376.771	93.25
376.997	99.25
377.222	90.25
377.448	85.25
377.674	79.25
377.899	90.25
378.125	100.25
378.35	98.25
378.576	81.25
378.802	86.25
379.027	81.25
379.253	83.25
379.478	89.25
379.704	80.25
379.929	88.25
380.155	97.25
380.38	90.25
380.606	89.25
380.831	81.25
381.057	83.25
381.282	103.25
381.507	98.25
381.733	97.25
381.958	95.25
382.184	99.25
382.409	93.25
382.634	94.25
382.86	78.25
383.085	73.25
383.31	99.25
383.535	79.25
383.761	74.25
383.986	77.25
384.211	81.25
384.436	98.25
384.662	87.25
384.887	91.25
385.112	89.25
385.337	79.25
385.562	79.25
385.787	85.25
386.013	82.25
386.238	89.25
386.463	98.25
386.688	102.25
386.913	97.25
387.138	101.25
387.363	80.25
387.588	85.25
387.813	89.25
388.038	91.25
388.263	92.25
388.488	86.25
388.713	98.25
388.938	77.25
389.163	83.25
389.387	96.25
389.612	97.25
389.837	79.25
390.062	87.25
390.287	90.25
390.512	83.25
390.736	106.25
390.961	102.25
391.186	89.25
391.411	77.25
391.636	87.25
391.86	93.25
392.085	105.25
392.31	81.25
392.534	85.25
392.759	90.25
392.984	105.25
393.208	105.25
393.433	86.25
393.658	85.25
393.882	79.25
394.107	83.25
394.331	84.25
394.556	83.25
394.78	100.25
395.005	89.25
395.229	87.25
395.454	109.25
395.678	107.25
395.903	77.25
396.127	80.25
396.352	87.25
396.576	92.25
396.801	89.25
397.025	86.25
397.249	88.25
397.474	90.25
397.698	100.25
397.922	92.25
398.147	79.25
398.371	82.25
398.595	103.25
398.82	89.25
399.044	93.25
399.268	87.25
399.492	73.25
399.717	83.25
399.941	81.25
400.165	85.25
400.389	73.25
400.613	81.25
400.837	76.25
401.062	93.25
401.286	77.25
401.51	86.25
401.734	96.25
401.958	89.25
402.182	71.25
402.406	83.25
402.63	85.25
402.854	87.25
403.078	84.25
403.302	79.25
403.526	77.25
403.75	85.25
403.974	94.25
404.198	93.25
404.422	91.25
404.645	92.25
404.869	69.25
405.093	94.25
405.317	95.25
405.541	87.25
405.765	100.25
405.988	94.25
406.212	77.25
406.436	80.25
406.66	82.25
406.883	82.25
407.107	89.25
407.331	84.25
407.555	70.25
407.778	96.25
408.002	78.25
408.226	70.25
408.449	75.25
408.673	89.25
408.896	84.25
409.12	83.25
409.344	85.25
409.567	91.25
409.791	75.25
410.014	94.25
410.238	68.25
410.461	82.25
410.685	90.25
410.908	88.25
411.132	100.25
411.355	77.25
411.578	96.25
411.802	91.25
412.025	100.25
412.249	89.25
412.472	89.25
412.695	85.25
412.919	84.25
413.142	91.25
413.365	90.25
413.589	86.25
413.812	94.25
414.035	83.25
414.258	91.25
414.482	92.25
414.705	81.25
414.928	75.25
415.151	83.25
415.374	104.25
415.597	94.25
415.821	69.25
416.044	97.25
416.267	86.25
416.49	91.25
416.713	98.25
416.936	89.25
417.159	80.25
417.382	94.25
417.605	92.25
417.828	85.25
418.051	83.25
418.274	89.25
418.497	84.25
418.72	102.25
418.943	94.25
419.166	94.25
419.389	94.25
419.611	90.25
419.834	83.25
420.057	98.25
420.28	84.25
420.503	77.25
420.726	88.25
420.948	83.25
421.171	89.25
421.394	85.25
421.617	89.25
421.839	87.25
422.062	93.25
422.285	89.25
422.507	96.25
422.73	84.25
422.953	82.25
423.175	86.25
423.398	96.25
423.621	79.25
423.843	77.25
424.066	68.25
424.288	82.25
424.511	91.25
424.733	77.25
424.956	83.25
425.178	92.25
425.401	91.25
425.623	104.25
425.846	90.25
426.068	84.25
426.291	96.25
426.513	91.25
426.735	90.25
426.958	85.25
427.18	97.25
427.402	78.25
427.625	96.25
427.847	81.25
428.069	101.25
428.292	84.25
428.514	90.25
428.736	93.25
428.958	87.25
429.181	93.25
429.403	93.25
429.625	89.25
429.847	84.25
430.069	74.25
430.292	86.25
430.514	83.25
430.736	75.25
430.958	85.25
431.18	84.25
431.402	103.25
431.624	77.25
431.846	90.25
432.068	91.25
432.29	79.25
432.512	83.25
432.734	95.25
432.956	89.25
433.178	87.25
433.4	94.25
433.622	95.25
433.844	81.25
434.066	95.25
434.287	79.25
434.509	66.25
434.731	85.25
434.953	81.25
435.175	85.25
435.397	86.25
435.618	90.25
435.84	79.25
436.062	86.25
436.284	83.25
436.505	99.25
436.727	86.25
436.949	83.25
437.17	86.25
437.392	77.25
437.614	93.25
437.835	85.25
438.057	94.25
438.278	83.25
438.5	91.25
438.721	97.25
438.943	89.25
439.165	92.25
439.386	89.25
439.608	91.25
439.829	99.25
440.05	106.25
440.272	83.25
440.493	79.25
440.715	84.25
440.936	77.25
441.158	78.25
441.379	109.25
441.6	91.25
441.822	83.25
442.043	80.25
442.264	88.25
442.486	79.25
442.707	82.25
442.928	96.25
443.149	83.25
443.371	96.25
443.592	83.25
443.813	81.25
444.034	109.25
444.255	93.25
444.476	78.25
444.698	95.25
444.919	88.25
445.14	187.25
445.361	133.25
445.582	85.25
445.803	81.25
446.024	92.25
446.245	97.25
446.466	82.25
446.687	93.25
446.908	67.25
447.129	82.25
447.35	77.25
447.571	88.25
447.792	76.25
448.013	97.25
448.234	86.25
448.455	89.25
448.675	88.25
448.896	80.25
449.117	80.25
449.338	76.25
449.559	90.25
449.779	96.25
450	93.25
450.221	77.25
450.442	89.25
450.662	85.25
450.883	86.25
451.104	87.25
451.324	93.25
451.545	69.25
451.766	91.25
451.986	76.25
452.207	87.25
452.428	85.25
452.648	96.25
452.869	96.25
453.089	89.25
453.31	94.25
453.53	85.25
453.751	77.25
453.971	91.25
454.192	75.25
454.412	93.25
454.633	82.25
454.853	88.25
455.073	90.25
455.294	86.25
455.514	89.25
455.734	82.25
455.955	87.25
456.175	79.25
456.395	81.25
456.616	71.25
456.836	79.25
457.056	83.25
457.276	79.25
457.497	75.25
457.717	83.25
457.937	76.25
458.157	81.25
458.377	79.25
458.598	80.25
458.818	81.25
459.038	88.25
459.258	89.25
459.478	87.25
459.698	63.25
459.918	88.25
460.138	80.25
460.358	78.25
460.578	86.25
460.798	90.25
461.018	81.25
461.238	78.25
461.458	93.25
461.678	90.25
461.898	82.25
462.118	86.25
462.338	90.25
462.558	77.25
462.777	85.25
462.997	88.25
463.217	83.25
463.437	78.25
463.657	69.25
463.876	84.25
464.096	88.25
464.316	77.25
464.536	83.25
464.755	89.25
464.975	77.25
465.195	90.25
465.414	92.25
465.634	81.25
465.854	87.25
466.073	89.25
466.293	87.25
466.512	94.25
466.732	89.25
466.951	89.25
467.171	89.25
467.391	79.25
467.61	82.25
467.829	87.25
468.049	89.25
468.268	90.25
468.488	95.25
468.707	71.25
468.927	85.25
469.146	91.25
469.365	78.25
469.585	91.25
469.804	92.25
470.023	100.25
470.243	105.25
470.462	85.25
470.681	92.25
470.901	87.25
471.12	79.25
471.339	80.25
471.558	85.25
471.777	93.25
471.997	97.25
472.216	99.25
472.435	86.25
472.654	98.25
472.873	86.25
473.092	90.25
473.311	92.25
473.53	93.25
473.749	92.25
473.968	91.25
474.187	90.25
474.406	90.25
474.625	100.25
474.844	86.25
475.063	83.25
475.282	84.25
475.501	79.25
475.72	84.25
475.939	80.25
476.158	86.25
476.377	106.25
476.596	82.25
476.814	96.25
477.033	94.25
477.252	86.25
477.471	89.25
477.69	89.25
477.908	78.25
478.127	82.25
478.346	86.25
478.564	84.25
478.783	84.25
479.002	86.25
479.22	90.25
479.439	86.25
479.658	88.25
479.876	86.25
480.095	93.25
480.313	92.25
480.532	92.25
480.751	78.25
480.969	90.25
481.188	79.25
481.406	89.25
481.624	86.25
481.843	85.25
482.061	82.25
482.28	96.25
482.498	80.25
482.717	75.25
482.935	77.25
483.153	93.25
483.372	91.25
483.59	83.25
483.808	77.25
484.027	90.25
484.245	90.25
484.463	91.25
484.681	98.25
484.9	85.25
485.118	94.25
485.336	96.25
485.554	74.25
485.772	83.25
485.99	95.25
486.209	82.25
486.427	90.25
486.645	90.25
486.863	91.25
487.081	80.25
487.299	93.25
487.517	86.25
487.735	100.25
487.953	94.25
488.171	93.25
488.389	92.25
488.607	74.25
488.825	73.25
489.043	84.25
489.261	98.25
489.479	89.25
489.696	91.25
489.914	70.25
490.132	97.25
490.35	89.25
490.568	83.25
490.786	98.25
491.003	94.25
491.221	99.25
491.439	97.25
491.657	93.25
491.874	100.25
492.092	93.25
492.31	110.25
492.527	103.25
492.745	98.25
492.963	99.25
493.18	93.25
493.398	99.25
493.615	101.25
493.833	97.25
494.05	93.25
494.268	91.25
494.485	89.25
494.703	97.25
494.92	97.25
495.138	94.25
495.355	94.25
495.573	104.25
495.79	98.25
496.008	84.25
496.225	94.25
496.442	97.25
496.66	97.25
496.877	81.25
497.094	90.25
497.312	95.25
497.529	87.25
497.746	96.25
497.963	95.25
498.181	90.25
498.398	83.25
498.615	90.25
498.832	84.25
499.049	94.25
499.267	77.25
499.484	98.25
499.701	89.25
499.918	81.25
500.135	88.25
500.352	76.25
500.569	92.25
500.786	95.25
501.003	78.25
501.22	90.25
501.437	87.25
501.654	78.25
501.871	82.25
502.088	89.25
502.305	81.25
502.522	93.25
502.739	91.25
502.956	96.25
503.172	77.25
503.389	91.25
503.606	89.25
503.823	93.25
504.04	90.25
504.256	95.25
504.473	68.25
504.69	75.25
504.907	98.25
505.123	77.25
505.34	85.25
505.557	68.25
505.773	87.25
505.99	85.25
506.207	95.25
506.423	80.25
506.64	80.25
506.856	90.25
507.073	88.25
507.289	86.25
507.506	83.25
507.722	79.25
507.939	77.25
508.155	87.25
508.372	82.25
508.588	80.25
508.805	89.25
509.021	83.25
509.238	91.25
509.454	94.25
509.67	70.25
509.887	85.25
510.103	83.25
510.319	85.25
510.536	87.25
510.752	70.25
510.968	96.25
511.184	93.25
511.401	89.25
511.617	77.25
511.833	78.25
512.049	71.25
512.265	77.25
512.481	74.25
512.698	76.25
512.914	89.25
513.13	88.25
513.346	89.25
513.562	85.25
513.778	75.25
513.994	70.25
514.21	85.25
514.426	90.25
514.642	90.25
514.858	86.25
515.074	95.25
515.29	71.25
515.506	89.25
515.721	79.25
515.937	89.25
516.153	79.25
516.369	89.25
516.585	72.25
516.801	103.25
517.016	90.25
517.232	88.25
517.448	85.25
517.664	80.25
517.879	90.25
518.095	92.25
518.311	90.25
518.527	83.25
518.742	83.25
518.958	84.25
519.173	92.25
519.389	84.25
