Data from StdD_HRD10591_045.txt Node
Date: Fri May 16 15:31:43 EDT 2025
User: Yrep
Spectrometer: HR+D1059
Trigger mode: 1
Integration Time (sec): 1.000000E-1
Scans to average: 1
Electric dark correction enabled: true
Nonlinearity correction enabled: false
Boxcar width: 0
XAxis mode: Wavelengths
Number of Pixels in Spectrum: 2048
>>>>>Begin Spectral Data<<<<<
223.165	-11.12
223.4	-11.12
223.635	-11.12
223.869	-28.12
224.104	-18.12
224.338	-6.12
224.573	-21.12
224.808	-17.12
225.042	-13.12
225.277	-13.12
225.511	-10.12
225.746	9.88
225.98	4.88
226.215	18.88
226.449	21.88
226.683	22.88
226.918	24.88
227.152	34.88
227.387	43.88
227.621	40.88
227.856	45.88
228.09	53.88
228.324	51.88
228.559	57.88
228.793	64.88
229.027	66.88
229.262	64.88
229.496	70.88
229.73	71.88
229.964	73.88
230.199	68.88
230.433	59.88
230.667	82.88
230.901	84.88
231.136	72.88
231.37	76.88
231.604	71.88
231.838	83.88
232.072	73.88
232.306	79.88
232.541	84.88
232.775	77.88
233.009	57.88
233.243	77.88
233.477	75.88
233.711	97.88
233.945	77.88
234.179	79.88
234.413	73.88
234.647	71.88
234.881	76.88
235.115	62.88
235.349	80.88
235.583	82.88
235.817	75.88
236.051	77.88
236.285	65.88
236.519	68.88
236.753	73.88
236.987	72.88
237.221	64.88
237.455	65.88
237.689	76.88
237.922	78.88
238.156	84.88
238.39	68.88
238.624	69.88
238.858	73.88
239.091	77.88
239.325	67.88
239.559	78.88
239.793	86.88
240.027	85.88
240.26	87.88
240.494	93.88
240.728	67.88
240.961	78.88
241.195	87.88
241.429	63.88
241.662	59.88
241.896	75.88
242.13	71.88
242.363	83.88
242.597	66.88
242.83	78.88
243.064	86.88
243.298	89.88
243.531	75.88
243.765	70.88
243.998	88.88
244.232	85.88
244.465	80.88
244.699	73.88
244.932	66.88
245.166	72.88
245.399	80.88
245.633	64.88
245.866	69.88
246.099	74.88
246.333	68.88
246.566	71.88
246.8	60.88
247.033	70.88
247.266	70.88
247.5	66.88
247.733	69.88
247.966	86.88
248.2	78.88
248.433	83.88
248.666	71.88
248.899	81.88
249.133	83.88
249.366	70.88
249.599	58.88
249.832	65.88
250.066	78.88
250.299	78.88
250.532	79.88
250.765	80.88
250.998	73.88
251.231	74.88
251.465	77.88
251.698	79.88
251.931	75.88
252.164	79.88
252.397	87.88
252.63	93.88
252.863	76.88
253.096	90.88
253.329	83.88
253.562	79.88
253.795	84.88
254.028	72.88
254.261	84.88
254.494	69.88
254.727	68.88
254.96	63.88
255.193	68.88
255.426	77.88
255.659	75.88
255.892	79.88
256.124	62.88
256.357	88.88
256.59	79.88
256.823	90.88
257.056	81.88
257.289	75.88
257.521	71.88
257.754	81.88
257.987	70.88
258.22	87.88
258.452	77.88
258.685	79.88
258.918	76.88
259.151	89.88
259.383	84.88
259.616	85.88
259.849	78.88
260.081	75.88
260.314	82.88
260.547	76.88
260.779	83.88
261.012	70.88
261.244	84.88
261.477	85.88
261.71	74.88
261.942	74.88
262.175	84.88
262.407	72.88
262.64	74.88
262.872	70.88
263.105	79.88
263.337	94.88
263.57	78.88
263.802	83.88
264.035	79.88
264.267	78.88
264.499	74.88
264.732	85.88
264.964	65.88
265.197	74.88
265.429	77.88
265.661	82.88
265.894	82.88
266.126	79.88
266.358	87.88
266.591	84.88
266.823	82.88
267.055	73.88
267.287	78.88
267.52	79.88
267.752	86.88
267.984	85.88
268.216	73.88
268.448	79.88
268.681	81.88
268.913	74.88
269.145	93.88
269.377	91.88
269.609	86.88
269.841	76.88
270.073	82.88
270.306	76.88
270.538	76.88
270.77	85.88
271.002	64.88
271.234	86.88
271.466	92.88
271.698	84.88
271.93	86.88
272.162	79.88
272.394	98.88
272.626	82.88
272.858	75.88
273.09	76.88
273.322	70.88
273.553	90.88
273.785	67.88
274.017	79.88
274.249	72.88
274.481	76.88
274.713	74.88
274.945	77.88
275.176	88.88
275.408	78.88
275.64	86.88
275.872	74.88
276.104	83.88
276.335	82.88
276.567	65.88
276.799	74.88
277.031	84.88
277.262	72.88
277.494	79.88
277.726	96.88
277.957	83.88
278.189	77.88
278.421	82.88
278.652	78.88
278.884	67.88
279.115	80.88
279.347	80.88
279.579	78.88
279.81	95.88
280.042	74.88
280.273	80.88
280.505	80.88
280.736	87.88
280.968	86.88
281.199	73.88
281.431	87.88
281.662	89.88
281.894	72.88
282.125	77.88
282.356	92.88
282.588	87.88
282.819	75.88
283.051	92.88
283.282	83.88
283.513	85.88
283.745	75.88
283.976	73.88
284.207	78.88
284.439	72.88
284.67	82.88
284.901	62.88
285.132	69.88
285.364	89.88
285.595	82.88
285.826	70.88
286.057	83.88
286.288	79.88
286.52	83.88
286.751	78.88
286.982	74.88
287.213	66.88
287.444	85.88
287.675	75.88
287.906	82.88
288.138	78.88
288.369	87.88
288.6	81.88
288.831	82.88
289.062	86.88
289.293	82.88
289.524	88.88
289.755	78.88
289.986	77.88
290.217	74.88
290.448	82.88
290.679	92.88
290.91	85.88
291.141	80.88
291.371	72.88
291.602	91.88
291.833	81.88
292.064	75.88
292.295	74.88
292.526	74.88
292.757	85.88
292.987	94.88
293.218	71.88
293.449	62.88
293.68	72.88
293.91	86.88
294.141	74.88
294.372	70.88
294.603	70.88
294.833	73.88
295.064	87.88
295.295	81.88
295.525	90.88
295.756	81.88
295.987	86.88
296.217	75.88
296.448	83.88
296.679	83.88
296.909	72.88
297.14	87.88
297.37	70.88
297.601	72.88
297.831	67.88
298.062	85.88
298.292	83.88
298.523	89.88
298.753	79.88
298.984	68.88
299.214	80.88
299.445	84.88
299.675	83.88
299.905	74.88
300.136	79.88
300.366	81.88
300.597	91.88
300.827	82.88
301.057	71.88
301.288	80.88
301.518	84.88
301.748	80.88
301.979	83.88
302.209	74.88
302.439	71.88
302.669	77.88
302.9	68.88
303.13	62.88
303.36	84.88
303.59	77.88
303.82	78.88
304.051	81.88
304.281	81.88
304.511	80.88
304.741	95.88
304.971	85.88
305.201	66.88
305.431	79.88
305.661	69.88
305.891	65.88
306.121	94.88
306.352	80.88
306.582	84.88
306.812	85.88
307.042	70.88
307.272	77.88
307.502	83.88
307.731	76.88
307.961	88.88
308.191	73.88
308.421	83.88
308.651	78.88
308.881	83.88
309.111	76.88
309.341	78.88
309.571	79.88
309.8	79.88
310.03	79.88
310.26	90.88
310.49	80.88
310.72	79.88
310.949	67.88
311.179	81.88
311.409	72.88
311.639	80.88
311.868	93.88
312.098	83.88
312.328	87.88
312.557	93.88
312.787	78.88
313.017	85.88
313.246	92.88
313.476	77.88
313.706	82.88
313.935	86.88
314.165	84.88
314.394	81.88
314.624	81.88
314.853	94.88
315.083	82.88
315.312	74.88
315.542	75.88
315.771	83.88
316.001	83.88
316.23	76.88
316.46	84.88
316.689	75.88
316.919	74.88
317.148	88.88
317.377	74.88
317.607	64.88
317.836	70.88
318.065	82.88
318.295	75.88
318.524	76.88
318.753	80.88
318.983	94.88
319.212	88.88
319.441	84.88
319.67	73.88
319.9	81.88
320.129	78.88
320.358	100.88
320.587	87.88
320.816	83.88
321.046	86.88
321.275	85.88
321.504	103.88
321.733	78.88
321.962	86.88
322.191	85.88
322.42	64.88
322.649	95.88
322.878	92.88
323.108	71.88
323.337	84.88
323.566	72.88
323.795	70.88
324.024	78.88
324.253	91.88
324.482	82.88
324.71	74.88
324.939	80.88
325.168	76.88
325.397	79.88
325.626	86.88
325.855	87.88
326.084	82.88
326.313	81.88
326.542	69.88
326.77	92.88
326.999	76.88
327.228	85.88
327.457	93.88
327.686	86.88
327.914	89.88
328.143	91.88
328.372	75.88
328.6	83.88
328.829	77.88
329.058	85.88
329.287	63.88
329.515	79.88
329.744	78.88
329.972	74.88
330.201	93.88
330.43	74.88
330.658	74.88
330.887	83.88
331.115	82.88
331.344	73.88
331.572	78.88
331.801	86.88
332.03	69.88
332.258	71.88
332.486	85.88
332.715	82.88
332.943	94.88
333.172	90.88
333.4	69.88
333.629	86.88
333.857	94.88
334.085	74.88
334.314	83.88
334.542	86.88
334.771	68.88
334.999	68.88
335.227	69.88
335.455	86.88
335.684	75.88
335.912	80.88
336.14	74.88
336.369	65.88
336.597	73.88
336.825	86.88
337.053	89.88
337.281	78.88
337.51	78.88
337.738	93.88
337.966	75.88
338.194	74.88
338.422	82.88
338.65	91.88
338.878	85.88
339.106	77.88
339.334	92.88
339.562	105.88
339.79	86.88
340.018	72.88
340.246	66.88
340.474	64.88
340.702	70.88
340.93	89.88
341.158	86.88
341.386	72.88
341.614	73.88
341.842	76.88
342.07	87.88
342.298	77.88
342.526	83.88
342.754	76.88
342.981	94.88
343.209	86.88
343.437	93.88
343.665	93.88
343.893	86.88
344.12	86.88
344.348	82.88
344.576	79.88
344.804	97.88
345.031	75.88
345.259	78.88
345.487	88.88
345.714	87.88
345.942	78.88
346.17	86.88
346.397	75.88
346.625	69.88
346.853	79.88
347.08	79.88
347.308	81.88
347.535	86.88
347.763	79.88
347.99	88.88
348.218	75.88
348.445	65.88
348.673	68.88
348.9	71.88
349.128	94.88
349.355	93.88
349.583	91.88
349.81	83.88
350.037	73.88
350.265	77.88
350.492	55.88
350.72	80.88
350.947	102.88
351.174	84.88
351.402	77.88
351.629	84.88
351.856	78.88
352.083	73.88
352.311	91.88
352.538	93.88
352.765	76.88
352.992	85.88
353.22	68.88
353.447	74.88
353.674	80.88
353.901	76.88
354.128	75.88
354.355	79.88
354.583	75.88
354.81	80.88
355.037	86.88
355.264	86.88
355.491	84.88
355.718	74.88
355.945	90.88
356.172	74.88
356.399	86.88
356.626	74.88
356.853	83.88
357.08	84.88
357.307	89.88
357.534	89.88
357.761	86.88
357.988	88.88
358.215	93.88
358.441	72.88
358.668	75.88
358.895	87.88
359.122	83.88
359.349	82.88
359.576	88.88
359.802	81.88
360.029	83.88
360.256	86.88
360.483	82.88
360.709	70.88
360.936	93.88
361.163	94.88
361.39	73.88
361.616	66.88
361.843	87.88
362.07	86.88
362.296	82.88
362.523	66.88
362.749	86.88
362.976	73.88
363.203	91.88
363.429	88.88
363.656	82.88
363.882	88.88
364.109	76.88
364.335	76.88
364.562	80.88
364.788	67.88
365.015	88.88
365.241	77.88
365.468	82.88
365.694	74.88
365.92	89.88
366.147	84.88
366.373	64.88
366.599	83.88
366.826	64.88
367.052	80.88
367.278	83.88
367.505	83.88
367.731	72.88
367.957	75.88
368.184	74.88
368.41	76.88
368.636	78.88
368.862	70.88
369.089	74.88
369.315	87.88
369.541	92.88
369.767	73.88
369.993	78.88
370.219	99.88
370.445	63.88
370.672	70.88
370.898	75.88
371.124	80.88
371.35	74.88
371.576	77.88
371.802	79.88
372.028	67.88
372.254	87.88
372.48	79.88
372.706	76.88
372.932	84.88
373.158	80.88
373.384	77.88
373.61	87.88
373.835	80.88
374.061	80.88
374.287	79.88
374.513	91.88
374.739	73.88
374.965	83.88
375.191	91.88
375.416	68.88
375.642	78.88
375.868	84.88
376.094	70.88
376.319	77.88
376.545	83.88
376.771	60.88
376.997	68.88
377.222	73.88
377.448	72.88
377.674	86.88
377.899	80.88
378.125	86.88
378.35	81.88
378.576	85.88
378.802	75.88
379.027	80.88
379.253	84.88
379.478	85.88
379.704	87.88
379.929	90.88
380.155	93.88
380.38	87.88
380.606	66.88
380.831	82.88
381.057	89.88
381.282	84.88
381.507	80.88
381.733	76.88
381.958	78.88
382.184	76.88
382.409	71.88
382.634	71.88
382.86	86.88
383.085	98.88
383.31	80.88
383.535	88.88
383.761	82.88
383.986	80.88
384.211	62.88
384.436	81.88
384.662	77.88
384.887	91.88
385.112	81.88
385.337	79.88
385.562	79.88
385.787	96.88
386.013	83.88
386.238	83.88
386.463	88.88
386.688	100.88
386.913	79.88
387.138	75.88
387.363	84.88
387.588	91.88
387.813	92.88
388.038	83.88
388.263	90.88
388.488	94.88
388.713	92.88
388.938	84.88
389.163	92.88
389.387	66.88
389.612	77.88
389.837	86.88
390.062	77.88
390.287	74.88
390.512	85.88
390.736	68.88
390.961	67.88
391.186	89.88
391.411	71.88
391.636	72.88
391.86	74.88
392.085	87.88
392.31	76.88
392.534	86.88
392.759	71.88
392.984	71.88
393.208	71.88
393.433	75.88
393.658	84.88
393.882	82.88
394.107	63.88
394.331	70.88
394.556	82.88
394.78	74.88
395.005	77.88
395.229	77.88
395.454	89.88
395.678	77.88
395.903	85.88
396.127	84.88
396.352	81.88
396.576	86.88
396.801	79.88
397.025	79.88
397.249	85.88
397.474	96.88
397.698	87.88
397.922	70.88
398.147	84.88
398.371	79.88
398.595	78.88
398.82	82.88
399.044	83.88
399.268	79.88
399.492	93.88
399.717	83.88
399.941	76.88
400.165	74.88
400.389	79.88
400.613	90.88
400.837	76.88
401.062	87.88
401.286	78.88
401.51	75.88
401.734	80.88
401.958	90.88
402.182	71.88
402.406	78.88
402.63	70.88
402.854	81.88
403.078	89.88
403.302	77.88
403.526	70.88
403.75	66.88
403.974	62.88
404.198	70.88
404.422	80.88
404.645	73.88
404.869	82.88
405.093	76.88
405.317	78.88
405.541	86.88
405.765	68.88
405.988	84.88
406.212	84.88
406.436	81.88
406.66	87.88
406.883	78.88
407.107	72.88
407.331	82.88
407.555	78.88
407.778	76.88
408.002	79.88
408.226	75.88
408.449	78.88
408.673	78.88
408.896	78.88
409.12	87.88
409.344	84.88
409.567	89.88
409.791	91.88
410.014	81.88
410.238	75.88
410.461	68.88
410.685	84.88
410.908	87.88
411.132	74.88
411.355	86.88
411.578	72.88
411.802	64.88
412.025	83.88
412.249	90.88
412.472	86.88
412.695	91.88
412.919	78.88
413.142	87.88
413.365	87.88
413.589	71.88
413.812	82.88
414.035	89.88
414.258	72.88
414.482	78.88
414.705	84.88
414.928	90.88
415.151	78.88
415.374	77.88
415.597	72.88
415.821	91.88
416.044	77.88
416.267	75.88
416.49	90.88
416.713	81.88
416.936	77.88
417.159	94.88
417.382	91.88
417.605	82.88
417.828	92.88
418.051	91.88
418.274	76.88
418.497	86.88
418.72	79.88
418.943	76.88
419.166	71.88
419.389	78.88
419.611	82.88
419.834	86.88
420.057	84.88
420.28	75.88
420.503	76.88
420.726	90.88
420.948	75.88
421.171	63.88
421.394	80.88
421.617	75.88
421.839	86.88
422.062	84.88
422.285	77.88
422.507	75.88
422.73	79.88
422.953	83.88
423.175	72.88
423.398	65.88
423.621	91.88
423.843	77.88
424.066	80.88
424.288	81.88
424.511	92.88
424.733	88.88
424.956	90.88
425.178	68.88
425.401	84.88
425.623	83.88
425.846	86.88
426.068	78.88
426.291	84.88
426.513	68.88
426.735	77.88
426.958	80.88
427.18	80.88
427.402	90.88
427.625	70.88
427.847	82.88
428.069	101.88
428.292	78.88
428.514	77.88
428.736	91.88
428.958	85.88
429.181	86.88
429.403	79.88
429.625	84.88
429.847	73.88
430.069	77.88
430.292	62.88
430.514	83.88
430.736	87.88
430.958	85.88
431.18	80.88
431.402	77.88
431.624	78.88
431.846	90.88
432.068	78.88
432.29	83.88
432.512	60.88
432.734	82.88
432.956	74.88
433.178	92.88
433.4	83.88
433.622	95.88
433.844	85.88
434.066	76.88
434.287	72.88
434.509	84.88
434.731	74.88
434.953	86.88
435.175	72.88
435.397	72.88
435.618	76.88
435.84	81.88
436.062	70.88
436.284	70.88
436.505	71.88
436.727	86.88
436.949	73.88
437.17	89.88
437.392	88.88
437.614	80.88
437.835	82.88
438.057	75.88
438.278	84.88
438.5	75.88
438.721	80.88
438.943	86.88
439.165	63.88
439.386	77.88
439.608	80.88
439.829	79.88
440.05	83.88
440.272	84.88
440.493	79.88
440.715	62.88
440.936	85.88
441.158	92.88
441.379	80.88
441.6	74.88
441.822	69.88
442.043	87.88
442.264	84.88
442.486	80.88
442.707	85.88
442.928	78.88
443.149	74.88
443.371	74.88
443.592	79.88
443.813	84.88
444.034	80.88
444.255	83.88
444.476	71.88
444.698	75.88
444.919	83.88
445.14	155.88
445.361	109.88
445.582	88.88
445.803	78.88
446.024	70.88
446.245	86.88
446.466	84.88
446.687	70.88
446.908	92.88
447.129	88.88
447.35	79.88
447.571	83.88
447.792	70.88
448.013	61.88
448.234	74.88
448.455	78.88
448.675	67.88
448.896	79.88
449.117	85.88
449.338	87.88
449.559	67.88
449.779	70.88
450	78.88
450.221	70.88
450.442	76.88
450.662	79.88
450.883	74.88
451.104	74.88
451.324	93.88
451.545	82.88
451.766	83.88
451.986	88.88
452.207	73.88
452.428	86.88
452.648	82.88
452.869	74.88
453.089	70.88
453.31	73.88
453.53	86.88
453.751	77.88
453.971	67.88
454.192	84.88
454.412	77.88
454.633	74.88
454.853	80.88
455.073	87.88
455.294	85.88
455.514	79.88
455.734	83.88
455.955	78.88
456.175	64.88
456.395	71.88
456.616	79.88
456.836	77.88
457.056	70.88
457.276	82.88
457.497	82.88
457.717	78.88
457.937	86.88
458.157	76.88
458.377	65.88
458.598	75.88
458.818	82.88
459.038	70.88
459.258	75.88
459.478	73.88
459.698	74.88
459.918	89.88
460.138	85.88
460.358	80.88
460.578	69.88
460.798	64.88
461.018	72.88
461.238	76.88
461.458	78.88
461.678	80.88
461.898	76.88
462.118	84.88
462.338	73.88
462.558	86.88
462.777	82.88
462.997	76.88
463.217	88.88
463.437	95.88
463.657	85.88
463.876	87.88
464.096	77.88
464.316	62.88
464.536	66.88
464.755	62.88
464.975	79.88
465.195	69.88
465.414	74.88
465.634	71.88
465.854	72.88
466.073	98.88
466.293	80.88
466.512	70.88
466.732	75.88
466.951	78.88
467.171	91.88
467.391	90.88
467.61	70.88
467.829	85.88
468.049	76.88
468.268	90.88
468.488	82.88
468.707	91.88
468.927	73.88
469.146	88.88
469.365	78.88
469.585	70.88
469.804	77.88
470.023	82.88
470.243	75.88
470.462	81.88
470.681	78.88
470.901	75.88
471.12	73.88
471.339	76.88
471.558	88.88
471.777	77.88
471.997	96.88
472.216	76.88
472.435	65.88
472.654	70.88
472.873	79.88
473.092	75.88
473.311	98.88
473.53	86.88
473.749	84.88
473.968	82.88
474.187	69.88
474.406	74.88
474.625	80.88
474.844	82.88
475.063	80.88
475.282	74.88
475.501	79.88
475.72	86.88
475.939	76.88
476.158	82.88
476.377	104.88
476.596	85.88
476.814	81.88
477.033	78.88
477.252	78.88
477.471	81.88
477.69	74.88
477.908	75.88
478.127	85.88
478.346	92.88
478.564	70.88
478.783	83.88
479.002	94.88
479.22	82.88
479.439	92.88
479.658	67.88
479.876	68.88
480.095	83.88
480.313	85.88
480.532	75.88
480.751	72.88
480.969	72.88
481.188	84.88
481.406	72.88
481.624	78.88
481.843	75.88
482.061	83.88
482.28	76.88
482.498	88.88
482.717	103.88
482.935	78.88
483.153	72.88
483.372	70.88
483.59	77.88
483.808	70.88
484.027	76.88
484.245	76.88
484.463	81.88
484.681	94.88
484.9	88.88
485.118	69.88
485.336	76.88
485.554	70.88
485.772	91.88
485.99	76.88
486.209	86.88
486.427	94.88
486.645	91.88
486.863	88.88
487.081	98.88
487.299	72.88
487.517	87.88
487.735	86.88
487.953	87.88
488.171	87.88
488.389	92.88
488.607	83.88
488.825	73.88
489.043	77.88
489.261	64.88
489.479	71.88
489.696	74.88
489.914	70.88
490.132	70.88
490.35	85.88
490.568	86.88
490.786	77.88
491.003	82.88
491.221	88.88
491.439	85.88
491.657	86.88
491.874	85.88
492.092	84.88
492.31	86.88
492.527	86.88
492.745	78.88
492.963	80.88
493.18	102.88
493.398	70.88
493.615	83.88
493.833	77.88
494.05	69.88
494.268	75.88
494.485	94.88
494.703	77.88
494.92	87.88
495.138	80.88
495.355	84.88
495.573	85.88
495.79	78.88
496.008	82.88
496.225	78.88
496.442	80.88
496.66	89.88
496.877	85.88
497.094	78.88
497.312	72.88
497.529	88.88
497.746	82.88
497.963	69.88
498.181	87.88
498.398	80.88
498.615	85.88
498.832	63.88
499.049	66.88
499.267	73.88
499.484	74.88
499.701	65.88
499.918	87.88
500.135	88.88
500.352	91.88
500.569	78.88
500.786	82.88
501.003	70.88
501.22	79.88
501.437	73.88
501.654	79.88
501.871	87.88
502.088	84.88
502.305	84.88
502.522	86.88
502.739	77.88
502.956	89.88
503.172	78.88
503.389	73.88
503.606	80.88
503.823	96.88
504.04	76.88
504.256	84.88
504.473	90.88
504.69	81.88
504.907	85.88
505.123	85.88
505.34	69.88
505.557	82.88
505.773	92.88
505.99	74.88
506.207	78.88
506.423	78.88
506.64	88.88
506.856	88.88
507.073	82.88
507.289	77.88
507.506	87.88
507.722	86.88
507.939	68.88
508.155	85.88
508.372	74.88
508.588	68.88
508.805	75.88
509.021	73.88
509.238	62.88
509.454	73.88
509.67	82.88
509.887	70.88
510.103	68.88
510.319	70.88
510.536	67.88
510.752	93.88
510.968	80.88
511.184	64.88
511.401	73.88
511.617	84.88
511.833	78.88
512.049	69.88
512.265	88.88
512.481	75.88
512.698	82.88
512.914	72.88
513.13	67.88
513.346	84.88
513.562	74.88
513.778	71.88
513.994	95.88
514.21	96.88
514.426	81.88
514.642	72.88
514.858	67.88
515.074	76.88
515.29	83.88
515.506	81.88
515.721	64.88
515.937	79.88
516.153	76.88
516.369	68.88
516.585	75.88
516.801	86.88
517.016	78.88
517.232	80.88
517.448	83.88
517.664	74.88
517.879	80.88
518.095	70.88
518.311	84.88
518.527	90.88
518.742	53.88
518.958	74.88
519.173	86.88
519.389	70.88
519.605	66.88
519.82	84.88
520.036	95.88
520.251	92.88
