Data from StdD_HRD10591_080.txt Node
Date: Fri May 16 15:32:01 EDT 2025
User: Yrep
Spectrometer: HR+D1059
Trigger mode: 1
Integration Time (sec): 1.000000E-1
Scans to average: 1
Electric dark correction enabled: true
Nonlinearity correction enabled: false
Boxcar width: 0
XAxis mode: Wavelengths
Number of Pixels in Spectrum: 2048
>>>>>Begin Spectral Data<<<<<
223.165	-21.69
223.4	-21.69
223.635	-21.69
223.869	-16.69
224.104	-15.69
224.338	-6.69
224.573	-16.69
224.808	6.31
225.042	-16.69
225.277	-12.69
225.511	3.31
225.746	3.31
225.98	6.31
226.215	15.31
226.449	10.31
226.683	19.31
226.918	25.31
227.152	17.31
227.387	36.31
227.621	47.31
227.856	45.31
228.09	51.31
228.324	58.31
228.559	55.31
228.793	57.31
229.027	66.31
229.262	64.31
229.496	60.31
229.73	49.31
229.964	71.31
230.199	58.31
230.433	69.31
230.667	87.31
230.901	82.31
231.136	83.31
231.37	81.31
231.604	79.31
231.838	76.31
232.072	71.31
232.306	81.31
232.541	94.31
232.775	73.31
233.009	75.31
233.243	84.31
233.477	87.31
233.711	82.31
233.945	82.31
234.179	90.31
234.413	95.31
234.647	68.31
234.881	87.31
235.115	82.31
235.349	72.31
235.583	76.31
235.817	77.31
236.051	82.31
236.285	66.31
236.519	88.31
236.753	97.31
236.987	81.31
237.221	72.31
237.455	70.31
237.689	79.31
237.922	80.31
238.156	77.31
238.39	75.31
238.624	87.31
238.858	86.31
239.091	69.31
239.325	72.31
239.559	78.31
239.793	71.31
240.027	75.31
240.26	92.31
240.494	74.31
240.728	84.31
240.961	87.31
241.195	79.31
241.429	77.31
241.662	90.31
241.896	85.31
242.13	66.31
242.363	73.31
242.597	71.31
242.83	97.31
243.064	66.31
243.298	91.31
243.531	63.31
243.765	78.31
243.998	82.31
244.232	86.31
244.465	87.31
244.699	72.31
244.932	78.31
245.166	90.31
245.399	71.31
245.633	75.31
245.866	64.31
246.099	73.31
246.333	79.31
246.566	81.31
246.8	84.31
247.033	75.31
247.266	86.31
247.5	59.31
247.733	74.31
247.966	88.31
248.2	80.31
248.433	88.31
248.666	92.31
248.899	89.31
249.133	73.31
249.366	92.31
249.599	72.31
249.832	63.31
250.066	74.31
250.299	84.31
250.532	84.31
250.765	59.31
250.998	79.31
251.231	78.31
251.465	80.31
251.698	79.31
251.931	83.31
252.164	82.31
252.397	81.31
252.63	77.31
252.863	86.31
253.096	77.31
253.329	80.31
253.562	80.31
253.795	72.31
254.028	66.31
254.261	75.31
254.494	81.31
254.727	81.31
254.96	75.31
255.193	94.31
255.426	88.31
255.659	85.31
255.892	80.31
256.124	81.31
256.357	83.31
256.59	86.31
256.823	80.31
257.056	77.31
257.289	87.31
257.521	94.31
257.754	76.31
257.987	86.31
258.22	70.31
258.452	67.31
258.685	77.31
258.918	75.31
259.151	92.31
259.383	100.31
259.616	73.31
259.849	81.31
260.081	88.31
260.314	71.31
260.547	94.31
260.779	69.31
261.012	87.31
261.244	86.31
261.477	82.31
261.71	81.31
261.942	87.31
262.175	88.31
262.407	91.31
262.64	93.31
262.872	81.31
263.105	84.31
263.337	90.31
263.57	83.31
263.802	82.31
264.035	79.31
264.267	87.31
264.499	62.31
264.732	89.31
264.964	89.31
265.197	67.31
265.429	79.31
265.661	98.31
265.894	85.31
266.126	90.31
266.358	83.31
266.591	75.31
266.823	68.31
267.055	80.31
267.287	86.31
267.52	85.31
267.752	66.31
267.984	77.31
268.216	83.31
268.448	80.31
268.681	86.31
268.913	81.31
269.145	87.31
269.377	77.31
269.609	75.31
269.841	96.31
270.073	80.31
270.306	90.31
270.538	85.31
270.77	69.31
271.002	76.31
271.234	80.31
271.466	68.31
271.698	79.31
271.93	89.31
272.162	71.31
272.394	76.31
272.626	79.31
272.858	88.31
273.09	90.31
273.322	86.31
273.553	83.31
273.785	74.31
274.017	75.31
274.249	71.31
274.481	89.31
274.713	78.31
274.945	94.31
275.176	83.31
275.408	78.31
275.64	82.31
275.872	94.31
276.104	88.31
276.335	82.31
276.567	59.31
276.799	86.31
277.031	81.31
277.262	67.31
277.494	84.31
277.726	83.31
277.957	71.31
278.189	79.31
278.421	79.31
278.652	85.31
278.884	73.31
279.115	81.31
279.347	85.31
279.579	81.31
279.81	73.31
280.042	87.31
280.273	79.31
280.505	87.31
280.736	85.31
280.968	78.31
281.199	96.31
281.431	68.31
281.662	85.31
281.894	97.31
282.125	78.31
282.356	87.31
282.588	89.31
282.819	78.31
283.051	76.31
283.282	80.31
283.513	79.31
283.745	76.31
283.976	81.31
284.207	85.31
284.439	97.31
284.67	74.31
284.901	77.31
285.132	101.31
285.364	79.31
285.595	83.31
285.826	92.31
286.057	88.31
286.288	81.31
286.52	64.31
286.751	77.31
286.982	71.31
287.213	81.31
287.444	69.31
287.675	82.31
287.906	80.31
288.138	87.31
288.369	89.31
288.6	87.31
288.831	73.31
289.062	83.31
289.293	99.31
289.524	80.31
289.755	74.31
289.986	77.31
290.217	86.31
290.448	75.31
290.679	98.31
290.91	88.31
291.141	85.31
291.371	86.31
291.602	83.31
291.833	78.31
292.064	84.31
292.295	89.31
292.526	103.31
292.757	102.31
292.987	84.31
293.218	73.31
293.449	70.31
293.68	86.31
293.91	100.31
294.141	82.31
294.372	84.31
294.603	71.31
294.833	73.31
295.064	80.31
295.295	84.31
295.525	93.31
295.756	90.31
295.987	85.31
296.217	87.31
296.448	82.31
296.679	75.31
296.909	82.31
297.14	103.31
297.37	66.31
297.601	85.31
297.831	87.31
298.062	84.31
298.292	73.31
298.523	94.31
298.753	85.31
298.984	89.31
299.214	92.31
299.445	83.31
299.675	76.31
299.905	78.31
300.136	77.31
300.366	92.31
300.597	83.31
300.827	81.31
301.057	82.31
301.288	82.31
301.518	85.31
301.748	90.31
301.979	94.31
302.209	93.31
302.439	79.31
302.669	78.31
302.9	67.31
303.13	83.31
303.36	80.31
303.59	83.31
303.82	92.31
304.051	81.31
304.281	88.31
304.511	102.31
304.741	83.31
304.971	93.31
305.201	93.31
305.431	76.31
305.661	81.31
305.891	83.31
306.121	67.31
306.352	85.31
306.582	81.31
306.812	90.31
307.042	76.31
307.272	98.31
307.502	79.31
307.731	86.31
307.961	84.31
308.191	87.31
308.421	89.31
308.651	79.31
308.881	88.31
309.111	96.31
309.341	81.31
309.571	89.31
309.8	73.31
310.03	71.31
310.26	77.31
310.49	83.31
310.72	98.31
310.949	96.31
311.179	89.31
311.409	94.31
311.639	78.31
311.868	83.31
312.098	83.31
312.328	80.31
312.557	84.31
312.787	80.31
313.017	79.31
313.246	83.31
313.476	87.31
313.706	81.31
313.935	73.31
314.165	80.31
314.394	92.31
314.624	91.31
314.853	89.31
315.083	96.31
315.312	80.31
315.542	88.31
315.771	79.31
316.001	90.31
316.23	80.31
316.46	95.31
316.689	92.31
316.919	88.31
317.148	88.31
317.377	94.31
317.607	83.31
317.836	90.31
318.065	72.31
318.295	79.31
318.524	90.31
318.753	82.31
318.983	85.31
319.212	88.31
319.441	83.31
319.67	95.31
319.9	91.31
320.129	85.31
320.358	99.31
320.587	96.31
320.816	85.31
321.046	86.31
321.275	88.31
321.504	93.31
321.733	94.31
321.962	82.31
322.191	74.31
322.42	99.31
322.649	81.31
322.878	85.31
323.108	95.31
323.337	87.31
323.566	85.31
323.795	73.31
324.024	77.31
324.253	64.31
324.482	81.31
324.71	91.31
324.939	78.31
325.168	95.31
325.397	87.31
325.626	78.31
325.855	82.31
326.084	88.31
326.313	93.31
326.542	74.31
326.77	103.31
326.999	83.31
327.228	76.31
327.457	89.31
327.686	92.31
327.914	88.31
328.143	96.31
328.372	74.31
328.6	85.31
328.829	85.31
329.058	82.31
329.287	93.31
329.515	89.31
329.744	79.31
329.972	97.31
330.201	73.31
330.43	81.31
330.658	82.31
330.887	101.31
331.115	85.31
331.344	78.31
331.572	89.31
331.801	84.31
332.03	85.31
332.258	107.31
332.486	90.31
332.715	94.31
332.943	71.31
333.172	93.31
333.4	88.31
333.629	99.31
333.857	92.31
334.085	83.31
334.314	81.31
334.542	82.31
334.771	72.31
334.999	66.31
335.227	80.31
335.455	85.31
335.684	87.31
335.912	76.31
336.14	68.31
336.369	83.31
336.597	97.31
336.825	85.31
337.053	93.31
337.281	75.31
337.51	82.31
337.738	93.31
337.966	82.31
338.194	68.31
338.422	93.31
338.65	93.31
338.878	78.31
339.106	85.31
339.334	83.31
339.562	86.31
339.79	95.31
340.018	77.31
340.246	85.31
340.474	88.31
340.702	75.31
340.93	82.31
341.158	84.31
341.386	94.31
341.614	89.31
341.842	89.31
342.07	96.31
342.298	88.31
342.526	81.31
342.754	91.31
342.981	95.31
343.209	93.31
343.437	91.31
343.665	90.31
343.893	78.31
344.12	92.31
344.348	78.31
344.576	79.31
344.804	76.31
345.031	74.31
345.259	75.31
345.487	75.31
345.714	92.31
345.942	91.31
346.17	80.31
346.397	67.31
346.625	89.31
346.853	95.31
347.08	92.31
347.308	85.31
347.535	96.31
347.763	93.31
347.99	93.31
348.218	91.31
348.445	81.31
348.673	75.31
348.9	87.31
349.128	79.31
349.355	79.31
349.583	86.31
349.81	84.31
350.037	93.31
350.265	83.31
350.492	91.31
350.72	98.31
350.947	84.31
351.174	76.31
351.402	84.31
351.629	83.31
351.856	84.31
352.083	90.31
352.311	89.31
352.538	83.31
352.765	75.31
352.992	94.31
353.22	93.31
353.447	82.31
353.674	74.31
353.901	71.31
354.128	97.31
354.355	90.31
354.583	85.31
354.81	84.31
355.037	76.31
355.264	92.31
355.491	74.31
355.718	76.31
355.945	86.31
356.172	83.31
356.399	74.31
356.626	77.31
356.853	89.31
357.08	77.31
357.307	85.31
357.534	81.31
357.761	85.31
357.988	76.31
358.215	74.31
358.441	85.31
358.668	79.31
358.895	68.31
359.122	75.31
359.349	73.31
359.576	84.31
359.802	77.31
360.029	73.31
360.256	90.31
360.483	82.31
360.709	77.31
360.936	91.31
361.163	85.31
361.39	99.31
361.616	85.31
361.843	83.31
362.07	89.31
362.296	94.31
362.523	95.31
362.749	97.31
362.976	87.31
363.203	98.31
363.429	88.31
363.656	82.31
363.882	91.31
364.109	85.31
364.335	95.31
364.562	68.31
364.788	71.31
365.015	85.31
365.241	80.31
365.468	83.31
365.694	95.31
365.92	87.31
366.147	78.31
366.373	83.31
366.599	83.31
366.826	78.31
367.052	62.31
367.278	80.31
367.505	78.31
367.731	93.31
367.957	69.31
368.184	82.31
368.41	79.31
368.636	85.31
368.862	79.31
369.089	77.31
369.315	78.31
369.541	87.31
369.767	79.31
369.993	83.31
370.219	77.31
370.445	88.31
370.672	75.31
370.898	86.31
371.124	80.31
371.35	89.31
371.576	85.31
371.802	80.31
372.028	99.31
372.254	94.31
372.48	96.31
372.706	84.31
372.932	77.31
373.158	82.31
373.384	101.31
373.61	90.31
373.835	86.31
374.061	88.31
374.287	80.31
374.513	78.31
374.739	85.31
374.965	99.31
375.191	82.31
375.416	76.31
375.642	87.31
375.868	92.31
376.094	95.31
376.319	79.31
376.545	86.31
376.771	87.31
376.997	58.31
377.222	83.31
377.448	77.31
377.674	92.31
377.899	96.31
378.125	73.31
378.35	77.31
378.576	77.31
378.802	86.31
379.027	75.31
379.253	91.31
379.478	71.31
379.704	93.31
379.929	85.31
380.155	96.31
380.38	66.31
380.606	76.31
380.831	82.31
381.057	86.31
381.282	74.31
381.507	89.31
381.733	89.31
381.958	86.31
382.184	78.31
382.409	88.31
382.634	82.31
382.86	80.31
383.085	85.31
383.31	83.31
383.535	80.31
383.761	75.31
383.986	78.31
384.211	98.31
384.436	80.31
384.662	77.31
384.887	85.31
385.112	77.31
385.337	79.31
385.562	82.31
385.787	71.31
386.013	89.31
386.238	89.31
386.463	89.31
386.688	82.31
386.913	77.31
387.138	81.31
387.363	81.31
387.588	86.31
387.813	90.31
388.038	89.31
388.263	97.31
388.488	65.31
388.713	69.31
388.938	74.31
389.163	80.31
389.387	88.31
389.612	81.31
389.837	83.31
390.062	77.31
390.287	90.31
390.512	75.31
390.736	89.31
390.961	83.31
391.186	93.31
391.411	80.31
391.636	76.31
391.86	92.31
392.085	81.31
392.31	93.31
392.534	85.31
392.759	86.31
392.984	80.31
393.208	101.31
393.433	92.31
393.658	87.31
393.882	88.31
394.107	77.31
394.331	65.31
394.556	75.31
394.78	71.31
395.005	69.31
395.229	79.31
395.454	80.31
395.678	97.31
395.903	85.31
396.127	82.31
396.352	79.31
396.576	78.31
396.801	84.31
397.025	75.31
397.249	71.31
397.474	93.31
397.698	76.31
397.922	81.31
398.147	79.31
398.371	79.31
398.595	82.31
398.82	84.31
399.044	83.31
399.268	72.31
399.492	84.31
399.717	83.31
399.941	76.31
400.165	79.31
400.389	91.31
400.613	81.31
400.837	87.31
401.062	83.31
401.286	81.31
401.51	68.31
401.734	82.31
401.958	81.31
402.182	81.31
402.406	77.31
402.63	77.31
402.854	76.31
403.078	79.31
403.302	91.31
403.526	88.31
403.75	102.31
403.974	74.31
404.198	77.31
404.422	93.31
404.645	94.31
404.869	77.31
405.093	94.31
405.317	79.31
405.541	80.31
405.765	80.31
405.988	78.31
406.212	87.31
406.436	88.31
406.66	86.31
406.883	75.31
407.107	78.31
407.331	93.31
407.555	72.31
407.778	93.31
408.002	79.31
408.226	73.31
408.449	90.31
408.673	95.31
408.896	78.31
409.12	103.31
409.344	88.31
409.567	80.31
409.791	73.31
410.014	84.31
410.238	78.31
410.461	81.31
410.685	83.31
410.908	85.31
411.132	77.31
411.355	74.31
411.578	83.31
411.802	71.31
412.025	83.31
412.249	90.31
412.472	86.31
412.695	83.31
412.919	84.31
413.142	75.31
413.365	99.31
413.589	80.31
413.812	86.31
414.035	83.31
414.258	98.31
414.482	83.31
414.705	85.31
414.928	75.31
415.151	85.31
415.374	74.31
415.597	66.31
415.821	77.31
416.044	75.31
416.267	74.31
416.49	79.31
416.713	77.31
416.936	73.31
417.159	91.31
417.382	77.31
417.605	85.31
417.828	82.31
418.051	85.31
418.274	79.31
418.497	82.31
418.72	97.31
418.943	81.31
419.166	87.31
419.389	92.31
419.611	69.31
419.834	74.31
420.057	64.31
420.28	78.31
420.503	79.31
420.726	88.31
420.948	72.31
421.171	81.31
421.394	88.31
421.617	85.31
421.839	81.31
422.062	69.31
422.285	86.31
422.507	78.31
422.73	74.31
422.953	62.31
423.175	86.31
423.398	82.31
423.621	71.31
423.843	74.31
424.066	79.31
424.288	95.31
424.511	74.31
424.733	91.31
424.956	83.31
425.178	78.31
425.401	77.31
425.623	70.31
425.846	76.31
426.068	70.31
426.291	76.31
426.513	88.31
426.735	82.31
426.958	90.31
427.18	78.31
427.402	85.31
427.625	85.31
427.847	81.31
428.069	93.31
428.292	73.31
428.514	87.31
428.736	80.31
428.958	87.31
429.181	89.31
429.403	86.31
429.625	90.31
429.847	88.31
430.069	90.31
430.292	82.31
430.514	74.31
430.736	90.31
430.958	86.31
431.18	72.31
431.402	94.31
431.624	79.31
431.846	81.31
432.068	89.31
432.29	73.31
432.512	85.31
432.734	79.31
432.956	67.31
433.178	94.31
433.4	88.31
433.622	79.31
433.844	85.31
434.066	69.31
434.287	75.31
434.509	81.31
434.731	87.31
434.953	63.31
435.175	89.31
435.397	84.31
435.618	65.31
435.84	84.31
436.062	92.31
436.284	77.31
436.505	76.31
436.727	80.31
436.949	90.31
437.17	79.31
437.392	85.31
437.614	91.31
437.835	80.31
438.057	77.31
438.278	83.31
438.5	81.31
438.721	80.31
438.943	90.31
439.165	74.31
439.386	74.31
439.608	77.31
439.829	85.31
440.05	94.31
440.272	79.31
440.493	67.31
440.715	77.31
440.936	73.31
441.158	83.31
441.379	79.31
441.6	72.31
441.822	81.31
442.043	93.31
442.264	77.31
442.486	93.31
442.707	77.31
442.928	84.31
443.149	77.31
443.371	84.31
443.592	66.31
443.813	88.31
444.034	86.31
444.255	92.31
444.476	79.31
444.698	87.31
444.919	77.31
445.14	167.31
445.361	117.31
445.582	85.31
445.803	74.31
446.024	92.31
446.245	81.31
446.466	75.31
446.687	87.31
446.908	78.31
447.129	88.31
447.35	71.31
447.571	85.31
447.792	81.31
448.013	97.31
448.234	85.31
448.455	97.31
448.675	87.31
448.896	88.31
449.117	73.31
449.338	84.31
449.559	90.31
449.779	73.31
450	82.31
450.221	81.31
450.442	87.31
450.662	86.31
450.883	76.31
451.104	81.31
451.324	78.31
451.545	75.31
451.766	91.31
451.986	83.31
452.207	91.31
452.428	67.31
452.648	95.31
452.869	71.31
453.089	83.31
453.31	78.31
453.53	88.31
453.751	82.31
453.971	74.31
454.192	57.31
454.412	74.31
454.633	91.31
454.853	75.31
455.073	78.31
455.294	77.31
455.514	89.31
455.734	81.31
455.955	92.31
456.175	79.31
456.395	82.31
456.616	105.31
456.836	77.31
457.056	94.31
457.276	95.31
457.497	85.31
457.717	87.31
457.937	95.31
458.157	69.31
458.377	79.31
458.598	76.31
458.818	93.31
459.038	83.31
459.258	73.31
459.478	81.31
459.698	82.31
459.918	71.31
460.138	87.31
460.358	69.31
460.578	79.31
460.798	82.31
461.018	81.31
461.238	87.31
461.458	83.31
461.678	82.31
461.898	78.31
462.118	79.31
462.338	94.31
462.558	95.31
462.777	80.31
462.997	87.31
463.217	86.31
463.437	74.31
463.657	90.31
463.876	81.31
464.096	87.31
464.316	75.31
464.536	97.31
464.755	94.31
464.975	77.31
465.195	77.31
465.414	78.31
465.634	83.31
465.854	88.31
466.073	86.31
466.293	83.31
466.512	88.31
466.732	77.31
466.951	82.31
467.171	101.31
467.391	81.31
467.61	72.31
467.829	87.31
468.049	80.31
468.268	73.31
468.488	66.31
468.707	65.31
468.927	76.31
469.146	92.31
469.365	74.31
469.585	82.31
469.804	83.31
470.023	85.31
470.243	91.31
470.462	75.31
470.681	97.31
470.901	89.31
471.12	81.31
471.339	88.31
471.558	63.31
471.777	91.31
471.997	96.31
472.216	74.31
472.435	84.31
472.654	83.31
472.873	70.31
473.092	91.31
473.311	91.31
473.53	80.31
473.749	85.31
473.968	85.31
474.187	70.31
474.406	84.31
474.625	92.31
474.844	92.31
475.063	87.31
475.282	97.31
475.501	80.31
475.72	88.31
475.939	71.31
476.158	75.31
476.377	81.31
476.596	95.31
476.814	81.31
477.033	93.31
477.252	88.31
477.471	78.31
477.69	84.31
477.908	101.31
478.127	73.31
478.346	78.31
478.564	94.31
478.783	76.31
479.002	80.31
479.22	80.31
479.439	79.31
479.658	88.31
479.876	76.31
480.095	68.31
480.313	93.31
480.532	83.31
480.751	71.31
480.969	78.31
481.188	74.31
481.406	75.31
481.624	82.31
481.843	62.31
482.061	91.31
482.28	83.31
482.498	83.31
482.717	83.31
482.935	77.31
483.153	66.31
483.372	75.31
483.59	72.31
483.808	82.31
484.027	78.31
484.245	91.31
484.463	83.31
484.681	85.31
484.9	90.31
485.118	85.31
485.336	86.31
485.554	87.31
485.772	81.31
485.99	75.31
486.209	82.31
486.427	73.31
486.645	90.31
486.863	87.31
487.081	83.31
487.299	82.31
487.517	91.31
487.735	80.31
487.953	85.31
488.171	89.31
488.389	77.31
488.607	85.31
488.825	91.31
489.043	90.31
489.261	72.31
489.479	92.31
489.696	93.31
489.914	86.31
490.132	82.31
490.35	89.31
490.568	66.31
490.786	85.31
491.003	79.31
491.221	84.31
491.439	91.31
491.657	91.31
491.874	76.31
492.092	101.31
492.31	89.31
492.527	81.31
492.745	81.31
492.963	83.31
493.18	70.31
493.398	82.31
493.615	75.31
493.833	91.31
494.05	77.31
494.268	86.31
494.485	81.31
494.703	94.31
494.92	79.31
495.138	85.31
495.355	77.31
495.573	80.31
495.79	92.31
496.008	85.31
496.225	90.31
496.442	82.31
496.66	91.31
496.877	79.31
497.094	82.31
497.312	85.31
497.529	67.31
497.746	80.31
497.963	87.31
498.181	73.31
498.398	82.31
498.615	78.31
498.832	81.31
499.049	82.31
499.267	95.31
499.484	86.31
499.701	82.31
499.918	94.31
500.135	72.31
500.352	87.31
500.569	85.31
500.786	103.31
501.003	77.31
501.22	71.31
501.437	85.31
501.654	69.31
501.871	90.31
502.088	75.31
502.305	82.31
502.522	87.31
502.739	79.31
502.956	81.31
503.172	88.31
503.389	90.31
503.606	84.31
503.823	81.31
504.04	90.31
504.256	79.31
504.473	73.31
504.69	80.31
504.907	90.31
505.123	69.31
505.34	74.31
505.557	79.31
505.773	74.31
505.99	90.31
506.207	84.31
506.423	98.31
506.64	91.31
506.856	83.31
507.073	79.31
507.289	86.31
507.506	83.31
507.722	87.31
507.939	86.31
508.155	90.31
508.372	94.31
508.588	88.31
508.805	83.31
509.021	83.31
509.238	82.31
509.454	81.31
509.67	81.31
509.887	85.31
510.103	80.31
510.319	92.31
510.536	90.31
510.752	77.31
510.968	81.31
511.184	90.31
511.401	93.31
511.617	73.31
511.833	89.31
512.049	95.31
512.265	81.31
512.481	79.31
512.698	75.31
512.914	75.31
513.13	89.31
513.346	75.31
513.562	69.31
513.778	87.31
513.994	87.31
514.21	74.31
514.426	87.31
514.642	80.31
514.858	91.31
515.074	93.31
515.29	83.31
515.506	92.31
515.721	77.31
515.937	81.31
516.153	80.31
516.369	76.31
516.585	93.31
516.801	83.31
517.016	90.31
517.232	86.31
517.448	87.31
517.664	77.31
517.879	81.31
518.095	79.31
518.311	77.31
518.527	80.31
518.742	75.31
518.958	88.31
519.173	88.31
519.389	84.31
519.605	78.31
519.82	92.31
520.036	89.31
