Data from StdD_HRD10591_089.txt Node
Date: Fri May 16 15:32:05 EDT 2025
User: Yrep
Spectrometer: HR+D1059
Trigger mode: 1
Integration Time (sec): 1.000000E-1
Scans to average: 1
Electric dark correction enabled: true
Nonlinearity correction enabled: false
Boxcar width: 0
XAxis mode: Wavelengths
Number of Pixels in Spectrum: 2048
>>>>>Begin Spectral Data<<<<<
223.165	-26.75
223.4	-26.75
223.635	-26.75
223.869	-18.75
224.104	-19.75
224.338	-15.75
224.573	-17.75
224.808	-7.75
225.042	-7.75
225.277	9.25
225.511	2.25
225.746	-10.75
225.98	-10.75
226.215	15.25
226.449	23.25
226.683	25.25
226.918	30.25
227.152	30.25
227.387	44.25
227.621	46.25
227.856	47.25
228.09	54.25
228.324	47.25
228.559	53.25
228.793	60.25
229.027	56.25
229.262	60.25
229.496	60.25
229.73	78.25
229.964	67.25
230.199	69.25
230.433	73.25
230.667	72.25
230.901	74.25
231.136	70.25
231.37	84.25
231.604	88.25
231.838	83.25
232.072	92.25
232.306	97.25
232.541	90.25
232.775	90.25
233.009	80.25
233.243	77.25
233.477	77.25
233.711	89.25
233.945	70.25
234.179	72.25
234.413	88.25
234.647	77.25
234.881	85.25
235.115	65.25
235.349	71.25
235.583	87.25
235.817	92.25
236.051	71.25
236.285	70.25
236.519	78.25
236.753	74.25
236.987	83.25
237.221	79.25
237.455	80.25
237.689	79.25
237.922	92.25
238.156	94.25
238.39	76.25
238.624	78.25
238.858	82.25
239.091	84.25
239.325	79.25
239.559	72.25
239.793	79.25
240.027	82.25
240.26	77.25
240.494	78.25
240.728	83.25
240.961	66.25
241.195	70.25
241.429	68.25
241.662	70.25
241.896	83.25
242.13	68.25
242.363	72.25
242.597	69.25
242.83	91.25
243.064	80.25
243.298	92.25
243.531	70.25
243.765	83.25
243.998	64.25
244.232	78.25
244.465	72.25
244.699	75.25
244.932	79.25
245.166	74.25
245.399	99.25
245.633	75.25
245.866	83.25
246.099	84.25
246.333	88.25
246.566	84.25
246.8	87.25
247.033	88.25
247.266	80.25
247.5	82.25
247.733	80.25
247.966	85.25
248.2	74.25
248.433	61.25
248.666	89.25
248.899	65.25
249.133	89.25
249.366	71.25
249.599	80.25
249.832	68.25
250.066	90.25
250.299	73.25
250.532	78.25
250.765	66.25
250.998	76.25
251.231	102.25
251.465	76.25
251.698	75.25
251.931	77.25
252.164	83.25
252.397	88.25
252.63	86.25
252.863	83.25
253.096	71.25
253.329	85.25
253.562	77.25
253.795	93.25
254.028	72.25
254.261	89.25
254.494	77.25
254.727	85.25
254.96	76.25
255.193	81.25
255.426	87.25
255.659	80.25
255.892	78.25
256.124	80.25
256.357	93.25
256.59	80.25
256.823	76.25
257.056	77.25
257.289	85.25
257.521	79.25
257.754	78.25
257.987	66.25
258.22	71.25
258.452	76.25
258.685	76.25
258.918	84.25
259.151	81.25
259.383	88.25
259.616	84.25
259.849	78.25
260.081	86.25
260.314	88.25
260.547	75.25
260.779	89.25
261.012	79.25
261.244	74.25
261.477	99.25
261.71	80.25
261.942	83.25
262.175	70.25
262.407	78.25
262.64	76.25
262.872	79.25
263.105	80.25
263.337	81.25
263.57	89.25
263.802	82.25
264.035	87.25
264.267	80.25
264.499	88.25
264.732	81.25
264.964	78.25
265.197	84.25
265.429	81.25
265.661	75.25
265.894	83.25
266.126	77.25
266.358	70.25
266.591	79.25
266.823	70.25
267.055	83.25
267.287	91.25
267.52	81.25
267.752	88.25
267.984	84.25
268.216	83.25
268.448	90.25
268.681	75.25
268.913	87.25
269.145	84.25
269.377	82.25
269.609	88.25
269.841	81.25
270.073	82.25
270.306	77.25
270.538	80.25
270.77	86.25
271.002	84.25
271.234	89.25
271.466	83.25
271.698	82.25
271.93	78.25
272.162	86.25
272.394	84.25
272.626	98.25
272.858	79.25
273.09	78.25
273.322	84.25
273.553	81.25
273.785	85.25
274.017	78.25
274.249	93.25
274.481	78.25
274.713	78.25
274.945	98.25
275.176	77.25
275.408	66.25
275.64	77.25
275.872	88.25
276.104	96.25
276.335	105.25
276.567	90.25
276.799	89.25
277.031	81.25
277.262	76.25
277.494	86.25
277.726	77.25
277.957	78.25
278.189	101.25
278.421	89.25
278.652	94.25
278.884	84.25
279.115	89.25
279.347	88.25
279.579	75.25
279.81	90.25
280.042	84.25
280.273	94.25
280.505	94.25
280.736	89.25
280.968	77.25
281.199	75.25
281.431	76.25
281.662	77.25
281.894	76.25
282.125	88.25
282.356	96.25
282.588	69.25
282.819	84.25
283.051	91.25
283.282	81.25
283.513	93.25
283.745	76.25
283.976	86.25
284.207	77.25
284.439	90.25
284.67	85.25
284.901	88.25
285.132	82.25
285.364	70.25
285.595	90.25
285.826	98.25
286.057	88.25
286.288	84.25
286.52	73.25
286.751	88.25
286.982	92.25
287.213	109.25
287.444	80.25
287.675	88.25
287.906	93.25
288.138	83.25
288.369	84.25
288.6	85.25
288.831	87.25
289.062	84.25
289.293	81.25
289.524	93.25
289.755	94.25
289.986	102.25
290.217	88.25
290.448	87.25
290.679	78.25
290.91	93.25
291.141	86.25
291.371	88.25
291.602	75.25
291.833	84.25
292.064	87.25
292.295	84.25
292.526	85.25
292.757	98.25
292.987	93.25
293.218	72.25
293.449	91.25
293.68	92.25
293.91	98.25
294.141	93.25
294.372	75.25
294.603	69.25
294.833	82.25
295.064	71.25
295.295	76.25
295.525	86.25
295.756	92.25
295.987	92.25
296.217	82.25
296.448	92.25
296.679	82.25
296.909	104.25
297.14	84.25
297.37	91.25
297.601	77.25
297.831	100.25
298.062	93.25
298.292	86.25
298.523	93.25
298.753	94.25
298.984	76.25
299.214	98.25
299.445	75.25
299.675	92.25
299.905	93.25
300.136	71.25
300.366	81.25
300.597	84.25
300.827	84.25
301.057	76.25
301.288	87.25
301.518	85.25
301.748	83.25
301.979	82.25
302.209	96.25
302.439	75.25
302.669	95.25
302.9	74.25
303.13	98.25
303.36	83.25
303.59	88.25
303.82	82.25
304.051	98.25
304.281	84.25
304.511	88.25
304.741	84.25
304.971	97.25
305.201	83.25
305.431	80.25
305.661	75.25
305.891	86.25
306.121	91.25
306.352	78.25
306.582	90.25
306.812	84.25
307.042	96.25
307.272	89.25
307.502	91.25
307.731	80.25
307.961	86.25
308.191	97.25
308.421	88.25
308.651	87.25
308.881	68.25
309.111	81.25
309.341	69.25
309.571	86.25
309.8	77.25
310.03	80.25
310.26	76.25
310.49	91.25
310.72	74.25
310.949	81.25
311.179	89.25
311.409	88.25
311.639	96.25
311.868	95.25
312.098	85.25
312.328	93.25
312.557	84.25
312.787	84.25
313.017	95.25
313.246	97.25
313.476	93.25
313.706	78.25
313.935	86.25
314.165	79.25
314.394	96.25
314.624	86.25
314.853	97.25
315.083	92.25
315.312	70.25
315.542	83.25
315.771	87.25
316.001	77.25
316.23	84.25
316.46	83.25
316.689	87.25
316.919	89.25
317.148	91.25
317.377	97.25
317.607	94.25
317.836	81.25
318.065	75.25
318.295	90.25
318.524	83.25
318.753	84.25
318.983	98.25
319.212	74.25
319.441	91.25
319.67	86.25
319.9	82.25
320.129	82.25
320.358	60.25
320.587	92.25
320.816	79.25
321.046	74.25
321.275	96.25
321.504	87.25
321.733	96.25
321.962	87.25
322.191	92.25
322.42	82.25
322.649	100.25
322.878	96.25
323.108	83.25
323.337	92.25
323.566	82.25
323.795	83.25
324.024	90.25
324.253	83.25
324.482	72.25
324.71	96.25
324.939	94.25
325.168	78.25
325.397	88.25
325.626	93.25
325.855	91.25
326.084	93.25
326.313	96.25
326.542	91.25
326.77	89.25
326.999	82.25
327.228	107.25
327.457	90.25
327.686	104.25
327.914	80.25
328.143	80.25
328.372	92.25
328.6	83.25
328.829	102.25
329.058	98.25
329.287	83.25
329.515	94.25
329.744	81.25
329.972	79.25
330.201	77.25
330.43	81.25
330.658	100.25
330.887	86.25
331.115	98.25
331.344	92.25
331.572	104.25
331.801	78.25
332.03	88.25
332.258	90.25
332.486	84.25
332.715	68.25
332.943	78.25
333.172	82.25
333.4	81.25
333.629	88.25
333.857	90.25
334.085	82.25
334.314	101.25
334.542	78.25
334.771	88.25
334.999	92.25
335.227	91.25
335.455	72.25
335.684	100.25
335.912	75.25
336.14	85.25
336.369	88.25
336.597	93.25
336.825	99.25
337.053	82.25
337.281	88.25
337.51	84.25
337.738	86.25
337.966	98.25
338.194	94.25
338.422	87.25
338.65	86.25
338.878	87.25
339.106	84.25
339.334	106.25
339.562	84.25
339.79	83.25
340.018	85.25
340.246	91.25
340.474	88.25
340.702	94.25
340.93	80.25
341.158	96.25
341.386	83.25
341.614	67.25
341.842	83.25
342.07	95.25
342.298	83.25
342.526	90.25
342.754	96.25
342.981	81.25
343.209	91.25
343.437	98.25
343.665	76.25
343.893	88.25
344.12	93.25
344.348	76.25
344.576	90.25
344.804	64.25
345.031	85.25
345.259	70.25
345.487	70.25
345.714	84.25
345.942	86.25
346.17	89.25
346.397	84.25
346.625	81.25
346.853	80.25
347.08	76.25
347.308	94.25
347.535	96.25
347.763	95.25
347.99	86.25
348.218	95.25
348.445	87.25
348.673	89.25
348.9	88.25
349.128	94.25
349.355	88.25
349.583	78.25
349.81	80.25
350.037	78.25
350.265	73.25
350.492	94.25
350.72	83.25
350.947	97.25
351.174	85.25
351.402	98.25
351.629	95.25
351.856	91.25
352.083	78.25
352.311	81.25
352.538	67.25
352.765	82.25
352.992	83.25
353.22	82.25
353.447	91.25
353.674	76.25
353.901	81.25
354.128	95.25
354.355	92.25
354.583	87.25
354.81	84.25
355.037	76.25
355.264	71.25
355.491	102.25
355.718	92.25
355.945	88.25
356.172	81.25
356.399	82.25
356.626	81.25
356.853	85.25
357.08	89.25
357.307	91.25
357.534	88.25
357.761	83.25
357.988	88.25
358.215	84.25
358.441	78.25
358.668	80.25
358.895	80.25
359.122	73.25
359.349	68.25
359.576	90.25
359.802	80.25
360.029	80.25
360.256	91.25
360.483	85.25
360.709	75.25
360.936	82.25
361.163	93.25
361.39	86.25
361.616	86.25
361.843	83.25
362.07	83.25
362.296	84.25
362.523	93.25
362.749	98.25
362.976	89.25
363.203	87.25
363.429	81.25
363.656	90.25
363.882	90.25
364.109	89.25
364.335	81.25
364.562	74.25
364.788	57.25
365.015	92.25
365.241	76.25
365.468	74.25
365.694	84.25
365.92	88.25
366.147	77.25
366.373	69.25
366.599	88.25
366.826	86.25
367.052	79.25
367.278	86.25
367.505	78.25
367.731	80.25
367.957	78.25
368.184	76.25
368.41	73.25
368.636	89.25
368.862	88.25
369.089	88.25
369.315	80.25
369.541	92.25
369.767	90.25
369.993	85.25
370.219	79.25
370.445	88.25
370.672	64.25
370.898	72.25
371.124	78.25
371.35	88.25
371.576	80.25
371.802	80.25
372.028	89.25
372.254	84.25
372.48	92.25
372.706	88.25
372.932	80.25
373.158	80.25
373.384	78.25
373.61	76.25
373.835	89.25
374.061	87.25
374.287	89.25
374.513	80.25
374.739	96.25
374.965	92.25
375.191	81.25
375.416	100.25
375.642	83.25
375.868	81.25
376.094	85.25
376.319	76.25
376.545	92.25
376.771	86.25
376.997	84.25
377.222	84.25
377.448	88.25
377.674	77.25
377.899	89.25
378.125	85.25
378.35	82.25
378.576	77.25
378.802	83.25
379.027	75.25
379.253	77.25
379.478	97.25
379.704	77.25
379.929	76.25
380.155	73.25
380.38	75.25
380.606	70.25
380.831	82.25
381.057	95.25
381.282	80.25
381.507	75.25
381.733	88.25
381.958	89.25
382.184	86.25
382.409	76.25
382.634	93.25
382.86	79.25
383.085	84.25
383.31	81.25
383.535	97.25
383.761	93.25
383.986	86.25
384.211	79.25
384.436	75.25
384.662	81.25
384.887	71.25
385.112	81.25
385.337	96.25
385.562	82.25
385.787	66.25
386.013	83.25
386.238	90.25
386.463	83.25
386.688	92.25
386.913	70.25
387.138	70.25
387.363	74.25
387.588	87.25
387.813	84.25
388.038	82.25
388.263	89.25
388.488	82.25
388.713	85.25
388.938	85.25
389.163	74.25
389.387	85.25
389.612	109.25
389.837	87.25
390.062	70.25
390.287	89.25
390.512	89.25
390.736	85.25
390.961	103.25
391.186	78.25
391.411	84.25
391.636	78.25
391.86	76.25
392.085	89.25
392.31	76.25
392.534	94.25
392.759	96.25
392.984	84.25
393.208	91.25
393.433	78.25
393.658	79.25
393.882	91.25
394.107	89.25
394.331	80.25
394.556	90.25
394.78	98.25
395.005	83.25
395.229	98.25
395.454	80.25
395.678	87.25
395.903	98.25
396.127	98.25
396.352	93.25
396.576	84.25
396.801	74.25
397.025	85.25
397.249	96.25
397.474	92.25
397.698	93.25
397.922	81.25
398.147	83.25
398.371	86.25
398.595	89.25
398.82	84.25
399.044	97.25
399.268	76.25
399.492	87.25
399.717	92.25
399.941	83.25
400.165	85.25
400.389	71.25
400.613	88.25
400.837	84.25
401.062	80.25
401.286	80.25
401.51	71.25
401.734	70.25
401.958	82.25
402.182	71.25
402.406	88.25
402.63	84.25
402.854	72.25
403.078	77.25
403.302	89.25
403.526	91.25
403.75	89.25
403.974	80.25
404.198	100.25
404.422	82.25
404.645	84.25
404.869	80.25
405.093	83.25
405.317	94.25
405.541	78.25
405.765	84.25
405.988	88.25
406.212	85.25
406.436	85.25
406.66	94.25
406.883	85.25
407.107	75.25
407.331	86.25
407.555	89.25
407.778	85.25
408.002	90.25
408.226	79.25
408.449	70.25
408.673	83.25
408.896	75.25
409.12	81.25
409.344	82.25
409.567	74.25
409.791	84.25
410.014	67.25
410.238	86.25
410.461	84.25
410.685	80.25
410.908	65.25
411.132	85.25
411.355	83.25
411.578	84.25
411.802	84.25
412.025	93.25
412.249	86.25
412.472	93.25
412.695	88.25
412.919	76.25
413.142	74.25
413.365	78.25
413.589	88.25
413.812	69.25
414.035	91.25
414.258	85.25
414.482	78.25
414.705	79.25
414.928	86.25
415.151	93.25
415.374	81.25
415.597	94.25
415.821	88.25
416.044	97.25
416.267	88.25
416.49	91.25
416.713	85.25
416.936	88.25
417.159	76.25
417.382	93.25
417.605	82.25
417.828	79.25
418.051	86.25
418.274	80.25
418.497	76.25
418.72	77.25
418.943	81.25
419.166	83.25
419.389	81.25
419.611	76.25
419.834	90.25
420.057	92.25
420.28	95.25
420.503	79.25
420.726	80.25
420.948	73.25
421.171	78.25
421.394	79.25
421.617	78.25
421.839	80.25
422.062	89.25
422.285	88.25
422.507	70.25
422.73	96.25
422.953	84.25
423.175	76.25
423.398	83.25
423.621	89.25
423.843	90.25
424.066	77.25
424.288	96.25
424.511	92.25
424.733	82.25
424.956	95.25
425.178	83.25
425.401	78.25
425.623	87.25
425.846	78.25
426.068	83.25
426.291	80.25
426.513	74.25
426.735	87.25
426.958	85.25
427.18	81.25
427.402	89.25
427.625	81.25
427.847	79.25
428.069	102.25
428.292	77.25
428.514	84.25
428.736	74.25
428.958	84.25
429.181	85.25
429.403	77.25
429.625	76.25
429.847	92.25
430.069	86.25
430.292	85.25
430.514	80.25
430.736	91.25
430.958	88.25
431.18	88.25
431.402	79.25
431.624	76.25
431.846	81.25
432.068	90.25
432.29	82.25
432.512	87.25
432.734	92.25
432.956	86.25
433.178	78.25
433.4	85.25
433.622	93.25
433.844	81.25
434.066	84.25
434.287	82.25
434.509	75.25
434.731	84.25
434.953	85.25
435.175	96.25
435.397	84.25
435.618	79.25
435.84	86.25
436.062	82.25
436.284	83.25
436.505	84.25
436.727	86.25
436.949	86.25
437.17	73.25
437.392	74.25
437.614	96.25
437.835	95.25
438.057	88.25
438.278	81.25
438.5	66.25
438.721	83.25
438.943	93.25
439.165	78.25
439.386	84.25
439.608	84.25
439.829	76.25
440.05	85.25
440.272	85.25
440.493	67.25
440.715	81.25
440.936	73.25
441.158	96.25
441.379	84.25
441.6	85.25
441.822	59.25
442.043	85.25
442.264	89.25
442.486	83.25
442.707	87.25
442.928	86.25
443.149	82.25
443.371	91.25
443.592	80.25
443.813	82.25
444.034	67.25
444.255	86.25
444.476	66.25
444.698	82.25
444.919	89.25
445.14	164.25
445.361	116.25
445.582	78.25
445.803	72.25
446.024	82.25
446.245	80.25
446.466	69.25
446.687	84.25
446.908	82.25
447.129	68.25
447.35	78.25
447.571	87.25
447.792	95.25
448.013	92.25
448.234	95.25
448.455	75.25
448.675	75.25
448.896	87.25
449.117	96.25
449.338	84.25
449.559	73.25
449.779	83.25
450	81.25
450.221	79.25
450.442	78.25
450.662	81.25
450.883	76.25
451.104	78.25
451.324	68.25
451.545	88.25
451.766	94.25
451.986	86.25
452.207	93.25
452.428	72.25
452.648	79.25
452.869	75.25
453.089	84.25
453.31	85.25
453.53	77.25
453.751	89.25
453.971	82.25
454.192	91.25
454.412	76.25
454.633	82.25
454.853	92.25
455.073	76.25
455.294	78.25
455.514	95.25
455.734	84.25
455.955	83.25
456.175	85.25
456.395	65.25
456.616	83.25
456.836	84.25
457.056	80.25
457.276	85.25
457.497	82.25
457.717	84.25
457.937	93.25
458.157	68.25
458.377	88.25
458.598	88.25
458.818	91.25
459.038	90.25
459.258	90.25
459.478	77.25
459.698	89.25
459.918	86.25
460.138	77.25
460.358	75.25
460.578	71.25
460.798	94.25
461.018	95.25
461.238	84.25
461.458	89.25
461.678	72.25
461.898	80.25
462.118	100.25
462.338	82.25
462.558	72.25
462.777	88.25
462.997	76.25
463.217	87.25
463.437	87.25
463.657	76.25
463.876	97.25
464.096	82.25
464.316	90.25
464.536	80.25
464.755	91.25
464.975	89.25
465.195	79.25
465.414	78.25
465.634	93.25
465.854	92.25
466.073	88.25
466.293	79.25
466.512	78.25
466.732	82.25
466.951	110.25
467.171	86.25
467.391	90.25
467.61	77.25
467.829	76.25
468.049	86.25
468.268	82.25
468.488	84.25
468.707	80.25
468.927	93.25
469.146	86.25
469.365	84.25
469.585	80.25
469.804	81.25
470.023	92.25
470.243	84.25
470.462	81.25
470.681	95.25
470.901	94.25
471.12	96.25
471.339	93.25
471.558	77.25
471.777	82.25
471.997	90.25
472.216	83.25
472.435	85.25
472.654	82.25
472.873	88.25
473.092	77.25
473.311	96.25
473.53	84.25
473.749	88.25
473.968	90.25
474.187	86.25
474.406	74.25
474.625	98.25
474.844	86.25
475.063	84.25
475.282	78.25
475.501	84.25
475.72	77.25
475.939	74.25
476.158	83.25
476.377	95.25
476.596	85.25
476.814	81.25
477.033	71.25
477.252	88.25
477.471	82.25
477.69	74.25
477.908	77.25
478.127	71.25
478.346	86.25
478.564	83.25
478.783	87.25
479.002	92.25
479.22	67.25
479.439	86.25
479.658	79.25
479.876	89.25
480.095	79.25
480.313	81.25
480.532	78.25
480.751	93.25
480.969	77.25
481.188	81.25
481.406	77.25
481.624	85.25
481.843	82.25
482.061	81.25
482.28	78.25
482.498	94.25
482.717	96.25
482.935	89.25
483.153	84.25
483.372	96.25
483.59	81.25
483.808	84.25
484.027	96.25
484.245	81.25
484.463	79.25
484.681	92.25
484.9	88.25
485.118	104.25
485.336	94.25
485.554	101.25
485.772	71.25
485.99	82.25
486.209	84.25
486.427	90.25
486.645	86.25
486.863	82.25
487.081	78.25
487.299	82.25
487.517	87.25
487.735	75.25
487.953	99.25
488.171	83.25
488.389	90.25
488.607	84.25
488.825	89.25
489.043	85.25
489.261	92.25
489.479	78.25
489.696	96.25
489.914	73.25
490.132	92.25
490.35	89.25
490.568	82.25
490.786	81.25
491.003	78.25
491.221	95.25
491.439	86.25
491.657	100.25
491.874	82.25
492.092	90.25
492.31	93.25
492.527	97.25
492.745	85.25
492.963	92.25
493.18	84.25
493.398	104.25
493.615	90.25
493.833	80.25
494.05	85.25
494.268	89.25
494.485	78.25
494.703	90.25
494.92	88.25
495.138	88.25
495.355	80.25
495.573	84.25
495.79	92.25
496.008	106.25
496.225	93.25
496.442	85.25
496.66	90.25
496.877	102.25
497.094	98.25
497.312	81.25
497.529	74.25
497.746	81.25
497.963	91.25
498.181	93.25
498.398	85.25
498.615	77.25
498.832	88.25
499.049	93.25
499.267	95.25
499.484	90.25
499.701	96.25
499.918	82.25
500.135	88.25
500.352	93.25
500.569	97.25
500.786	83.25
501.003	87.25
501.22	85.25
501.437	62.25
501.654	84.25
501.871	88.25
502.088	98.25
502.305	97.25
502.522	81.25
502.739	88.25
502.956	84.25
503.172	86.25
503.389	81.25
503.606	83.25
503.823	92.25
504.04	86.25
504.256	97.25
504.473	88.25
504.69	80.25
504.907	100.25
505.123	67.25
505.34	85.25
505.557	85.25
505.773	77.25
505.99	87.25
506.207	93.25
506.423	88.25
506.64	71.25
506.856	87.25
507.073	97.25
507.289	86.25
507.506	96.25
507.722	94.25
507.939	84.25
508.155	82.25
508.372	91.25
508.588	72.25
508.805	90.25
509.021	75.25
509.238	84.25
509.454	81.25
509.67	87.25
509.887	90.25
510.103	101.25
510.319	91.25
510.536	81.25
510.752	80.25
510.968	76.25
511.184	91.25
511.401	99.25
511.617	101.25
511.833	93.25
512.049	87.25
512.265	96.25
512.481	90.25
512.698	88.25
512.914	80.25
513.13	90.25
513.346	82.25
513.562	82.25
513.778	103.25
513.994	92.25
514.21	76.25
514.426	77.25
514.642	88.25
514.858	92.25
515.074	93.25
515.29	79.25
515.506	88.25
515.721	69.25
515.937	80.25
516.153	89.25
516.369	82.25
516.585	83.25
516.801	100.25
517.016	89.25
517.232	83.25
517.448	88.25
517.664	76.25
517.879	80.25
518.095	80.25
518.311	66.25
518.527	83.25
518.742	86.25
518.958	106.25
519.173	80.25
519.389	85.25
519.605	94.25
519.82	85.25
