Data from StdD_HRD10591_058.txt Node
Date: Fri May 16 15:31:50 EDT 2025
User: Yrep
Spectrometer: HR+D1059
Trigger mode: 1
Integration Time (sec): 1.000000E-1
Scans to average: 1
Electric dark correction enabled: true
Nonlinearity correction enabled: false
Boxcar width: 0
XAxis mode: Wavelengths
Number of Pixels in Spectrum: 2048
>>>>>Begin Spectral Data<<<<<
223.165	-23.69
223.4	-23.69
223.635	-23.69
223.869	-20.69
224.104	-26.69
224.338	-16.69
224.573	-11.69
224.808	-23.69
225.042	4.31
225.277	-9.69
225.511	11.31
225.746	10.31
225.98	11.31
226.215	12.31
226.449	13.31
226.683	13.31
226.918	25.31
227.152	31.31
227.387	50.31
227.621	49.31
227.856	54.31
228.09	55.31
228.324	63.31
228.559	63.31
228.793	64.31
229.027	57.31
229.262	58.31
229.496	56.31
229.73	68.31
229.964	74.31
230.199	67.31
230.433	71.31
230.667	81.31
230.901	81.31
231.136	65.31
231.37	78.31
231.604	93.31
231.838	77.31
232.072	80.31
232.306	86.31
232.541	84.31
232.775	78.31
233.009	61.31
233.243	81.31
233.477	89.31
233.711	75.31
233.945	82.31
234.179	100.31
234.413	83.31
234.647	65.31
234.881	90.31
235.115	89.31
235.349	77.31
235.583	91.31
235.817	84.31
236.051	83.31
236.285	72.31
236.519	73.31
236.753	68.31
236.987	87.31
237.221	70.31
237.455	68.31
237.689	87.31
237.922	88.31
238.156	66.31
238.39	69.31
238.624	78.31
238.858	77.31
239.091	72.31
239.325	91.31
239.559	79.31
239.793	87.31
240.027	88.31
240.26	77.31
240.494	78.31
240.728	77.31
240.961	70.31
241.195	79.31
241.429	84.31
241.662	72.31
241.896	77.31
242.13	75.31
242.363	89.31
242.597	75.31
242.83	91.31
243.064	74.31
243.298	89.31
243.531	74.31
243.765	76.31
243.998	74.31
244.232	83.31
244.465	77.31
244.699	88.31
244.932	87.31
245.166	63.31
245.399	84.31
245.633	78.31
245.866	74.31
246.099	82.31
246.333	69.31
246.566	77.31
246.8	80.31
247.033	70.31
247.266	68.31
247.5	87.31
247.733	75.31
247.966	74.31
248.2	78.31
248.433	73.31
248.666	95.31
248.899	74.31
249.133	79.31
249.366	84.31
249.599	83.31
249.832	80.31
250.066	79.31
250.299	91.31
250.532	78.31
250.765	60.31
250.998	61.31
251.231	86.31
251.465	80.31
251.698	85.31
251.931	75.31
252.164	79.31
252.397	78.31
252.63	84.31
252.863	89.31
253.096	90.31
253.329	92.31
253.562	70.31
253.795	79.31
254.028	71.31
254.261	74.31
254.494	81.31
254.727	88.31
254.96	74.31
255.193	67.31
255.426	92.31
255.659	73.31
255.892	71.31
256.124	79.31
256.357	101.31
256.59	78.31
256.823	77.31
257.056	71.31
257.289	77.31
257.521	75.31
257.754	76.31
257.987	78.31
258.22	83.31
258.452	67.31
258.685	93.31
258.918	75.31
259.151	64.31
259.383	79.31
259.616	88.31
259.849	85.31
260.081	74.31
260.314	90.31
260.547	83.31
260.779	74.31
261.012	82.31
261.244	84.31
261.477	83.31
261.71	71.31
261.942	91.31
262.175	92.31
262.407	83.31
262.64	66.31
262.872	81.31
263.105	89.31
263.337	75.31
263.57	87.31
263.802	77.31
264.035	76.31
264.267	75.31
264.499	79.31
264.732	87.31
264.964	97.31
265.197	95.31
265.429	87.31
265.661	82.31
265.894	85.31
266.126	72.31
266.358	83.31
266.591	91.31
266.823	91.31
267.055	77.31
267.287	89.31
267.52	82.31
267.752	100.31
267.984	84.31
268.216	85.31
268.448	80.31
268.681	94.31
268.913	95.31
269.145	71.31
269.377	98.31
269.609	76.31
269.841	82.31
270.073	88.31
270.306	78.31
270.538	88.31
270.77	80.31
271.002	78.31
271.234	77.31
271.466	81.31
271.698	87.31
271.93	66.31
272.162	78.31
272.394	90.31
272.626	83.31
272.858	87.31
273.09	75.31
273.322	84.31
273.553	105.31
273.785	87.31
274.017	79.31
274.249	81.31
274.481	75.31
274.713	67.31
274.945	74.31
275.176	77.31
275.408	93.31
275.64	85.31
275.872	81.31
276.104	83.31
276.335	85.31
276.567	89.31
276.799	74.31
277.031	87.31
277.262	91.31
277.494	91.31
277.726	94.31
277.957	81.31
278.189	87.31
278.421	77.31
278.652	78.31
278.884	73.31
279.115	92.31
279.347	98.31
279.579	81.31
279.81	91.31
280.042	89.31
280.273	82.31
280.505	95.31
280.736	76.31
280.968	82.31
281.199	85.31
281.431	75.31
281.662	80.31
281.894	90.31
282.125	88.31
282.356	93.31
282.588	85.31
282.819	96.31
283.051	85.31
283.282	78.31
283.513	88.31
283.745	77.31
283.976	80.31
284.207	83.31
284.439	85.31
284.67	81.31
284.901	64.31
285.132	82.31
285.364	83.31
285.595	70.31
285.826	70.31
286.057	85.31
286.288	90.31
286.52	78.31
286.751	83.31
286.982	83.31
287.213	81.31
287.444	77.31
287.675	75.31
287.906	88.31
288.138	83.31
288.369	85.31
288.6	70.31
288.831	81.31
289.062	84.31
289.293	75.31
289.524	89.31
289.755	91.31
289.986	76.31
290.217	83.31
290.448	83.31
290.679	90.31
290.91	88.31
291.141	89.31
291.371	103.31
291.602	97.31
291.833	85.31
292.064	74.31
292.295	95.31
292.526	81.31
292.757	76.31
292.987	86.31
293.218	95.31
293.449	87.31
293.68	72.31
293.91	75.31
294.141	77.31
294.372	92.31
294.603	72.31
294.833	84.31
295.064	92.31
295.295	92.31
295.525	79.31
295.756	87.31
295.987	90.31
296.217	91.31
296.448	94.31
296.679	78.31
296.909	76.31
297.14	91.31
297.37	78.31
297.601	88.31
297.831	89.31
298.062	78.31
298.292	73.31
298.523	79.31
298.753	86.31
298.984	79.31
299.214	79.31
299.445	72.31
299.675	88.31
299.905	72.31
300.136	76.31
300.366	84.31
300.597	76.31
300.827	89.31
301.057	85.31
301.288	89.31
301.518	79.31
301.748	80.31
301.979	96.31
302.209	78.31
302.439	65.31
302.669	87.31
302.9	84.31
303.13	70.31
303.36	76.31
303.59	77.31
303.82	92.31
304.051	79.31
304.281	88.31
304.511	90.31
304.741	76.31
304.971	65.31
305.201	83.31
305.431	77.31
305.661	79.31
305.891	79.31
306.121	104.31
306.352	79.31
306.582	84.31
306.812	79.31
307.042	83.31
307.272	96.31
307.502	77.31
307.731	88.31
307.961	93.31
308.191	92.31
308.421	93.31
308.651	84.31
308.881	96.31
309.111	87.31
309.341	78.31
309.571	89.31
309.8	87.31
310.03	86.31
310.26	94.31
310.49	73.31
310.72	76.31
310.949	85.31
311.179	77.31
311.409	90.31
311.639	82.31
311.868	79.31
312.098	89.31
312.328	92.31
312.557	75.31
312.787	94.31
313.017	97.31
313.246	81.31
313.476	95.31
313.706	83.31
313.935	93.31
314.165	87.31
314.394	98.31
314.624	87.31
314.853	80.31
315.083	86.31
315.312	85.31
315.542	80.31
315.771	94.31
316.001	89.31
316.23	82.31
316.46	93.31
316.689	85.31
316.919	74.31
317.148	96.31
317.377	82.31
317.607	82.31
317.836	92.31
318.065	83.31
318.295	85.31
318.524	82.31
318.753	81.31
318.983	96.31
319.212	79.31
319.441	84.31
319.67	85.31
319.9	80.31
320.129	85.31
320.358	95.31
320.587	74.31
320.816	96.31
321.046	89.31
321.275	79.31
321.504	73.31
321.733	84.31
321.962	103.31
322.191	91.31
322.42	84.31
322.649	93.31
322.878	88.31
323.108	90.31
323.337	75.31
323.566	77.31
323.795	83.31
324.024	94.31
324.253	94.31
324.482	90.31
324.71	88.31
324.939	99.31
325.168	80.31
325.397	83.31
325.626	84.31
325.855	82.31
326.084	97.31
326.313	92.31
326.542	79.31
326.77	89.31
326.999	78.31
327.228	93.31
327.457	75.31
327.686	81.31
327.914	84.31
328.143	89.31
328.372	80.31
328.6	92.31
328.829	88.31
329.058	76.31
329.287	74.31
329.515	70.31
329.744	84.31
329.972	78.31
330.201	76.31
330.43	84.31
330.658	86.31
330.887	87.31
331.115	88.31
331.344	98.31
331.572	93.31
331.801	85.31
332.03	79.31
332.258	89.31
332.486	90.31
332.715	71.31
332.943	69.31
333.172	75.31
333.4	85.31
333.629	77.31
333.857	89.31
334.085	85.31
334.314	83.31
334.542	79.31
334.771	100.31
334.999	77.31
335.227	84.31
335.455	93.31
335.684	82.31
335.912	89.31
336.14	68.31
336.369	80.31
336.597	78.31
336.825	74.31
337.053	82.31
337.281	94.31
337.51	90.31
337.738	75.31
337.966	90.31
338.194	76.31
338.422	91.31
338.65	85.31
338.878	88.31
339.106	97.31
339.334	106.31
339.562	88.31
339.79	91.31
340.018	91.31
340.246	56.31
340.474	77.31
340.702	91.31
340.93	97.31
341.158	93.31
341.386	82.31
341.614	89.31
341.842	84.31
342.07	87.31
342.298	84.31
342.526	101.31
342.754	79.31
342.981	90.31
343.209	87.31
343.437	94.31
343.665	82.31
343.893	89.31
344.12	68.31
344.348	78.31
344.576	92.31
344.804	99.31
345.031	80.31
345.259	99.31
345.487	88.31
345.714	97.31
345.942	95.31
346.17	87.31
346.397	87.31
346.625	81.31
346.853	88.31
347.08	80.31
347.308	90.31
347.535	81.31
347.763	91.31
347.99	88.31
348.218	100.31
348.445	78.31
348.673	89.31
348.9	84.31
349.128	85.31
349.355	75.31
349.583	83.31
349.81	75.31
350.037	83.31
350.265	88.31
350.492	91.31
350.72	84.31
350.947	99.31
351.174	89.31
351.402	84.31
351.629	86.31
351.856	81.31
352.083	85.31
352.311	91.31
352.538	75.31
352.765	88.31
352.992	72.31
353.22	80.31
353.447	82.31
353.674	98.31
353.901	83.31
354.128	87.31
354.355	68.31
354.583	78.31
354.81	79.31
355.037	91.31
355.264	95.31
355.491	85.31
355.718	85.31
355.945	75.31
356.172	81.31
356.399	78.31
356.626	77.31
356.853	84.31
357.08	73.31
357.307	80.31
357.534	77.31
357.761	100.31
357.988	79.31
358.215	73.31
358.441	91.31
358.668	88.31
358.895	74.31
359.122	74.31
359.349	83.31
359.576	90.31
359.802	68.31
360.029	84.31
360.256	96.31
360.483	79.31
360.709	80.31
360.936	107.31
361.163	83.31
361.39	84.31
361.616	80.31
361.843	84.31
362.07	83.31
362.296	77.31
362.523	76.31
362.749	95.31
362.976	81.31
363.203	95.31
363.429	88.31
363.656	96.31
363.882	69.31
364.109	82.31
364.335	75.31
364.562	84.31
364.788	94.31
365.015	88.31
365.241	96.31
365.468	91.31
365.694	87.31
365.92	70.31
366.147	85.31
366.373	84.31
366.599	84.31
366.826	85.31
367.052	88.31
367.278	85.31
367.505	79.31
367.731	87.31
367.957	75.31
368.184	65.31
368.41	91.31
368.636	81.31
368.862	88.31
369.089	87.31
369.315	98.31
369.541	71.31
369.767	81.31
369.993	92.31
370.219	84.31
370.445	87.31
370.672	85.31
370.898	80.31
371.124	93.31
371.35	79.31
371.576	99.31
371.802	92.31
372.028	90.31
372.254	80.31
372.48	87.31
372.706	77.31
372.932	93.31
373.158	77.31
373.384	81.31
373.61	101.31
373.835	87.31
374.061	76.31
374.287	73.31
374.513	81.31
374.739	90.31
374.965	69.31
375.191	82.31
375.416	67.31
375.642	90.31
375.868	94.31
376.094	67.31
376.319	84.31
376.545	94.31
376.771	88.31
376.997	84.31
377.222	83.31
377.448	79.31
377.674	90.31
377.899	88.31
378.125	87.31
378.35	74.31
378.576	81.31
378.802	87.31
379.027	82.31
379.253	88.31
379.478	81.31
379.704	87.31
379.929	80.31
380.155	81.31
380.38	88.31
380.606	85.31
380.831	90.31
381.057	81.31
381.282	71.31
381.507	72.31
381.733	82.31
381.958	82.31
382.184	80.31
382.409	96.31
382.634	76.31
382.86	77.31
383.085	80.31
383.31	78.31
383.535	83.31
383.761	93.31
383.986	91.31
384.211	86.31
384.436	87.31
384.662	83.31
384.887	87.31
385.112	89.31
385.337	90.31
385.562	89.31
385.787	96.31
386.013	89.31
386.238	87.31
386.463	93.31
386.688	101.31
386.913	83.31
387.138	101.31
387.363	84.31
387.588	92.31
387.813	85.31
388.038	91.31
388.263	83.31
388.488	95.31
388.713	92.31
388.938	70.31
389.163	100.31
389.387	75.31
389.612	83.31
389.837	92.31
390.062	77.31
390.287	85.31
390.512	76.31
390.736	73.31
390.961	86.31
391.186	92.31
391.411	66.31
391.636	84.31
391.86	77.31
392.085	68.31
392.31	86.31
392.534	85.31
392.759	85.31
392.984	98.31
393.208	81.31
393.433	90.31
393.658	79.31
393.882	81.31
394.107	88.31
394.331	89.31
394.556	83.31
394.78	87.31
395.005	84.31
395.229	82.31
395.454	86.31
395.678	67.31
395.903	87.31
396.127	81.31
396.352	74.31
396.576	80.31
396.801	82.31
397.025	72.31
397.249	92.31
397.474	83.31
397.698	79.31
397.922	80.31
398.147	83.31
398.371	83.31
398.595	89.31
398.82	77.31
399.044	79.31
399.268	94.31
399.492	89.31
399.717	85.31
399.941	78.31
400.165	89.31
400.389	84.31
400.613	92.31
400.837	76.31
401.062	84.31
401.286	77.31
401.51	91.31
401.734	83.31
401.958	83.31
402.182	85.31
402.406	73.31
402.63	71.31
402.854	78.31
403.078	104.31
403.302	76.31
403.526	83.31
403.75	96.31
403.974	77.31
404.198	108.31
404.422	80.31
404.645	81.31
404.869	80.31
405.093	83.31
405.317	78.31
405.541	79.31
405.765	92.31
405.988	90.31
406.212	61.31
406.436	83.31
406.66	85.31
406.883	83.31
407.107	87.31
407.331	90.31
407.555	93.31
407.778	78.31
408.002	82.31
408.226	91.31
408.449	88.31
408.673	64.31
408.896	88.31
409.12	65.31
409.344	87.31
409.567	87.31
409.791	90.31
410.014	93.31
410.238	91.31
410.461	82.31
410.685	82.31
410.908	73.31
411.132	81.31
411.355	78.31
411.578	96.31
411.802	88.31
412.025	87.31
412.249	73.31
412.472	67.31
412.695	81.31
412.919	93.31
413.142	96.31
413.365	81.31
413.589	91.31
413.812	81.31
414.035	64.31
414.258	87.31
414.482	83.31
414.705	62.31
414.928	91.31
415.151	86.31
415.374	79.31
415.597	79.31
415.821	80.31
416.044	69.31
416.267	90.31
416.49	79.31
416.713	89.31
416.936	85.31
417.159	68.31
417.382	76.31
417.605	82.31
417.828	85.31
418.051	81.31
418.274	75.31
418.497	73.31
418.72	77.31
418.943	81.31
419.166	73.31
419.389	80.31
419.611	91.31
419.834	73.31
420.057	77.31
420.28	97.31
420.503	80.31
420.726	75.31
420.948	66.31
421.171	73.31
421.394	85.31
421.617	83.31
421.839	75.31
422.062	84.31
422.285	77.31
422.507	78.31
422.73	70.31
422.953	92.31
423.175	76.31
423.398	84.31
423.621	90.31
423.843	96.31
424.066	75.31
424.288	78.31
424.511	67.31
424.733	75.31
424.956	91.31
425.178	84.31
425.401	81.31
425.623	97.31
425.846	83.31
426.068	79.31
426.291	89.31
426.513	83.31
426.735	87.31
426.958	84.31
427.18	90.31
427.402	84.31
427.625	88.31
427.847	87.31
428.069	80.31
428.292	81.31
428.514	74.31
428.736	94.31
428.958	68.31
429.181	89.31
429.403	87.31
429.625	75.31
429.847	98.31
430.069	77.31
430.292	84.31
430.514	57.31
430.736	84.31
430.958	83.31
431.18	89.31
431.402	88.31
431.624	88.31
431.846	68.31
432.068	72.31
432.29	89.31
432.512	90.31
432.734	74.31
432.956	85.31
433.178	79.31
433.4	76.31
433.622	68.31
433.844	89.31
434.066	71.31
434.287	82.31
434.509	82.31
434.731	79.31
434.953	102.31
435.175	80.31
435.397	90.31
435.618	86.31
435.84	84.31
436.062	77.31
436.284	91.31
436.505	73.31
436.727	102.31
436.949	92.31
437.17	80.31
437.392	85.31
437.614	89.31
437.835	85.31
438.057	80.31
438.278	81.31
438.5	80.31
438.721	84.31
438.943	88.31
439.165	84.31
439.386	92.31
439.608	89.31
439.829	88.31
440.05	79.31
440.272	90.31
440.493	84.31
440.715	85.31
440.936	89.31
441.158	81.31
441.379	76.31
441.6	78.31
441.822	65.31
442.043	83.31
442.264	73.31
442.486	89.31
442.707	78.31
442.928	66.31
443.149	87.31
443.371	88.31
443.592	76.31
443.813	81.31
444.034	81.31
444.255	85.31
444.476	85.31
444.698	85.31
444.919	84.31
445.14	191.31
445.361	125.31
445.582	84.31
445.803	93.31
446.024	79.31
446.245	81.31
446.466	75.31
446.687	83.31
446.908	89.31
447.129	88.31
447.35	87.31
447.571	94.31
447.792	85.31
448.013	68.31
448.234	89.31
448.455	69.31
448.675	90.31
448.896	87.31
449.117	82.31
449.338	71.31
449.559	84.31
449.779	89.31
450	73.31
450.221	91.31
450.442	88.31
450.662	88.31
450.883	79.31
451.104	92.31
451.324	93.31
451.545	77.31
451.766	84.31
451.986	70.31
452.207	91.31
452.428	69.31
452.648	81.31
452.869	88.31
453.089	94.31
453.31	66.31
453.53	69.31
453.751	81.31
453.971	73.31
454.192	75.31
454.412	84.31
454.633	59.31
454.853	73.31
455.073	79.31
455.294	76.31
455.514	83.31
455.734	96.31
455.955	77.31
456.175	84.31
456.395	79.31
456.616	77.31
456.836	70.31
457.056	90.31
457.276	78.31
457.497	81.31
457.717	89.31
457.937	80.31
458.157	81.31
458.377	73.31
458.598	81.31
458.818	82.31
459.038	78.31
459.258	77.31
459.478	68.31
459.698	91.31
459.918	88.31
460.138	83.31
460.358	74.31
460.578	87.31
460.798	88.31
461.018	79.31
461.238	83.31
461.458	91.31
461.678	75.31
461.898	101.31
462.118	88.31
462.338	96.31
462.558	78.31
462.777	96.31
462.997	89.31
463.217	85.31
463.437	73.31
463.657	67.31
463.876	69.31
464.096	79.31
464.316	69.31
464.536	79.31
464.755	77.31
464.975	83.31
465.195	88.31
465.414	74.31
465.634	78.31
465.854	81.31
466.073	68.31
466.293	81.31
466.512	90.31
466.732	85.31
466.951	88.31
467.171	75.31
467.391	77.31
467.61	86.31
467.829	68.31
468.049	87.31
468.268	85.31
468.488	83.31
468.707	82.31
468.927	91.31
469.146	100.31
469.365	81.31
469.585	83.31
469.804	79.31
470.023	84.31
470.243	97.31
470.462	82.31
470.681	82.31
470.901	92.31
471.12	91.31
471.339	77.31
471.558	83.31
471.777	84.31
471.997	63.31
472.216	87.31
472.435	88.31
472.654	76.31
472.873	77.31
473.092	75.31
473.311	70.31
473.53	78.31
473.749	91.31
473.968	91.31
474.187	80.31
474.406	75.31
474.625	87.31
474.844	92.31
475.063	74.31
475.282	88.31
475.501	89.31
475.72	93.31
475.939	85.31
476.158	103.31
476.377	79.31
476.596	85.31
476.814	87.31
477.033	85.31
477.252	66.31
477.471	88.31
477.69	83.31
477.908	85.31
478.127	81.31
478.346	73.31
478.564	87.31
478.783	81.31
479.002	73.31
479.22	87.31
479.439	85.31
479.658	93.31
479.876	81.31
480.095	78.31
480.313	85.31
480.532	91.31
480.751	98.31
480.969	75.31
481.188	76.31
481.406	83.31
481.624	77.31
481.843	68.31
482.061	89.31
482.28	81.31
482.498	86.31
482.717	95.31
482.935	74.31
483.153	82.31
483.372	97.31
483.59	92.31
483.808	87.31
484.027	79.31
484.245	99.31
484.463	80.31
484.681	97.31
484.9	83.31
485.118	92.31
485.336	86.31
485.554	70.31
485.772	67.31
485.99	86.31
486.209	75.31
486.427	88.31
486.645	85.31
486.863	80.31
487.081	80.31
487.299	98.31
487.517	92.31
487.735	80.31
487.953	98.31
488.171	81.31
488.389	83.31
488.607	98.31
488.825	91.31
489.043	64.31
489.261	73.31
489.479	82.31
489.696	83.31
489.914	80.31
490.132	82.31
490.35	79.31
490.568	92.31
490.786	96.31
491.003	79.31
491.221	86.31
491.439	88.31
491.657	79.31
491.874	95.31
492.092	88.31
492.31	91.31
492.527	92.31
492.745	86.31
492.963	94.31
493.18	84.31
493.398	91.31
493.615	70.31
493.833	87.31
494.05	87.31
494.268	81.31
494.485	85.31
494.703	83.31
494.92	84.31
495.138	100.31
495.355	90.31
495.573	84.31
495.79	89.31
496.008	89.31
496.225	90.31
496.442	81.31
496.66	80.31
496.877	69.31
497.094	96.31
497.312	69.31
497.529	94.31
497.746	90.31
497.963	88.31
498.181	85.31
498.398	82.31
498.615	94.31
498.832	73.31
499.049	88.31
499.267	75.31
499.484	87.31
499.701	82.31
499.918	92.31
500.135	83.31
500.352	100.31
500.569	78.31
500.786	59.31
501.003	75.31
501.22	84.31
501.437	90.31
501.654	70.31
501.871	98.31
502.088	93.31
502.305	81.31
502.522	96.31
502.739	67.31
502.956	74.31
503.172	81.31
503.389	87.31
503.606	88.31
503.823	87.31
504.04	84.31
504.256	80.31
504.473	88.31
504.69	77.31
504.907	80.31
505.123	79.31
505.34	99.31
505.557	82.31
505.773	79.31
505.99	73.31
506.207	63.31
506.423	69.31
506.64	84.31
506.856	87.31
507.073	83.31
507.289	91.31
507.506	97.31
507.722	93.31
507.939	89.31
508.155	89.31
508.372	77.31
508.588	79.31
508.805	75.31
509.021	77.31
509.238	88.31
509.454	93.31
509.67	73.31
509.887	82.31
510.103	98.31
510.319	81.31
510.536	82.31
510.752	93.31
510.968	87.31
511.184	88.31
511.401	88.31
511.617	84.31
511.833	89.31
512.049	89.31
512.265	98.31
512.481	88.31
512.698	88.31
512.914	75.31
513.13	68.31
513.346	70.31
513.562	99.31
513.778	77.31
513.994	88.31
514.21	92.31
514.426	95.31
514.642	67.31
514.858	71.31
515.074	75.31
515.29	97.31
515.506	77.31
515.721	84.31
515.937	82.31
516.153	92.31
516.369	83.31
516.585	80.31
516.801	76.31
517.016	83.31
517.232	86.31
517.448	87.31
517.664	87.31
517.879	80.31
518.095	74.31
518.311	83.31
518.527	95.31
518.742	82.31
518.958	88.31
519.173	89.31
519.389	94.31
519.605	91.31
519.82	89.31
520.036	89.31
