Data from HP_2_HRD10591_00048.txt Node
Date: Mon Jan 19 14:16:25 EST 2026
User: Yrep
Spectrometer: HR+D1059
Trigger mode: 1
Integration Time (sec): 1.000000E-1
Scans to average: 1
Electric dark correction enabled: true
Nonlinearity correction enabled: false
Boxcar width: 0
XAxis mode: Wavelengths
Number of Pixels in Spectrum: 2048
>>>>>Begin Spectral Data<<<<<
223.165	-26.62
223.4	-26.62
223.635	-26.62
223.869	-19.62
224.104	-25.62
224.338	-0.62
224.573	-16.62
224.808	-11.62
225.042	-0.62
225.277	-0.62
225.511	-0.62
225.746	0.38
225.98	-1.62
226.215	-2.62
226.449	21.38
226.683	25.38
226.918	22.38
227.152	37.38
227.387	26.38
227.621	43.38
227.856	35.38
228.09	49.38
228.324	42.38
228.559	59.38
228.793	51.38
229.027	64.38
229.262	59.38
229.496	77.38
229.73	82.38
229.964	75.38
230.199	69.38
230.433	90.38
230.667	81.38
230.901	72.38
231.136	82.38
231.37	73.38
231.604	67.38
231.838	70.38
232.072	68.38
232.306	81.38
232.541	84.38
232.775	85.38
233.009	75.38
233.243	77.38
233.477	87.38
233.711	91.38
233.945	104.38
234.179	86.38
234.413	72.38
234.647	85.38
234.881	79.38
235.115	79.38
235.349	68.38
235.583	75.38
235.817	69.38
236.051	74.38
236.285	76.38
236.519	75.38
236.753	71.38
236.987	86.38
237.221	84.38
237.455	84.38
237.689	83.38
237.922	64.38
238.156	71.38
238.39	88.38
238.624	66.38
238.858	85.38
239.091	73.38
239.325	68.38
239.559	81.38
239.793	77.38
240.027	89.38
240.26	71.38
240.494	67.38
240.728	75.38
240.961	73.38
241.195	81.38
241.429	73.38
241.662	79.38
241.896	91.38
242.13	81.38
242.363	73.38
242.597	79.38
242.83	78.38
243.064	99.38
243.298	83.38
243.531	68.38
243.765	77.38
243.998	71.38
244.232	95.38
244.465	79.38
244.699	83.38
244.932	90.38
245.166	72.38
245.399	78.38
245.633	84.38
245.866	78.38
246.099	72.38
246.333	67.38
246.566	67.38
246.8	79.38
247.033	75.38
247.266	73.38
247.5	76.38
247.733	88.38
247.966	93.38
248.2	84.38
248.433	67.38
248.666	81.38
248.899	76.38
249.133	86.38
249.366	94.38
249.599	60.38
249.832	81.38
250.066	85.38
250.299	90.38
250.532	81.38
250.765	89.38
250.998	88.38
251.231	84.38
251.465	67.38
251.698	74.38
251.931	82.38
252.164	83.38
252.397	83.38
252.63	55.38
252.863	66.38
253.096	75.38
253.329	76.38
253.562	85.38
253.795	82.38
254.028	89.38
254.261	75.38
254.494	79.38
254.727	69.38
254.96	86.38
255.193	69.38
255.426	74.38
255.659	84.38
255.892	83.38
256.124	83.38
256.357	77.38
256.59	95.38
256.823	82.38
257.056	61.38
257.289	87.38
257.521	96.38
257.754	75.38
257.987	87.38
258.22	92.38
258.452	89.38
258.685	91.38
258.918	84.38
259.151	78.38
259.383	64.38
259.616	82.38
259.849	87.38
260.081	97.38
260.314	81.38
260.547	75.38
260.779	92.38
261.012	83.38
261.244	77.38
261.477	77.38
261.71	84.38
261.942	76.38
262.175	77.38
262.407	95.38
262.64	87.38
262.872	81.38
263.105	78.38
263.337	81.38
263.57	74.38
263.802	87.38
264.035	78.38
264.267	87.38
264.499	78.38
264.732	91.38
264.964	85.38
265.197	84.38
265.429	82.38
265.661	78.38
265.894	66.38
266.126	81.38
266.358	91.38
266.591	82.38
266.823	79.38
267.055	81.38
267.287	85.38
267.52	91.38
267.752	75.38
267.984	93.38
268.216	86.38
268.448	85.38
268.681	86.38
268.913	83.38
269.145	84.38
269.377	91.38
269.609	93.38
269.841	79.38
270.073	81.38
270.306	100.38
270.538	83.38
270.77	89.38
271.002	87.38
271.234	88.38
271.466	68.38
271.698	90.38
271.93	81.38
272.162	90.38
272.394	76.38
272.626	92.38
272.858	81.38
273.09	85.38
273.322	95.38
273.553	69.38
273.785	91.38
274.017	85.38
274.249	97.38
274.481	82.38
274.713	79.38
274.945	94.38
275.176	87.38
275.408	82.38
275.64	75.38
275.872	97.38
276.104	81.38
276.335	81.38
276.567	72.38
276.799	75.38
277.031	95.38
277.262	83.38
277.494	64.38
277.726	80.38
277.957	76.38
278.189	91.38
278.421	97.38
278.652	74.38
278.884	83.38
279.115	85.38
279.347	91.38
279.579	79.38
279.81	91.38
280.042	79.38
280.273	77.38
280.505	83.38
280.736	76.38
280.968	71.38
281.199	97.38
281.431	83.38
281.662	85.38
281.894	71.38
282.125	91.38
282.356	87.38
282.588	92.38
282.819	71.38
283.051	85.38
283.282	84.38
283.513	86.38
283.745	87.38
283.976	81.38
284.207	92.38
284.439	89.38
284.67	88.38
284.901	92.38
285.132	77.38
285.364	99.38
285.595	75.38
285.826	84.38
286.057	88.38
286.288	79.38
286.52	96.38
286.751	75.38
286.982	75.38
287.213	86.38
287.444	87.38
287.675	79.38
287.906	93.38
288.138	80.38
288.369	106.38
288.6	93.38
288.831	89.38
289.062	86.38
289.293	82.38
289.524	93.38
289.755	85.38
289.986	97.38
290.217	80.38
290.448	90.38
290.679	74.38
290.91	90.38
291.141	84.38
291.371	76.38
291.602	96.38
291.833	81.38
292.064	85.38
292.295	84.38
292.526	87.38
292.757	90.38
292.987	89.38
293.218	69.38
293.449	84.38
293.68	97.38
293.91	87.38
294.141	73.38
294.372	82.38
294.603	93.38
294.833	94.38
295.064	87.38
295.295	88.38
295.525	73.38
295.756	83.38
295.987	89.38
296.217	82.38
296.448	75.38
296.679	69.38
296.909	78.38
297.14	88.38
297.37	105.38
297.601	91.38
297.831	101.38
298.062	69.38
298.292	99.38
298.523	94.38
298.753	94.38
298.984	90.38
299.214	75.38
299.445	85.38
299.675	87.38
299.905	95.38
300.136	76.38
300.366	83.38
300.597	91.38
300.827	86.38
301.057	88.38
301.288	83.38
301.518	90.38
301.748	100.38
301.979	119.38
302.209	77.38
302.439	82.38
302.669	89.38
302.9	104.38
303.13	77.38
303.36	74.38
303.59	82.38
303.82	79.38
304.051	96.38
304.281	91.38
304.511	83.38
304.741	90.38
304.971	93.38
305.201	90.38
305.431	81.38
305.661	65.38
305.891	99.38
306.121	82.38
306.352	90.38
306.582	85.38
306.812	82.38
307.042	80.38
307.272	76.38
307.502	80.38
307.731	85.38
307.961	91.38
308.191	81.38
308.421	95.38
308.651	82.38
308.881	86.38
309.111	88.38
309.341	90.38
309.571	90.38
309.8	86.38
310.03	84.38
310.26	86.38
310.49	70.38
310.72	87.38
310.949	76.38
311.179	83.38
311.409	79.38
311.639	75.38
311.868	88.38
312.098	85.38
312.328	88.38
312.557	75.38
312.787	101.38
313.017	90.38
313.246	89.38
313.476	77.38
313.706	88.38
313.935	86.38
314.165	71.38
314.394	79.38
314.624	86.38
314.853	86.38
315.083	87.38
315.312	77.38
315.542	77.38
315.771	100.38
316.001	91.38
316.23	87.38
316.46	81.38
316.689	86.38
316.919	81.38
317.148	84.38
317.377	87.38
317.607	81.38
317.836	86.38
318.065	90.38
318.295	99.38
318.524	76.38
318.753	87.38
318.983	81.38
319.212	89.38
319.441	88.38
319.67	91.38
319.9	80.38
320.129	82.38
320.358	81.38
320.587	78.38
320.816	76.38
321.046	85.38
321.275	84.38
321.504	77.38
321.733	91.38
321.962	84.38
322.191	81.38
322.42	91.38
322.649	76.38
322.878	89.38
323.108	87.38
323.337	100.38
323.566	80.38
323.795	96.38
324.024	83.38
324.253	89.38
324.482	85.38
324.71	77.38
324.939	79.38
325.168	76.38
325.397	69.38
325.626	83.38
325.855	95.38
326.084	95.38
326.313	88.38
326.542	83.38
326.77	93.38
326.999	87.38
327.228	83.38
327.457	74.38
327.686	102.38
327.914	96.38
328.143	92.38
328.372	81.38
328.6	75.38
328.829	87.38
329.058	89.38
329.287	91.38
329.515	93.38
329.744	104.38
329.972	95.38
330.201	89.38
330.43	73.38
330.658	90.38
330.887	75.38
331.115	84.38
331.344	83.38
331.572	94.38
331.801	80.38
332.03	89.38
332.258	82.38
332.486	95.38
332.715	84.38
332.943	78.38
333.172	83.38
333.4	82.38
333.629	90.38
333.857	73.38
334.085	99.38
334.314	83.38
334.542	91.38
334.771	90.38
334.999	77.38
335.227	67.38
335.455	98.38
335.684	101.38
335.912	85.38
336.14	69.38
336.369	85.38
336.597	88.38
336.825	85.38
337.053	89.38
337.281	96.38
337.51	91.38
337.738	73.38
337.966	75.38
338.194	85.38
338.422	89.38
338.65	91.38
338.878	82.38
339.106	87.38
339.334	89.38
339.562	82.38
339.79	87.38
340.018	85.38
340.246	95.38
340.474	85.38
340.702	85.38
340.93	77.38
341.158	99.38
341.386	77.38
341.614	73.38
341.842	91.38
342.07	86.38
342.298	95.38
342.526	113.38
342.754	85.38
342.981	94.38
343.209	82.38
343.437	91.38
343.665	75.38
343.893	86.38
344.12	88.38
344.348	89.38
344.576	93.38
344.804	102.38
345.031	70.38
345.259	83.38
345.487	96.38
345.714	81.38
345.942	79.38
346.17	80.38
346.397	79.38
346.625	83.38
346.853	77.38
347.08	74.38
347.308	75.38
347.535	81.38
347.763	82.38
347.99	88.38
348.218	94.38
348.445	83.38
348.673	89.38
348.9	99.38
349.128	90.38
349.355	95.38
349.583	85.38
349.81	85.38
350.037	87.38
350.265	86.38
350.492	79.38
350.72	90.38
350.947	85.38
351.174	79.38
351.402	87.38
351.629	70.38
351.856	78.38
352.083	78.38
352.311	99.38
352.538	73.38
352.765	78.38
352.992	87.38
353.22	90.38
353.447	77.38
353.674	88.38
353.901	77.38
354.128	74.38
354.355	89.38
354.583	89.38
354.81	60.38
355.037	83.38
355.264	83.38
355.491	87.38
355.718	77.38
355.945	94.38
356.172	88.38
356.399	76.38
356.626	85.38
356.853	91.38
357.08	101.38
357.307	93.38
357.534	78.38
357.761	83.38
357.988	74.38
358.215	95.38
358.441	86.38
358.668	109.38
358.895	86.38
359.122	81.38
359.349	89.38
359.576	76.38
359.802	91.38
360.029	76.38
360.256	97.38
360.483	82.38
360.709	89.38
360.936	101.38
361.163	97.38
361.39	101.38
361.616	80.38
361.843	90.38
362.07	88.38
362.296	88.38
362.523	89.38
362.749	88.38
362.976	90.38
363.203	101.38
363.429	91.38
363.656	89.38
363.882	95.38
364.109	81.38
364.335	83.38
364.562	99.38
364.788	94.38
365.015	91.38
365.241	105.38
365.468	100.38
365.694	90.38
365.92	87.38
366.147	73.38
366.373	89.38
366.599	68.38
366.826	81.38
367.052	95.38
367.278	78.38
367.505	89.38
367.731	87.38
367.957	81.38
368.184	87.38
368.41	87.38
368.636	96.38
368.862	77.38
369.089	79.38
369.315	98.38
369.541	78.38
369.767	94.38
369.993	89.38
370.219	88.38
370.445	85.38
370.672	77.38
370.898	77.38
371.124	82.38
371.35	87.38
371.576	88.38
371.802	83.38
372.028	93.38
372.254	80.38
372.48	88.38
372.706	88.38
372.932	75.38
373.158	89.38
373.384	86.38
373.61	95.38
373.835	97.38
374.061	73.38
374.287	83.38
374.513	85.38
374.739	99.38
374.965	87.38
375.191	106.38
375.416	101.38
375.642	90.38
375.868	96.38
376.094	73.38
376.319	80.38
376.545	83.38
376.771	75.38
376.997	85.38
377.222	85.38
377.448	73.38
377.674	82.38
377.899	89.38
378.125	83.38
378.35	83.38
378.576	77.38
378.802	81.38
379.027	88.38
379.253	77.38
379.478	75.38
379.704	87.38
379.929	86.38
380.155	90.38
380.38	75.38
380.606	85.38
380.831	71.38
381.057	97.38
381.282	84.38
381.507	79.38
381.733	104.38
381.958	92.38
382.184	83.38
382.409	86.38
382.634	85.38
382.86	86.38
383.085	81.38
383.31	91.38
383.535	123.38
383.761	94.38
383.986	84.38
384.211	79.38
384.436	102.38
384.662	79.38
384.887	84.38
385.112	78.38
385.337	71.38
385.562	76.38
385.787	94.38
386.013	84.38
386.238	79.38
386.463	95.38
386.688	105.38
386.913	92.38
387.138	89.38
387.363	91.38
387.588	87.38
387.813	80.38
388.038	87.38
388.263	102.38
388.488	97.38
388.713	86.38
388.938	71.38
389.163	91.38
389.387	73.38
389.612	89.38
389.837	93.38
390.062	97.38
390.287	94.38
390.512	87.38
390.736	89.38
390.961	85.38
391.186	75.38
391.411	81.38
391.636	84.38
391.86	91.38
392.085	93.38
392.31	89.38
392.534	100.38
392.759	88.38
392.984	119.38
393.208	132.38
393.433	198.38
393.658	149.38
393.882	100.38
394.107	84.38
394.331	99.38
394.556	98.38
394.78	90.38
395.005	96.38
395.229	79.38
395.454	71.38
395.678	79.38
395.903	90.38
396.127	108.38
396.352	126.38
396.576	108.38
396.801	130.38
397.025	166.38
397.249	125.38
397.474	103.38
397.698	85.38
397.922	87.38
398.147	79.38
398.371	82.38
398.595	77.38
398.82	87.38
399.044	77.38
399.268	91.38
399.492	83.38
399.717	77.38
399.941	91.38
400.165	93.38
400.389	89.38
400.613	86.38
400.837	76.38
401.062	77.38
401.286	85.38
401.51	91.38
401.734	94.38
401.958	100.38
402.182	80.38
402.406	84.38
402.63	87.38
402.854	81.38
403.078	93.38
403.302	88.38
403.526	81.38
403.75	111.38
403.974	88.38
404.198	89.38
404.422	100.38
404.645	116.38
404.869	98.38
405.093	75.38
405.317	66.38
405.541	76.38
405.765	83.38
405.988	100.38
406.212	94.38
406.436	87.38
406.66	96.38
406.883	87.38
407.107	79.38
407.331	86.38
407.555	87.38
407.778	91.38
408.002	88.38
408.226	99.38
408.449	90.38
408.673	82.38
408.896	78.38
409.12	83.38
409.344	80.38
409.567	90.38
409.791	91.38
410.014	100.38
410.238	81.38
410.461	88.38
410.685	91.38
410.908	78.38
411.132	85.38
411.355	75.38
411.578	89.38
411.802	80.38
412.025	93.38
412.249	90.38
412.472	96.38
412.695	97.38
412.919	84.38
413.142	92.38
413.365	83.38
413.589	76.38
413.812	80.38
414.035	79.38
414.258	85.38
414.482	86.38
414.705	97.38
414.928	83.38
415.151	81.38
415.374	75.38
415.597	71.38
415.821	81.38
416.044	79.38
416.267	85.38
416.49	74.38
416.713	78.38
416.936	83.38
417.159	83.38
417.382	69.38
417.605	85.38
417.828	91.38
418.051	75.38
418.274	85.38
418.497	91.38
418.72	76.38
418.943	93.38
419.166	80.38
419.389	81.38
419.611	76.38
419.834	74.38
420.057	79.38
420.28	85.38
420.503	81.38
420.726	88.38
420.948	91.38
421.171	89.38
421.394	71.38
421.617	99.38
421.839	91.38
422.062	95.38
422.285	124.38
422.507	201.38
422.73	277.38
422.953	243.38
423.175	159.38
423.398	119.38
423.621	97.38
423.843	97.38
424.066	78.38
424.288	74.38
424.511	103.38
424.733	91.38
424.956	99.38
425.178	95.38
425.401	76.38
425.623	94.38
425.846	86.38
426.068	88.38
426.291	74.38
426.513	90.38
426.735	97.38
426.958	89.38
427.18	95.38
427.402	83.38
427.625	87.38
427.847	87.38
428.069	90.38
428.292	115.38
428.514	115.38
428.736	111.38
428.958	117.38
429.181	116.38
429.403	98.38
429.625	80.38
429.847	106.38
430.069	109.38
430.292	128.38
430.514	123.38
430.736	113.38
430.958	112.38
431.18	83.38
431.402	101.38
431.624	88.38
431.846	107.38
432.068	101.38
432.29	93.38
432.512	88.38
432.734	84.38
432.956	87.38
433.178	83.38
433.4	89.38
433.622	81.38
433.844	81.38
434.066	84.38
434.287	71.38
434.509	85.38
434.731	95.38
434.953	89.38
435.175	91.38
435.397	96.38
435.618	97.38
435.84	88.38
436.062	76.38
436.284	87.38
436.505	82.38
436.727	79.38
436.949	86.38
437.17	82.38
437.392	78.38
437.614	78.38
437.835	82.38
438.057	80.38
438.278	82.38
438.5	75.38
438.721	89.38
438.943	85.38
439.165	73.38
439.386	76.38
439.608	71.38
439.829	92.38
440.05	78.38
440.272	74.38
440.493	95.38
440.715	84.38
440.936	86.38
441.158	101.38
441.379	93.38
441.6	89.38
441.822	91.38
442.043	86.38
442.264	86.38
442.486	118.38
442.707	130.38
442.928	110.38
443.149	103.38
443.371	129.38
443.592	180.38
443.813	155.38
444.034	95.38
444.255	81.38
444.476	92.38
444.698	75.38
444.919	89.38
445.14	163.38
445.361	164.38
445.582	209.38
445.803	161.38
446.024	114.38
446.245	75.38
446.466	95.38
446.687	78.38
446.908	80.38
447.129	88.38
447.35	87.38
447.571	88.38
447.792	78.38
448.013	96.38
448.234	99.38
448.455	88.38
448.675	86.38
448.896	96.38
449.117	87.38
449.338	93.38
449.559	98.38
449.779	85.38
450	76.38
450.221	91.38
450.442	87.38
450.662	80.38
450.883	72.38
451.104	91.38
451.324	83.38
451.545	84.38
451.766	92.38
451.986	83.38
452.207	85.38
452.428	76.38
452.648	79.38
452.869	87.38
453.089	92.38
453.31	90.38
453.53	80.38
453.751	104.38
453.971	86.38
454.192	84.38
454.412	87.38
454.633	79.38
454.853	80.38
455.073	85.38
455.294	69.38
455.514	85.38
455.734	96.38
455.955	81.38
456.175	89.38
456.395	77.38
456.616	88.38
456.836	75.38
457.056	83.38
457.276	89.38
457.497	77.38
457.717	82.38
457.937	80.38
458.157	100.38
458.377	113.38
458.598	107.38
458.818	93.38
459.038	99.38
459.258	86.38
459.478	87.38
459.698	84.38
459.918	81.38
460.138	91.38
460.358	85.38
460.578	101.38
460.798	97.38
461.018	115.38
461.238	93.38
461.458	89.38
461.678	90.38
461.898	96.38
462.118	83.38
462.338	83.38
462.558	86.38
462.777	98.38
462.997	87.38
463.217	77.38
463.437	83.38
463.657	97.38
463.876	77.38
464.096	97.38
464.316	75.38
464.536	92.38
464.755	89.38
464.975	73.38
465.195	97.38
465.414	84.38
465.634	82.38
465.854	85.38
466.073	86.38
466.293	89.38
466.512	101.38
466.732	92.38
466.951	95.38
467.171	65.38
467.391	86.38
467.61	80.38
467.829	78.38
468.049	92.38
468.268	71.38
468.488	75.38
468.707	75.38
468.927	72.38
469.146	77.38
469.365	85.38
469.585	77.38
469.804	82.38
470.023	83.38
470.243	69.38
470.462	93.38
470.681	72.38
470.901	84.38
471.12	84.38
471.339	81.38
471.558	75.38
471.777	79.38
471.997	98.38
472.216	77.38
472.435	85.38
472.654	97.38
472.873	92.38
473.092	94.38
473.311	78.38
473.53	87.38
473.749	94.38
473.968	96.38
474.187	67.38
474.406	77.38
474.625	90.38
474.844	91.38
475.063	94.38
475.282	103.38
475.501	79.38
475.72	97.38
475.939	99.38
476.158	90.38
476.377	80.38
476.596	77.38
476.814	84.38
477.033	92.38
477.252	74.38
477.471	68.38
477.69	88.38
477.908	83.38
478.127	88.38
478.346	90.38
478.564	74.38
478.783	80.38
479.002	87.38
479.22	94.38
479.439	79.38
479.658	90.38
479.876	76.38
480.095	74.38
480.313	90.38
480.532	77.38
480.751	96.38
480.969	83.38
481.188	70.38
481.406	97.38
481.624	94.38
481.843	92.38
482.061	84.38
482.28	88.38
482.498	91.38
482.717	87.38
482.935	86.38
483.153	73.38
483.372	82.38
483.59	81.38
483.808	89.38
484.027	91.38
484.245	102.38
484.463	84.38
484.681	100.38
484.9	97.38
485.118	96.38
485.336	91.38
485.554	83.38
485.772	96.38
485.99	74.38
486.209	89.38
486.427	81.38
486.645	96.38
486.863	88.38
487.081	89.38
487.299	100.38
487.517	80.38
487.735	101.38
487.953	112.38
488.171	115.38
488.389	87.38
488.607	81.38
488.825	101.38
489.043	90.38
489.261	85.38
489.479	82.38
489.696	89.38
489.914	87.38
490.132	74.38
490.35	97.38
490.568	99.38
490.786	80.38
491.003	85.38
491.221	93.38
491.439	86.38
491.657	90.38
491.874	81.38
492.092	92.38
492.31	93.38
492.527	86.38
492.745	91.38
492.963	83.38
493.18	77.38
493.398	81.38
493.615	93.38
493.833	90.38
494.05	91.38
494.268	89.38
494.485	76.38
494.703	97.38
494.92	92.38
495.138	89.38
495.355	96.38
495.573	101.38
495.79	83.38
496.008	81.38
496.225	84.38
496.442	103.38
496.66	85.38
496.877	88.38
497.094	93.38
497.312	88.38
497.529	82.38
497.746	87.38
497.963	101.38
498.181	71.38
498.398	87.38
498.615	74.38
498.832	88.38
499.049	89.38
499.267	93.38
499.484	79.38
499.701	81.38
499.918	96.38
500.135	83.38
500.352	89.38
500.569	76.38
500.786	98.38
501.003	96.38
501.22	87.38
501.437	78.38
501.654	91.38
501.871	85.38
502.088	89.38
502.305	91.38
502.522	95.38
502.739	79.38
502.956	79.38
503.172	96.38
503.389	90.38
503.606	101.38
503.823	97.38
504.04	108.38
504.256	108.38
504.473	83.38
504.69	77.38
504.907	92.38
505.123	96.38
505.34	83.38
505.557	91.38
505.773	90.38
505.99	84.38
506.207	85.38
506.423	83.38
506.64	84.38
506.856	73.38
507.073	97.38
507.289	83.38
507.506	83.38
507.722	87.38
507.939	107.38
508.155	91.38
508.372	86.38
508.588	88.38
508.805	93.38
509.021	92.38
509.238	86.38
509.454	84.38
509.67	85.38
509.887	100.38
510.103	88.38
510.319	79.38
510.536	103.38
510.752	103.38
510.968	96.38
511.184	77.38
511.401	87.38
511.617	91.38
511.833	90.38
512.049	89.38
512.265	97.38
512.481	88.38
512.698	91.38
512.914	99.38
513.13	89.38
513.346	84.38
513.562	81.38
513.778	88.38
513.994	87.38
514.21	82.38
514.426	81.38
514.642	89.38
514.858	83.38
515.074	76.38
515.29	89.38
515.506	94.38
515.721	87.38
515.937	89.38
516.153	92.38
516.369	85.38
516.585	84.38
516.801	79.38
517.016	85.38
517.232	84.38
517.448	83.38
517.664	88.38
517.879	90.38
518.095	91.38
518.311	95.38
518.527	111.38
518.742	96.38
