Data from HP_2_HRD10591_00050.txt Node
Date: Mon Jan 19 14:16:26 EST 2026
User: Yrep
Spectrometer: HR+D1059
Trigger mode: 1
Integration Time (sec): 1.000000E-1
Scans to average: 1
Electric dark correction enabled: true
Nonlinearity correction enabled: false
Boxcar width: 0
XAxis mode: Wavelengths
Number of Pixels in Spectrum: 2048
>>>>>Begin Spectral Data<<<<<
223.165	-16.12
223.4	-16.12
223.635	-16.12
223.869	-33.12
224.104	-22.12
224.338	-7.12
224.573	-11.12
224.808	-6.12
225.042	-18.12
225.277	-11.12
225.511	6.88
225.746	0.88
225.98	5.88
226.215	15.88
226.449	20.88
226.683	21.88
226.918	21.88
227.152	30.88
227.387	40.88
227.621	36.88
227.856	36.88
228.09	23.88
228.324	38.88
228.559	75.88
228.793	64.88
229.027	65.88
229.262	70.88
229.496	53.88
229.73	49.88
229.964	80.88
230.199	78.88
230.433	66.88
230.667	79.88
230.901	70.88
231.136	94.88
231.37	71.88
231.604	68.88
231.838	80.88
232.072	86.88
232.306	79.88
232.541	72.88
232.775	65.88
233.009	72.88
233.243	78.88
233.477	96.88
233.711	72.88
233.945	78.88
234.179	73.88
234.413	84.88
234.647	70.88
234.881	78.88
235.115	74.88
235.349	87.88
235.583	85.88
235.817	67.88
236.051	70.88
236.285	83.88
236.519	70.88
236.753	80.88
236.987	78.88
237.221	76.88
237.455	68.88
237.689	79.88
237.922	66.88
238.156	65.88
238.39	76.88
238.624	70.88
238.858	87.88
239.091	83.88
239.325	84.88
239.559	76.88
239.793	79.88
240.027	83.88
240.26	72.88
240.494	77.88
240.728	74.88
240.961	79.88
241.195	78.88
241.429	73.88
241.662	78.88
241.896	73.88
242.13	71.88
242.363	74.88
242.597	71.88
242.83	63.88
243.064	77.88
243.298	81.88
243.531	76.88
243.765	75.88
243.998	86.88
244.232	77.88
244.465	75.88
244.699	77.88
244.932	60.88
245.166	80.88
245.399	60.88
245.633	84.88
245.866	87.88
246.099	71.88
246.333	96.88
246.566	73.88
246.8	82.88
247.033	74.88
247.266	73.88
247.5	69.88
247.733	70.88
247.966	81.88
248.2	80.88
248.433	68.88
248.666	84.88
248.899	66.88
249.133	68.88
249.366	72.88
249.599	75.88
249.832	79.88
250.066	78.88
250.299	75.88
250.532	74.88
250.765	82.88
250.998	77.88
251.231	79.88
251.465	67.88
251.698	82.88
251.931	79.88
252.164	92.88
252.397	97.88
252.63	81.88
252.863	72.88
253.096	80.88
253.329	78.88
253.562	78.88
253.795	86.88
254.028	64.88
254.261	78.88
254.494	88.88
254.727	72.88
254.96	85.88
255.193	78.88
255.426	75.88
255.659	62.88
255.892	65.88
256.124	67.88
256.357	86.88
256.59	72.88
256.823	68.88
257.056	79.88
257.289	96.88
257.521	83.88
257.754	67.88
257.987	73.88
258.22	79.88
258.452	80.88
258.685	85.88
258.918	85.88
259.151	85.88
259.383	79.88
259.616	65.88
259.849	93.88
260.081	73.88
260.314	77.88
260.547	68.88
260.779	70.88
261.012	67.88
261.244	79.88
261.477	73.88
261.71	76.88
261.942	70.88
262.175	79.88
262.407	64.88
262.64	86.88
262.872	72.88
263.105	82.88
263.337	75.88
263.57	87.88
263.802	75.88
264.035	72.88
264.267	84.88
264.499	74.88
264.732	70.88
264.964	72.88
265.197	84.88
265.429	76.88
265.661	77.88
265.894	77.88
266.126	78.88
266.358	80.88
266.591	84.88
266.823	90.88
267.055	78.88
267.287	71.88
267.52	84.88
267.752	88.88
267.984	88.88
268.216	80.88
268.448	75.88
268.681	74.88
268.913	70.88
269.145	82.88
269.377	69.88
269.609	74.88
269.841	75.88
270.073	82.88
270.306	75.88
270.538	79.88
270.77	78.88
271.002	90.88
271.234	82.88
271.466	82.88
271.698	68.88
271.93	72.88
272.162	62.88
272.394	93.88
272.626	79.88
272.858	78.88
273.09	79.88
273.322	74.88
273.553	80.88
273.785	75.88
274.017	84.88
274.249	81.88
274.481	80.88
274.713	83.88
274.945	79.88
275.176	81.88
275.408	74.88
275.64	81.88
275.872	94.88
276.104	95.88
276.335	64.88
276.567	76.88
276.799	88.88
277.031	76.88
277.262	93.88
277.494	80.88
277.726	92.88
277.957	88.88
278.189	78.88
278.421	81.88
278.652	93.88
278.884	66.88
279.115	87.88
279.347	82.88
279.579	82.88
279.81	75.88
280.042	83.88
280.273	71.88
280.505	63.88
280.736	85.88
280.968	70.88
281.199	78.88
281.431	84.88
281.662	82.88
281.894	84.88
282.125	85.88
282.356	80.88
282.588	75.88
282.819	84.88
283.051	83.88
283.282	87.88
283.513	82.88
283.745	76.88
283.976	82.88
284.207	80.88
284.439	79.88
284.67	91.88
284.901	64.88
285.132	80.88
285.364	85.88
285.595	81.88
285.826	80.88
286.057	85.88
286.288	68.88
286.52	77.88
286.751	76.88
286.982	74.88
287.213	82.88
287.444	76.88
287.675	94.88
287.906	71.88
288.138	82.88
288.369	88.88
288.6	71.88
288.831	78.88
289.062	82.88
289.293	96.88
289.524	88.88
289.755	77.88
289.986	86.88
290.217	90.88
290.448	78.88
290.679	69.88
290.91	86.88
291.141	69.88
291.371	88.88
291.602	88.88
291.833	89.88
292.064	73.88
292.295	78.88
292.526	66.88
292.757	79.88
292.987	72.88
293.218	72.88
293.449	77.88
293.68	88.88
293.91	81.88
294.141	81.88
294.372	87.88
294.603	78.88
294.833	82.88
295.064	94.88
295.295	77.88
295.525	65.88
295.756	80.88
295.987	85.88
296.217	74.88
296.448	90.88
296.679	86.88
296.909	75.88
297.14	80.88
297.37	77.88
297.601	91.88
297.831	85.88
298.062	93.88
298.292	86.88
298.523	97.88
298.753	81.88
298.984	78.88
299.214	68.88
299.445	95.88
299.675	93.88
299.905	93.88
300.136	98.88
300.366	84.88
300.597	81.88
300.827	91.88
301.057	94.88
301.288	80.88
301.518	76.88
301.748	77.88
301.979	104.88
302.209	92.88
302.439	85.88
302.669	90.88
302.9	78.88
303.13	77.88
303.36	64.88
303.59	75.88
303.82	99.88
304.051	87.88
304.281	78.88
304.511	76.88
304.741	105.88
304.971	96.88
305.201	93.88
305.431	79.88
305.661	96.88
305.891	84.88
306.121	93.88
306.352	90.88
306.582	89.88
306.812	85.88
307.042	77.88
307.272	89.88
307.502	93.88
307.731	75.88
307.961	87.88
308.191	90.88
308.421	74.88
308.651	86.88
308.881	90.88
309.111	73.88
309.341	86.88
309.571	96.88
309.8	88.88
310.03	84.88
310.26	89.88
310.49	82.88
310.72	80.88
310.949	87.88
311.179	83.88
311.409	80.88
311.639	83.88
311.868	86.88
312.098	84.88
312.328	95.88
312.557	76.88
312.787	72.88
313.017	80.88
313.246	80.88
313.476	93.88
313.706	81.88
313.935	74.88
314.165	86.88
314.394	78.88
314.624	80.88
314.853	90.88
315.083	95.88
315.312	77.88
315.542	81.88
315.771	80.88
316.001	83.88
316.23	82.88
316.46	89.88
316.689	96.88
316.919	97.88
317.148	82.88
317.377	78.88
317.607	88.88
317.836	79.88
318.065	87.88
318.295	81.88
318.524	80.88
318.753	88.88
318.983	79.88
319.212	81.88
319.441	83.88
319.67	88.88
319.9	93.88
320.129	92.88
320.358	103.88
320.587	81.88
320.816	76.88
321.046	77.88
321.275	93.88
321.504	91.88
321.733	97.88
321.962	92.88
322.191	71.88
322.42	79.88
322.649	84.88
322.878	81.88
323.108	79.88
323.337	81.88
323.566	76.88
323.795	71.88
324.024	77.88
324.253	82.88
324.482	88.88
324.71	63.88
324.939	104.88
325.168	97.88
325.397	102.88
325.626	88.88
325.855	88.88
326.084	81.88
326.313	98.88
326.542	80.88
326.77	83.88
326.999	80.88
327.228	75.88
327.457	88.88
327.686	84.88
327.914	73.88
328.143	80.88
328.372	76.88
328.6	85.88
328.829	93.88
329.058	94.88
329.287	87.88
329.515	76.88
329.744	89.88
329.972	88.88
330.201	86.88
330.43	78.88
330.658	78.88
330.887	75.88
331.115	75.88
331.344	88.88
331.572	86.88
331.801	91.88
332.03	90.88
332.258	83.88
332.486	97.88
332.715	67.88
332.943	86.88
333.172	76.88
333.4	77.88
333.629	77.88
333.857	73.88
334.085	80.88
334.314	77.88
334.542	101.88
334.771	77.88
334.999	100.88
335.227	88.88
335.455	88.88
335.684	92.88
335.912	82.88
336.14	94.88
336.369	79.88
336.597	85.88
336.825	69.88
337.053	68.88
337.281	81.88
337.51	76.88
337.738	92.88
337.966	74.88
338.194	85.88
338.422	76.88
338.65	102.88
338.878	82.88
339.106	79.88
339.334	97.88
339.562	83.88
339.79	83.88
340.018	96.88
340.246	80.88
340.474	83.88
340.702	89.88
340.93	78.88
341.158	74.88
341.386	69.88
341.614	94.88
341.842	72.88
342.07	79.88
342.298	78.88
342.526	88.88
342.754	86.88
342.981	91.88
343.209	86.88
343.437	92.88
343.665	90.88
343.893	88.88
344.12	86.88
344.348	77.88
344.576	93.88
344.804	96.88
345.031	80.88
345.259	88.88
345.487	86.88
345.714	82.88
345.942	93.88
346.17	78.88
346.397	93.88
346.625	78.88
346.853	83.88
347.08	80.88
347.308	72.88
347.535	81.88
347.763	84.88
347.99	87.88
348.218	73.88
348.445	82.88
348.673	78.88
348.9	85.88
349.128	86.88
349.355	84.88
349.583	83.88
349.81	77.88
350.037	88.88
350.265	84.88
350.492	85.88
350.72	77.88
350.947	75.88
351.174	81.88
351.402	86.88
351.629	68.88
351.856	91.88
352.083	96.88
352.311	92.88
352.538	80.88
352.765	74.88
352.992	94.88
353.22	78.88
353.447	80.88
353.674	86.88
353.901	84.88
354.128	93.88
354.355	78.88
354.583	74.88
354.81	79.88
355.037	86.88
355.264	96.88
355.491	82.88
355.718	84.88
355.945	87.88
356.172	87.88
356.399	69.88
356.626	76.88
356.853	82.88
357.08	87.88
357.307	82.88
357.534	90.88
357.761	81.88
357.988	100.88
358.215	94.88
358.441	74.88
358.668	69.88
358.895	89.88
359.122	73.88
359.349	75.88
359.576	72.88
359.802	92.88
360.029	60.88
360.256	95.88
360.483	79.88
360.709	96.88
360.936	103.88
361.163	66.88
361.39	89.88
361.616	75.88
361.843	86.88
362.07	89.88
362.296	90.88
362.523	84.88
362.749	87.88
362.976	93.88
363.203	110.88
363.429	90.88
363.656	92.88
363.882	93.88
364.109	105.88
364.335	107.88
364.562	112.88
364.788	93.88
365.015	79.88
365.241	78.88
365.468	89.88
365.694	82.88
365.92	86.88
366.147	77.88
366.373	79.88
366.599	92.88
366.826	78.88
367.052	87.88
367.278	82.88
367.505	88.88
367.731	87.88
367.957	80.88
368.184	87.88
368.41	81.88
368.636	71.88
368.862	71.88
369.089	94.88
369.315	84.88
369.541	78.88
369.767	85.88
369.993	73.88
370.219	74.88
370.445	77.88
370.672	75.88
370.898	82.88
371.124	89.88
371.35	75.88
371.576	91.88
371.802	89.88
372.028	74.88
372.254	84.88
372.48	74.88
372.706	76.88
372.932	83.88
373.158	82.88
373.384	91.88
373.61	95.88
373.835	97.88
374.061	90.88
374.287	92.88
374.513	94.88
374.739	80.88
374.965	80.88
375.191	84.88
375.416	91.88
375.642	83.88
375.868	78.88
376.094	80.88
376.319	76.88
376.545	92.88
376.771	83.88
376.997	80.88
377.222	81.88
377.448	77.88
377.674	92.88
377.899	80.88
378.125	90.88
378.35	77.88
378.576	80.88
378.802	78.88
379.027	89.88
379.253	80.88
379.478	82.88
379.704	85.88
379.929	85.88
380.155	88.88
380.38	78.88
380.606	84.88
380.831	89.88
381.057	89.88
381.282	67.88
381.507	92.88
381.733	77.88
381.958	81.88
382.184	95.88
382.409	75.88
382.634	86.88
382.86	91.88
383.085	83.88
383.31	85.88
383.535	96.88
383.761	82.88
383.986	87.88
384.211	95.88
384.436	82.88
384.662	87.88
384.887	70.88
385.112	78.88
385.337	104.88
385.562	79.88
385.787	84.88
386.013	78.88
386.238	91.88
386.463	83.88
386.688	89.88
386.913	83.88
387.138	89.88
387.363	80.88
387.588	75.88
387.813	73.88
388.038	94.88
388.263	82.88
388.488	82.88
388.713	95.88
388.938	84.88
389.163	78.88
389.387	88.88
389.612	72.88
389.837	97.88
390.062	85.88
390.287	80.88
390.512	82.88
390.736	88.88
390.961	74.88
391.186	85.88
391.411	72.88
391.636	75.88
391.86	85.88
392.085	93.88
392.31	80.88
392.534	80.88
392.759	88.88
392.984	110.88
393.208	144.88
393.433	195.88
393.658	164.88
393.882	116.88
394.107	81.88
394.331	105.88
394.556	97.88
394.78	92.88
395.005	96.88
395.229	87.88
395.454	84.88
395.678	85.88
395.903	104.88
396.127	109.88
396.352	103.88
396.576	103.88
396.801	160.88
397.025	158.88
397.249	110.88
397.474	113.88
397.698	88.88
397.922	83.88
398.147	94.88
398.371	91.88
398.595	80.88
398.82	74.88
399.044	83.88
399.268	72.88
399.492	74.88
399.717	81.88
399.941	82.88
400.165	84.88
400.389	78.88
400.613	85.88
400.837	77.88
401.062	86.88
401.286	80.88
401.51	84.88
401.734	78.88
401.958	89.88
402.182	85.88
402.406	99.88
402.63	94.88
402.854	86.88
403.078	68.88
403.302	83.88
403.526	100.88
403.75	81.88
403.974	90.88
404.198	94.88
404.422	112.88
404.645	110.88
404.869	102.88
405.093	92.88
405.317	83.88
405.541	88.88
405.765	84.88
405.988	74.88
406.212	88.88
406.436	82.88
406.66	74.88
406.883	86.88
407.107	71.88
407.331	74.88
407.555	76.88
407.778	90.88
408.002	102.88
408.226	77.88
408.449	86.88
408.673	80.88
408.896	78.88
409.12	69.88
409.344	96.88
409.567	86.88
409.791	92.88
410.014	83.88
410.238	81.88
410.461	85.88
410.685	89.88
410.908	82.88
411.132	94.88
411.355	85.88
411.578	91.88
411.802	84.88
412.025	84.88
412.249	78.88
412.472	75.88
412.695	81.88
412.919	77.88
413.142	82.88
413.365	85.88
413.589	96.88
413.812	74.88
414.035	95.88
414.258	88.88
414.482	84.88
414.705	77.88
414.928	70.88
415.151	88.88
415.374	58.88
415.597	88.88
415.821	69.88
416.044	85.88
416.267	89.88
416.49	72.88
416.713	93.88
416.936	85.88
417.159	80.88
417.382	80.88
417.605	82.88
417.828	73.88
418.051	84.88
418.274	84.88
418.497	90.88
418.72	86.88
418.943	74.88
419.166	80.88
419.389	72.88
419.611	78.88
419.834	90.88
420.057	81.88
420.28	83.88
420.503	70.88
420.726	72.88
420.948	95.88
421.171	85.88
421.394	88.88
421.617	98.88
421.839	93.88
422.062	105.88
422.285	133.88
422.507	192.88
422.73	265.88
422.953	242.88
423.175	131.88
423.398	100.88
423.621	82.88
423.843	97.88
424.066	89.88
424.288	81.88
424.511	85.88
424.733	88.88
424.956	75.88
425.178	88.88
425.401	92.88
425.623	94.88
425.846	84.88
426.068	76.88
426.291	77.88
426.513	87.88
426.735	82.88
426.958	89.88
427.18	99.88
427.402	94.88
427.625	60.88
427.847	75.88
428.069	96.88
428.292	103.88
428.514	100.88
428.736	91.88
428.958	94.88
429.181	118.88
429.403	98.88
429.625	84.88
429.847	105.88
430.069	121.88
430.292	142.88
430.514	122.88
430.736	112.88
430.958	134.88
431.18	80.88
431.402	80.88
431.624	96.88
431.846	98.88
432.068	106.88
432.29	72.88
432.512	79.88
432.734	85.88
432.956	77.88
433.178	78.88
433.4	85.88
433.622	88.88
433.844	78.88
434.066	80.88
434.287	80.88
434.509	70.88
434.731	77.88
434.953	82.88
435.175	84.88
435.397	86.88
435.618	90.88
435.84	77.88
436.062	83.88
436.284	69.88
436.505	89.88
436.727	106.88
436.949	67.88
437.17	86.88
437.392	80.88
437.614	87.88
437.835	92.88
438.057	84.88
438.278	90.88
438.5	80.88
438.721	91.88
438.943	88.88
439.165	75.88
439.386	75.88
439.608	91.88
439.829	82.88
440.05	70.88
440.272	85.88
440.493	86.88
440.715	80.88
440.936	94.88
441.158	82.88
441.379	81.88
441.6	80.88
441.822	85.88
442.043	90.88
442.264	89.88
442.486	105.88
442.707	135.88
442.928	92.88
443.149	86.88
443.371	124.88
443.592	166.88
443.813	161.88
444.034	89.88
444.255	81.88
444.476	103.88
444.698	80.88
444.919	89.88
445.14	154.88
445.361	167.88
445.582	182.88
445.803	156.88
446.024	94.88
446.245	86.88
446.466	76.88
446.687	76.88
446.908	82.88
447.129	80.88
447.35	84.88
447.571	78.88
447.792	74.88
448.013	70.88
448.234	74.88
448.455	81.88
448.675	76.88
448.896	79.88
449.117	76.88
449.338	80.88
449.559	64.88
449.779	85.88
450	80.88
450.221	92.88
450.442	84.88
450.662	90.88
450.883	83.88
451.104	90.88
451.324	69.88
451.545	86.88
451.766	87.88
451.986	74.88
452.207	81.88
452.428	75.88
452.648	79.88
452.869	95.88
453.089	82.88
453.31	84.88
453.53	78.88
453.751	85.88
453.971	101.88
454.192	78.88
454.412	80.88
454.633	76.88
454.853	88.88
455.073	75.88
455.294	84.88
455.514	85.88
455.734	81.88
455.955	87.88
456.175	74.88
456.395	79.88
456.616	85.88
456.836	78.88
457.056	78.88
457.276	75.88
457.497	81.88
457.717	100.88
457.937	85.88
458.157	98.88
458.377	87.88
458.598	84.88
458.818	107.88
459.038	97.88
459.258	81.88
459.478	74.88
459.698	81.88
459.918	86.88
460.138	75.88
460.358	97.88
460.578	101.88
460.798	110.88
461.018	108.88
461.238	85.88
461.458	65.88
461.678	89.88
461.898	77.88
462.118	74.88
462.338	78.88
462.558	70.88
462.777	85.88
462.997	74.88
463.217	83.88
463.437	81.88
463.657	78.88
463.876	75.88
464.096	81.88
464.316	78.88
464.536	60.88
464.755	73.88
464.975	70.88
465.195	72.88
465.414	97.88
465.634	82.88
465.854	78.88
466.073	80.88
466.293	71.88
466.512	75.88
466.732	76.88
466.951	87.88
467.171	92.88
467.391	78.88
467.61	77.88
467.829	86.88
468.049	86.88
468.268	81.88
468.488	82.88
468.707	84.88
468.927	77.88
469.146	80.88
469.365	76.88
469.585	76.88
469.804	89.88
470.023	69.88
470.243	76.88
470.462	87.88
470.681	73.88
470.901	74.88
471.12	74.88
471.339	81.88
471.558	81.88
471.777	87.88
471.997	88.88
472.216	77.88
472.435	62.88
472.654	77.88
472.873	62.88
473.092	79.88
473.311	80.88
473.53	82.88
473.749	77.88
473.968	74.88
474.187	81.88
474.406	93.88
474.625	86.88
474.844	101.88
475.063	88.88
475.282	80.88
475.501	85.88
475.72	93.88
475.939	74.88
476.158	75.88
476.377	80.88
476.596	81.88
476.814	81.88
477.033	82.88
477.252	71.88
477.471	80.88
477.69	91.88
477.908	83.88
478.127	70.88
478.346	75.88
478.564	77.88
478.783	88.88
479.002	75.88
479.22	84.88
479.439	82.88
479.658	74.88
479.876	75.88
480.095	86.88
480.313	85.88
480.532	85.88
480.751	80.88
480.969	89.88
481.188	95.88
481.406	84.88
481.624	108.88
481.843	94.88
482.061	72.88
482.28	84.88
482.498	89.88
482.717	72.88
482.935	86.88
483.153	70.88
483.372	78.88
483.59	94.88
483.808	87.88
484.027	90.88
484.245	86.88
484.463	92.88
484.681	82.88
484.9	72.88
485.118	80.88
485.336	86.88
485.554	71.88
485.772	88.88
485.99	92.88
486.209	88.88
486.427	77.88
486.645	83.88
486.863	87.88
487.081	82.88
487.299	84.88
487.517	86.88
487.735	85.88
487.953	127.88
488.171	117.88
488.389	94.88
488.607	80.88
488.825	73.88
489.043	74.88
489.261	61.88
489.479	82.88
489.696	84.88
489.914	84.88
490.132	82.88
490.35	76.88
490.568	77.88
490.786	73.88
491.003	92.88
491.221	84.88
491.439	81.88
491.657	78.88
491.874	77.88
492.092	74.88
492.31	94.88
492.527	90.88
492.745	85.88
492.963	83.88
493.18	80.88
493.398	80.88
493.615	85.88
493.833	78.88
494.05	87.88
494.268	80.88
494.485	82.88
494.703	90.88
494.92	82.88
495.138	82.88
495.355	98.88
495.573	76.88
495.79	73.88
496.008	90.88
496.225	92.88
496.442	76.88
496.66	92.88
496.877	91.88
497.094	92.88
497.312	83.88
497.529	81.88
497.746	80.88
497.963	78.88
498.181	83.88
498.398	94.88
498.615	97.88
498.832	100.88
499.049	80.88
499.267	76.88
499.484	77.88
499.701	65.88
499.918	79.88
500.135	69.88
500.352	73.88
500.569	68.88
500.786	72.88
501.003	96.88
501.22	91.88
501.437	89.88
501.654	72.88
501.871	87.88
502.088	78.88
502.305	78.88
502.522	71.88
502.739	88.88
502.956	84.88
503.172	93.88
503.389	80.88
503.606	88.88
503.823	78.88
504.04	93.88
504.256	114.88
504.473	105.88
504.69	92.88
504.907	93.88
505.123	80.88
505.34	78.88
505.557	94.88
505.773	77.88
505.99	96.88
506.207	75.88
506.423	84.88
506.64	85.88
506.856	81.88
507.073	85.88
507.289	75.88
507.506	83.88
507.722	91.88
507.939	74.88
508.155	76.88
508.372	80.88
508.588	90.88
508.805	82.88
509.021	88.88
509.238	83.88
509.454	89.88
509.67	74.88
509.887	82.88
510.103	77.88
510.319	87.88
510.536	90.88
510.752	82.88
510.968	85.88
511.184	88.88
511.401	97.88
511.617	92.88
511.833	66.88
512.049	99.88
512.265	85.88
512.481	81.88
512.698	88.88
512.914	75.88
513.13	84.88
513.346	75.88
513.562	85.88
513.778	97.88
513.994	83.88
514.21	80.88
514.426	87.88
514.642	97.88
514.858	76.88
515.074	74.88
515.29	80.88
515.506	91.88
515.721	88.88
515.937	85.88
516.153	86.88
516.369	75.88
516.585	83.88
516.801	85.88
517.016	89.88
517.232	78.88
517.448	94.88
517.664	82.88
517.879	81.88
518.095	77.88
518.311	84.88
518.527	99.88
518.742	101.88
518.958	109.88
519.173	105.88
