Data from HP_2_HRD10591_00049.txt Node
Date: Mon Jan 19 14:16:25 EST 2026
User: Yrep
Spectrometer: HR+D1059
Trigger mode: 1
Integration Time (sec): 1.000000E-1
Scans to average: 1
Electric dark correction enabled: true
Nonlinearity correction enabled: false
Boxcar width: 0
XAxis mode: Wavelengths
Number of Pixels in Spectrum: 2048
>>>>>Begin Spectral Data<<<<<
223.165	2
223.4	2
223.635	2
223.869	-16
224.104	-14
224.338	-11
224.573	-16
224.808	-18
225.042	-1
225.277	-8
225.511	6
225.746	-12
225.98	14
226.215	5
226.449	3
226.683	18
226.918	14
227.152	34
227.387	35
227.621	34
227.856	38
228.09	32
228.324	41
228.559	41
228.793	63
229.027	62
229.262	52
229.496	62
229.73	64
229.964	64
230.199	74
230.433	74
230.667	84
230.901	71
231.136	61
231.37	65
231.604	68
231.838	74
232.072	74
232.306	73
232.541	91
232.775	76
233.009	92
233.243	77
233.477	79
233.711	63
233.945	82
234.179	62
234.413	77
234.647	84
234.881	86
235.115	59
235.349	84
235.583	79
235.817	66
236.051	83
236.285	72
236.519	85
236.753	60
236.987	77
237.221	87
237.455	77
237.689	67
237.922	80
238.156	81
238.39	60
238.624	58
238.858	83
239.091	68
239.325	68
239.559	76
239.793	82
240.027	87
240.26	84
240.494	72
240.728	70
240.961	66
241.195	69
241.429	69
241.662	83
241.896	61
242.13	66
242.363	69
242.597	71
242.83	82
243.064	83
243.298	88
243.531	81
243.765	86
243.998	60
244.232	76
244.465	78
244.699	72
244.932	73
245.166	72
245.399	68
245.633	74
245.866	79
246.099	79
246.333	77
246.566	71
246.8	84
247.033	67
247.266	70
247.5	68
247.733	79
247.966	78
248.2	79
248.433	82
248.666	77
248.899	92
249.133	90
249.366	78
249.599	67
249.832	69
250.066	80
250.299	84
250.532	70
250.765	84
250.998	77
251.231	61
251.465	82
251.698	72
251.931	87
252.164	71
252.397	60
252.63	82
252.863	67
253.096	68
253.329	66
253.562	74
253.795	88
254.028	96
254.261	70
254.494	73
254.727	80
254.96	74
255.193	83
255.426	70
255.659	80
255.892	76
256.124	81
256.357	74
256.59	80
256.823	72
257.056	74
257.289	73
257.521	85
257.754	79
257.987	80
258.22	85
258.452	66
258.685	77
258.918	73
259.151	84
259.383	83
259.616	74
259.849	77
260.081	64
260.314	81
260.547	66
260.779	75
261.012	77
261.244	65
261.477	90
261.71	79
261.942	83
262.175	74
262.407	74
262.64	72
262.872	80
263.105	88
263.337	80
263.57	88
263.802	84
264.035	76
264.267	80
264.499	83
264.732	85
264.964	77
265.197	75
265.429	77
265.661	77
265.894	74
266.126	74
266.358	76
266.591	79
266.823	83
267.055	79
267.287	92
267.52	83
267.752	90
267.984	84
268.216	80
268.448	62
268.681	80
268.913	90
269.145	70
269.377	77
269.609	78
269.841	89
270.073	81
270.306	85
270.538	72
270.77	83
271.002	71
271.234	78
271.466	93
271.698	72
271.93	78
272.162	83
272.394	81
272.626	72
272.858	92
273.09	69
273.322	85
273.553	73
273.785	86
274.017	78
274.249	83
274.481	88
274.713	96
274.945	88
275.176	96
275.408	93
275.64	87
275.872	96
276.104	75
276.335	89
276.567	84
276.799	79
277.031	78
277.262	76
277.494	82
277.726	80
277.957	78
278.189	94
278.421	87
278.652	80
278.884	91
279.115	80
279.347	82
279.579	73
279.81	92
280.042	72
280.273	74
280.505	80
280.736	80
280.968	69
281.199	94
281.431	85
281.662	68
281.894	79
282.125	90
282.356	84
282.588	78
282.819	98
283.051	88
283.282	73
283.513	86
283.745	78
283.976	67
284.207	66
284.439	82
284.67	94
284.901	77
285.132	68
285.364	80
285.595	74
285.826	76
286.057	68
286.288	80
286.52	85
286.751	85
286.982	71
287.213	65
287.444	77
287.675	76
287.906	87
288.138	97
288.369	88
288.6	79
288.831	78
289.062	83
289.293	89
289.524	67
289.755	82
289.986	82
290.217	89
290.448	90
290.679	97
290.91	88
291.141	86
291.371	88
291.602	89
291.833	68
292.064	74
292.295	76
292.526	77
292.757	97
292.987	83
293.218	73
293.449	77
293.68	69
293.91	78
294.141	79
294.372	82
294.603	74
294.833	71
295.064	95
295.295	88
295.525	76
295.756	78
295.987	80
296.217	78
296.448	67
296.679	89
296.909	82
297.14	83
297.37	68
297.601	70
297.831	66
298.062	80
298.292	80
298.523	83
298.753	90
298.984	69
299.214	85
299.445	91
299.675	94
299.905	82
300.136	79
300.366	78
300.597	82
300.827	92
301.057	79
301.288	76
301.518	85
301.748	81
301.979	88
302.209	83
302.439	83
302.669	91
302.9	85
303.13	82
303.36	82
303.59	87
303.82	78
304.051	66
304.281	79
304.511	89
304.741	85
304.971	79
305.201	74
305.431	81
305.661	77
305.891	101
306.121	75
306.352	68
306.582	68
306.812	91
307.042	64
307.272	93
307.502	88
307.731	93
307.961	92
308.191	83
308.421	98
308.651	78
308.881	74
309.111	78
309.341	103
309.571	82
309.8	87
310.03	89
310.26	83
310.49	84
310.72	73
310.949	67
311.179	65
311.409	82
311.639	81
311.868	64
312.098	87
312.328	82
312.557	68
312.787	71
313.017	82
313.246	81
313.476	69
313.706	71
313.935	86
314.165	82
314.394	75
314.624	88
314.853	92
315.083	67
315.312	78
315.542	89
315.771	91
316.001	90
316.23	80
316.46	73
316.689	82
316.919	87
317.148	81
317.377	77
317.607	85
317.836	77
318.065	102
318.295	80
318.524	81
318.753	75
318.983	90
319.212	76
319.441	79
319.67	88
319.9	80
320.129	77
320.358	72
320.587	88
320.816	84
321.046	79
321.275	73
321.504	75
321.733	73
321.962	74
322.191	82
322.42	81
322.649	92
322.878	82
323.108	76
323.337	68
323.566	88
323.795	74
324.024	81
324.253	68
324.482	89
324.71	69
324.939	85
325.168	86
325.397	65
325.626	80
325.855	87
326.084	78
326.313	81
326.542	82
326.77	90
326.999	84
327.228	82
327.457	86
327.686	75
327.914	78
328.143	74
328.372	76
328.6	72
328.829	84
329.058	75
329.287	93
329.515	77
329.744	89
329.972	78
330.201	88
330.43	78
330.658	89
330.887	86
331.115	89
331.344	87
331.572	73
331.801	86
332.03	75
332.258	85
332.486	81
332.715	82
332.943	93
333.172	75
333.4	86
333.629	82
333.857	74
334.085	82
334.314	77
334.542	76
334.771	79
334.999	86
335.227	84
335.455	89
335.684	80
335.912	80
336.14	94
336.369	92
336.597	85
336.825	77
337.053	71
337.281	95
337.51	72
337.738	67
337.966	85
338.194	68
338.422	85
338.65	97
338.878	82
339.106	88
339.334	85
339.562	82
339.79	84
340.018	92
340.246	80
340.474	94
340.702	90
340.93	74
341.158	86
341.386	80
341.614	101
341.842	87
342.07	71
342.298	73
342.526	87
342.754	85
342.981	89
343.209	81
343.437	90
343.665	70
343.893	81
344.12	82
344.348	80
344.576	83
344.804	107
345.031	95
345.259	80
345.487	76
345.714	80
345.942	72
346.17	79
346.397	86
346.625	89
346.853	80
347.08	79
347.308	86
347.535	87
347.763	97
347.99	92
348.218	79
348.445	80
348.673	74
348.9	92
349.128	96
349.355	93
349.583	89
349.81	92
350.037	87
350.265	92
350.492	72
350.72	74
350.947	84
351.174	88
351.402	89
351.629	78
351.856	74
352.083	89
352.311	87
352.538	80
352.765	76
352.992	80
353.22	87
353.447	81
353.674	78
353.901	92
354.128	80
354.355	87
354.583	60
354.81	79
355.037	80
355.264	87
355.491	82
355.718	75
355.945	81
356.172	78
356.399	86
356.626	75
356.853	83
357.08	78
357.307	83
357.534	81
357.761	92
357.988	72
358.215	87
358.441	76
358.668	80
358.895	75
359.122	80
359.349	90
359.576	94
359.802	70
360.029	72
360.256	86
360.483	86
360.709	83
360.936	90
361.163	84
361.39	82
361.616	92
361.843	86
362.07	92
362.296	87
362.523	90
362.749	94
362.976	87
363.203	94
363.429	78
363.656	69
363.882	71
364.109	85
364.335	99
364.562	90
364.788	84
365.015	75
365.241	73
365.468	92
365.694	93
365.92	94
366.147	78
366.373	84
366.599	96
366.826	84
367.052	61
367.278	81
367.505	89
367.731	88
367.957	77
368.184	72
368.41	71
368.636	77
368.862	79
369.089	74
369.315	83
369.541	91
369.767	82
369.993	75
370.219	81
370.445	74
370.672	82
370.898	80
371.124	81
371.35	75
371.576	80
371.802	93
372.028	92
372.254	69
372.48	84
372.706	71
372.932	82
373.158	69
373.384	72
373.61	97
373.835	82
374.061	84
374.287	75
374.513	80
374.739	99
374.965	86
375.191	76
375.416	90
375.642	87
375.868	84
376.094	89
376.319	83
376.545	74
376.771	82
376.997	94
377.222	81
377.448	83
377.674	84
377.899	78
378.125	82
378.35	70
378.576	82
378.802	80
379.027	82
379.253	84
379.478	70
379.704	84
379.929	81
380.155	83
380.38	82
380.606	83
380.831	96
381.057	70
381.282	71
381.507	81
381.733	81
381.958	80
382.184	82
382.409	78
382.634	80
382.86	71
383.085	81
383.31	67
383.535	95
383.761	84
383.986	75
384.211	92
384.436	80
384.662	66
384.887	80
385.112	80
385.337	82
385.562	81
385.787	79
386.013	72
386.238	82
386.463	86
386.688	85
386.913	69
387.138	98
387.363	94
387.588	80
387.813	86
388.038	80
388.263	72
388.488	79
388.713	82
388.938	78
389.163	89
389.387	69
389.612	58
389.837	75
390.062	90
390.287	89
390.512	72
390.736	82
390.961	70
391.186	86
391.411	93
391.636	90
391.86	84
392.085	82
392.31	87
392.534	80
392.759	83
392.984	110
393.208	118
393.433	168
393.658	137
393.882	105
394.107	83
394.331	100
394.556	88
394.78	102
395.005	84
395.229	82
395.454	82
395.678	80
395.903	112
396.127	72
396.352	109
396.576	104
396.801	130
397.025	143
397.249	108
397.474	95
397.698	101
397.922	91
398.147	81
398.371	93
398.595	86
398.82	98
399.044	84
399.268	82
399.492	84
399.717	81
399.941	89
400.165	87
400.389	66
400.613	80
400.837	91
401.062	86
401.286	91
401.51	84
401.734	77
401.958	90
402.182	73
402.406	77
402.63	85
402.854	80
403.078	89
403.302	85
403.526	88
403.75	92
403.974	89
404.198	88
404.422	97
404.645	120
404.869	105
405.093	96
405.317	96
405.541	91
405.765	70
405.988	67
406.212	88
406.436	81
406.66	94
406.883	84
407.107	69
407.331	95
407.555	73
407.778	80
408.002	82
408.226	87
408.449	68
408.673	90
408.896	77
409.12	82
409.344	97
409.567	87
409.791	81
410.014	86
410.238	82
410.461	83
410.685	83
410.908	74
411.132	83
411.355	90
411.578	89
411.802	98
412.025	85
412.249	76
412.472	78
412.695	98
412.919	92
413.142	89
413.365	73
413.589	79
413.812	81
414.035	99
414.258	84
414.482	74
414.705	73
414.928	81
415.151	82
415.374	89
415.597	88
415.821	101
416.044	78
416.267	80
416.49	73
416.713	78
416.936	70
417.159	78
417.382	83
417.605	84
417.828	81
418.051	77
418.274	82
418.497	85
418.72	94
418.943	79
419.166	84
419.389	78
419.611	77
419.834	94
420.057	85
420.28	66
420.503	68
420.726	82
420.948	86
421.171	85
421.394	93
421.617	89
421.839	82
422.062	97
422.285	108
422.507	148
422.73	229
422.953	221
423.175	137
423.398	87
423.621	103
423.843	87
424.066	102
424.288	86
424.511	86
424.733	70
424.956	83
425.178	78
425.401	75
425.623	74
425.846	75
426.068	75
426.291	71
426.513	81
426.735	86
426.958	89
427.18	79
427.402	87
427.625	79
427.847	81
428.069	87
428.292	116
428.514	99
428.736	82
428.958	91
429.181	95
429.403	88
429.625	89
429.847	77
430.069	113
430.292	118
430.514	126
430.736	94
430.958	103
431.18	101
431.402	77
431.624	74
431.846	103
432.068	99
432.29	92
432.512	87
432.734	82
432.956	69
433.178	81
433.4	74
433.622	88
433.844	90
434.066	75
434.287	92
434.509	81
434.731	78
434.953	71
435.175	75
435.397	108
435.618	87
435.84	89
436.062	65
436.284	85
436.505	86
436.727	57
436.949	75
437.17	84
437.392	67
437.614	70
437.835	75
438.057	73
438.278	72
438.5	88
438.721	89
438.943	90
439.165	82
439.386	92
439.608	85
439.829	81
440.05	79
440.272	74
440.493	89
440.715	90
440.936	101
441.158	82
441.379	74
441.6	89
441.822	82
442.043	74
442.264	87
442.486	106
442.707	116
442.928	102
443.149	81
443.371	106
443.592	148
443.813	144
444.034	93
444.255	92
444.476	79
444.698	74
444.919	87
445.14	146
445.361	145
445.582	166
445.803	164
446.024	86
446.245	79
446.466	73
446.687	74
446.908	96
447.129	89
447.35	75
447.571	83
447.792	69
448.013	81
448.234	87
448.455	63
448.675	78
448.896	75
449.117	96
449.338	77
449.559	87
449.779	70
450	85
450.221	97
450.442	75
450.662	74
450.883	87
451.104	101
451.324	87
451.545	72
451.766	70
451.986	73
452.207	73
452.428	77
452.648	70
452.869	84
453.089	84
453.31	73
453.53	80
453.751	70
453.971	86
454.192	80
454.412	71
454.633	75
454.853	83
455.073	73
455.294	86
455.514	88
455.734	82
455.955	81
456.175	75
456.395	93
456.616	80
456.836	75
457.056	87
457.276	95
457.497	88
457.717	76
457.937	85
458.157	90
458.377	92
458.598	100
458.818	94
459.038	97
459.258	80
459.478	86
459.698	68
459.918	72
460.138	81
460.358	79
460.578	92
460.798	96
461.018	87
461.238	85
461.458	94
461.678	87
461.898	82
462.118	82
462.338	87
462.558	70
462.777	85
462.997	65
463.217	78
463.437	87
463.657	68
463.876	93
464.096	75
464.316	86
464.536	79
464.755	87
464.975	89
465.195	72
465.414	88
465.634	69
465.854	86
466.073	78
466.293	78
466.512	89
466.732	85
466.951	75
467.171	99
467.391	79
467.61	78
467.829	67
468.049	82
468.268	81
468.488	89
468.707	79
468.927	73
469.146	78
469.365	73
469.585	68
469.804	76
470.023	95
470.243	71
470.462	75
470.681	84
470.901	73
471.12	88
471.339	79
471.558	85
471.777	76
471.997	84
472.216	67
472.435	75
472.654	85
472.873	88
473.092	75
473.311	85
473.53	78
473.749	90
473.968	86
474.187	86
474.406	86
474.625	72
474.844	78
475.063	82
475.282	82
475.501	80
475.72	86
475.939	82
476.158	70
476.377	76
476.596	68
476.814	85
477.033	79
477.252	88
477.471	85
477.69	82
477.908	74
478.127	97
478.346	77
478.564	84
478.783	81
479.002	94
479.22	88
479.439	84
479.658	71
479.876	85
480.095	76
480.313	85
480.532	87
480.751	82
480.969	89
481.188	84
481.406	80
481.624	88
481.843	78
482.061	70
482.28	79
482.498	67
482.717	85
482.935	88
483.153	84
483.372	82
483.59	80
483.808	81
484.027	87
484.245	85
484.463	75
484.681	89
484.9	84
485.118	96
485.336	77
485.554	87
485.772	83
485.99	89
486.209	92
486.427	82
486.645	76
486.863	84
487.081	78
487.299	88
487.517	106
487.735	90
487.953	120
488.171	110
488.389	88
488.607	61
488.825	68
489.043	58
489.261	72
489.479	96
489.696	86
489.914	75
490.132	85
490.35	69
490.568	75
490.786	81
491.003	81
491.221	88
491.439	81
491.657	78
491.874	81
492.092	87
492.31	88
492.527	75
492.745	86
492.963	81
493.18	88
493.398	85
493.615	89
493.833	83
494.05	89
494.268	83
494.485	103
494.703	84
494.92	83
495.138	85
495.355	83
495.573	81
495.79	79
496.008	89
496.225	104
496.442	92
496.66	98
496.877	87
497.094	96
497.312	96
497.529	72
497.746	83
497.963	85
498.181	96
498.398	84
498.615	75
498.832	93
499.049	77
499.267	98
499.484	97
499.701	75
499.918	72
500.135	88
500.352	84
500.569	82
500.786	86
501.003	84
501.22	94
501.437	88
501.654	78
501.871	96
502.088	85
502.305	76
502.522	82
502.739	81
502.956	85
503.172	77
503.389	84
503.606	89
503.823	80
504.04	83
504.256	90
504.473	89
504.69	79
504.907	80
505.123	77
505.34	88
505.557	77
505.773	82
505.99	80
506.207	85
506.423	84
506.64	78
506.856	79
507.073	85
507.289	81
507.506	82
507.722	86
507.939	83
508.155	98
508.372	87
508.588	87
508.805	84
509.021	83
509.238	82
509.454	87
509.67	83
509.887	80
510.103	81
510.319	86
510.536	87
510.752	83
510.968	82
511.184	74
511.401	82
511.617	77
511.833	91
512.049	84
512.265	78
512.481	79
512.698	84
512.914	84
513.13	81
513.346	82
513.562	88
513.778	90
513.994	86
514.21	69
514.426	65
514.642	72
514.858	86
515.074	90
515.29	78
515.506	85
515.721	85
515.937	91
516.153	84
516.369	77
516.585	89
516.801	81
517.016	85
517.232	84
517.448	81
517.664	93
517.879	88
518.095	92
518.311	80
518.527	94
518.742	103
518.958	115
519.173	106
519.389	97
519.605	86
519.82	85
520.036	83
520.251	98
520.467	78
520.682	83
520.898	101
521.113	87
521.329	86
521.544	82
521.76	88
521.975	82
522.19	84
522.406	86
522.621	78
522.836	90
523.052	90
523.267	69
523.482	85
523.698	81
523.913	84
524.128	78
524.343	77
524.559	80
524.774	80
524.989	95
525.204	87
525.419	89
525.634	74
525.849	82
526.064	86
526.28	130
526.495	168
526.71	175
526.925	141
527.14	153
527.355	142
527.57	85
527.785	82
527.999	74
528.214	81
528.429	85
528.644	93
528.859	85
529.074	87
529.289	92
529.503	78
529.718	94
529.933	75
530.148	89
530.363	86
530.577	81
530.792	89
531.007	86
531.221	84
531.436	91
531.651	90
531.865	78
532.08	96
532.295	87
532.509	99
532.724	99
532.938	85
533.153	87
533.367	89
533.582	81
533.796	85
534.011	75
534.225	85
534.44	87
534.654	94
534.868	83
535.083	111
535.297	105
535.511	101
535.726	78
535.94	104
536.154	75
536.369	79
536.583	99
536.797	88
537.011	90
537.225	77
537.44	86
537.654	92
537.868	81
538.082	79
538.296	84
538.51	90
538.724	77
538.938	82
539.153	93
539.367	105
539.581	89
539.795	94
540.009	92
540.222	73
540.436	98
540.65	67
540.864	92
541.078	94
541.292	92
541.506	88
541.72	88
541.934	90
542.147	89
542.361	85
542.575	84
542.789	108
543.002	86
543.216	88
543.43	89
543.644	82
543.857	81
544.071	84
544.285	82
544.498	90
544.712	94
544.925	88
545.139	90
545.352	85
545.566	80
545.779	74
545.993	86
546.206	79
546.42	85
546.633	88
546.847	99
547.06	96
547.274	95
547.487	103
547.7	92
547.914	97
548.127	116
548.34	110
548.554	120
548.767	124
548.98	109
549.193	119
549.407	105
549.62	121
549.833	122
550.046	138
550.259	136
550.473	134
550.686	154
550.899	152
551.112	137
551.325	169
551.538	148
551.751	156
551.964	143
552.177	124
552.39	136
552.603	151
552.816	128
553.029	142
553.242	127
553.455	148
553.667	128
553.88	157
554.093	163
554.306	147
554.519	156
554.732	159
554.944	163
555.157	134
555.37	137
555.583	142
555.795	134
556.008	137
556.221	124
556.433	129
556.646	124
556.859	120
557.071	112
557.284	104
557.496	101
557.709	107
557.921	116
558.134	88
558.346	123
558.559	132
558.771	101
558.984	172
559.196	194
559.409	142
559.621	165
559.833	152
560.046	172
560.258	149
560.47	134
560.683	121
560.895	88
561.107	82
561.32	89
561.532	80
561.744	102
561.956	98
562.168	92
562.381	89
562.593	101
562.805	103
563.017	97
563.229	84
563.441	92
563.653	90
563.865	78
564.077	79
564.289	95
564.501	100
564.713	91
564.925	88
565.137	96
565.349	85
565.561	86
565.773	82
565.985	86
566.197	87
566.408	82
566.62	71
566.832	91
567.044	82
567.255	72
567.467	102
567.679	83
567.891	82
568.102	80
568.314	88
568.526	86
568.737	87
568.949	95
569.161	80
569.372	92
569.584	76
569.795	85
570.007	84
570.218	88
570.43	80
570.641	69
570.853	74
571.064	85
571.276	110
571.487	98
571.698	94
571.91	98
572.121	82
572.333	91
572.544	85
572.755	95
572.966	96
573.178	84
573.389	84
573.6	92
573.811	88
574.023	82
574.234	68
574.445	77
574.656	87
574.867	98
575.078	86
575.289	87
575.501	82
575.712	96
575.923	80
576.134	79
576.345	85
576.556	85
576.767	87
576.978	94
577.188	81
577.399	99
577.61	68
577.821	90
578.032	94
578.243	80
578.454	96
578.665	94
578.875	72
579.086	86
579.297	80
579.508	80
579.718	98
579.929	100
580.14	87
580.35	86
580.561	102
580.772	98
580.982	82
581.193	84
581.403	101
581.614	77
581.825	85
582.035	79
582.246	89
582.456	85
582.667	76
582.877	87
583.087	85
583.298	85
583.508	94
583.719	96
583.929	81
584.139	85
584.35	91
584.56	77
584.77	93
584.981	82
585.191	77
585.401	80
585.611	87
585.821	118
586.032	132
586.242	103
586.452	73
586.662	83
586.872	98
587.082	91
587.292	86
587.502	91
587.713	92
587.923	97
588.133	98
588.343	93
588.553	102
588.762	111
