Data from HP_2_HRD10591_00022.txt Node
Date: Mon Jan 19 14:16:12 EST 2026
User: Yrep
Spectrometer: HR+D1059
Trigger mode: 1
Integration Time (sec): 1.000000E-1
Scans to average: 1
Electric dark correction enabled: true
Nonlinearity correction enabled: false
Boxcar width: 0
XAxis mode: Wavelengths
Number of Pixels in Spectrum: 2048
>>>>>Begin Spectral Data<<<<<
223.165	0.69
223.4	0.69
223.635	0.69
223.869	-18.31
224.104	-16.31
224.338	-24.31
224.573	-24.31
224.808	-16.31
225.042	-8.31
225.277	-15.31
225.511	-11.31
225.746	16.69
225.98	13.69
226.215	-1.31
226.449	32.69
226.683	9.69
226.918	18.69
227.152	43.69
227.387	62.69
227.621	39.69
227.856	47.69
228.09	49.69
228.324	61.69
228.559	55.69
228.793	57.69
229.027	75.69
229.262	75.69
229.496	62.69
229.73	87.69
229.964	79.69
230.199	82.69
230.433	83.69
230.667	72.69
230.901	75.69
231.136	79.69
231.37	88.69
231.604	80.69
231.838	81.69
232.072	80.69
232.306	90.69
232.541	88.69
232.775	86.69
233.009	80.69
233.243	92.69
233.477	84.69
233.711	83.69
233.945	88.69
234.179	89.69
234.413	87.69
234.647	79.69
234.881	79.69
235.115	86.69
235.349	78.69
235.583	75.69
235.817	90.69
236.051	85.69
236.285	72.69
236.519	89.69
236.753	80.69
236.987	76.69
237.221	74.69
237.455	94.69
237.689	83.69
237.922	97.69
238.156	72.69
238.39	88.69
238.624	74.69
238.858	88.69
239.091	84.69
239.325	64.69
239.559	86.69
239.793	82.69
240.027	86.69
240.26	79.69
240.494	68.69
240.728	80.69
240.961	88.69
241.195	80.69
241.429	66.69
241.662	87.69
241.896	75.69
242.13	87.69
242.363	72.69
242.597	81.69
242.83	74.69
243.064	66.69
243.298	87.69
243.531	89.69
243.765	87.69
243.998	65.69
244.232	72.69
244.465	82.69
244.699	86.69
244.932	78.69
245.166	65.69
245.399	80.69
245.633	62.69
245.866	82.69
246.099	80.69
246.333	82.69
246.566	68.69
246.8	88.69
247.033	90.69
247.266	90.69
247.5	95.69
247.733	87.69
247.966	98.69
248.2	80.69
248.433	74.69
248.666	80.69
248.899	94.69
249.133	84.69
249.366	72.69
249.599	86.69
249.832	77.69
250.066	89.69
250.299	74.69
250.532	74.69
250.765	76.69
250.998	84.69
251.231	83.69
251.465	81.69
251.698	74.69
251.931	88.69
252.164	88.69
252.397	79.69
252.63	88.69
252.863	86.69
253.096	92.69
253.329	86.69
253.562	94.69
253.795	84.69
254.028	93.69
254.261	84.69
254.494	78.69
254.727	80.69
254.96	95.69
255.193	84.69
255.426	74.69
255.659	80.69
255.892	87.69
256.124	82.69
256.357	90.69
256.59	75.69
256.823	71.69
257.056	86.69
257.289	95.69
257.521	72.69
257.754	87.69
257.987	75.69
258.22	78.69
258.452	71.69
258.685	81.69
258.918	70.69
259.151	91.69
259.383	91.69
259.616	86.69
259.849	96.69
260.081	85.69
260.314	88.69
260.547	87.69
260.779	77.69
261.012	82.69
261.244	85.69
261.477	94.69
261.71	79.69
261.942	104.69
262.175	76.69
262.407	86.69
262.64	92.69
262.872	93.69
263.105	84.69
263.337	79.69
263.57	95.69
263.802	86.69
264.035	87.69
264.267	87.69
264.499	92.69
264.732	81.69
264.964	87.69
265.197	83.69
265.429	95.69
265.661	71.69
265.894	79.69
266.126	86.69
266.358	78.69
266.591	85.69
266.823	84.69
267.055	67.69
267.287	86.69
267.52	96.69
267.752	91.69
267.984	84.69
268.216	71.69
268.448	92.69
268.681	82.69
268.913	88.69
269.145	78.69
269.377	73.69
269.609	69.69
269.841	86.69
270.073	89.69
270.306	81.69
270.538	92.69
270.77	89.69
271.002	95.69
271.234	81.69
271.466	89.69
271.698	86.69
271.93	78.69
272.162	87.69
272.394	94.69
272.626	94.69
272.858	91.69
273.09	86.69
273.322	78.69
273.553	83.69
273.785	93.69
274.017	93.69
274.249	97.69
274.481	78.69
274.713	68.69
274.945	88.69
275.176	81.69
275.408	90.69
275.64	84.69
275.872	78.69
276.104	89.69
276.335	93.69
276.567	78.69
276.799	76.69
277.031	86.69
277.262	95.69
277.494	88.69
277.726	82.69
277.957	87.69
278.189	105.69
278.421	79.69
278.652	75.69
278.884	79.69
279.115	83.69
279.347	81.69
279.579	83.69
279.81	88.69
280.042	90.69
280.273	103.69
280.505	85.69
280.736	86.69
280.968	93.69
281.199	96.69
281.431	94.69
281.662	74.69
281.894	87.69
282.125	85.69
282.356	83.69
282.588	87.69
282.819	87.69
283.051	75.69
283.282	88.69
283.513	88.69
283.745	79.69
283.976	84.69
284.207	85.69
284.439	80.69
284.67	96.69
284.901	102.69
285.132	88.69
285.364	97.69
285.595	87.69
285.826	79.69
286.057	90.69
286.288	90.69
286.52	96.69
286.751	87.69
286.982	87.69
287.213	105.69
287.444	87.69
287.675	88.69
287.906	86.69
288.138	90.69
288.369	93.69
288.6	82.69
288.831	79.69
289.062	92.69
289.293	87.69
289.524	92.69
289.755	96.69
289.986	79.69
290.217	79.69
290.448	88.69
290.679	100.69
290.91	101.69
291.141	85.69
291.371	78.69
291.602	94.69
291.833	87.69
292.064	83.69
292.295	97.69
292.526	77.69
292.757	98.69
292.987	91.69
293.218	90.69
293.449	89.69
293.68	90.69
293.91	87.69
294.141	89.69
294.372	91.69
294.603	95.69
294.833	93.69
295.064	74.69
295.295	79.69
295.525	91.69
295.756	95.69
295.987	98.69
296.217	83.69
296.448	68.69
296.679	88.69
296.909	87.69
297.14	99.69
297.37	89.69
297.601	81.69
297.831	86.69
298.062	79.69
298.292	100.69
298.523	90.69
298.753	88.69
298.984	95.69
299.214	90.69
299.445	84.69
299.675	97.69
299.905	95.69
300.136	104.69
300.366	81.69
300.597	87.69
300.827	79.69
301.057	83.69
301.288	86.69
301.518	88.69
301.748	76.69
301.979	108.69
302.209	87.69
302.439	80.69
302.669	97.69
302.9	87.69
303.13	95.69
303.36	100.69
303.59	100.69
303.82	80.69
304.051	95.69
304.281	89.69
304.511	75.69
304.741	90.69
304.971	75.69
305.201	81.69
305.431	88.69
305.661	91.69
305.891	77.69
306.121	102.69
306.352	94.69
306.582	112.69
306.812	100.69
307.042	94.69
307.272	99.69
307.502	88.69
307.731	76.69
307.961	98.69
308.191	93.69
308.421	96.69
308.651	94.69
308.881	96.69
309.111	91.69
309.341	100.69
309.571	91.69
309.8	79.69
310.03	79.69
310.26	84.69
310.49	93.69
310.72	94.69
310.949	85.69
311.179	95.69
311.409	79.69
311.639	85.69
311.868	92.69
312.098	102.69
312.328	91.69
312.557	87.69
312.787	73.69
313.017	88.69
313.246	71.69
313.476	74.69
313.706	88.69
313.935	84.69
314.165	91.69
314.394	86.69
314.624	94.69
314.853	94.69
315.083	106.69
315.312	81.69
315.542	92.69
315.771	80.69
316.001	98.69
316.23	89.69
316.46	77.69
316.689	89.69
316.919	104.69
317.148	96.69
317.377	90.69
317.607	78.69
317.836	104.69
318.065	99.69
318.295	89.69
318.524	83.69
318.753	91.69
318.983	99.69
319.212	87.69
319.441	94.69
319.67	93.69
319.9	87.69
320.129	71.69
320.358	93.69
320.587	102.69
320.816	110.69
321.046	95.69
321.275	80.69
321.504	90.69
321.733	80.69
321.962	72.69
322.191	95.69
322.42	76.69
322.649	93.69
322.878	89.69
323.108	86.69
323.337	91.69
323.566	91.69
323.795	96.69
324.024	93.69
324.253	88.69
324.482	89.69
324.71	93.69
324.939	91.69
325.168	87.69
325.397	75.69
325.626	92.69
325.855	96.69
326.084	95.69
326.313	95.69
326.542	94.69
326.77	87.69
326.999	85.69
327.228	88.69
327.457	90.69
327.686	88.69
327.914	100.69
328.143	94.69
328.372	90.69
328.6	101.69
328.829	86.69
329.058	87.69
329.287	93.69
329.515	86.69
329.744	87.69
329.972	97.69
330.201	88.69
330.43	89.69
330.658	98.69
330.887	76.69
331.115	89.69
331.344	92.69
331.572	93.69
331.801	84.69
332.03	89.69
332.258	87.69
332.486	97.69
332.715	94.69
332.943	98.69
333.172	98.69
333.4	95.69
333.629	96.69
333.857	84.69
334.085	100.69
334.314	86.69
334.542	94.69
334.771	87.69
334.999	102.69
335.227	86.69
335.455	107.69
335.684	87.69
335.912	90.69
336.14	86.69
336.369	94.69
336.597	84.69
336.825	116.69
337.053	94.69
337.281	94.69
337.51	94.69
337.738	91.69
337.966	94.69
338.194	98.69
338.422	87.69
338.65	97.69
338.878	110.69
339.106	97.69
339.334	94.69
339.562	87.69
339.79	95.69
340.018	84.69
340.246	86.69
340.474	78.69
340.702	101.69
340.93	93.69
341.158	91.69
341.386	80.69
341.614	84.69
341.842	87.69
342.07	106.69
342.298	91.69
342.526	91.69
342.754	70.69
342.981	85.69
343.209	87.69
343.437	103.69
343.665	93.69
343.893	97.69
344.12	96.69
344.348	97.69
344.576	95.69
344.804	111.69
345.031	86.69
345.259	74.69
345.487	86.69
345.714	74.69
345.942	80.69
346.17	93.69
346.397	95.69
346.625	95.69
346.853	67.69
347.08	72.69
347.308	90.69
347.535	87.69
347.763	89.69
347.99	90.69
348.218	99.69
348.445	102.69
348.673	84.69
348.9	90.69
349.128	86.69
349.355	85.69
349.583	84.69
349.81	91.69
350.037	98.69
350.265	93.69
350.492	98.69
350.72	96.69
350.947	97.69
351.174	99.69
351.402	75.69
351.629	86.69
351.856	91.69
352.083	105.69
352.311	100.69
352.538	94.69
352.765	100.69
352.992	96.69
353.22	88.69
353.447	93.69
353.674	87.69
353.901	104.69
354.128	94.69
354.355	99.69
354.583	81.69
354.81	80.69
355.037	101.69
355.264	90.69
355.491	92.69
355.718	96.69
355.945	89.69
356.172	86.69
356.399	109.69
356.626	98.69
356.853	96.69
357.08	95.69
357.307	80.69
357.534	105.69
357.761	112.69
357.988	95.69
358.215	100.69
358.441	100.69
358.668	95.69
358.895	100.69
359.122	76.69
359.349	106.69
359.576	101.69
359.802	92.69
360.029	86.69
360.256	84.69
360.483	94.69
360.709	83.69
360.936	105.69
361.163	92.69
361.39	93.69
361.616	98.69
361.843	108.69
362.07	102.69
362.296	99.69
362.523	112.69
362.749	122.69
362.976	117.69
363.203	123.69
363.429	108.69
363.656	110.69
363.882	109.69
364.109	129.69
364.335	134.69
364.562	142.69
364.788	94.69
365.015	106.69
365.241	104.69
365.468	80.69
365.694	94.69
365.92	85.69
366.147	91.69
366.373	86.69
366.599	87.69
366.826	81.69
367.052	89.69
367.278	89.69
367.505	86.69
367.731	101.69
367.957	101.69
368.184	77.69
368.41	98.69
368.636	80.69
368.862	91.69
369.089	88.69
369.315	93.69
369.541	80.69
369.767	98.69
369.993	99.69
370.219	90.69
370.445	98.69
370.672	92.69
370.898	102.69
371.124	97.69
371.35	91.69
371.576	72.69
371.802	105.69
372.028	102.69
372.254	86.69
372.48	104.69
372.706	99.69
372.932	89.69
373.158	87.69
373.384	114.69
373.61	109.69
373.835	91.69
374.061	95.69
374.287	106.69
374.513	108.69
374.739	103.69
374.965	96.69
375.191	89.69
375.416	103.69
375.642	90.69
375.868	86.69
376.094	90.69
376.319	87.69
376.545	90.69
376.771	84.69
376.997	83.69
377.222	81.69
377.448	97.69
377.674	80.69
377.899	104.69
378.125	96.69
378.35	99.69
378.576	91.69
378.802	98.69
379.027	84.69
379.253	91.69
379.478	82.69
379.704	105.69
379.929	98.69
380.155	107.69
380.38	94.69
380.606	84.69
380.831	104.69
381.057	102.69
381.282	100.69
381.507	115.69
381.733	105.69
381.958	92.69
382.184	100.69
382.409	110.69
382.634	108.69
382.86	101.69
383.085	101.69
383.31	110.69
383.535	98.69
383.761	101.69
383.986	99.69
384.211	96.69
384.436	106.69
384.662	88.69
384.887	92.69
385.112	94.69
385.337	88.69
385.562	104.69
385.787	111.69
386.013	104.69
386.238	92.69
386.463	86.69
386.688	112.69
386.913	92.69
387.138	100.69
387.363	87.69
387.588	96.69
387.813	100.69
388.038	100.69
388.263	96.69
388.488	107.69
388.713	100.69
388.938	91.69
389.163	100.69
389.387	88.69
389.612	102.69
389.837	94.69
390.062	107.69
390.287	94.69
390.512	89.69
390.736	89.69
390.961	90.69
391.186	87.69
391.411	103.69
391.636	89.69
391.86	95.69
392.085	96.69
392.31	92.69
392.534	105.69
392.759	108.69
392.984	147.69
393.208	201.69
393.433	274.69
393.658	224.69
393.882	115.69
394.107	126.69
394.331	130.69
394.556	119.69
394.78	105.69
395.005	100.69
395.229	100.69
395.454	94.69
395.678	109.69
395.903	120.69
396.127	137.69
396.352	148.69
396.576	168.69
396.801	216.69
397.025	223.69
397.249	147.69
397.474	118.69
397.698	132.69
397.922	108.69
398.147	103.69
398.371	79.69
398.595	100.69
398.82	92.69
399.044	92.69
399.268	91.69
399.492	109.69
399.717	85.69
399.941	77.69
400.165	91.69
400.389	96.69
400.613	83.69
400.837	97.69
401.062	77.69
401.286	78.69
401.51	102.69
401.734	96.69
401.958	94.69
402.182	99.69
402.406	93.69
402.63	100.69
402.854	78.69
403.078	100.69
403.302	96.69
403.526	115.69
403.75	91.69
403.974	94.69
404.198	130.69
404.422	136.69
404.645	147.69
404.869	128.69
405.093	106.69
405.317	106.69
405.541	88.69
405.765	82.69
405.988	94.69
406.212	86.69
406.436	92.69
406.66	100.69
406.883	85.69
407.107	94.69
407.331	98.69
407.555	100.69
407.778	109.69
408.002	122.69
408.226	103.69
408.449	76.69
408.673	78.69
408.896	85.69
409.12	93.69
409.344	100.69
409.567	106.69
409.791	96.69
410.014	102.69
410.238	88.69
410.461	104.69
410.685	91.69
410.908	99.69
411.132	83.69
411.355	108.69
411.578	92.69
411.802	87.69
412.025	90.69
412.249	77.69
412.472	84.69
412.695	82.69
412.919	71.69
413.142	89.69
413.365	93.69
413.589	94.69
413.812	82.69
414.035	90.69
414.258	88.69
414.482	84.69
414.705	92.69
414.928	86.69
415.151	76.69
415.374	101.69
415.597	84.69
415.821	84.69
416.044	97.69
416.267	84.69
416.49	102.69
416.713	83.69
416.936	84.69
417.159	87.69
417.382	81.69
417.605	89.69
417.828	75.69
418.051	94.69
418.274	86.69
418.497	95.69
418.72	103.69
418.943	95.69
419.166	99.69
419.389	86.69
419.611	89.69
419.834	94.69
420.057	102.69
420.28	94.69
420.503	87.69
420.726	93.69
420.948	109.69
421.171	116.69
421.394	108.69
421.617	125.69
421.839	145.69
422.062	142.69
422.285	188.69
422.507	306.69
422.73	409.69
422.953	371.69
423.175	257.69
423.398	153.69
423.621	129.69
423.843	120.69
424.066	110.69
424.288	102.69
424.511	87.69
424.733	98.69
424.956	100.69
425.178	98.69
425.401	98.69
425.623	92.69
425.846	94.69
426.068	92.69
426.291	87.69
426.513	105.69
426.735	90.69
426.958	91.69
427.18	93.69
427.402	95.69
427.625	94.69
427.847	87.69
428.069	95.69
428.292	137.69
428.514	154.69
428.736	115.69
428.958	134.69
429.181	138.69
429.403	102.69
429.625	95.69
429.847	130.69
430.069	176.69
430.292	206.69
430.514	176.69
430.736	134.69
430.958	150.69
431.18	111.69
431.402	98.69
431.624	101.69
431.846	130.69
432.068	147.69
432.29	117.69
432.512	107.69
432.734	88.69
432.956	100.69
433.178	86.69
433.4	102.69
433.622	88.69
433.844	90.69
434.066	92.69
434.287	88.69
434.509	83.69
434.731	88.69
434.953	87.69
435.175	100.69
435.397	93.69
435.618	104.69
435.84	99.69
436.062	79.69
436.284	98.69
436.505	100.69
436.727	93.69
436.949	92.69
437.17	84.69
437.392	93.69
437.614	100.69
437.835	73.69
438.057	88.69
438.278	84.69
438.5	102.69
438.721	98.69
438.943	80.69
439.165	84.69
439.386	98.69
439.608	91.69
439.829	90.69
440.05	99.69
440.272	90.69
440.493	92.69
440.715	99.69
440.936	80.69
441.158	95.69
441.379	90.69
441.6	86.69
441.822	102.69
442.043	98.69
442.264	97.69
442.486	139.69
442.707	192.69
442.928	128.69
443.149	120.69
443.371	170.69
443.592	273.69
443.813	232.69
444.034	122.69
444.255	111.69
444.476	100.69
444.698	99.69
444.919	98.69
445.14	172.69
445.361	206.69
445.582	343.69
445.803	259.69
446.024	124.69
446.245	94.69
446.466	90.69
446.687	73.69
446.908	90.69
447.129	105.69
447.35	81.69
447.571	91.69
447.792	87.69
448.013	94.69
448.234	70.69
448.455	84.69
448.675	88.69
448.896	92.69
449.117	94.69
449.338	82.69
449.559	87.69
449.779	70.69
450	95.69
450.221	73.69
450.442	92.69
450.662	94.69
450.883	84.69
451.104	95.69
451.324	90.69
451.545	91.69
451.766	91.69
451.986	105.69
452.207	98.69
452.428	93.69
452.648	89.69
452.869	104.69
453.089	90.69
453.31	74.69
453.53	95.69
453.751	110.69
453.971	110.69
454.192	89.69
454.412	86.69
454.633	90.69
454.853	89.69
455.073	84.69
455.294	80.69
455.514	93.69
455.734	89.69
455.955	81.69
456.175	92.69
456.395	95.69
456.616	88.69
456.836	101.69
457.056	107.69
457.276	91.69
457.497	103.69
457.717	107.69
457.937	101.69
458.157	123.69
458.377	139.69
458.598	123.69
458.818	144.69
459.038	112.69
459.258	77.69
459.478	93.69
459.698	97.69
459.918	88.69
460.138	80.69
460.358	90.69
460.578	105.69
460.798	148.69
461.018	124.69
461.238	88.69
461.458	88.69
461.678	91.69
461.898	76.69
462.118	94.69
462.338	93.69
462.558	91.69
462.777	87.69
462.997	88.69
463.217	76.69
463.437	94.69
463.657	98.69
463.876	88.69
464.096	95.69
464.316	94.69
464.536	84.69
464.755	89.69
464.975	81.69
465.195	86.69
465.414	94.69
465.634	85.69
465.854	87.69
466.073	96.69
466.293	90.69
466.512	90.69
466.732	100.69
466.951	87.69
467.171	87.69
467.391	89.69
467.61	83.69
467.829	95.69
468.049	87.69
468.268	92.69
468.488	85.69
468.707	95.69
468.927	94.69
469.146	84.69
469.365	90.69
469.585	82.69
469.804	91.69
470.023	91.69
470.243	89.69
470.462	106.69
470.681	100.69
470.901	85.69
471.12	95.69
471.339	86.69
471.558	92.69
471.777	90.69
471.997	91.69
472.216	99.69
472.435	93.69
472.654	95.69
472.873	89.69
473.092	110.69
473.311	88.69
473.53	91.69
473.749	99.69
473.968	102.69
474.187	88.69
474.406	97.69
474.625	92.69
474.844	92.69
475.063	94.69
475.282	85.69
475.501	89.69
475.72	103.69
475.939	90.69
476.158	101.69
476.377	91.69
476.596	98.69
476.814	82.69
477.033	103.69
477.252	86.69
477.471	98.69
477.69	86.69
477.908	88.69
478.127	102.69
478.346	101.69
478.564	91.69
478.783	94.69
479.002	102.69
479.22	99.69
479.439	84.69
479.658	101.69
479.876	91.69
480.095	84.69
480.313	91.69
480.532	100.69
480.751	99.69
480.969	90.69
481.188	115.69
481.406	88.69
481.624	81.69
481.843	85.69
482.061	91.69
482.28	84.69
482.498	104.69
482.717	86.69
482.935	87.69
483.153	91.69
483.372	103.69
483.59	97.69
483.808	102.69
484.027	77.69
484.245	85.69
484.463	100.69
484.681	108.69
484.9	101.69
485.118	90.69
485.336	89.69
485.554	92.69
485.772	89.69
485.99	87.69
486.209	97.69
486.427	114.69
486.645	86.69
486.863	94.69
487.081	101.69
487.299	102.69
487.517	91.69
487.735	127.69
487.953	172.69
488.171	157.69
488.389	104.69
488.607	97.69
488.825	90.69
489.043	97.69
489.261	98.69
489.479	96.69
489.696	99.69
489.914	85.69
490.132	90.69
490.35	101.69
490.568	84.69
490.786	94.69
491.003	81.69
491.221	89.69
491.439	96.69
491.657	95.69
491.874	99.69
492.092	90.69
492.31	90.69
492.527	98.69
492.745	96.69
492.963	94.69
493.18	85.69
493.398	96.69
493.615	81.69
493.833	102.69
494.05	84.69
494.268	80.69
494.485	99.69
494.703	111.69
494.92	78.69
495.138	94.69
495.355	106.69
495.573	98.69
495.79	99.69
496.008	110.69
496.225	93.69
496.442	98.69
496.66	96.69
496.877	102.69
497.094	105.69
497.312	88.69
497.529	98.69
497.746	74.69
497.963	94.69
498.181	101.69
498.398	89.69
498.615	89.69
498.832	85.69
499.049	106.69
499.267	101.69
499.484	86.69
499.701	88.69
499.918	80.69
500.135	109.69
500.352	97.69
500.569	89.69
500.786	88.69
501.003	118.69
501.22	97.69
501.437	91.69
501.654	95.69
501.871	105.69
502.088	92.69
502.305	111.69
502.522	91.69
502.739	98.69
502.956	98.69
503.172	93.69
503.389	90.69
503.606	86.69
503.823	103.69
504.04	94.69
504.256	138.69
504.473	148.69
504.69	105.69
504.907	100.69
505.123	93.69
505.34	75.69
505.557	87.69
505.773	108.69
505.99	94.69
506.207	102.69
506.423	91.69
506.64	90.69
506.856	96.69
507.073	103.69
507.289	87.69
507.506	99.69
507.722	97.69
507.939	85.69
508.155	100.69
508.372	88.69
508.588	74.69
508.805	86.69
509.021	87.69
509.238	96.69
509.454	102.69
509.67	93.69
509.887	100.69
510.103	104.69
510.319	98.69
510.536	99.69
510.752	101.69
510.968	92.69
511.184	84.69
511.401	88.69
511.617	83.69
511.833	98.69
512.049	102.69
512.265	91.69
512.481	97.69
512.698	94.69
512.914	95.69
513.13	93.69
513.346	91.69
513.562	102.69
513.778	91.69
513.994	104.69
514.21	103.69
514.426	80.69
514.642	84.69
514.858	99.69
515.074	88.69
515.29	103.69
515.506	110.69
515.721	109.69
515.937	97.69
516.153	100.69
