Data from HP_2_HRD10591_00029.txt Node
Date: Mon Jan 19 14:16:15 EST 2026
User: Yrep
Spectrometer: HR+D1059
Trigger mode: 1
Integration Time (sec): 1.000000E-1
Scans to average: 1
Electric dark correction enabled: true
Nonlinearity correction enabled: false
Boxcar width: 0
XAxis mode: Wavelengths
Number of Pixels in Spectrum: 2048
>>>>>Begin Spectral Data<<<<<
223.165	-7.62
223.4	-7.62
223.635	-7.62
223.869	-12.62
224.104	-14.62
224.338	-16.62
224.573	-12.62
224.808	-8.62
225.042	-10.62
225.277	-15.62
225.511	2.38
225.746	-5.62
225.98	14.38
226.215	5.38
226.449	12.38
226.683	19.38
226.918	23.38
227.152	27.38
227.387	30.38
227.621	41.38
227.856	59.38
228.09	53.38
228.324	46.38
228.559	63.38
228.793	61.38
229.027	50.38
229.262	63.38
229.496	61.38
229.73	79.38
229.964	67.38
230.199	64.38
230.433	72.38
230.667	86.38
230.901	68.38
231.136	71.38
231.37	81.38
231.604	68.38
231.838	68.38
232.072	76.38
232.306	73.38
232.541	73.38
232.775	78.38
233.009	87.38
233.243	76.38
233.477	74.38
233.711	83.38
233.945	75.38
234.179	84.38
234.413	80.38
234.647	69.38
234.881	79.38
235.115	81.38
235.349	81.38
235.583	72.38
235.817	72.38
236.051	71.38
236.285	84.38
236.519	77.38
236.753	69.38
236.987	82.38
237.221	89.38
237.455	75.38
237.689	75.38
237.922	74.38
238.156	77.38
238.39	80.38
238.624	69.38
238.858	62.38
239.091	56.38
239.325	71.38
239.559	76.38
239.793	73.38
240.027	79.38
240.26	71.38
240.494	61.38
240.728	54.38
240.961	83.38
241.195	91.38
241.429	62.38
241.662	76.38
241.896	55.38
242.13	72.38
242.363	67.38
242.597	73.38
242.83	87.38
243.064	83.38
243.298	83.38
243.531	55.38
243.765	79.38
243.998	66.38
244.232	72.38
244.465	70.38
244.699	87.38
244.932	69.38
245.166	71.38
245.399	83.38
245.633	85.38
245.866	78.38
246.099	73.38
246.333	74.38
246.566	59.38
246.8	63.38
247.033	71.38
247.266	59.38
247.5	62.38
247.733	76.38
247.966	75.38
248.2	76.38
248.433	53.38
248.666	73.38
248.899	73.38
249.133	64.38
249.366	81.38
249.599	80.38
249.832	69.38
250.066	89.38
250.299	69.38
250.532	70.38
250.765	79.38
250.998	84.38
251.231	73.38
251.465	70.38
251.698	83.38
251.931	69.38
252.164	86.38
252.397	75.38
252.63	95.38
252.863	68.38
253.096	73.38
253.329	66.38
253.562	82.38
253.795	81.38
254.028	71.38
254.261	66.38
254.494	68.38
254.727	69.38
254.96	87.38
255.193	96.38
255.426	82.38
255.659	82.38
255.892	68.38
256.124	74.38
256.357	83.38
256.59	64.38
256.823	84.38
257.056	89.38
257.289	88.38
257.521	80.38
257.754	68.38
257.987	69.38
258.22	64.38
258.452	71.38
258.685	69.38
258.918	64.38
259.151	65.38
259.383	78.38
259.616	89.38
259.849	82.38
260.081	86.38
260.314	81.38
260.547	78.38
260.779	81.38
261.012	80.38
261.244	78.38
261.477	80.38
261.71	76.38
261.942	91.38
262.175	85.38
262.407	70.38
262.64	59.38
262.872	81.38
263.105	68.38
263.337	70.38
263.57	82.38
263.802	81.38
264.035	93.38
264.267	85.38
264.499	84.38
264.732	73.38
264.964	75.38
265.197	73.38
265.429	84.38
265.661	76.38
265.894	79.38
266.126	77.38
266.358	71.38
266.591	85.38
266.823	96.38
267.055	79.38
267.287	71.38
267.52	88.38
267.752	65.38
267.984	75.38
268.216	84.38
268.448	79.38
268.681	84.38
268.913	76.38
269.145	85.38
269.377	82.38
269.609	78.38
269.841	81.38
270.073	76.38
270.306	89.38
270.538	82.38
270.77	69.38
271.002	84.38
271.234	77.38
271.466	73.38
271.698	74.38
271.93	81.38
272.162	64.38
272.394	81.38
272.626	76.38
272.858	61.38
273.09	92.38
273.322	83.38
273.553	87.38
273.785	78.38
274.017	77.38
274.249	83.38
274.481	83.38
274.713	83.38
274.945	79.38
275.176	89.38
275.408	91.38
275.64	85.38
275.872	93.38
276.104	80.38
276.335	76.38
276.567	91.38
276.799	92.38
277.031	86.38
277.262	83.38
277.494	75.38
277.726	77.38
277.957	81.38
278.189	71.38
278.421	91.38
278.652	83.38
278.884	88.38
279.115	70.38
279.347	71.38
279.579	78.38
279.81	67.38
280.042	76.38
280.273	81.38
280.505	83.38
280.736	88.38
280.968	82.38
281.199	91.38
281.431	76.38
281.662	69.38
281.894	80.38
282.125	71.38
282.356	91.38
282.588	70.38
282.819	79.38
283.051	81.38
283.282	84.38
283.513	89.38
283.745	79.38
283.976	84.38
284.207	73.38
284.439	76.38
284.67	68.38
284.901	89.38
285.132	84.38
285.364	93.38
285.595	99.38
285.826	83.38
286.057	78.38
286.288	85.38
286.52	77.38
286.751	82.38
286.982	75.38
287.213	81.38
287.444	81.38
287.675	86.38
287.906	92.38
288.138	85.38
288.369	80.38
288.6	86.38
288.831	85.38
289.062	85.38
289.293	74.38
289.524	75.38
289.755	93.38
289.986	99.38
290.217	69.38
290.448	83.38
290.679	79.38
290.91	81.38
291.141	86.38
291.371	88.38
291.602	79.38
291.833	93.38
292.064	84.38
292.295	77.38
292.526	76.38
292.757	73.38
292.987	68.38
293.218	93.38
293.449	78.38
293.68	82.38
293.91	82.38
294.141	87.38
294.372	89.38
294.603	85.38
294.833	90.38
295.064	57.38
295.295	73.38
295.525	78.38
295.756	87.38
295.987	78.38
296.217	85.38
296.448	94.38
296.679	83.38
296.909	69.38
297.14	81.38
297.37	85.38
297.601	70.38
297.831	67.38
298.062	79.38
298.292	67.38
298.523	71.38
298.753	86.38
298.984	71.38
299.214	82.38
299.445	65.38
299.675	79.38
299.905	80.38
300.136	90.38
300.366	98.38
300.597	83.38
300.827	87.38
301.057	72.38
301.288	81.38
301.518	76.38
301.748	84.38
301.979	93.38
302.209	76.38
302.439	81.38
302.669	81.38
302.9	98.38
303.13	88.38
303.36	82.38
303.59	85.38
303.82	97.38
304.051	104.38
304.281	72.38
304.511	80.38
304.741	83.38
304.971	87.38
305.201	78.38
305.431	77.38
305.661	74.38
305.891	68.38
306.121	84.38
306.352	78.38
306.582	80.38
306.812	78.38
307.042	85.38
307.272	79.38
307.502	75.38
307.731	77.38
307.961	80.38
308.191	83.38
308.421	87.38
308.651	76.38
308.881	77.38
309.111	81.38
309.341	91.38
309.571	97.38
309.8	91.38
310.03	76.38
310.26	81.38
310.49	87.38
310.72	84.38
310.949	85.38
311.179	88.38
311.409	70.38
311.639	79.38
311.868	86.38
312.098	79.38
312.328	72.38
312.557	77.38
312.787	91.38
313.017	88.38
313.246	75.38
313.476	83.38
313.706	86.38
313.935	71.38
314.165	80.38
314.394	70.38
314.624	87.38
314.853	83.38
315.083	89.38
315.312	89.38
315.542	88.38
315.771	87.38
316.001	87.38
316.23	84.38
316.46	83.38
316.689	72.38
316.919	90.38
317.148	93.38
317.377	85.38
317.607	96.38
317.836	95.38
318.065	86.38
318.295	82.38
318.524	72.38
318.753	80.38
318.983	88.38
319.212	74.38
319.441	82.38
319.67	78.38
319.9	78.38
320.129	85.38
320.358	82.38
320.587	91.38
320.816	81.38
321.046	81.38
321.275	73.38
321.504	92.38
321.733	91.38
321.962	81.38
322.191	85.38
322.42	78.38
322.649	83.38
322.878	82.38
323.108	78.38
323.337	66.38
323.566	93.38
323.795	98.38
324.024	83.38
324.253	69.38
324.482	84.38
324.71	82.38
324.939	80.38
325.168	83.38
325.397	79.38
325.626	69.38
325.855	72.38
326.084	74.38
326.313	63.38
326.542	79.38
326.77	79.38
326.999	70.38
327.228	88.38
327.457	87.38
327.686	89.38
327.914	68.38
328.143	86.38
328.372	74.38
328.6	86.38
328.829	87.38
329.058	90.38
329.287	82.38
329.515	77.38
329.744	72.38
329.972	80.38
330.201	87.38
330.43	86.38
330.658	71.38
330.887	75.38
331.115	79.38
331.344	69.38
331.572	93.38
331.801	79.38
332.03	81.38
332.258	88.38
332.486	93.38
332.715	97.38
332.943	69.38
333.172	92.38
333.4	82.38
333.629	71.38
333.857	80.38
334.085	85.38
334.314	88.38
334.542	86.38
334.771	81.38
334.999	83.38
335.227	81.38
335.455	93.38
335.684	88.38
335.912	92.38
336.14	91.38
336.369	91.38
336.597	78.38
336.825	81.38
337.053	88.38
337.281	94.38
337.51	82.38
337.738	91.38
337.966	81.38
338.194	86.38
338.422	85.38
338.65	83.38
338.878	95.38
339.106	87.38
339.334	83.38
339.562	77.38
339.79	83.38
340.018	85.38
340.246	81.38
340.474	71.38
340.702	65.38
340.93	93.38
341.158	91.38
341.386	93.38
341.614	80.38
341.842	72.38
342.07	70.38
342.298	94.38
342.526	77.38
342.754	81.38
342.981	89.38
343.209	89.38
343.437	94.38
343.665	83.38
343.893	86.38
344.12	83.38
344.348	80.38
344.576	81.38
344.804	77.38
345.031	73.38
345.259	86.38
345.487	89.38
345.714	75.38
345.942	89.38
346.17	88.38
346.397	84.38
346.625	92.38
346.853	91.38
347.08	85.38
347.308	79.38
347.535	71.38
347.763	88.38
347.99	84.38
348.218	83.38
348.445	91.38
348.673	69.38
348.9	87.38
349.128	88.38
349.355	91.38
349.583	73.38
349.81	79.38
350.037	94.38
350.265	90.38
350.492	80.38
350.72	77.38
350.947	82.38
351.174	85.38
351.402	79.38
351.629	77.38
351.856	83.38
352.083	77.38
352.311	84.38
352.538	77.38
352.765	83.38
352.992	74.38
353.22	86.38
353.447	84.38
353.674	85.38
353.901	72.38
354.128	98.38
354.355	83.38
354.583	71.38
354.81	76.38
355.037	87.38
355.264	78.38
355.491	74.38
355.718	83.38
355.945	78.38
356.172	79.38
356.399	88.38
356.626	82.38
356.853	83.38
357.08	92.38
357.307	87.38
357.534	67.38
357.761	101.38
357.988	85.38
358.215	89.38
358.441	101.38
358.668	74.38
358.895	91.38
359.122	80.38
359.349	81.38
359.576	73.38
359.802	79.38
360.029	66.38
360.256	81.38
360.483	101.38
360.709	81.38
360.936	85.38
361.163	74.38
361.39	96.38
361.616	79.38
361.843	97.38
362.07	93.38
362.296	89.38
362.523	88.38
362.749	92.38
362.976	88.38
363.203	124.38
363.429	94.38
363.656	72.38
363.882	86.38
364.109	97.38
364.335	105.38
364.562	123.38
364.788	101.38
365.015	95.38
365.241	95.38
365.468	82.38
365.694	86.38
365.92	73.38
366.147	91.38
366.373	79.38
366.599	79.38
366.826	84.38
367.052	82.38
367.278	85.38
367.505	85.38
367.731	79.38
367.957	69.38
368.184	65.38
368.41	92.38
368.636	83.38
368.862	89.38
369.089	81.38
369.315	98.38
369.541	85.38
369.767	90.38
369.993	80.38
370.219	94.38
370.445	89.38
370.672	96.38
370.898	85.38
371.124	100.38
371.35	87.38
371.576	75.38
371.802	63.38
372.028	74.38
372.254	80.38
372.48	88.38
372.706	78.38
372.932	85.38
373.158	88.38
373.384	109.38
373.61	97.38
373.835	108.38
374.061	91.38
374.287	99.38
374.513	108.38
374.739	100.38
374.965	100.38
375.191	91.38
375.416	77.38
375.642	88.38
375.868	99.38
376.094	94.38
376.319	104.38
376.545	83.38
376.771	93.38
376.997	81.38
377.222	80.38
377.448	80.38
377.674	85.38
377.899	72.38
378.125	79.38
378.35	69.38
378.576	91.38
378.802	77.38
379.027	92.38
379.253	79.38
379.478	82.38
379.704	85.38
379.929	79.38
380.155	85.38
380.38	81.38
380.606	85.38
380.831	98.38
381.057	79.38
381.282	66.38
381.507	91.38
381.733	81.38
381.958	98.38
382.184	91.38
382.409	82.38
382.634	74.38
382.86	70.38
383.085	87.38
383.31	60.38
383.535	89.38
383.761	101.38
383.986	94.38
384.211	81.38
384.436	76.38
384.662	83.38
384.887	94.38
385.112	91.38
385.337	72.38
385.562	89.38
385.787	93.38
386.013	94.38
386.238	85.38
386.463	96.38
386.688	100.38
386.913	89.38
387.138	92.38
387.363	98.38
387.588	91.38
387.813	93.38
388.038	90.38
388.263	84.38
388.488	85.38
388.713	88.38
388.938	75.38
389.163	91.38
389.387	73.38
389.612	92.38
389.837	85.38
390.062	84.38
390.287	94.38
390.512	93.38
390.736	79.38
390.961	85.38
391.186	87.38
391.411	90.38
391.636	72.38
391.86	91.38
392.085	101.38
392.31	92.38
392.534	89.38
392.759	111.38
392.984	150.38
393.208	210.38
393.433	284.38
393.658	230.38
393.882	117.38
394.107	107.38
394.331	117.38
394.556	95.38
394.78	95.38
395.005	100.38
395.229	98.38
395.454	100.38
395.678	90.38
395.903	114.38
396.127	122.38
396.352	134.38
396.576	144.38
396.801	206.38
397.025	239.38
397.249	145.38
397.474	98.38
397.698	87.38
397.922	85.38
398.147	87.38
398.371	80.38
398.595	84.38
398.82	84.38
399.044	73.38
399.268	83.38
399.492	83.38
399.717	85.38
399.941	79.38
400.165	90.38
400.389	79.38
400.613	66.38
400.837	91.38
401.062	95.38
401.286	95.38
401.51	105.38
401.734	85.38
401.958	80.38
402.182	91.38
402.406	75.38
402.63	81.38
402.854	81.38
403.078	65.38
403.302	101.38
403.526	103.38
403.75	95.38
403.974	90.38
404.198	102.38
404.422	154.38
404.645	151.38
404.869	137.38
405.093	101.38
405.317	73.38
405.541	92.38
405.765	95.38
405.988	85.38
406.212	90.38
406.436	86.38
406.66	79.38
406.883	82.38
407.107	86.38
407.331	88.38
407.555	91.38
407.778	112.38
408.002	107.38
408.226	91.38
408.449	94.38
408.673	84.38
408.896	91.38
409.12	81.38
409.344	79.38
409.567	94.38
409.791	98.38
410.014	94.38
410.238	87.38
410.461	80.38
410.685	88.38
410.908	110.38
411.132	94.38
411.355	66.38
411.578	95.38
411.802	86.38
412.025	76.38
412.249	78.38
412.472	88.38
412.695	82.38
412.919	81.38
413.142	79.38
413.365	84.38
413.589	93.38
413.812	101.38
414.035	86.38
414.258	85.38
414.482	79.38
414.705	77.38
414.928	78.38
415.151	78.38
415.374	82.38
415.597	79.38
415.821	88.38
416.044	80.38
416.267	88.38
416.49	86.38
416.713	92.38
416.936	94.38
417.159	72.38
417.382	77.38
417.605	84.38
417.828	84.38
418.051	90.38
418.274	76.38
418.497	73.38
418.72	92.38
418.943	81.38
419.166	83.38
419.389	79.38
419.611	93.38
419.834	77.38
420.057	74.38
420.28	81.38
420.503	93.38
420.726	89.38
420.948	95.38
421.171	107.38
421.394	102.38
421.617	102.38
421.839	110.38
422.062	110.38
422.285	161.38
422.507	288.38
422.73	451.38
422.953	424.38
423.175	201.38
423.398	132.38
423.621	101.38
423.843	78.38
424.066	81.38
424.288	84.38
424.511	101.38
424.733	84.38
424.956	82.38
425.178	83.38
425.401	86.38
425.623	85.38
425.846	86.38
426.068	81.38
426.291	73.38
426.513	86.38
426.735	81.38
426.958	99.38
427.18	85.38
427.402	87.38
427.625	93.38
427.847	100.38
428.069	100.38
428.292	124.38
428.514	129.38
428.736	121.38
428.958	140.38
429.181	125.38
429.403	96.38
429.625	91.38
429.847	120.38
430.069	157.38
430.292	175.38
430.514	175.38
430.736	132.38
430.958	131.38
431.18	73.38
431.402	89.38
431.624	100.38
431.846	109.38
432.068	133.38
432.29	96.38
432.512	88.38
432.734	79.38
432.956	75.38
433.178	94.38
433.4	74.38
433.622	73.38
433.844	84.38
434.066	78.38
434.287	88.38
434.509	76.38
434.731	82.38
434.953	78.38
435.175	85.38
435.397	83.38
435.618	108.38
435.84	89.38
436.062	94.38
436.284	87.38
436.505	93.38
436.727	67.38
436.949	80.38
437.17	85.38
437.392	95.38
437.614	83.38
437.835	83.38
438.057	85.38
438.278	77.38
438.5	88.38
438.721	92.38
438.943	80.38
439.165	79.38
439.386	74.38
439.608	82.38
439.829	84.38
440.05	84.38
440.272	80.38
440.493	84.38
440.715	80.38
440.936	81.38
441.158	63.38
441.379	82.38
441.6	84.38
441.822	81.38
442.043	97.38
442.264	92.38
442.486	129.38
442.707	152.38
442.928	113.38
443.149	121.38
443.371	155.38
443.592	247.38
443.813	225.38
444.034	125.38
444.255	101.38
444.476	74.38
444.698	77.38
444.919	89.38
445.14	157.38
445.361	206.38
445.582	301.38
445.803	273.38
446.024	127.38
446.245	96.38
446.466	74.38
446.687	65.38
446.908	70.38
447.129	80.38
447.35	86.38
447.571	87.38
447.792	80.38
448.013	80.38
448.234	82.38
448.455	88.38
448.675	83.38
448.896	76.38
449.117	89.38
449.338	95.38
449.559	71.38
449.779	89.38
450	74.38
450.221	71.38
450.442	78.38
450.662	93.38
450.883	74.38
451.104	85.38
451.324	81.38
451.545	82.38
451.766	88.38
451.986	64.38
452.207	84.38
452.428	96.38
452.648	83.38
452.869	101.38
453.089	82.38
453.31	83.38
453.53	86.38
453.751	94.38
453.971	90.38
454.192	85.38
454.412	74.38
454.633	80.38
454.853	71.38
455.073	69.38
455.294	81.38
455.514	75.38
455.734	79.38
455.955	100.38
456.175	92.38
456.395	92.38
456.616	96.38
456.836	84.38
457.056	74.38
457.276	91.38
457.497	70.38
457.717	81.38
457.937	91.38
458.157	121.38
458.377	97.38
458.598	102.38
458.818	112.38
459.038	97.38
459.258	84.38
459.478	79.38
459.698	92.38
459.918	79.38
460.138	85.38
460.358	96.38
460.578	94.38
460.798	122.38
461.018	117.38
461.238	90.38
461.458	88.38
461.678	84.38
461.898	85.38
462.118	84.38
462.338	96.38
462.558	73.38
462.777	75.38
462.997	90.38
463.217	83.38
463.437	71.38
463.657	81.38
463.876	95.38
464.096	86.38
464.316	74.38
464.536	82.38
464.755	85.38
464.975	79.38
465.195	93.38
465.414	75.38
465.634	92.38
465.854	91.38
466.073	77.38
466.293	66.38
466.512	77.38
466.732	94.38
466.951	94.38
467.171	78.38
467.391	79.38
467.61	84.38
467.829	70.38
468.049	82.38
468.268	78.38
468.488	86.38
468.707	86.38
468.927	87.38
469.146	69.38
469.365	71.38
469.585	77.38
469.804	81.38
470.023	79.38
470.243	71.38
470.462	79.38
470.681	84.38
470.901	87.38
471.12	87.38
471.339	93.38
471.558	74.38
471.777	79.38
471.997	77.38
472.216	102.38
472.435	84.38
472.654	74.38
472.873	77.38
473.092	88.38
473.311	91.38
473.53	93.38
473.749	76.38
473.968	81.38
474.187	80.38
474.406	86.38
474.625	78.38
474.844	90.38
475.063	81.38
475.282	85.38
475.501	81.38
475.72	98.38
475.939	78.38
476.158	93.38
476.377	74.38
476.596	74.38
476.814	80.38
477.033	78.38
477.252	84.38
477.471	75.38
477.69	77.38
477.908	73.38
478.127	92.38
478.346	86.38
478.564	71.38
478.783	92.38
479.002	79.38
479.22	98.38
479.439	79.38
479.658	85.38
479.876	70.38
480.095	80.38
480.313	88.38
480.532	83.38
480.751	85.38
480.969	82.38
481.188	77.38
481.406	93.38
481.624	87.38
481.843	90.38
482.061	75.38
482.28	86.38
482.498	80.38
482.717	96.38
482.935	100.38
483.153	96.38
483.372	87.38
483.59	91.38
483.808	82.38
484.027	81.38
484.245	69.38
484.463	88.38
484.681	87.38
484.9	75.38
485.118	102.38
485.336	95.38
485.554	59.38
485.772	82.38
485.99	89.38
486.209	92.38
486.427	86.38
486.645	96.38
486.863	73.38
487.081	81.38
487.299	99.38
487.517	95.38
487.735	114.38
487.953	139.38
488.171	113.38
488.389	77.38
488.607	85.38
488.825	84.38
489.043	70.38
489.261	87.38
489.479	88.38
489.696	94.38
489.914	78.38
490.132	80.38
490.35	89.38
490.568	81.38
490.786	77.38
491.003	75.38
491.221	77.38
491.439	80.38
491.657	81.38
491.874	82.38
492.092	78.38
492.31	76.38
492.527	85.38
492.745	95.38
492.963	75.38
493.18	74.38
493.398	80.38
493.615	87.38
493.833	86.38
494.05	76.38
494.268	83.38
494.485	96.38
494.703	93.38
494.92	88.38
495.138	87.38
495.355	87.38
495.573	101.38
495.79	93.38
496.008	86.38
496.225	95.38
496.442	88.38
496.66	99.38
496.877	85.38
497.094	80.38
497.312	74.38
497.529	96.38
497.746	80.38
497.963	90.38
498.181	92.38
498.398	84.38
498.615	85.38
498.832	88.38
499.049	94.38
499.267	82.38
499.484	96.38
499.701	80.38
499.918	90.38
500.135	81.38
500.352	87.38
500.569	91.38
500.786	100.38
501.003	85.38
501.22	81.38
501.437	77.38
501.654	78.38
501.871	91.38
502.088	73.38
502.305	80.38
502.522	77.38
502.739	92.38
502.956	90.38
503.172	94.38
503.389	81.38
503.606	78.38
503.823	88.38
504.04	91.38
504.256	126.38
504.473	122.38
504.69	85.38
504.907	80.38
505.123	81.38
505.34	80.38
505.557	77.38
505.773	93.38
505.99	91.38
506.207	88.38
506.423	82.38
506.64	74.38
506.856	81.38
507.073	87.38
507.289	73.38
507.506	92.38
507.722	77.38
507.939	74.38
508.155	86.38
508.372	75.38
508.588	105.38
508.805	91.38
509.021	85.38
509.238	88.38
509.454	83.38
509.67	79.38
509.887	91.38
510.103	91.38
510.319	89.38
510.536	81.38
510.752	91.38
510.968	100.38
511.184	89.38
511.401	90.38
511.617	98.38
511.833	87.38
512.049	92.38
512.265	84.38
512.481	92.38
512.698	77.38
512.914	81.38
513.13	91.38
513.346	91.38
513.562	79.38
513.778	78.38
513.994	70.38
514.21	80.38
514.426	87.38
514.642	100.38
514.858	85.38
515.074	101.38
515.29	79.38
515.506	89.38
515.721	95.38
515.937	79.38
516.153	86.38
516.369	82.38
516.585	83.38
516.801	83.38
517.016	83.38
517.232	88.38
517.448	71.38
517.664	101.38
517.879	91.38
518.095	96.38
518.311	91.38
518.527	102.38
518.742	114.38
