Data from HP_2_HRD10591_00005.txt Node
Date: Mon Jan 19 14:16:03 EST 2026
User: Yrep
Spectrometer: HR+D1059
Trigger mode: 1
Integration Time (sec): 1.000000E-1
Scans to average: 1
Electric dark correction enabled: true
Nonlinearity correction enabled: false
Boxcar width: 0
XAxis mode: Wavelengths
Number of Pixels in Spectrum: 2048
>>>>>Begin Spectral Data<<<<<
223.165	-12.31
223.4	-12.31
223.635	-12.31
223.869	-12.31
224.104	-31.31
224.338	-10.31
224.573	-13.31
224.808	-21.31
225.042	-14.31
225.277	-10.31
225.511	-7.31
225.746	7.69
225.98	4.69
226.215	15.69
226.449	18.69
226.683	20.69
226.918	28.69
227.152	36.69
227.387	49.69
227.621	35.69
227.856	47.69
228.09	47.69
228.324	53.69
228.559	52.69
228.793	59.69
229.027	67.69
229.262	74.69
229.496	84.69
229.73	67.69
229.964	85.69
230.199	77.69
230.433	77.69
230.667	82.69
230.901	74.69
231.136	74.69
231.37	83.69
231.604	67.69
231.838	75.69
232.072	85.69
232.306	79.69
232.541	66.69
232.775	64.69
233.009	76.69
233.243	77.69
233.477	90.69
233.711	93.69
233.945	76.69
234.179	75.69
234.413	79.69
234.647	79.69
234.881	81.69
235.115	84.69
235.349	80.69
235.583	82.69
235.817	72.69
236.051	73.69
236.285	86.69
236.519	82.69
236.753	78.69
236.987	70.69
237.221	65.69
237.455	73.69
237.689	83.69
237.922	71.69
238.156	66.69
238.39	67.69
238.624	82.69
238.858	90.69
239.091	69.69
239.325	81.69
239.559	71.69
239.793	79.69
240.027	80.69
240.26	87.69
240.494	72.69
240.728	77.69
240.961	68.69
241.195	88.69
241.429	71.69
241.662	75.69
241.896	70.69
242.13	84.69
242.363	67.69
242.597	73.69
242.83	81.69
243.064	76.69
243.298	83.69
243.531	77.69
243.765	77.69
243.998	98.69
244.232	70.69
244.465	70.69
244.699	77.69
244.932	73.69
245.166	80.69
245.399	80.69
245.633	75.69
245.866	84.69
246.099	77.69
246.333	80.69
246.566	84.69
246.8	76.69
247.033	69.69
247.266	75.69
247.5	82.69
247.733	73.69
247.966	68.69
248.2	90.69
248.433	61.69
248.666	70.69
248.899	81.69
249.133	85.69
249.366	73.69
249.599	64.69
249.832	77.69
250.066	72.69
250.299	67.69
250.532	69.69
250.765	92.69
250.998	70.69
251.231	76.69
251.465	100.69
251.698	83.69
251.931	85.69
252.164	75.69
252.397	83.69
252.63	84.69
252.863	63.69
253.096	75.69
253.329	90.69
253.562	77.69
253.795	77.69
254.028	89.69
254.261	72.69
254.494	96.69
254.727	69.69
254.96	77.69
255.193	86.69
255.426	67.69
255.659	77.69
255.892	77.69
256.124	71.69
256.357	76.69
256.59	71.69
256.823	71.69
257.056	73.69
257.289	79.69
257.521	70.69
257.754	83.69
257.987	77.69
258.22	74.69
258.452	80.69
258.685	81.69
258.918	92.69
259.151	93.69
259.383	78.69
259.616	83.69
259.849	81.69
260.081	75.69
260.314	82.69
260.547	79.69
260.779	70.69
261.012	93.69
261.244	81.69
261.477	93.69
261.71	83.69
261.942	98.69
262.175	99.69
262.407	77.69
262.64	87.69
262.872	78.69
263.105	84.69
263.337	90.69
263.57	71.69
263.802	77.69
264.035	86.69
264.267	92.69
264.499	97.69
264.732	92.69
264.964	77.69
265.197	83.69
265.429	89.69
265.661	91.69
265.894	76.69
266.126	85.69
266.358	91.69
266.591	82.69
266.823	71.69
267.055	75.69
267.287	83.69
267.52	89.69
267.752	75.69
267.984	82.69
268.216	62.69
268.448	91.69
268.681	92.69
268.913	94.69
269.145	77.69
269.377	85.69
269.609	77.69
269.841	77.69
270.073	89.69
270.306	88.69
270.538	96.69
270.77	89.69
271.002	82.69
271.234	84.69
271.466	83.69
271.698	81.69
271.93	86.69
272.162	82.69
272.394	83.69
272.626	80.69
272.858	80.69
273.09	86.69
273.322	67.69
273.553	75.69
273.785	92.69
274.017	70.69
274.249	93.69
274.481	88.69
274.713	83.69
274.945	71.69
275.176	77.69
275.408	77.69
275.64	92.69
275.872	84.69
276.104	83.69
276.335	88.69
276.567	77.69
276.799	90.69
277.031	87.69
277.262	86.69
277.494	87.69
277.726	83.69
277.957	63.69
278.189	86.69
278.421	83.69
278.652	83.69
278.884	75.69
279.115	74.69
279.347	95.69
279.579	103.69
279.81	92.69
280.042	77.69
280.273	83.69
280.505	85.69
280.736	85.69
280.968	86.69
281.199	80.69
281.431	77.69
281.662	69.69
281.894	91.69
282.125	84.69
282.356	76.69
282.588	91.69
282.819	84.69
283.051	84.69
283.282	90.69
283.513	82.69
283.745	84.69
283.976	85.69
284.207	77.69
284.439	84.69
284.67	93.69
284.901	89.69
285.132	92.69
285.364	93.69
285.595	85.69
285.826	92.69
286.057	94.69
286.288	75.69
286.52	85.69
286.751	94.69
286.982	90.69
287.213	91.69
287.444	82.69
287.675	87.69
287.906	82.69
288.138	76.69
288.369	87.69
288.6	71.69
288.831	104.69
289.062	81.69
289.293	85.69
289.524	83.69
289.755	79.69
289.986	85.69
290.217	93.69
290.448	82.69
290.679	71.69
290.91	89.69
291.141	81.69
291.371	97.69
291.602	81.69
291.833	90.69
292.064	83.69
292.295	99.69
292.526	65.69
292.757	83.69
292.987	91.69
293.218	90.69
293.449	87.69
293.68	89.69
293.91	85.69
294.141	81.69
294.372	95.69
294.603	86.69
294.833	89.69
295.064	91.69
295.295	78.69
295.525	91.69
295.756	87.69
295.987	87.69
296.217	88.69
296.448	90.69
296.679	85.69
296.909	87.69
297.14	102.69
297.37	93.69
297.601	97.69
297.831	87.69
298.062	87.69
298.292	77.69
298.523	88.69
298.753	81.69
298.984	91.69
299.214	101.69
299.445	97.69
299.675	96.69
299.905	97.69
300.136	90.69
300.366	95.69
300.597	86.69
300.827	99.69
301.057	94.69
301.288	92.69
301.518	81.69
301.748	87.69
301.979	95.69
302.209	88.69
302.439	91.69
302.669	82.69
302.9	96.69
303.13	81.69
303.36	91.69
303.59	85.69
303.82	82.69
304.051	90.69
304.281	91.69
304.511	98.69
304.741	101.69
304.971	78.69
305.201	83.69
305.431	76.69
305.661	94.69
305.891	89.69
306.121	97.69
306.352	85.69
306.582	93.69
306.812	86.69
307.042	89.69
307.272	70.69
307.502	89.69
307.731	97.69
307.961	84.69
308.191	93.69
308.421	97.69
308.651	92.69
308.881	98.69
309.111	94.69
309.341	111.69
309.571	99.69
309.8	100.69
310.03	69.69
310.26	89.69
310.49	93.69
310.72	76.69
310.949	70.69
311.179	91.69
311.409	72.69
311.639	77.69
311.868	90.69
312.098	91.69
312.328	90.69
312.557	90.69
312.787	90.69
313.017	89.69
313.246	79.69
313.476	79.69
313.706	93.69
313.935	97.69
314.165	89.69
314.394	91.69
314.624	79.69
314.853	86.69
315.083	83.69
315.312	84.69
315.542	103.69
315.771	99.69
316.001	90.69
316.23	93.69
316.46	89.69
316.689	94.69
316.919	78.69
317.148	96.69
317.377	77.69
317.607	82.69
317.836	81.69
318.065	85.69
318.295	89.69
318.524	91.69
318.753	91.69
318.983	81.69
319.212	75.69
319.441	79.69
319.67	88.69
319.9	78.69
320.129	90.69
320.358	95.69
320.587	83.69
320.816	107.69
321.046	88.69
321.275	87.69
321.504	93.69
321.733	90.69
321.962	90.69
322.191	93.69
322.42	86.69
322.649	101.69
322.878	89.69
323.108	85.69
323.337	81.69
323.566	86.69
323.795	88.69
324.024	76.69
324.253	85.69
324.482	92.69
324.71	87.69
324.939	99.69
325.168	112.69
325.397	85.69
325.626	108.69
325.855	92.69
326.084	86.69
326.313	80.69
326.542	81.69
326.77	91.69
326.999	93.69
327.228	101.69
327.457	81.69
327.686	86.69
327.914	84.69
328.143	95.69
328.372	76.69
328.6	101.69
328.829	81.69
329.058	90.69
329.287	87.69
329.515	87.69
329.744	90.69
329.972	99.69
330.201	90.69
330.43	86.69
330.658	105.69
330.887	93.69
331.115	95.69
331.344	85.69
331.572	87.69
331.801	99.69
332.03	86.69
332.258	80.69
332.486	80.69
332.715	81.69
332.943	85.69
333.172	81.69
333.4	91.69
333.629	82.69
333.857	88.69
334.085	89.69
334.314	93.69
334.542	84.69
334.771	100.69
334.999	108.69
335.227	97.69
335.455	91.69
335.684	98.69
335.912	95.69
336.14	107.69
336.369	91.69
336.597	80.69
336.825	85.69
337.053	86.69
337.281	100.69
337.51	90.69
337.738	84.69
337.966	92.69
338.194	93.69
338.422	96.69
338.65	99.69
338.878	104.69
339.106	83.69
339.334	89.69
339.562	88.69
339.79	85.69
340.018	89.69
340.246	97.69
340.474	83.69
340.702	89.69
340.93	83.69
341.158	84.69
341.386	100.69
341.614	90.69
341.842	86.69
342.07	77.69
342.298	94.69
342.526	85.69
342.754	77.69
342.981	94.69
343.209	89.69
343.437	87.69
343.665	89.69
343.893	95.69
344.12	104.69
344.348	97.69
344.576	92.69
344.804	114.69
345.031	99.69
345.259	78.69
345.487	78.69
345.714	83.69
345.942	81.69
346.17	100.69
346.397	89.69
346.625	103.69
346.853	89.69
347.08	96.69
347.308	86.69
347.535	89.69
347.763	88.69
347.99	93.69
348.218	87.69
348.445	78.69
348.673	96.69
348.9	84.69
349.128	90.69
349.355	77.69
349.583	78.69
349.81	94.69
350.037	93.69
350.265	88.69
350.492	91.69
350.72	81.69
350.947	81.69
351.174	84.69
351.402	89.69
351.629	93.69
351.856	88.69
352.083	89.69
352.311	92.69
352.538	76.69
352.765	96.69
352.992	96.69
353.22	88.69
353.447	69.69
353.674	83.69
353.901	80.69
354.128	91.69
354.355	93.69
354.583	88.69
354.81	99.69
355.037	95.69
355.264	92.69
355.491	79.69
355.718	90.69
355.945	67.69
356.172	81.69
356.399	95.69
356.626	94.69
356.853	95.69
357.08	101.69
357.307	82.69
357.534	93.69
357.761	91.69
357.988	87.69
358.215	89.69
358.441	89.69
358.668	96.69
358.895	87.69
359.122	91.69
359.349	90.69
359.576	91.69
359.802	86.69
360.029	93.69
360.256	98.69
360.483	98.69
360.709	103.69
360.936	90.69
361.163	89.69
361.39	90.69
361.616	104.69
361.843	96.69
362.07	104.69
362.296	97.69
362.523	118.69
362.749	103.69
362.976	120.69
363.203	116.69
363.429	119.69
363.656	103.69
363.882	102.69
364.109	131.69
364.335	139.69
364.562	125.69
364.788	110.69
365.015	115.69
365.241	106.69
365.468	109.69
365.694	87.69
365.92	84.69
366.147	91.69
366.373	92.69
366.599	97.69
366.826	92.69
367.052	93.69
367.278	95.69
367.505	83.69
367.731	100.69
367.957	85.69
368.184	90.69
368.41	72.69
368.636	91.69
368.862	99.69
369.089	95.69
369.315	78.69
369.541	67.69
369.767	99.69
369.993	101.69
370.219	98.69
370.445	101.69
370.672	91.69
370.898	99.69
371.124	92.69
371.35	75.69
371.576	73.69
371.802	100.69
372.028	104.69
372.254	100.69
372.48	100.69
372.706	81.69
372.932	89.69
373.158	84.69
373.384	101.69
373.61	99.69
373.835	102.69
374.061	88.69
374.287	103.69
374.513	99.69
374.739	110.69
374.965	105.69
375.191	91.69
375.416	104.69
375.642	76.69
375.868	82.69
376.094	76.69
376.319	98.69
376.545	85.69
376.771	94.69
376.997	97.69
377.222	96.69
377.448	97.69
377.674	93.69
377.899	89.69
378.125	86.69
378.35	71.69
378.576	88.69
378.802	89.69
379.027	96.69
379.253	86.69
379.478	86.69
379.704	92.69
379.929	83.69
380.155	104.69
380.38	81.69
380.606	81.69
380.831	101.69
381.057	96.69
381.282	86.69
381.507	87.69
381.733	102.69
381.958	104.69
382.184	98.69
382.409	100.69
382.634	111.69
382.86	91.69
383.085	107.69
383.31	87.69
383.535	93.69
383.761	88.69
383.986	103.69
384.211	93.69
384.436	83.69
384.662	84.69
384.887	106.69
385.112	85.69
385.337	73.69
385.562	103.69
385.787	90.69
386.013	96.69
386.238	98.69
386.463	120.69
386.688	110.69
386.913	88.69
387.138	91.69
387.363	118.69
387.588	97.69
387.813	99.69
388.038	105.69
388.263	93.69
388.488	97.69
388.713	115.69
388.938	96.69
389.163	89.69
389.387	95.69
389.612	84.69
389.837	78.69
390.062	104.69
390.287	91.69
390.512	86.69
390.736	91.69
390.961	98.69
391.186	88.69
391.411	100.69
391.636	80.69
391.86	101.69
392.085	92.69
392.31	107.69
392.534	113.69
392.759	122.69
392.984	142.69
393.208	217.69
393.433	315.69
393.658	249.69
393.882	135.69
394.107	119.69
394.331	129.69
394.556	131.69
394.78	114.69
395.005	103.69
395.229	96.69
395.454	106.69
395.678	116.69
395.903	127.69
396.127	155.69
396.352	168.69
396.576	162.69
396.801	227.69
397.025	255.69
397.249	170.69
397.474	136.69
397.698	100.69
397.922	96.69
398.147	93.69
398.371	85.69
398.595	93.69
398.82	90.69
399.044	81.69
399.268	80.69
399.492	93.69
399.717	89.69
399.941	92.69
400.165	83.69
400.389	94.69
400.613	85.69
400.837	75.69
401.062	97.69
401.286	97.69
401.51	95.69
401.734	98.69
401.958	98.69
402.182	85.69
402.406	87.69
402.63	85.69
402.854	101.69
403.078	83.69
403.302	94.69
403.526	105.69
403.75	107.69
403.974	120.69
404.198	159.69
404.422	229.69
404.645	280.69
404.869	227.69
405.093	155.69
405.317	116.69
405.541	96.69
405.765	108.69
405.988	93.69
406.212	95.69
406.436	87.69
406.66	99.69
406.883	91.69
407.107	91.69
407.331	96.69
407.555	101.69
407.778	102.69
408.002	125.69
408.226	99.69
408.449	93.69
408.673	99.69
408.896	93.69
409.12	95.69
409.344	103.69
409.567	104.69
409.791	102.69
410.014	111.69
410.238	93.69
410.461	87.69
410.685	100.69
410.908	97.69
411.132	95.69
411.355	94.69
411.578	88.69
411.802	81.69
412.025	90.69
412.249	102.69
412.472	86.69
412.695	91.69
412.919	75.69
413.142	87.69
413.365	87.69
413.589	93.69
413.812	93.69
414.035	89.69
414.258	86.69
414.482	88.69
414.705	86.69
414.928	87.69
415.151	95.69
415.374	75.69
415.597	74.69
415.821	84.69
416.044	90.69
416.267	97.69
416.49	103.69
416.713	96.69
416.936	83.69
417.159	92.69
417.382	96.69
417.605	101.69
417.828	96.69
418.051	86.69
418.274	99.69
418.497	98.69
418.72	89.69
418.943	107.69
419.166	87.69
419.389	91.69
419.611	90.69
419.834	96.69
420.057	88.69
420.28	83.69
420.503	105.69
420.726	100.69
420.948	88.69
421.171	112.69
421.394	111.69
421.617	122.69
421.839	131.69
422.062	179.69
422.285	242.69
422.507	380.69
422.73	571.69
422.953	514.69
423.175	309.69
423.398	172.69
423.621	141.69
423.843	123.69
424.066	104.69
424.288	118.69
424.511	98.69
424.733	108.69
424.956	99.69
425.178	97.69
425.401	81.69
425.623	87.69
425.846	90.69
426.068	93.69
426.291	103.69
426.513	92.69
426.735	93.69
426.958	75.69
427.18	92.69
427.402	81.69
427.625	90.69
427.847	93.69
428.069	106.69
428.292	151.69
428.514	176.69
428.736	159.69
428.958	149.69
429.181	158.69
429.403	108.69
429.625	119.69
429.847	155.69
430.069	209.69
430.292	248.69
430.514	226.69
430.736	161.69
430.958	177.69
431.18	114.69
431.402	93.69
431.624	132.69
431.846	166.69
432.068	178.69
432.29	111.69
432.512	87.69
432.734	92.69
432.956	77.69
433.178	87.69
433.4	91.69
433.622	87.69
433.844	92.69
434.066	95.69
434.287	67.69
434.509	67.69
434.731	77.69
434.953	79.69
435.175	93.69
435.397	95.69
435.618	85.69
435.84	98.69
436.062	82.69
436.284	77.69
436.505	90.69
436.727	89.69
436.949	88.69
437.17	75.69
437.392	86.69
437.614	87.69
437.835	90.69
438.057	98.69
438.278	84.69
438.5	90.69
438.721	88.69
438.943	81.69
439.165	93.69
439.386	106.69
439.608	93.69
439.829	98.69
440.05	75.69
440.272	95.69
440.493	111.69
440.715	85.69
440.936	94.69
441.158	103.69
441.379	70.69
441.6	76.69
441.822	85.69
442.043	94.69
442.264	111.69
442.486	163.69
442.707	233.69
442.928	161.69
443.149	123.69
443.371	211.69
443.592	329.69
443.813	298.69
444.034	134.69
444.255	91.69
444.476	99.69
444.698	107.69
444.919	113.69
445.14	228.69
445.361	269.69
445.582	421.69
445.803	333.69
446.024	148.69
446.245	113.69
446.466	97.69
446.687	97.69
446.908	97.69
447.129	84.69
447.35	93.69
447.571	101.69
447.792	95.69
448.013	82.69
448.234	83.69
448.455	98.69
448.675	86.69
448.896	87.69
449.117	99.69
449.338	76.69
449.559	100.69
449.779	100.69
450	74.69
450.221	87.69
450.442	88.69
450.662	94.69
450.883	94.69
451.104	95.69
451.324	88.69
451.545	85.69
451.766	76.69
451.986	97.69
452.207	101.69
452.428	95.69
452.648	89.69
452.869	99.69
453.089	114.69
453.31	98.69
453.53	84.69
453.751	85.69
453.971	87.69
454.192	83.69
454.412	97.69
454.633	88.69
454.853	76.69
455.073	86.69
455.294	76.69
455.514	87.69
455.734	87.69
455.955	86.69
456.175	90.69
456.395	82.69
456.616	88.69
456.836	95.69
457.056	93.69
457.276	98.69
457.497	83.69
457.717	93.69
457.937	113.69
458.157	121.69
458.377	137.69
458.598	98.69
458.818	134.69
459.038	111.69
459.258	77.69
459.478	91.69
459.698	97.69
459.918	74.69
460.138	94.69
460.358	98.69
460.578	112.69
460.798	151.69
461.018	155.69
461.238	97.69
461.458	90.69
461.678	99.69
461.898	72.69
462.118	91.69
462.338	91.69
462.558	82.69
462.777	94.69
462.997	80.69
463.217	76.69
463.437	79.69
463.657	83.69
463.876	82.69
464.096	91.69
464.316	77.69
464.536	86.69
464.755	99.69
464.975	97.69
465.195	102.69
465.414	97.69
465.634	93.69
465.854	78.69
466.073	85.69
466.293	85.69
466.512	93.69
466.732	83.69
466.951	81.69
467.171	94.69
467.391	94.69
467.61	87.69
467.829	84.69
468.049	90.69
468.268	101.69
468.488	83.69
468.707	79.69
468.927	83.69
469.146	88.69
469.365	101.69
469.585	84.69
469.804	99.69
470.023	103.69
470.243	86.69
470.462	90.69
470.681	102.69
470.901	82.69
471.12	87.69
471.339	96.69
471.558	92.69
471.777	95.69
471.997	99.69
472.216	82.69
472.435	87.69
472.654	87.69
472.873	103.69
473.092	83.69
473.311	95.69
473.53	105.69
473.749	110.69
473.968	93.69
474.187	106.69
474.406	92.69
474.625	77.69
474.844	95.69
475.063	95.69
475.282	86.69
475.501	92.69
475.72	89.69
475.939	104.69
476.158	88.69
476.377	90.69
476.596	89.69
476.814	90.69
477.033	97.69
477.252	90.69
477.471	85.69
477.69	71.69
477.908	77.69
478.127	95.69
478.346	78.69
478.564	99.69
478.783	91.69
479.002	91.69
479.22	88.69
479.439	98.69
479.658	101.69
479.876	101.69
480.095	99.69
480.313	83.69
480.532	89.69
480.751	89.69
480.969	93.69
481.188	108.69
481.406	97.69
481.624	99.69
481.843	81.69
482.061	77.69
482.28	89.69
482.498	101.69
482.717	92.69
482.935	86.69
483.153	91.69
483.372	117.69
483.59	92.69
483.808	99.69
484.027	83.69
484.245	86.69
484.463	92.69
484.681	103.69
484.9	87.69
485.118	88.69
485.336	93.69
485.554	86.69
485.772	96.69
485.99	93.69
486.209	98.69
486.427	96.69
486.645	91.69
486.863	95.69
487.081	82.69
487.299	100.69
487.517	111.69
487.735	123.69
487.953	156.69
488.171	171.69
488.389	93.69
488.607	93.69
488.825	102.69
489.043	99.69
489.261	95.69
489.479	92.69
489.696	85.69
489.914	83.69
490.132	98.69
490.35	95.69
490.568	97.69
490.786	102.69
491.003	83.69
491.221	93.69
491.439	98.69
491.657	91.69
491.874	92.69
492.092	95.69
492.31	99.69
492.527	102.69
492.745	85.69
492.963	89.69
493.18	82.69
493.398	87.69
493.615	100.69
493.833	100.69
494.05	100.69
494.268	72.69
494.485	71.69
494.703	82.69
494.92	88.69
495.138	96.69
495.355	100.69
495.573	102.69
495.79	98.69
496.008	107.69
496.225	100.69
496.442	106.69
496.66	89.69
496.877	91.69
497.094	95.69
497.312	98.69
497.529	95.69
497.746	103.69
497.963	93.69
498.181	96.69
498.398	102.69
498.615	89.69
498.832	83.69
499.049	107.69
499.267	106.69
499.484	106.69
499.701	83.69
499.918	104.69
500.135	100.69
500.352	90.69
500.569	96.69
500.786	94.69
501.003	109.69
501.22	90.69
501.437	91.69
501.654	100.69
501.871	87.69
502.088	86.69
502.305	90.69
502.522	91.69
502.739	104.69
502.956	83.69
503.172	95.69
503.389	88.69
503.606	91.69
503.823	106.69
504.04	120.69
504.256	145.69
504.473	149.69
504.69	111.69
504.907	111.69
505.123	104.69
505.34	91.69
505.557	106.69
505.773	109.69
505.99	95.69
506.207	87.69
506.423	85.69
506.64	111.69
506.856	92.69
507.073	98.69
507.289	83.69
507.506	97.69
507.722	85.69
507.939	87.69
508.155	83.69
508.372	107.69
508.588	81.69
508.805	106.69
509.021	99.69
509.238	96.69
509.454	89.69
509.67	89.69
509.887	91.69
510.103	92.69
510.319	93.69
510.536	92.69
510.752	89.69
510.968	95.69
511.184	91.69
511.401	109.69
511.617	98.69
511.833	114.69
512.049	84.69
512.265	98.69
512.481	96.69
512.698	94.69
512.914	95.69
513.13	102.69
513.346	103.69
513.562	98.69
513.778	93.69
513.994	96.69
514.21	91.69
514.426	85.69
514.642	88.69
514.858	102.69
515.074	99.69
515.29	84.69
515.506	89.69
515.721	102.69
515.937	95.69
516.153	93.69
516.369	87.69
516.585	85.69
