Data from HP_2_HRD10591_00025.txt Node
Date: Mon Jan 19 14:16:13 EST 2026
User: Yrep
Spectrometer: HR+D1059
Trigger mode: 1
Integration Time (sec): 1.000000E-1
Scans to average: 1
Electric dark correction enabled: true
Nonlinearity correction enabled: false
Boxcar width: 0
XAxis mode: Wavelengths
Number of Pixels in Spectrum: 2048
>>>>>Begin Spectral Data<<<<<
223.165	-12.31
223.4	-12.31
223.635	-12.31
223.869	-4.31
224.104	-8.31
224.338	-13.31
224.573	-23.31
224.808	-26.31
225.042	-9.31
225.277	-14.31
225.511	-4.31
225.746	-6.31
225.98	23.69
226.215	6.69
226.449	24.69
226.683	10.69
226.918	24.69
227.152	31.69
227.387	54.69
227.621	44.69
227.856	47.69
228.09	68.69
228.324	40.69
228.559	68.69
228.793	59.69
229.027	65.69
229.262	72.69
229.496	81.69
229.73	52.69
229.964	71.69
230.199	75.69
230.433	82.69
230.667	87.69
230.901	79.69
231.136	80.69
231.37	83.69
231.604	78.69
231.838	88.69
232.072	88.69
232.306	84.69
232.541	73.69
232.775	73.69
233.009	94.69
233.243	82.69
233.477	95.69
233.711	85.69
233.945	86.69
234.179	99.69
234.413	80.69
234.647	74.69
234.881	78.69
235.115	83.69
235.349	71.69
235.583	73.69
235.817	57.69
236.051	82.69
236.285	73.69
236.519	60.69
236.753	97.69
236.987	81.69
237.221	79.69
237.455	73.69
237.689	66.69
237.922	76.69
238.156	76.69
238.39	72.69
238.624	77.69
238.858	68.69
239.091	63.69
239.325	70.69
239.559	85.69
239.793	88.69
240.027	84.69
240.26	88.69
240.494	80.69
240.728	78.69
240.961	83.69
241.195	91.69
241.429	77.69
241.662	74.69
241.896	72.69
242.13	69.69
242.363	72.69
242.597	67.69
242.83	74.69
243.064	70.69
243.298	69.69
243.531	79.69
243.765	76.69
243.998	73.69
244.232	80.69
244.465	77.69
244.699	63.69
244.932	78.69
245.166	79.69
245.399	74.69
245.633	88.69
245.866	85.69
246.099	82.69
246.333	85.69
246.566	81.69
246.8	75.69
247.033	87.69
247.266	79.69
247.5	84.69
247.733	73.69
247.966	73.69
248.2	73.69
248.433	96.69
248.666	83.69
248.899	81.69
249.133	64.69
249.366	81.69
249.599	67.69
249.832	75.69
250.066	84.69
250.299	71.69
250.532	93.69
250.765	85.69
250.998	90.69
251.231	79.69
251.465	91.69
251.698	75.69
251.931	76.69
252.164	78.69
252.397	74.69
252.63	62.69
252.863	69.69
253.096	76.69
253.329	74.69
253.562	75.69
253.795	91.69
254.028	77.69
254.261	85.69
254.494	78.69
254.727	85.69
254.96	88.69
255.193	75.69
255.426	83.69
255.659	79.69
255.892	92.69
256.124	83.69
256.357	70.69
256.59	86.69
256.823	74.69
257.056	86.69
257.289	79.69
257.521	76.69
257.754	89.69
257.987	73.69
258.22	93.69
258.452	84.69
258.685	83.69
258.918	92.69
259.151	77.69
259.383	93.69
259.616	67.69
259.849	76.69
260.081	75.69
260.314	74.69
260.547	70.69
260.779	76.69
261.012	89.69
261.244	78.69
261.477	78.69
261.71	81.69
261.942	81.69
262.175	88.69
262.407	92.69
262.64	66.69
262.872	92.69
263.105	88.69
263.337	82.69
263.57	94.69
263.802	75.69
264.035	86.69
264.267	65.69
264.499	85.69
264.732	85.69
264.964	78.69
265.197	77.69
265.429	85.69
265.661	89.69
265.894	90.69
266.126	86.69
266.358	78.69
266.591	94.69
266.823	95.69
267.055	82.69
267.287	76.69
267.52	83.69
267.752	83.69
267.984	75.69
268.216	85.69
268.448	83.69
268.681	76.69
268.913	85.69
269.145	82.69
269.377	90.69
269.609	82.69
269.841	83.69
270.073	93.69
270.306	69.69
270.538	77.69
270.77	92.69
271.002	98.69
271.234	79.69
271.466	80.69
271.698	79.69
271.93	86.69
272.162	87.69
272.394	63.69
272.626	85.69
272.858	77.69
273.09	80.69
273.322	82.69
273.553	87.69
273.785	93.69
274.017	83.69
274.249	89.69
274.481	90.69
274.713	87.69
274.945	78.69
275.176	101.69
275.408	62.69
275.64	97.69
275.872	85.69
276.104	81.69
276.335	91.69
276.567	79.69
276.799	89.69
277.031	78.69
277.262	83.69
277.494	102.69
277.726	87.69
277.957	81.69
278.189	78.69
278.421	78.69
278.652	94.69
278.884	69.69
279.115	78.69
279.347	94.69
279.579	98.69
279.81	89.69
280.042	93.69
280.273	80.69
280.505	87.69
280.736	83.69
280.968	85.69
281.199	84.69
281.431	92.69
281.662	85.69
281.894	77.69
282.125	77.69
282.356	90.69
282.588	91.69
282.819	90.69
283.051	89.69
283.282	85.69
283.513	91.69
283.745	91.69
283.976	72.69
284.207	85.69
284.439	78.69
284.67	93.69
284.901	85.69
285.132	83.69
285.364	83.69
285.595	93.69
285.826	80.69
286.057	97.69
286.288	76.69
286.52	90.69
286.751	96.69
286.982	82.69
287.213	71.69
287.444	74.69
287.675	83.69
287.906	84.69
288.138	95.69
288.369	79.69
288.6	84.69
288.831	78.69
289.062	88.69
289.293	82.69
289.524	87.69
289.755	95.69
289.986	96.69
290.217	71.69
290.448	78.69
290.679	92.69
290.91	84.69
291.141	81.69
291.371	89.69
291.602	94.69
291.833	90.69
292.064	84.69
292.295	84.69
292.526	95.69
292.757	78.69
292.987	87.69
293.218	78.69
293.449	86.69
293.68	80.69
293.91	84.69
294.141	97.69
294.372	93.69
294.603	91.69
294.833	91.69
295.064	89.69
295.295	74.69
295.525	79.69
295.756	95.69
295.987	74.69
296.217	85.69
296.448	91.69
296.679	84.69
296.909	89.69
297.14	101.69
297.37	98.69
297.601	88.69
297.831	90.69
298.062	79.69
298.292	85.69
298.523	84.69
298.753	71.69
298.984	82.69
299.214	89.69
299.445	89.69
299.675	92.69
299.905	86.69
300.136	89.69
300.366	95.69
300.597	79.69
300.827	87.69
301.057	89.69
301.288	93.69
301.518	93.69
301.748	106.69
301.979	94.69
302.209	91.69
302.439	90.69
302.669	82.69
302.9	87.69
303.13	101.69
303.36	83.69
303.59	87.69
303.82	99.69
304.051	103.69
304.281	75.69
304.511	98.69
304.741	96.69
304.971	84.69
305.201	91.69
305.431	80.69
305.661	77.69
305.891	90.69
306.121	93.69
306.352	69.69
306.582	85.69
306.812	90.69
307.042	78.69
307.272	102.69
307.502	86.69
307.731	98.69
307.961	88.69
308.191	101.69
308.421	88.69
308.651	85.69
308.881	95.69
309.111	80.69
309.341	88.69
309.571	89.69
309.8	96.69
310.03	101.69
310.26	88.69
310.49	92.69
310.72	82.69
310.949	82.69
311.179	84.69
311.409	76.69
311.639	73.69
311.868	75.69
312.098	93.69
312.328	83.69
312.557	82.69
312.787	92.69
313.017	96.69
313.246	80.69
313.476	93.69
313.706	90.69
313.935	89.69
314.165	98.69
314.394	103.69
314.624	81.69
314.853	91.69
315.083	74.69
315.312	84.69
315.542	87.69
315.771	70.69
316.001	85.69
316.23	91.69
316.46	86.69
316.689	84.69
316.919	82.69
317.148	102.69
317.377	104.69
317.607	104.69
317.836	89.69
318.065	95.69
318.295	81.69
318.524	83.69
318.753	85.69
318.983	86.69
319.212	89.69
319.441	86.69
319.67	92.69
319.9	82.69
320.129	90.69
320.358	87.69
320.587	104.69
320.816	96.69
321.046	80.69
321.275	78.69
321.504	97.69
321.733	97.69
321.962	87.69
322.191	94.69
322.42	74.69
322.649	79.69
322.878	86.69
323.108	95.69
323.337	85.69
323.566	73.69
323.795	93.69
324.024	95.69
324.253	82.69
324.482	88.69
324.71	76.69
324.939	85.69
325.168	83.69
325.397	106.69
325.626	87.69
325.855	87.69
326.084	81.69
326.313	79.69
326.542	69.69
326.77	95.69
326.999	87.69
327.228	82.69
327.457	78.69
327.686	83.69
327.914	97.69
328.143	90.69
328.372	92.69
328.6	86.69
328.829	86.69
329.058	86.69
329.287	83.69
329.515	88.69
329.744	77.69
329.972	90.69
330.201	84.69
330.43	98.69
330.658	86.69
330.887	87.69
331.115	98.69
331.344	86.69
331.572	85.69
331.801	90.69
332.03	81.69
332.258	79.69
332.486	76.69
332.715	79.69
332.943	78.69
333.172	88.69
333.4	95.69
333.629	94.69
333.857	84.69
334.085	90.69
334.314	83.69
334.542	84.69
334.771	74.69
334.999	95.69
335.227	89.69
335.455	89.69
335.684	84.69
335.912	98.69
336.14	77.69
336.369	73.69
336.597	86.69
336.825	89.69
337.053	103.69
337.281	85.69
337.51	82.69
337.738	93.69
337.966	94.69
338.194	90.69
338.422	76.69
338.65	87.69
338.878	94.69
339.106	89.69
339.334	89.69
339.562	78.69
339.79	85.69
340.018	94.69
340.246	85.69
340.474	86.69
340.702	74.69
340.93	77.69
341.158	95.69
341.386	86.69
341.614	71.69
341.842	85.69
342.07	77.69
342.298	83.69
342.526	81.69
342.754	88.69
342.981	86.69
343.209	76.69
343.437	109.69
343.665	91.69
343.893	92.69
344.12	93.69
344.348	67.69
344.576	91.69
344.804	95.69
345.031	97.69
345.259	83.69
345.487	92.69
345.714	92.69
345.942	81.69
346.17	87.69
346.397	78.69
346.625	80.69
346.853	85.69
347.08	81.69
347.308	92.69
347.535	83.69
347.763	83.69
347.99	99.69
348.218	82.69
348.445	94.69
348.673	100.69
348.9	95.69
349.128	67.69
349.355	85.69
349.583	97.69
349.81	85.69
350.037	91.69
350.265	83.69
350.492	89.69
350.72	85.69
350.947	93.69
351.174	83.69
351.402	79.69
351.629	80.69
351.856	75.69
352.083	83.69
352.311	81.69
352.538	85.69
352.765	85.69
352.992	90.69
353.22	75.69
353.447	74.69
353.674	87.69
353.901	89.69
354.128	83.69
354.355	97.69
354.583	82.69
354.81	80.69
355.037	77.69
355.264	87.69
355.491	77.69
355.718	77.69
355.945	71.69
356.172	75.69
356.399	97.69
356.626	82.69
356.853	95.69
357.08	84.69
357.307	78.69
357.534	89.69
357.761	95.69
357.988	101.69
358.215	98.69
358.441	92.69
358.668	80.69
358.895	92.69
359.122	86.69
359.349	73.69
359.576	81.69
359.802	79.69
360.029	82.69
360.256	79.69
360.483	91.69
360.709	86.69
360.936	103.69
361.163	106.69
361.39	86.69
361.616	81.69
361.843	90.69
362.07	101.69
362.296	85.69
362.523	98.69
362.749	81.69
362.976	96.69
363.203	90.69
363.429	105.69
363.656	81.69
363.882	92.69
364.109	95.69
364.335	126.69
364.562	92.69
364.788	97.69
365.015	94.69
365.241	87.69
365.468	90.69
365.694	85.69
365.92	87.69
366.147	76.69
366.373	93.69
366.599	86.69
366.826	100.69
367.052	91.69
367.278	79.69
367.505	83.69
367.731	98.69
367.957	80.69
368.184	69.69
368.41	77.69
368.636	94.69
368.862	86.69
369.089	80.69
369.315	73.69
369.541	86.69
369.767	86.69
369.993	84.69
370.219	85.69
370.445	98.69
370.672	77.69
370.898	94.69
371.124	98.69
371.35	94.69
371.576	85.69
371.802	89.69
372.028	77.69
372.254	83.69
372.48	90.69
372.706	87.69
372.932	100.69
373.158	92.69
373.384	94.69
373.61	90.69
373.835	96.69
374.061	98.69
374.287	99.69
374.513	99.69
374.739	89.69
374.965	68.69
375.191	91.69
375.416	80.69
375.642	74.69
375.868	85.69
376.094	73.69
376.319	88.69
376.545	89.69
376.771	105.69
376.997	86.69
377.222	87.69
377.448	82.69
377.674	81.69
377.899	81.69
378.125	74.69
378.35	91.69
378.576	87.69
378.802	88.69
379.027	103.69
379.253	91.69
379.478	94.69
379.704	79.69
379.929	93.69
380.155	81.69
380.38	84.69
380.606	71.69
380.831	85.69
381.057	98.69
381.282	85.69
381.507	89.69
381.733	68.69
381.958	89.69
382.184	84.69
382.409	93.69
382.634	103.69
382.86	82.69
383.085	89.69
383.31	94.69
383.535	90.69
383.761	89.69
383.986	87.69
384.211	78.69
384.436	84.69
384.662	87.69
384.887	82.69
385.112	86.69
385.337	77.69
385.562	79.69
385.787	79.69
386.013	107.69
386.238	99.69
386.463	87.69
386.688	99.69
386.913	87.69
387.138	87.69
387.363	83.69
387.588	80.69
387.813	94.69
388.038	101.69
388.263	87.69
388.488	93.69
388.713	77.69
388.938	84.69
389.163	89.69
389.387	86.69
389.612	85.69
389.837	94.69
390.062	91.69
390.287	85.69
390.512	82.69
390.736	74.69
390.961	83.69
391.186	93.69
391.411	83.69
391.636	80.69
391.86	86.69
392.085	90.69
392.31	93.69
392.534	91.69
392.759	87.69
392.984	106.69
393.208	135.69
393.433	171.69
393.658	138.69
393.882	100.69
394.107	93.69
394.331	93.69
394.556	94.69
394.78	93.69
395.005	94.69
395.229	88.69
395.454	87.69
395.678	98.69
395.903	104.69
396.127	101.69
396.352	104.69
396.576	114.69
396.801	136.69
397.025	142.69
397.249	105.69
397.474	93.69
397.698	97.69
397.922	89.69
398.147	82.69
398.371	89.69
398.595	87.69
398.82	79.69
399.044	88.69
399.268	87.69
399.492	98.69
399.717	81.69
399.941	85.69
400.165	86.69
400.389	84.69
400.613	85.69
400.837	95.69
401.062	90.69
401.286	85.69
401.51	93.69
401.734	81.69
401.958	85.69
402.182	94.69
402.406	92.69
402.63	87.69
402.854	101.69
403.078	75.69
403.302	85.69
403.526	79.69
403.75	84.69
403.974	91.69
404.198	84.69
404.422	85.69
404.645	126.69
404.869	105.69
405.093	83.69
405.317	93.69
405.541	87.69
405.765	93.69
405.988	101.69
406.212	80.69
406.436	83.69
406.66	75.69
406.883	87.69
407.107	97.69
407.331	96.69
407.555	84.69
407.778	89.69
408.002	97.69
408.226	73.69
408.449	85.69
408.673	83.69
408.896	82.69
409.12	79.69
409.344	82.69
409.567	86.69
409.791	83.69
410.014	92.69
410.238	88.69
410.461	90.69
410.685	103.69
410.908	94.69
411.132	95.69
411.355	92.69
411.578	83.69
411.802	79.69
412.025	80.69
412.249	98.69
412.472	83.69
412.695	82.69
412.919	94.69
413.142	93.69
413.365	87.69
413.589	84.69
413.812	79.69
414.035	83.69
414.258	83.69
414.482	78.69
414.705	81.69
414.928	83.69
415.151	99.69
415.374	83.69
415.597	88.69
415.821	73.69
416.044	72.69
416.267	92.69
416.49	78.69
416.713	77.69
416.936	87.69
417.159	102.69
417.382	83.69
417.605	91.69
417.828	79.69
418.051	86.69
418.274	87.69
418.497	90.69
418.72	93.69
418.943	77.69
419.166	92.69
419.389	77.69
419.611	83.69
419.834	90.69
420.057	91.69
420.28	73.69
420.503	101.69
420.726	83.69
420.948	89.69
421.171	85.69
421.394	84.69
421.617	107.69
421.839	88.69
422.062	97.69
422.285	116.69
422.507	162.69
422.73	213.69
422.953	184.69
423.175	135.69
423.398	97.69
423.621	102.69
423.843	92.69
424.066	106.69
424.288	103.69
424.511	75.69
424.733	91.69
424.956	97.69
425.178	83.69
425.401	84.69
425.623	87.69
425.846	93.69
426.068	89.69
426.291	93.69
426.513	72.69
426.735	85.69
426.958	83.69
427.18	86.69
427.402	94.69
427.625	93.69
427.847	97.69
428.069	100.69
428.292	103.69
428.514	101.69
428.736	79.69
428.958	97.69
429.181	99.69
429.403	85.69
429.625	105.69
429.847	94.69
430.069	110.69
430.292	131.69
430.514	124.69
430.736	95.69
430.958	96.69
431.18	82.69
431.402	86.69
431.624	101.69
431.846	106.69
432.068	107.69
432.29	84.69
432.512	85.69
432.734	97.69
432.956	106.69
433.178	92.69
433.4	85.69
433.622	85.69
433.844	87.69
434.066	93.69
434.287	87.69
434.509	93.69
434.731	87.69
434.953	68.69
435.175	77.69
435.397	86.69
435.618	82.69
435.84	94.69
436.062	93.69
436.284	90.69
436.505	83.69
436.727	87.69
436.949	88.69
437.17	90.69
437.392	79.69
437.614	89.69
437.835	90.69
438.057	80.69
438.278	93.69
438.5	83.69
438.721	83.69
438.943	83.69
439.165	90.69
439.386	89.69
439.608	103.69
439.829	77.69
440.05	86.69
440.272	87.69
440.493	90.69
440.715	94.69
440.936	86.69
441.158	92.69
441.379	78.69
441.6	87.69
441.822	85.69
442.043	86.69
442.264	108.69
442.486	106.69
442.707	108.69
442.928	93.69
443.149	83.69
443.371	102.69
443.592	127.69
443.813	126.69
444.034	96.69
444.255	92.69
444.476	79.69
444.698	106.69
444.919	82.69
445.14	147.69
445.361	143.69
445.582	182.69
445.803	141.69
446.024	95.69
446.245	100.69
446.466	87.69
446.687	87.69
446.908	85.69
447.129	88.69
447.35	77.69
447.571	81.69
447.792	85.69
448.013	89.69
448.234	87.69
448.455	83.69
448.675	86.69
448.896	86.69
449.117	75.69
449.338	88.69
449.559	76.69
449.779	86.69
450	81.69
450.221	78.69
450.442	94.69
450.662	90.69
450.883	76.69
451.104	80.69
451.324	85.69
451.545	87.69
451.766	79.69
451.986	81.69
452.207	85.69
452.428	86.69
452.648	79.69
452.869	87.69
453.089	82.69
453.31	99.69
453.53	73.69
453.751	87.69
453.971	88.69
454.192	91.69
454.412	75.69
454.633	85.69
454.853	85.69
455.073	88.69
455.294	80.69
455.514	85.69
455.734	99.69
455.955	88.69
456.175	65.69
456.395	87.69
456.616	95.69
456.836	92.69
457.056	94.69
457.276	95.69
457.497	92.69
457.717	100.69
457.937	92.69
458.157	94.69
458.377	93.69
458.598	80.69
458.818	96.69
459.038	79.69
459.258	84.69
459.478	88.69
459.698	74.69
459.918	83.69
460.138	78.69
460.358	76.69
460.578	94.69
460.798	100.69
461.018	100.69
461.238	67.69
461.458	81.69
461.678	68.69
461.898	83.69
462.118	81.69
462.338	100.69
462.558	91.69
462.777	91.69
462.997	94.69
463.217	92.69
463.437	91.69
463.657	89.69
463.876	78.69
464.096	82.69
464.316	77.69
464.536	95.69
464.755	71.69
464.975	80.69
465.195	81.69
465.414	74.69
465.634	90.69
465.854	89.69
466.073	88.69
466.293	89.69
466.512	84.69
466.732	80.69
466.951	84.69
467.171	85.69
467.391	92.69
467.61	78.69
467.829	99.69
468.049	86.69
468.268	87.69
468.488	89.69
468.707	75.69
468.927	73.69
469.146	86.69
469.365	82.69
469.585	85.69
469.804	85.69
470.023	78.69
470.243	86.69
470.462	76.69
470.681	94.69
470.901	87.69
471.12	93.69
471.339	86.69
471.558	86.69
471.777	85.69
471.997	95.69
472.216	105.69
472.435	83.69
472.654	87.69
472.873	85.69
473.092	85.69
473.311	88.69
473.53	79.69
473.749	99.69
473.968	86.69
474.187	85.69
474.406	69.69
474.625	84.69
474.844	89.69
475.063	90.69
475.282	93.69
475.501	81.69
475.72	99.69
475.939	86.69
476.158	82.69
476.377	92.69
476.596	91.69
476.814	81.69
477.033	89.69
477.252	85.69
477.471	86.69
477.69	91.69
477.908	84.69
478.127	105.69
478.346	77.69
478.564	81.69
478.783	90.69
479.002	85.69
479.22	91.69
479.439	87.69
479.658	68.69
479.876	95.69
480.095	97.69
480.313	78.69
480.532	97.69
480.751	93.69
480.969	69.69
481.188	87.69
481.406	94.69
481.624	82.69
481.843	98.69
482.061	81.69
482.28	78.69
482.498	85.69
482.717	89.69
482.935	80.69
483.153	83.69
483.372	102.69
483.59	89.69
483.808	77.69
484.027	80.69
484.245	73.69
484.463	74.69
484.681	84.69
484.9	94.69
485.118	89.69
485.336	83.69
485.554	83.69
485.772	83.69
485.99	75.69
486.209	82.69
486.427	88.69
486.645	95.69
486.863	90.69
487.081	90.69
487.299	84.69
487.517	83.69
487.735	102.69
487.953	132.69
488.171	119.69
488.389	91.69
488.607	77.69
488.825	74.69
489.043	95.69
489.261	81.69
489.479	89.69
489.696	93.69
489.914	84.69
490.132	85.69
490.35	100.69
490.568	85.69
490.786	79.69
491.003	88.69
491.221	77.69
491.439	83.69
491.657	80.69
491.874	82.69
492.092	92.69
492.31	89.69
492.527	87.69
492.745	85.69
492.963	99.69
493.18	95.69
493.398	77.69
493.615	93.69
493.833	76.69
494.05	85.69
494.268	83.69
494.485	87.69
494.703	99.69
494.92	92.69
495.138	92.69
495.355	92.69
495.573	81.69
495.79	84.69
496.008	89.69
496.225	89.69
496.442	93.69
496.66	98.69
496.877	94.69
497.094	87.69
497.312	83.69
497.529	79.69
497.746	85.69
497.963	81.69
498.181	106.69
498.398	107.69
498.615	80.69
498.832	89.69
499.049	78.69
499.267	89.69
499.484	73.69
499.701	95.69
499.918	95.69
500.135	87.69
500.352	99.69
500.569	99.69
500.786	88.69
501.003	86.69
501.22	85.69
501.437	89.69
501.654	83.69
501.871	90.69
502.088	96.69
502.305	96.69
502.522	88.69
502.739	100.69
502.956	82.69
503.172	86.69
503.389	77.69
503.606	85.69
503.823	94.69
504.04	95.69
504.256	103.69
504.473	105.69
504.69	83.69
504.907	83.69
505.123	95.69
505.34	90.69
505.557	88.69
505.773	92.69
505.99	101.69
506.207	88.69
506.423	101.69
506.64	93.69
506.856	88.69
507.073	82.69
507.289	89.69
507.506	69.69
507.722	80.69
507.939	79.69
508.155	78.69
508.372	82.69
508.588	84.69
508.805	80.69
509.021	94.69
509.238	88.69
509.454	86.69
509.67	92.69
509.887	93.69
510.103	88.69
510.319	83.69
510.536	88.69
510.752	80.69
510.968	82.69
511.184	86.69
511.401	92.69
511.617	88.69
511.833	77.69
512.049	81.69
512.265	98.69
512.481	84.69
512.698	100.69
512.914	88.69
513.13	103.69
513.346	79.69
513.562	96.69
513.778	88.69
513.994	80.69
514.21	96.69
514.426	86.69
514.642	91.69
514.858	86.69
515.074	75.69
515.29	99.69
515.506	87.69
515.721	94.69
515.937	92.69
516.153	87.69
516.369	89.69
516.585	86.69
516.801	86.69
517.016	79.69
517.232	87.69
517.448	95.69
517.664	86.69
517.879	83.69
518.095	85.69
518.311	96.69
518.527	100.69
518.742	97.69
